Data from Circ_2004_H10_HRD10591_00036.txt Node
Date: Wed Jan 03 10:33:21 EST 2024
User: Yrep
Spectrometer: HR+D1059
Trigger mode: 1
Integration Time (sec): 1.000000E-1
Scans to average: 1
Electric dark correction enabled: true
Nonlinearity correction enabled: false
Boxcar width: 0
XAxis mode: Wavelengths
Number of Pixels in Spectrum: 2048
>>>>>Begin Spectral Data<<<<<
223.165	-3.69
223.4	-3.69
223.635	-3.69
223.869	-16.69
224.104	-32.69
224.338	-1.69
224.573	-14.69
224.808	-5.69
225.042	-12.69
225.277	-11.69
225.511	-1.69
225.746	-13.69
225.98	27.31
226.215	20.31
226.449	6.31
226.683	11.31
226.918	18.31
227.152	31.31
227.387	42.31
227.621	45.31
227.856	49.31
228.09	43.31
228.324	50.31
228.559	53.31
228.793	58.31
229.027	65.31
229.262	64.31
229.496	77.31
229.73	91.31
229.964	68.31
230.199	70.31
230.433	69.31
230.667	86.31
230.901	77.31
231.136	75.31
231.37	76.31
231.604	74.31
231.838	82.31
232.072	82.31
232.306	91.31
232.541	87.31
232.775	86.31
233.009	83.31
233.243	70.31
233.477	71.31
233.711	79.31
233.945	83.31
234.179	79.31
234.413	81.31
234.647	86.31
234.881	84.31
235.115	79.31
235.349	75.31
235.583	70.31
235.817	75.31
236.051	83.31
236.285	79.31
236.519	90.31
236.753	71.31
236.987	74.31
237.221	89.31
237.455	81.31
237.689	79.31
237.922	79.31
238.156	75.31
238.39	89.31
238.624	86.31
238.858	89.31
239.091	90.31
239.325	85.31
239.559	82.31
239.793	87.31
240.027	74.31
240.26	71.31
240.494	63.31
240.728	73.31
240.961	87.31
241.195	74.31
241.429	71.31
241.662	66.31
241.896	85.31
242.13	68.31
242.363	78.31
242.597	77.31
242.83	87.31
243.064	81.31
243.298	80.31
243.531	78.31
243.765	65.31
243.998	76.31
244.232	94.31
244.465	69.31
244.699	89.31
244.932	72.31
245.166	83.31
245.399	81.31
245.633	83.31
245.866	82.31
246.099	85.31
246.333	73.31
246.566	66.31
246.8	77.31
247.033	75.31
247.266	54.31
247.5	79.31
247.733	86.31
247.966	97.31
248.2	83.31
248.433	87.31
248.666	69.31
248.899	77.31
249.133	78.31
249.366	87.31
249.599	98.31
249.832	89.31
250.066	67.31
250.299	72.31
250.532	81.31
250.765	84.31
250.998	90.31
251.231	79.31
251.465	82.31
251.698	78.31
251.931	87.31
252.164	90.31
252.397	89.31
252.63	85.31
252.863	87.31
253.096	78.31
253.329	86.31
253.562	70.31
253.795	83.31
254.028	75.31
254.261	69.31
254.494	89.31
254.727	82.31
254.96	83.31
255.193	78.31
255.426	94.31
255.659	68.31
255.892	70.31
256.124	88.31
256.357	89.31
256.59	83.31
256.823	78.31
257.056	80.31
257.289	71.31
257.521	87.31
257.754	82.31
257.987	88.31
258.22	88.31
258.452	87.31
258.685	99.31
258.918	75.31
259.151	77.31
259.383	82.31
259.616	83.31
259.849	83.31
260.081	82.31
260.314	84.31
260.547	77.31
260.779	87.31
261.012	95.31
261.244	98.31
261.477	97.31
261.71	82.31
261.942	110.31
262.175	104.31
262.407	87.31
262.64	84.31
262.872	84.31
263.105	88.31
263.337	101.31
263.57	85.31
263.802	77.31
264.035	71.31
264.267	81.31
264.499	71.31
264.732	82.31
264.964	92.31
265.197	95.31
265.429	84.31
265.661	61.31
265.894	73.31
266.126	93.31
266.358	87.31
266.591	77.31
266.823	88.31
267.055	76.31
267.287	93.31
267.52	79.31
267.752	86.31
267.984	91.31
268.216	80.31
268.448	90.31
268.681	79.31
268.913	80.31
269.145	80.31
269.377	94.31
269.609	86.31
269.841	74.31
270.073	62.31
270.306	82.31
270.538	75.31
270.77	77.31
271.002	79.31
271.234	75.31
271.466	81.31
271.698	90.31
271.93	81.31
272.162	83.31
272.394	92.31
272.626	93.31
272.858	85.31
273.09	96.31
273.322	79.31
273.553	97.31
273.785	83.31
274.017	80.31
274.249	90.31
274.481	88.31
274.713	77.31
274.945	81.31
275.176	77.31
275.408	87.31
275.64	89.31
275.872	86.31
276.104	79.31
276.335	82.31
276.567	83.31
276.799	116.31
277.031	109.31
277.262	94.31
277.494	104.31
277.726	87.31
277.957	78.31
278.189	75.31
278.421	77.31
278.652	86.31
278.884	88.31
279.115	76.31
279.347	80.31
279.579	84.31
279.81	81.31
280.042	96.31
280.273	103.31
280.505	96.31
280.736	89.31
280.968	77.31
281.199	89.31
281.431	102.31
281.662	86.31
281.894	88.31
282.125	95.31
282.356	111.31
282.588	132.31
282.819	91.31
283.051	83.31
283.282	96.31
283.513	76.31
283.745	94.31
283.976	88.31
284.207	89.31
284.439	78.31
284.67	81.31
284.901	89.31
285.132	83.31
285.364	85.31
285.595	75.31
285.826	89.31
286.057	73.31
286.288	86.31
286.52	94.31
286.751	87.31
286.982	87.31
287.213	83.31
287.444	86.31
287.675	93.31
287.906	87.31
288.138	82.31
288.369	100.31
288.6	91.31
288.831	90.31
289.062	84.31
289.293	78.31
289.524	94.31
289.755	69.31
289.986	93.31
290.217	86.31
290.448	77.31
290.679	80.31
290.91	90.31
291.141	80.31
291.371	99.31
291.602	101.31
291.833	80.31
292.064	83.31
292.295	83.31
292.526	90.31
292.757	86.31
292.987	84.31
293.218	89.31
293.449	98.31
293.68	86.31
293.91	88.31
294.141	96.31
294.372	77.31
294.603	87.31
294.833	91.31
295.064	74.31
295.295	89.31
295.525	91.31
295.756	90.31
295.987	111.31
296.217	116.31
296.448	111.31
296.679	91.31
296.909	103.31
297.14	97.31
297.37	101.31
297.601	100.31
297.831	85.31
298.062	81.31
298.292	79.31
298.523	81.31
298.753	85.31
298.984	86.31
299.214	91.31
299.445	83.31
299.675	69.31
299.905	79.31
300.136	101.31
300.366	88.31
300.597	94.31
300.827	99.31
301.057	108.31
301.288	94.31
301.518	82.31
301.748	97.31
301.979	105.31
302.209	97.31
302.439	88.31
302.669	100.31
302.9	91.31
303.13	85.31
303.36	89.31
303.59	96.31
303.82	109.31
304.051	93.31
304.281	103.31
304.511	80.31
304.741	89.31
304.971	91.31
305.201	90.31
305.431	98.31
305.661	106.31
305.891	103.31
306.121	97.31
306.352	103.31
306.582	90.31
306.812	96.31
307.042	93.31
307.272	108.31
307.502	110.31
307.731	97.31
307.961	104.31
308.191	90.31
308.421	94.31
308.651	103.31
308.881	94.31
309.111	91.31
309.341	95.31
309.571	95.31
309.8	97.31
310.03	87.31
310.26	96.31
310.49	93.31
310.72	87.31
310.949	97.31
311.179	85.31
311.409	98.31
311.639	106.31
311.868	78.31
312.098	94.31
312.328	93.31
312.557	105.31
312.787	117.31
313.017	96.31
313.246	89.31
313.476	87.31
313.706	82.31
313.935	85.31
314.165	87.31
314.394	101.31
314.624	94.31
314.853	110.31
315.083	92.31
315.312	94.31
315.542	89.31
315.771	82.31
316.001	85.31
316.23	98.31
316.46	85.31
316.689	98.31
316.919	96.31
317.148	91.31
317.377	98.31
317.607	89.31
317.836	79.31
318.065	111.31
318.295	100.31
318.524	90.31
318.753	94.31
318.983	86.31
319.212	99.31
319.441	101.31
319.67	117.31
319.9	99.31
320.129	91.31
320.358	94.31
320.587	102.31
320.816	96.31
321.046	98.31
321.275	93.31
321.504	86.31
321.733	93.31
321.962	85.31
322.191	73.31
322.42	90.31
322.649	118.31
322.878	109.31
323.108	109.31
323.337	103.31
323.566	129.31
323.795	140.31
324.024	197.31
324.253	386.31
324.482	789.31
324.71	1546.31
324.939	2041.31
325.168	738.31
325.397	235.31
325.626	133.31
325.855	118.31
326.084	135.31
326.313	129.31
326.542	149.31
326.77	216.31
326.999	431.31
327.228	842.31
327.457	1561.31
327.686	1249.31
327.914	351.31
328.143	213.31
328.372	204.31
328.6	141.31
328.829	109.31
329.058	124.31
329.287	106.31
329.515	122.31
329.744	126.31
329.972	133.31
330.201	226.31
330.43	279.31
330.658	193.31
330.887	134.31
331.115	107.31
331.344	89.31
331.572	99.31
331.801	97.31
332.03	97.31
332.258	91.31
332.486	96.31
332.715	89.31
332.943	97.31
333.172	91.31
333.4	104.31
333.629	114.31
333.857	113.31
334.085	167.31
334.314	219.31
334.542	344.31
334.771	313.31
334.999	144.31
335.227	102.31
335.455	97.31
335.684	100.31
335.912	106.31
336.14	90.31
336.369	100.31
336.597	88.31
336.825	85.31
337.053	96.31
337.281	103.31
337.51	85.31
337.738	97.31
337.966	102.31
338.194	95.31
338.422	87.31
338.65	88.31
338.878	93.31
339.106	91.31
339.334	106.31
339.562	91.31
339.79	91.31
340.018	96.31
340.246	91.31
340.474	80.31
340.702	89.31
340.93	94.31
341.158	105.31
341.386	96.31
341.614	97.31
341.842	98.31
342.07	83.31
342.298	93.31
342.526	98.31
342.754	80.31
342.981	78.31
343.209	77.31
343.437	88.31
343.665	97.31
343.893	90.31
344.12	82.31
344.348	87.31
344.576	94.31
344.804	90.31
345.031	103.31
345.259	95.31
345.487	95.31
345.714	102.31
345.942	85.31
346.17	81.31
346.397	96.31
346.625	87.31
346.853	90.31
347.08	95.31
347.308	99.31
347.535	97.31
347.763	95.31
347.99	88.31
348.218	106.31
348.445	105.31
348.673	104.31
348.9	104.31
349.128	97.31
349.355	94.31
349.583	90.31
349.81	86.31
350.037	96.31
350.265	105.31
350.492	96.31
350.72	98.31
350.947	98.31
351.174	105.31
351.402	104.31
351.629	98.31
351.856	117.31
352.083	91.31
352.311	86.31
352.538	90.31
352.765	99.31
352.992	115.31
353.22	101.31
353.447	107.31
353.674	98.31
353.901	103.31
354.128	94.31
354.355	92.31
354.583	98.31
354.81	110.31
355.037	104.31
355.264	104.31
355.491	90.31
355.718	81.31
355.945	96.31
356.172	83.31
356.399	94.31
356.626	81.31
356.853	77.31
357.08	90.31
357.307	83.31
357.534	88.31
357.761	101.31
357.988	95.31
358.215	93.31
358.441	90.31
358.668	90.31
358.895	82.31
359.122	99.31
359.349	84.31
359.576	94.31
359.802	100.31
360.029	86.31
360.256	103.31
360.483	101.31
360.709	100.31
360.936	82.31
361.163	95.31
361.39	104.31
361.616	102.31
361.843	103.31
362.07	110.31
362.296	94.31
362.523	93.31
362.749	88.31
362.976	90.31
363.203	94.31
363.429	95.31
363.656	89.31
363.882	87.31
364.109	89.31
364.335	87.31
364.562	86.31
364.788	103.31
365.015	95.31
365.241	107.31
365.468	99.31
365.694	114.31
365.92	103.31
366.147	86.31
366.373	94.31
366.599	99.31
366.826	87.31
367.052	83.31
367.278	90.31
367.505	97.31
367.731	86.31
367.957	91.31
368.184	99.31
368.41	96.31
368.636	95.31
368.862	127.31
369.089	94.31
369.315	81.31
369.541	76.31
369.767	89.31
369.993	85.31
370.219	95.31
370.445	92.31
370.672	91.31
370.898	95.31
371.124	98.31
371.35	77.31
371.576	95.31
371.802	72.31
372.028	97.31
372.254	97.31
372.48	91.31
372.706	83.31
372.932	83.31
373.158	84.31
373.384	97.31
373.61	80.31
373.835	94.31
374.061	90.31
374.287	75.31
374.513	84.31
374.739	96.31
374.965	106.31
375.191	86.31
375.416	96.31
375.642	99.31
375.868	86.31
376.094	82.31
376.319	95.31
376.545	81.31
376.771	85.31
376.997	97.31
377.222	98.31
377.448	105.31
377.674	98.31
377.899	89.31
378.125	105.31
378.35	114.31
378.576	91.31
378.802	101.31
379.027	83.31
379.253	76.31
379.478	80.31
379.704	83.31
379.929	92.31
380.155	104.31
380.38	89.31
380.606	96.31
380.831	102.31
381.057	93.31
381.282	89.31
381.507	108.31
381.733	101.31
381.958	95.31
382.184	84.31
382.409	115.31
382.634	89.31
382.86	104.31
383.085	112.31
383.31	93.31
383.535	101.31
383.761	96.31
383.986	100.31
384.211	103.31
384.436	112.31
384.662	89.31
384.887	98.31
385.112	95.31
385.337	99.31
385.562	91.31
385.787	107.31
386.013	116.31
386.238	116.31
386.463	114.31
386.688	128.31
386.913	101.31
387.138	114.31
387.363	94.31
387.588	102.31
387.813	103.31
388.038	111.31
388.263	99.31
388.488	112.31
388.713	87.31
388.938	110.31
389.163	98.31
389.387	108.31
389.612	86.31
389.837	86.31
390.062	99.31
390.287	84.31
390.512	91.31
390.736	92.31
390.961	89.31
391.186	96.31
391.411	106.31
391.636	94.31
391.86	102.31
392.085	93.31
392.31	80.31
392.534	94.31
392.759	95.31
392.984	85.31
393.208	80.31
393.433	93.31
393.658	93.31
393.882	99.31
394.107	95.31
394.331	86.31
394.556	91.31
394.78	83.31
395.005	95.31
395.229	83.31
395.454	77.31
395.678	84.31
395.903	86.31
396.127	93.31
396.352	103.31
396.576	81.31
396.801	96.31
397.025	84.31
397.249	88.31
397.474	94.31
397.698	89.31
397.922	85.31
398.147	74.31
398.371	67.31
398.595	96.31
398.82	87.31
399.044	81.31
399.268	88.31
399.492	98.31
399.717	82.31
399.941	101.31
400.165	93.31
400.389	97.31
400.613	103.31
400.837	81.31
401.062	82.31
401.286	89.31
401.51	83.31
401.734	81.31
401.958	97.31
402.182	110.31
402.406	133.31
402.63	99.31
402.854	91.31
403.078	80.31
403.302	94.31
403.526	71.31
403.75	81.31
403.974	78.31
404.198	98.31
404.422	98.31
404.645	81.31
404.869	99.31
405.093	96.31
405.317	110.31
405.541	121.31
405.765	95.31
405.988	127.31
406.212	158.31
406.436	199.31
406.66	131.31
406.883	103.31
407.107	101.31
407.331	75.31
407.555	90.31
407.778	102.31
408.002	85.31
408.226	87.31
408.449	74.31
408.673	74.31
408.896	96.31
409.12	91.31
409.344	102.31
409.567	99.31
409.791	105.31
410.014	101.31
410.238	94.31
410.461	93.31
410.685	96.31
410.908	93.31
411.132	103.31
411.355	90.31
411.578	95.31
411.802	93.31
412.025	90.31
412.249	82.31
412.472	88.31
412.695	121.31
412.919	91.31
413.142	81.31
413.365	81.31
413.589	78.31
413.812	91.31
414.035	90.31
414.258	75.31
414.482	98.31
414.705	94.31
414.928	91.31
415.151	106.31
415.374	98.31
415.597	98.31
415.821	82.31
416.044	94.31
416.267	90.31
416.49	95.31
416.713	85.31
416.936	93.31
417.159	87.31
417.382	93.31
417.605	90.31
417.828	95.31
418.051	95.31
418.274	97.31
418.497	84.31
418.72	83.31
418.943	82.31
419.166	94.31
419.389	91.31
419.611	85.31
419.834	95.31
420.057	86.31
420.28	76.31
420.503	83.31
420.726	85.31
420.948	91.31
421.171	99.31
421.394	98.31
421.617	87.31
421.839	88.31
422.062	77.31
422.285	80.31
422.507	82.31
422.73	103.31
422.953	97.31
423.175	85.31
423.398	80.31
423.621	85.31
423.843	86.31
424.066	78.31
424.288	96.31
424.511	87.31
424.733	96.31
424.956	121.31
425.178	90.31
425.401	99.31
425.623	94.31
425.846	80.31
426.068	79.31
426.291	98.31
426.513	97.31
426.735	94.31
426.958	92.31
427.18	90.31
427.402	107.31
427.625	159.31
427.847	142.31
428.069	129.31
428.292	99.31
428.514	84.31
428.736	101.31
428.958	80.31
429.181	88.31
429.403	88.31
429.625	85.31
429.847	97.31
430.069	97.31
430.292	92.31
430.514	77.31
430.736	91.31
430.958	95.31
431.18	90.31
431.402	83.31
431.624	98.31
431.846	87.31
432.068	84.31
432.29	86.31
432.512	74.31
432.734	97.31
432.956	89.31
433.178	104.31
433.4	108.31
433.622	95.31
433.844	101.31
434.066	86.31
434.287	84.31
434.509	94.31
434.731	87.31
434.953	84.31
435.175	91.31
435.397	88.31
435.618	99.31
435.84	96.31
436.062	127.31
436.284	99.31
436.505	101.31
436.727	94.31
436.949	93.31
437.17	85.31
437.392	83.31
437.614	98.31
437.835	97.31
438.057	117.31
438.278	87.31
438.5	102.31
438.721	109.31
438.943	96.31
439.165	101.31
439.386	91.31
439.608	101.31
439.829	109.31
440.05	110.31
440.272	132.31
440.493	89.31
440.715	85.31
440.936	102.31
441.158	85.31
441.379	98.31
441.6	109.31
441.822	98.31
442.043	93.31
442.264	91.31
442.486	91.31
442.707	95.31
442.928	107.31
443.149	126.31
443.371	107.31
443.592	109.31
443.813	109.31
444.034	105.31
444.255	93.31
444.476	96.31
444.698	76.31
444.919	78.31
445.14	136.31
445.361	125.31
445.582	116.31
445.803	118.31
446.024	123.31
446.245	134.31
446.466	101.31
446.687	89.31
446.908	72.31
447.129	97.31
447.35	96.31
447.571	100.31
447.792	91.31
448.013	85.31
448.234	92.31
448.455	85.31
448.675	104.31
448.896	102.31
449.117	102.31
449.338	89.31
449.559	117.31
449.779	131.31
450	86.31
450.221	93.31
450.442	103.31
450.662	92.31
450.883	90.31
451.104	97.31
451.324	104.31
451.545	88.31
451.766	98.31
451.986	79.31
452.207	85.31
452.428	83.31
452.648	104.31
452.869	100.31
453.089	107.31
453.31	115.31
453.53	96.31
453.751	91.31
453.971	96.31
454.192	107.31
454.412	80.31
454.633	77.31
454.853	81.31
455.073	77.31
455.294	82.31
455.514	97.31
455.734	91.31
455.955	101.31
456.175	92.31
456.395	86.31
456.616	84.31
456.836	90.31
457.056	75.31
457.276	109.31
457.497	97.31
457.717	84.31
457.937	93.31
458.157	94.31
458.377	74.31
458.598	100.31
458.818	135.31
459.038	137.31
459.258	107.31
459.478	99.31
459.698	89.31
459.918	93.31
460.138	81.31
460.358	88.31
460.578	103.31
460.798	86.31
461.018	90.31
461.238	82.31
461.458	87.31
461.678	86.31
461.898	82.31
462.118	87.31
462.338	77.31
462.558	98.31
462.777	93.31
462.997	89.31
463.217	86.31
463.437	84.31
463.657	71.31
463.876	94.31
464.096	105.31
464.316	86.31
464.536	85.31
464.755	96.31
464.975	109.31
465.195	125.31
465.414	136.31
465.634	91.31
465.854	98.31
466.073	88.31
466.293	90.31
466.512	82.31
466.732	85.31
466.951	81.31
467.171	98.31
467.391	109.31
467.61	92.31
467.829	96.31
468.049	158.31
468.268	194.31
468.488	99.31
468.707	87.31
468.927	92.31
469.146	91.31
469.365	87.31
469.585	83.31
469.804	85.31
470.023	94.31
470.243	90.31
470.462	95.31
470.681	101.31
470.901	82.31
471.12	81.31
471.339	89.31
471.558	87.31
471.777	96.31
471.997	113.31
472.216	243.31
472.435	469.31
472.654	153.31
472.873	89.31
473.092	104.31
473.311	88.31
473.53	82.31
473.749	85.31
473.968	97.31
474.187	86.31
474.406	104.31
474.625	92.31
474.844	88.31
475.063	73.31
475.282	79.31
475.501	94.31
475.72	101.31
475.939	81.31
476.158	87.31
476.377	87.31
476.596	90.31
476.814	89.31
477.033	107.31
477.252	86.31
477.471	81.31
477.69	91.31
477.908	78.31
478.127	88.31
478.346	105.31
478.564	91.31
478.783	105.31
479.002	101.31
479.22	86.31
479.439	106.31
479.658	102.31
479.876	99.31
480.095	94.31
480.313	94.31
480.532	91.31
480.751	125.31
480.969	254.31
481.188	779.31
481.406	468.31
481.624	117.31
481.843	107.31
482.061	95.31
482.28	99.31
482.498	75.31
482.717	102.31
482.935	100.31
483.153	88.31
483.372	83.31
483.59	95.31
483.808	87.31
484.027	78.31
484.245	97.31
484.463	84.31
484.681	96.31
484.9	88.31
485.118	89.31
485.336	100.31
485.554	103.31
485.772	97.31
485.99	93.31
486.209	109.31
486.427	109.31
486.645	116.31
486.863	123.31
487.081	94.31
487.299	98.31
487.517	105.31
487.735	93.31
487.953	82.31
488.171	99.31
488.389	102.31
488.607	100.31
488.825	81.31
489.043	91.31
489.261	93.31
489.479	82.31
489.696	85.31
489.914	86.31
490.132	88.31
490.35	94.31
490.568	81.31
490.786	96.31
491.003	88.31
491.221	80.31
491.439	90.31
491.657	108.31
491.874	78.31
492.092	98.31
492.31	87.31
492.527	81.31
492.745	84.31
492.963	82.31
493.18	87.31
493.398	81.31
493.615	95.31
493.833	88.31
494.05	86.31
494.268	95.31
494.485	86.31
494.703	80.31
494.92	85.31
495.138	94.31
495.355	95.31
495.573	101.31
495.79	94.31
496.008	94.31
496.225	86.31
496.442	94.31
496.66	95.31
496.877	96.31
497.094	93.31
497.312	90.31
497.529	102.31
497.746	89.31
497.963	86.31
498.181	88.31
498.398	93.31
498.615	102.31
498.832	91.31
499.049	99.31
499.267	82.31
499.484	91.31
499.701	96.31
499.918	89.31
500.135	82.31
500.352	81.31
500.569	89.31
500.786	91.31
501.003	88.31
501.22	86.31
501.437	94.31
501.654	102.31
501.871	100.31
502.088	88.31
502.305	87.31
502.522	89.31
502.739	85.31
502.956	97.31
503.172	104.31
503.389	102.31
503.606	88.31
503.823	92.31
504.04	82.31
504.256	87.31
504.473	87.31
504.69	100.31
504.907	93.31
505.123	98.31
505.34	91.31
505.557	81.31
505.773	90.31
505.99	94.31
506.207	94.31
506.423	80.31
506.64	95.31
506.856	101.31
507.073	88.31
507.289	89.31
507.506	96.31
507.722	108.31
507.939	96.31
508.155	91.31
508.372	96.31
508.588	104.31
508.805	91.31
509.021	106.31
509.238	79.31
509.454	107.31
509.67	90.31
509.887	113.31
510.103	124.31
510.319	190.31
510.536	652.31
510.752	1876.31
510.968	575.31
511.184	149.31
511.401	99.31
511.617	100.31
511.833	81.31
512.049	85.31
512.265	87.31
512.481	83.31
512.698	103.31
512.914	95.31
513.13	91.31
513.346	90.31
513.562	82.31
513.778	102.31
513.994	100.31
514.21	96.31
514.426	113.31
514.642	131.31
514.858	119.31
515.074	159.31
515.29	385.31
515.506	1227.31
515.721	458.31
