Data from Circ_2004_H10_HRD10591_00013.txt Node
Date: Wed Jan 03 10:33:16 EST 2024
User: Yrep
Spectrometer: HR+D1059
Trigger mode: 1
Integration Time (sec): 1.000000E-1
Scans to average: 1
Electric dark correction enabled: true
Nonlinearity correction enabled: false
Boxcar width: 0
XAxis mode: Wavelengths
Number of Pixels in Spectrum: 2048
>>>>>Begin Spectral Data<<<<<
223.165	-13
223.4	-13
223.635	-13
223.869	-14
224.104	-5
224.338	-14
224.573	-3
224.808	-9
225.042	-13
225.277	-13
225.511	-3
225.746	17
225.98	5
226.215	16
226.449	11
226.683	12
226.918	5
227.152	21
227.387	30
227.621	35
227.856	41
228.09	38
228.324	46
228.559	41
228.793	158
229.027	411
229.262	490
229.496	576
229.73	762
229.964	775
230.199	528
230.433	471
230.667	478
230.901	429
231.136	431
231.37	437
231.604	449
231.838	453
232.072	472
232.306	453
232.541	454
232.775	482
233.009	461
233.243	479
233.477	486
233.711	497
233.945	482
234.179	531
234.413	513
234.647	499
234.881	509
235.115	531
235.349	530
235.583	546
235.817	559
236.051	580
236.285	594
236.519	579
236.753	679
236.987	881
237.221	1307
237.455	1428
237.689	862
237.922	726
238.156	706
238.39	680
238.624	651
238.858	629
239.091	655
239.325	653
239.559	690
239.793	683
240.027	743
240.26	881
240.494	959
240.728	920
240.961	872
241.195	789
241.429	775
241.662	771
241.896	778
242.13	783
242.363	779
242.597	821
242.83	840
243.064	841
243.298	842
243.531	870
243.765	847
243.998	859
244.232	865
244.465	904
244.699	904
244.932	937
245.166	883
245.399	904
245.633	915
245.866	888
246.099	923
246.333	928
246.566	948
246.8	983
247.033	987
247.266	1038
247.5	1102
247.733	1162
247.966	1127
248.2	1136
248.433	1155
248.666	1243
248.899	1358
249.133	1380
249.366	1446
249.599	1350
249.832	1338
250.066	1429
250.299	1762
250.532	2142
250.765	2150
250.998	2011
251.231	1757
251.465	1572
251.698	1491
251.931	1439
252.164	1393
252.397	1438
252.63	1440
252.863	1521
253.096	1661
253.329	1687
253.562	1619
253.795	1539
254.028	1585
254.261	1665
254.494	1798
254.727	2115
254.96	2190
255.193	2013
255.426	1952
255.659	2147
255.892	2854
256.124	3655
256.357	3118
256.59	2394
256.823	1989
257.056	1825
257.289	1725
257.521	1699
257.754	1659
257.987	1624
258.22	1598
258.452	1617
258.685	1602
258.918	1626
259.151	1642
259.383	1682
259.616	1689
259.849	1799
260.081	1868
260.314	2042
260.547	1943
260.779	1797
261.012	1759
261.244	1745
261.477	1689
261.71	1679
261.942	1742
262.175	1776
262.407	1743
262.64	1650
262.872	1657
263.105	1653
263.337	1649
263.57	1663
263.802	1715
264.035	1660
264.267	1688
264.499	1654
264.732	1722
264.964	1691
265.197	1737
265.429	1708
265.661	1734
265.894	1731
266.126	1788
266.358	1779
266.591	1805
266.823	1871
267.055	1870
267.287	1850
267.52	1816
267.752	1851
267.984	1856
268.216	1951
268.448	1952
268.681	1981
268.913	2098
269.145	2279
269.377	2317
269.609	2195
269.841	2215
270.073	2305
270.306	2547
270.538	2713
270.77	2530
271.002	2435
271.234	2392
271.466	2564
271.698	2653
271.93	2624
272.162	2649
272.394	2546
272.626	2425
272.858	2362
273.09	2315
273.322	2224
273.553	2275
273.785	2249
274.017	2245
274.249	2234
274.481	2249
274.713	2273
274.945	2309
275.176	2327
275.408	2355
275.64	2315
275.872	2359
276.104	2388
276.335	2384
276.567	2508
276.799	2670
277.031	2920
277.262	2992
277.494	2879
277.726	2685
277.957	2561
278.189	2521
278.421	2470
278.652	2469
278.884	2493
279.115	2464
279.347	2493
279.579	2441
279.81	2523
280.042	2542
280.273	2635
280.505	2656
280.736	2545
280.968	2579
281.199	2563
281.431	2569
281.662	2543
281.894	2533
282.125	2551
282.356	2755
282.588	2829
282.819	2657
283.051	2613
283.282	2632
283.513	2625
283.745	2641
283.976	2718
284.207	2673
284.439	2643
284.67	2601
284.901	2670
285.132	2701
285.364	2672
285.595	2674
285.826	2651
286.057	2693
286.288	2737
286.52	2760
286.751	2784
286.982	2765
287.213	2759
287.444	2755
287.675	2865
287.906	2902
288.138	2969
288.369	2927
288.6	2946
288.831	2853
289.062	2922
289.293	2880
289.524	2841
289.755	2849
289.986	2841
290.217	2830
290.448	2830
290.679	2875
290.91	2850
291.141	2900
291.371	2809
291.602	2870
291.833	2858
292.064	2832
292.295	2813
292.526	2900
292.757	2834
292.987	2805
293.218	2835
293.449	2863
293.68	2842
293.91	2839
294.141	2843
294.372	2833
294.603	2890
294.833	2865
295.064	2951
295.295	2889
295.525	2884
295.756	2957
295.987	3017
296.217	3238
296.448	3145
296.679	3027
296.909	2988
297.14	3029
297.37	3080
297.601	3091
297.831	3055
298.062	3084
298.292	3060
298.523	3063
298.753	3150
298.984	3057
299.214	3152
299.445	3088
299.675	3122
299.905	3186
300.136	3162
300.366	3167
300.597	3227
300.827	3315
301.057	3376
301.288	3373
301.518	3300
301.748	3387
301.979	3421
302.209	3466
302.439	3426
302.669	3391
302.9	3364
303.13	3318
303.36	3441
303.59	3429
303.82	3466
304.051	3455
304.281	3412
304.511	3306
304.741	3297
304.971	3277
305.201	3293
305.431	3329
305.661	3295
305.891	3339
306.121	3318
306.352	3351
306.582	3353
306.812	3267
307.042	3343
307.272	3331
307.502	3391
307.731	3407
307.961	3366
308.191	3333
308.421	3369
308.651	3319
308.881	3399
309.111	3351
309.341	3363
309.571	3526
309.8	3501
310.03	3584
310.26	3665
310.49	3577
310.72	3672
310.949	3851
311.179	3792
311.409	3650
311.639	3668
311.868	3687
312.098	3688
312.328	3830
312.557	3935
312.787	3921
313.017	3845
313.246	3873
313.476	3733
313.706	3817
313.935	3880
314.165	3956
314.394	3948
314.624	3926
314.853	3825
315.083	3800
315.312	3718
315.542	3759
315.771	3693
316.001	3672
316.23	3738
316.46	3673
316.689	3762
316.919	3797
317.148	3881
317.377	3846
317.607	3741
317.836	3769
318.065	3688
318.295	3707
318.524	3746
318.753	3699
318.983	3703
319.212	3722
319.441	3751
319.67	3821
319.9	3783
320.129	3733
320.358	3818
320.587	3803
320.816	3879
321.046	3921
321.275	3893
321.504	3866
321.733	3902
321.962	4009
322.191	4074
322.42	4198
322.649	4228
322.878	4335
323.108	4375
323.337	4696
323.566	4803
323.795	5112
324.024	5635
324.253	7275
324.482	10774
324.71	15044
324.939	15611
325.168	12833
325.397	6711
325.626	5412
325.855	5062
326.084	4975
326.313	5019
326.542	5126
326.77	5770
326.999	7204
327.228	10385
327.457	14307
327.686	13726
327.914	8175
328.143	7119
328.372	7061
328.6	6335
328.829	5859
329.058	6048
329.287	6055
329.515	5970
329.744	6219
329.972	7154
330.201	8498
330.43	9406
330.658	7760
330.887	6856
331.115	6067
331.344	5541
331.572	5398
331.801	5554
332.03	5472
332.258	5455
332.486	5450
332.715	5593
332.943	5803
333.172	6079
333.4	6425
333.629	6808
333.857	7401
334.085	8249
334.314	9921
334.542	11598
334.771	10903
334.999	7730
335.227	6509
335.455	6017
335.684	5686
335.912	5553
336.14	5390
336.369	5267
336.597	5290
336.825	5262
337.053	5088
337.281	5045
337.51	4900
337.738	4917
337.966	4819
338.194	4838
338.422	4718
338.65	4699
338.878	4664
339.106	4651
339.334	4579
339.562	4547
339.79	4456
340.018	4453
340.246	4474
340.474	4558
340.702	4470
340.93	4479
341.158	4425
341.386	4459
341.614	4526
341.842	4435
342.07	4439
342.298	4353
342.526	4374
342.754	4326
342.981	4375
343.209	4427
343.437	4633
343.665	4980
343.893	5183
344.12	5162
344.348	5009
344.576	4808
344.804	4787
345.031	4706
345.259	4627
345.487	4523
345.714	4368
345.942	4329
346.17	4249
346.397	4242
346.625	4278
346.853	4241
347.08	4165
347.308	4294
347.535	4361
347.763	4345
347.99	4249
348.218	4315
348.445	4357
348.673	4259
348.9	4239
349.128	4117
349.355	4138
349.583	4101
349.81	4129
350.037	4072
350.265	4103
350.492	4122
350.72	4109
350.947	4157
351.174	4238
351.402	4275
351.629	4189
351.856	4241
352.083	4266
352.311	4249
352.538	4278
352.765	4285
352.992	4171
353.22	4141
353.447	4163
353.674	4047
353.901	4024
354.128	4031
354.355	4014
354.583	3987
354.81	3981
355.037	3949
355.264	3988
355.491	4011
355.718	3998
355.945	4005
356.172	4027
356.399	3978
356.626	3988
356.853	4029
357.08	3993
357.307	3998
357.534	4015
357.761	3990
357.988	4021
358.215	4016
358.441	4078
358.668	4059
358.895	4111
359.122	4114
359.349	4203
359.576	4233
359.802	4525
360.029	4577
360.256	4618
360.483	4417
360.709	4221
360.936	4141
361.163	4177
361.39	4257
361.616	4201
361.843	4235
362.07	4248
362.296	4211
362.523	4206
362.749	4190
362.976	4158
363.203	4098
363.429	4114
363.656	4117
363.882	4130
364.109	4064
364.335	4019
364.562	4048
364.788	4087
365.015	4069
365.241	4070
365.468	4099
365.694	4141
365.92	4128
366.147	4126
366.373	4114
366.599	4083
366.826	4085
367.052	4049
367.278	4123
367.505	4112
367.731	4106
367.957	4074
368.184	4135
368.41	4221
368.636	4283
368.862	4248
369.089	4240
369.315	4151
369.541	4193
369.767	4224
369.993	4165
370.219	4266
370.445	4278
370.672	4291
370.898	4302
371.124	4325
371.35	4311
371.576	4334
371.802	4298
372.028	4326
372.254	4294
372.48	4377
372.706	4435
372.932	4478
373.158	4458
373.384	4367
373.61	4315
373.835	4349
374.061	4350
374.287	4437
374.513	4483
374.739	4643
374.965	4758
375.191	4737
375.416	4667
375.642	4535
375.868	4579
376.094	4474
376.319	4368
376.545	4349
376.771	4371
376.997	4329
377.222	4390
377.448	4299
377.674	4261
377.899	4315
378.125	4277
378.35	4304
378.576	4238
378.802	4286
379.027	4309
379.253	4320
379.478	4247
379.704	4287
379.929	4357
380.155	4279
380.38	4321
380.606	4361
380.831	4322
381.057	4355
381.282	4298
381.507	4357
381.733	4382
381.958	4422
382.184	4466
382.409	4552
382.634	4547
382.86	4577
383.085	4625
383.31	4717
383.535	4729
383.761	4769
383.986	4894
384.211	4974
384.436	4993
384.662	5067
384.887	5155
385.112	5161
385.337	5287
385.562	5255
385.787	5334
386.013	5231
386.238	5354
386.463	5242
386.688	5332
386.913	5145
387.138	5188
387.363	5251
387.588	5099
387.813	5248
388.038	5125
388.263	5173
388.488	5282
388.713	5272
388.938	5166
389.163	5131
389.387	5166
389.612	5059
389.837	5118
390.062	5080
390.287	5110
390.512	5112
390.736	5131
390.961	5315
391.186	5317
391.411	5451
391.636	5695
391.86	5725
392.085	5818
392.31	5683
392.534	5607
392.759	5575
392.984	5438
393.208	5445
393.433	5387
393.658	5377
393.882	5358
394.107	5322
394.331	5437
394.556	5449
394.78	5474
395.005	5491
395.229	5592
395.454	5745
395.678	5858
395.903	5938
396.127	5817
396.352	5644
396.576	5548
396.801	5415
397.025	5565
397.249	5649
397.474	5807
397.698	5872
397.922	5949
398.147	6094
398.371	6177
398.595	6335
398.82	6651
399.044	7141
399.268	7897
399.492	9024
399.717	9618
399.941	9323
400.165	8765
400.389	8074
400.613	7292
400.837	6947
401.062	6677
401.286	6592
401.51	6482
401.734	6501
401.958	6634
402.182	6601
402.406	6867
402.63	6904
402.854	7077
403.078	7190
403.302	7182
403.526	7389
403.75	7371
403.974	7455
404.198	7459
404.422	7690
404.645	7703
404.869	7789
405.093	8312
405.317	8749
405.541	8657
405.765	7878
405.988	7541
406.212	7544
406.436	7723
406.66	7839
406.883	7832
407.107	8337
407.331	8878
407.555	9363
407.778	8978
408.002	8311
408.226	8007
408.449	7820
408.673	7656
408.896	7721
409.12	7933
409.344	7614
409.567	7194
409.791	7202
410.014	7127
410.238	7009
410.461	7035
410.685	7102
410.908	7205
411.132	7425
411.355	7437
411.578	7097
411.802	7002
412.025	7027
412.249	7348
412.472	8065
412.695	8367
412.919	7792
413.142	7467
413.365	7090
413.589	6947
413.812	6602
414.035	6582
414.258	6546
414.482	6624
414.705	6607
414.928	6641
415.151	6571
415.374	6558
415.597	6393
415.821	6391
416.044	6374
416.267	6339
416.49	6253
416.713	6325
416.936	6409
417.159	6327
417.382	6388
417.605	6515
417.828	6713
418.051	6727
418.274	6601
418.497	6519
418.72	6511
418.943	6549
419.166	6976
419.389	7464
419.611	7265
419.834	7233
420.057	7383
420.28	7524
420.503	7425
420.726	7079
420.948	7055
421.171	7323
421.394	7155
421.617	6681
421.839	6539
422.062	6684
422.285	6813
422.507	7441
422.73	7877
422.953	7351
423.175	7022
423.398	7091
423.621	7034
423.843	7184
424.066	7146
424.288	7153
424.511	7346
424.733	7864
424.956	8202
425.178	7676
425.401	7898
425.623	7707
425.846	6838
426.068	6662
426.291	6520
426.513	6587
426.735	6673
426.958	7160
427.18	7860
427.402	9074
427.625	9350
427.847	8347
428.069	8048
428.292	6965
428.514	6355
428.736	6058
428.958	6053
429.181	5856
429.403	5805
429.625	5940
429.847	6289
430.069	6826
430.292	6371
430.514	5830
430.736	5876
430.958	5750
431.18	5610
431.402	5720
431.624	5738
431.846	5799
432.068	5788
432.29	5872
432.512	5671
432.734	5793
432.956	5757
433.178	5827
433.4	5865
433.622	5774
433.844	5819
434.066	5774
434.287	5843
434.509	6132
434.731	6360
434.953	6438
435.175	6590
435.397	6668
435.618	6607
435.84	7016
436.062	7815
436.284	7681
436.505	6476
436.727	6197
436.949	5956
437.17	5848
437.392	5790
437.614	5997
437.835	6297
438.057	7251
438.278	7855
438.5	7745
438.721	8617
438.943	7550
439.165	6355
439.386	6209
439.608	6228
439.829	6294
440.05	6676
440.272	7021
440.493	6452
440.715	6080
440.936	6092
441.158	6101
441.379	6311
441.6	6599
441.822	6785
442.043	7268
442.264	7967
442.486	7684
442.707	6929
442.928	6724
443.149	6882
443.371	7040
443.592	7568
443.813	8536
444.034	8546
444.255	7447
444.476	7253
444.698	7473
444.919	7545
445.14	7438
445.361	7257
445.582	7453
445.803	7979
446.024	8677
446.245	8285
446.466	7474
446.687	6425
446.908	6143
447.129	5777
447.35	5671
447.571	5642
447.792	5471
448.013	5630
448.234	5797
448.455	6428
448.675	7741
448.896	8141
449.117	6650
449.338	6927
449.559	8191
449.779	8387
450	6393
450.221	5735
450.442	5463
450.662	5430
450.883	5505
451.104	5583
451.324	5443
451.545	5266
451.766	5221
451.986	5066
452.207	5068
452.428	5001
452.648	5095
452.869	5091
453.089	5127
453.31	5202
453.53	5049
453.751	5030
453.971	5057
454.192	5172
454.412	4970
454.633	4963
454.853	4803
455.073	4942
455.294	5305
455.514	5861
455.734	5383
455.955	4801
456.175	4771
456.395	4678
456.616	4680
456.836	4699
457.056	4699
457.276	4604
457.497	4773
457.717	4757
457.937	4790
458.157	4907
458.377	5009
458.598	5325
458.818	5976
459.038	6731
459.258	6630
459.478	5924
459.698	5855
459.918	5838
460.138	6042
460.358	6374
460.578	6318
460.798	6432
461.018	6330
461.238	6177
461.458	6195
461.678	6216
461.898	6421
462.118	6363
462.338	6796
462.558	6927
462.777	7156
462.997	7723
463.217	8075
463.437	7979
463.657	7401
463.876	7190
464.096	7254
464.316	7236
464.536	7152
464.755	7030
464.975	6913
465.195	6980
465.414	7039
465.634	6195
465.854	5995
466.073	5766
466.293	5554
466.512	5397
466.732	5263
466.951	5286
467.171	5334
467.391	5416
467.61	5471
467.829	5443
468.049	5821
468.268	6145
468.488	5685
468.707	5340
468.927	5189
469.146	5167
469.365	5273
469.585	5254
469.804	5401
470.023	5575
470.243	5537
470.462	5630
470.681	5773
470.901	5625
471.12	5511
471.339	5417
471.558	5453
471.777	5479
471.997	5609
472.216	6555
472.435	8433
472.654	7256
472.873	6111
473.092	5725
473.311	5536
473.53	5398
473.749	5461
473.968	6016
474.187	6766
474.406	6392
474.625	5475
474.844	5274
475.063	5177
475.282	5210
475.501	5238
475.72	5293
475.939	5330
476.158	5287
476.377	5399
476.596	5386
476.814	5496
477.033	5583
477.252	5552
477.471	5711
477.69	5757
477.908	5915
478.127	6027
478.346	6169
478.564	6264
478.783	6350
479.002	6509
479.22	6544
479.439	6499
479.658	6667
479.876	6796
480.095	7000
480.313	7533
480.532	7553
480.751	7720
480.969	8581
481.188	11876
481.406	12359
481.624	9185
481.843	7950
482.061	7203
482.28	6886
482.498	6609
482.717	6472
482.935	6375
483.153	6360
483.372	6226
483.59	6229
483.808	6253
484.027	6165
484.245	6239
484.463	6308
484.681	6289
484.9	6335
485.118	6433
485.336	6479
485.554	6473
485.772	6464
485.99	6480
486.209	6577
486.427	6581
486.645	6675
486.863	6678
487.081	6659
487.299	6596
487.517	6594
487.735	6598
487.953	6654
488.171	6574
488.389	6614
488.607	6684
488.825	6715
489.043	6714
489.261	6736
489.479	6829
489.696	6948
489.914	6972
490.132	7062
490.35	7182
490.568	7246
490.786	7475
491.003	7663
491.221	7909
491.439	8100
491.657	8370
491.874	8404
492.092	8483
492.31	8619
492.527	8744
492.745	8926
492.963	8981
493.18	8806
493.398	8783
493.615	8806
493.833	8662
494.05	8537
494.268	8499
494.485	8410
494.703	8338
494.92	8253
495.138	8149
495.355	8134
495.573	8073
495.79	8119
496.008	8023
496.225	7954
496.442	8035
496.66	7949
496.877	8034
497.094	8047
497.312	8221
497.529	8378
497.746	8440
497.963	8703
498.181	9184
498.398	9302
498.615	9737
498.832	10182
499.049	10742
499.267	11327
499.484	12079
499.701	12799
499.918	13574
500.135	14396
500.352	14952
500.569	15171
500.786	15139
501.003	14611
501.22	14033
501.437	13196
501.654	12388
501.871	11682
502.088	10893
502.305	10392
502.522	9744
502.739	9525
502.956	8959
503.172	8714
503.389	8479
503.606	8363
503.823	8186
504.04	8120
504.256	8203
504.473	8319
504.69	8357
504.907	8151
505.123	7724
505.34	7523
505.557	7376
505.773	7219
505.99	7176
506.207	6992
506.423	6985
506.64	6861
506.856	6720
507.073	6841
507.289	6644
507.506	6634
507.722	6762
507.939	6795
508.155	6634
508.372	6478
508.588	6354
508.805	6220
509.021	6363
509.238	6546
509.454	6533
509.67	6392
509.887	6234
510.103	6224
510.319	6363
510.536	7503
510.752	10549
510.968	7445
511.184	6184
511.401	6210
511.617	6308
511.833	6831
512.049	7079
512.265	6674
512.481	6395
512.698	6173
512.914	6118
513.13	6096
513.346	5989
513.562	5977
513.778	5948
513.994	6000
514.21	6080
514.426	6293
514.642	6525
514.858	6657
515.074	7009
515.29	8254
515.506	10557
515.721	7977
515.937	6941
516.153	6698
516.369	6689
516.585	6696
516.801	6839
517.016	7015
517.232	7281
517.448	7453
517.664	7661
517.879	7555
518.095	7549
518.311	7383
518.527	7106
518.742	6897
518.958	6734
519.173	6519
519.389	6319
519.605	6342
519.82	6201
520.036	6255
520.251	6329
520.467	6417
520.682	6352
520.898	6357
521.113	6373
521.329	6757
521.544	7317
521.76	9114
521.975	13040
522.19	10310
522.406	7013
522.621	6065
522.836	5701
523.052	5602
523.267	5414
523.482	5330
523.698	5289
523.913	5233
524.128	5282
524.343	5178
524.559	5136
524.774	5087
524.989	5069
525.204	5074
525.419	5059
525.634	4935
525.849	4951
526.064	4937
526.28	4855
526.495	4802
526.71	4774
526.925	4788
527.14	4772
527.355	4734
527.57	4742
527.785	4742
527.999	4769
528.214	4790
528.429	4839
528.644	4849
528.859	4865
529.074	4834
529.289	4937
529.503	5478
529.718	5245
529.933	4948
530.148	4855
530.363	4846
530.577	4768
530.792	4769
531.007	4754
531.221	4714
531.436	4786
531.651	4708
531.865	4761
532.08	4699
532.295	4730
532.509	4669
532.724	4694
532.938	4777
533.153	4719
533.367	4701
533.582	4706
533.796	4658
534.011	4704
534.225	4653
534.44	4615
534.654	4615
534.868	4590
535.083	4583
535.297	4572
535.511	4571
535.726	4591
535.94	4602
536.154	4562
536.369	4461
536.583	4463
536.797	4409
537.011	4383
537.225	4392
537.44	4386
537.654	4375
537.868	4339
538.082	4274
538.296	4405
538.51	4355
538.724	4400
538.938	4320
539.153	4267
539.367	4385
539.581	4326
539.795	4216
540.009	4285
540.222	4245
540.436	4291
540.65	4298
540.864	4296
541.078	4309
541.292	4278
541.506	4212
541.72	4132
541.934	4159
542.147	4072
