Data from Circ_2004_H10_HRD10591_00055.txt Node
Date: Wed Jan 03 10:33:25 EST 2024
User: Yrep
Spectrometer: HR+D1059
Trigger mode: 1
Integration Time (sec): 1.000000E-1
Scans to average: 1
Electric dark correction enabled: true
Nonlinearity correction enabled: false
Boxcar width: 0
XAxis mode: Wavelengths
Number of Pixels in Spectrum: 2048
>>>>>Begin Spectral Data<<<<<
223.165	-11.88
223.4	-11.88
223.635	-11.88
223.869	-14.88
224.104	-28.88
224.338	-26.88
224.573	-16.88
224.808	-16.88
225.042	3.12
225.277	-2.88
225.511	-0.88
225.746	1.12
225.98	11.12
226.215	14.12
226.449	7.12
226.683	19.12
226.918	36.12
227.152	28.12
227.387	28.12
227.621	47.12
227.856	39.12
228.09	38.12
228.324	52.12
228.559	63.12
228.793	61.12
229.027	53.12
229.262	74.12
229.496	65.12
229.73	62.12
229.964	69.12
230.199	73.12
230.433	58.12
230.667	63.12
230.901	75.12
231.136	75.12
231.37	65.12
231.604	64.12
231.838	65.12
232.072	65.12
232.306	87.12
232.541	79.12
232.775	83.12
233.009	76.12
233.243	80.12
233.477	69.12
233.711	86.12
233.945	78.12
234.179	71.12
234.413	81.12
234.647	81.12
234.881	76.12
235.115	73.12
235.349	60.12
235.583	60.12
235.817	73.12
236.051	75.12
236.285	59.12
236.519	71.12
236.753	71.12
236.987	66.12
237.221	77.12
237.455	88.12
237.689	65.12
237.922	85.12
238.156	65.12
238.39	77.12
238.624	71.12
238.858	74.12
239.091	71.12
239.325	82.12
239.559	69.12
239.793	80.12
240.027	84.12
240.26	71.12
240.494	83.12
240.728	82.12
240.961	72.12
241.195	73.12
241.429	81.12
241.662	67.12
241.896	56.12
242.13	69.12
242.363	69.12
242.597	76.12
242.83	68.12
243.064	74.12
243.298	75.12
243.531	68.12
243.765	76.12
243.998	75.12
244.232	62.12
244.465	87.12
244.699	59.12
244.932	82.12
245.166	79.12
245.399	80.12
245.633	55.12
245.866	81.12
246.099	63.12
246.333	71.12
246.566	75.12
246.8	74.12
247.033	64.12
247.266	73.12
247.5	57.12
247.733	69.12
247.966	76.12
248.2	74.12
248.433	62.12
248.666	76.12
248.899	77.12
249.133	72.12
249.366	87.12
249.599	88.12
249.832	76.12
250.066	80.12
250.299	72.12
250.532	80.12
250.765	85.12
250.998	76.12
251.231	82.12
251.465	78.12
251.698	76.12
251.931	80.12
252.164	62.12
252.397	69.12
252.63	74.12
252.863	72.12
253.096	76.12
253.329	91.12
253.562	95.12
253.795	72.12
254.028	69.12
254.261	76.12
254.494	83.12
254.727	82.12
254.96	68.12
255.193	74.12
255.426	77.12
255.659	73.12
255.892	76.12
256.124	77.12
256.357	88.12
256.59	87.12
256.823	73.12
257.056	65.12
257.289	75.12
257.521	84.12
257.754	80.12
257.987	78.12
258.22	84.12
258.452	72.12
258.685	91.12
258.918	69.12
259.151	66.12
259.383	80.12
259.616	67.12
259.849	70.12
260.081	66.12
260.314	68.12
260.547	67.12
260.779	92.12
261.012	85.12
261.244	95.12
261.477	97.12
261.71	78.12
261.942	96.12
262.175	105.12
262.407	78.12
262.64	92.12
262.872	79.12
263.105	88.12
263.337	82.12
263.57	76.12
263.802	79.12
264.035	71.12
264.267	71.12
264.499	84.12
264.732	75.12
264.964	64.12
265.197	90.12
265.429	87.12
265.661	78.12
265.894	73.12
266.126	77.12
266.358	83.12
266.591	70.12
266.823	79.12
267.055	78.12
267.287	64.12
267.52	82.12
267.752	75.12
267.984	67.12
268.216	81.12
268.448	86.12
268.681	82.12
268.913	77.12
269.145	68.12
269.377	81.12
269.609	84.12
269.841	80.12
270.073	63.12
270.306	83.12
270.538	81.12
270.77	64.12
271.002	89.12
271.234	80.12
271.466	85.12
271.698	74.12
271.93	83.12
272.162	76.12
272.394	74.12
272.626	80.12
272.858	85.12
273.09	62.12
273.322	83.12
273.553	91.12
273.785	78.12
274.017	77.12
274.249	81.12
274.481	73.12
274.713	87.12
274.945	94.12
275.176	86.12
275.408	75.12
275.64	89.12
275.872	84.12
276.104	80.12
276.335	85.12
276.567	109.12
276.799	115.12
277.031	107.12
277.262	114.12
277.494	92.12
277.726	82.12
277.957	100.12
278.189	68.12
278.421	73.12
278.652	89.12
278.884	81.12
279.115	94.12
279.347	89.12
279.579	109.12
279.81	91.12
280.042	110.12
280.273	142.12
280.505	96.12
280.736	80.12
280.968	86.12
281.199	75.12
281.431	73.12
281.662	88.12
281.894	73.12
282.125	101.12
282.356	108.12
282.588	137.12
282.819	113.12
283.051	84.12
283.282	80.12
283.513	104.12
283.745	79.12
283.976	77.12
284.207	84.12
284.439	80.12
284.67	84.12
284.901	99.12
285.132	82.12
285.364	71.12
285.595	68.12
285.826	82.12
286.057	90.12
286.288	95.12
286.52	81.12
286.751	78.12
286.982	90.12
287.213	75.12
287.444	91.12
287.675	96.12
287.906	99.12
288.138	100.12
288.369	91.12
288.6	102.12
288.831	93.12
289.062	98.12
289.293	89.12
289.524	82.12
289.755	79.12
289.986	80.12
290.217	84.12
290.448	85.12
290.679	81.12
290.91	87.12
291.141	84.12
291.371	94.12
291.602	80.12
291.833	86.12
292.064	98.12
292.295	81.12
292.526	84.12
292.757	91.12
292.987	76.12
293.218	67.12
293.449	76.12
293.68	75.12
293.91	89.12
294.141	93.12
294.372	87.12
294.603	79.12
294.833	92.12
295.064	102.12
295.295	91.12
295.525	87.12
295.756	97.12
295.987	110.12
296.217	141.12
296.448	123.12
296.679	89.12
296.909	90.12
297.14	93.12
297.37	76.12
297.601	93.12
297.831	97.12
298.062	75.12
298.292	79.12
298.523	92.12
298.753	95.12
298.984	80.12
299.214	85.12
299.445	85.12
299.675	93.12
299.905	98.12
300.136	80.12
300.366	94.12
300.597	86.12
300.827	84.12
301.057	89.12
301.288	111.12
301.518	72.12
301.748	78.12
301.979	94.12
302.209	82.12
302.439	83.12
302.669	93.12
302.9	81.12
303.13	96.12
303.36	103.12
303.59	106.12
303.82	108.12
304.051	106.12
304.281	79.12
304.511	85.12
304.741	97.12
304.971	104.12
305.201	91.12
305.431	81.12
305.661	83.12
305.891	87.12
306.121	95.12
306.352	107.12
306.582	82.12
306.812	94.12
307.042	105.12
307.272	108.12
307.502	112.12
307.731	122.12
307.961	102.12
308.191	97.12
308.421	99.12
308.651	88.12
308.881	88.12
309.111	85.12
309.341	98.12
309.571	93.12
309.8	90.12
310.03	95.12
310.26	102.12
310.49	90.12
310.72	99.12
310.949	93.12
311.179	90.12
311.409	98.12
311.639	91.12
311.868	100.12
312.098	92.12
312.328	97.12
312.557	110.12
312.787	81.12
313.017	91.12
313.246	85.12
313.476	88.12
313.706	81.12
313.935	90.12
314.165	92.12
314.394	83.12
314.624	95.12
314.853	95.12
315.083	89.12
315.312	100.12
315.542	95.12
315.771	79.12
316.001	94.12
316.23	89.12
316.46	76.12
316.689	94.12
316.919	85.12
317.148	87.12
317.377	88.12
317.607	94.12
317.836	92.12
318.065	98.12
318.295	98.12
318.524	86.12
318.753	94.12
318.983	94.12
319.212	99.12
319.441	109.12
319.67	100.12
319.9	87.12
320.129	92.12
320.358	89.12
320.587	104.12
320.816	92.12
321.046	95.12
321.275	81.12
321.504	88.12
321.733	91.12
321.962	101.12
322.191	93.12
322.42	85.12
322.649	100.12
322.878	101.12
323.108	109.12
323.337	120.12
323.566	124.12
323.795	151.12
324.024	202.12
324.253	416.12
324.482	844.12
324.71	1801.12
324.939	2345.12
325.168	869.12
325.397	255.12
325.626	159.12
325.855	123.12
326.084	132.12
326.313	137.12
326.542	163.12
326.77	250.12
326.999	467.12
327.228	1002.12
327.457	1777.12
327.686	1399.12
327.914	399.12
328.143	288.12
328.372	294.12
328.6	187.12
328.829	137.12
329.058	144.12
329.287	151.12
329.515	115.12
329.744	143.12
329.972	211.12
330.201	388.12
330.43	523.12
330.658	269.12
330.887	168.12
331.115	134.12
331.344	108.12
331.572	116.12
331.801	109.12
332.03	93.12
332.258	94.12
332.486	97.12
332.715	103.12
332.943	98.12
333.172	106.12
333.4	98.12
333.629	112.12
333.857	157.12
334.085	219.12
334.314	361.12
334.542	652.12
334.771	647.12
334.999	207.12
335.227	109.12
335.455	107.12
335.684	82.12
335.912	91.12
336.14	95.12
336.369	89.12
336.597	103.12
336.825	93.12
337.053	96.12
337.281	78.12
337.51	85.12
337.738	82.12
337.966	82.12
338.194	92.12
338.422	93.12
338.65	82.12
338.878	101.12
339.106	95.12
339.334	90.12
339.562	102.12
339.79	73.12
340.018	78.12
340.246	83.12
340.474	88.12
340.702	88.12
340.93	81.12
341.158	77.12
341.386	82.12
341.614	81.12
341.842	97.12
342.07	81.12
342.298	88.12
342.526	79.12
342.754	83.12
342.981	74.12
343.209	85.12
343.437	96.12
343.665	71.12
343.893	85.12
344.12	79.12
344.348	92.12
344.576	82.12
344.804	89.12
345.031	98.12
345.259	98.12
345.487	87.12
345.714	91.12
345.942	76.12
346.17	86.12
346.397	87.12
346.625	78.12
346.853	90.12
347.08	89.12
347.308	97.12
347.535	88.12
347.763	92.12
347.99	88.12
348.218	86.12
348.445	96.12
348.673	87.12
348.9	105.12
349.128	104.12
349.355	86.12
349.583	99.12
349.81	90.12
350.037	81.12
350.265	100.12
350.492	99.12
350.72	86.12
350.947	100.12
351.174	111.12
351.402	102.12
351.629	110.12
351.856	102.12
352.083	96.12
352.311	112.12
352.538	106.12
352.765	114.12
352.992	109.12
353.22	103.12
353.447	93.12
353.674	88.12
353.901	85.12
354.128	101.12
354.355	108.12
354.583	109.12
354.81	95.12
355.037	85.12
355.264	80.12
355.491	73.12
355.718	97.12
355.945	98.12
356.172	76.12
356.399	87.12
356.626	89.12
356.853	94.12
357.08	91.12
357.307	85.12
357.534	75.12
357.761	93.12
357.988	94.12
358.215	87.12
358.441	80.12
358.668	81.12
358.895	92.12
359.122	91.12
359.349	86.12
359.576	89.12
359.802	91.12
360.029	105.12
360.256	119.12
360.483	97.12
360.709	89.12
360.936	94.12
361.163	89.12
361.39	85.12
361.616	92.12
361.843	87.12
362.07	89.12
362.296	96.12
362.523	105.12
362.749	93.12
362.976	83.12
363.203	74.12
363.429	82.12
363.656	73.12
363.882	80.12
364.109	91.12
364.335	92.12
364.562	88.12
364.788	85.12
365.015	97.12
365.241	78.12
365.468	103.12
365.694	98.12
365.92	79.12
366.147	88.12
366.373	76.12
366.599	87.12
366.826	77.12
367.052	77.12
367.278	82.12
367.505	90.12
367.731	82.12
367.957	95.12
368.184	93.12
368.41	88.12
368.636	104.12
368.862	121.12
369.089	105.12
369.315	84.12
369.541	80.12
369.767	100.12
369.993	98.12
370.219	86.12
370.445	83.12
370.672	89.12
370.898	80.12
371.124	76.12
371.35	79.12
371.576	80.12
371.802	80.12
372.028	79.12
372.254	97.12
372.48	92.12
372.706	92.12
372.932	87.12
373.158	84.12
373.384	81.12
373.61	98.12
373.835	80.12
374.061	85.12
374.287	91.12
374.513	95.12
374.739	87.12
374.965	90.12
375.191	87.12
375.416	91.12
375.642	82.12
375.868	72.12
376.094	82.12
376.319	81.12
376.545	94.12
376.771	102.12
376.997	91.12
377.222	79.12
377.448	79.12
377.674	82.12
377.899	91.12
378.125	87.12
378.35	87.12
378.576	83.12
378.802	97.12
379.027	88.12
379.253	90.12
379.478	78.12
379.704	76.12
379.929	89.12
380.155	94.12
380.38	92.12
380.606	89.12
380.831	85.12
381.057	74.12
381.282	89.12
381.507	90.12
381.733	92.12
381.958	99.12
382.184	104.12
382.409	95.12
382.634	92.12
382.86	93.12
383.085	85.12
383.31	94.12
383.535	95.12
383.761	94.12
383.986	76.12
384.211	108.12
384.436	85.12
384.662	84.12
384.887	81.12
385.112	91.12
385.337	87.12
385.562	88.12
385.787	99.12
386.013	106.12
386.238	123.12
386.463	102.12
386.688	106.12
386.913	86.12
387.138	94.12
387.363	98.12
387.588	85.12
387.813	90.12
388.038	87.12
388.263	104.12
388.488	101.12
388.713	95.12
388.938	98.12
389.163	95.12
389.387	89.12
389.612	99.12
389.837	93.12
390.062	94.12
390.287	74.12
390.512	87.12
390.736	75.12
390.961	87.12
391.186	81.12
391.411	82.12
391.636	89.12
391.86	87.12
392.085	79.12
392.31	67.12
392.534	77.12
392.759	83.12
392.984	82.12
393.208	93.12
393.433	91.12
393.658	84.12
393.882	87.12
394.107	76.12
394.331	77.12
394.556	81.12
394.78	79.12
395.005	74.12
395.229	71.12
395.454	89.12
395.678	85.12
395.903	87.12
396.127	71.12
396.352	83.12
396.576	77.12
396.801	83.12
397.025	83.12
397.249	91.12
397.474	96.12
397.698	81.12
397.922	91.12
398.147	75.12
398.371	79.12
398.595	80.12
398.82	79.12
399.044	71.12
399.268	87.12
399.492	85.12
399.717	90.12
399.941	81.12
400.165	86.12
400.389	86.12
400.613	87.12
400.837	94.12
401.062	85.12
401.286	88.12
401.51	78.12
401.734	84.12
401.958	91.12
402.182	116.12
402.406	160.12
402.63	129.12
402.854	96.12
403.078	73.12
403.302	75.12
403.526	83.12
403.75	84.12
403.974	74.12
404.198	86.12
404.422	61.12
404.645	90.12
404.869	92.12
405.093	107.12
405.317	116.12
405.541	97.12
405.765	94.12
405.988	112.12
406.212	176.12
406.436	231.12
406.66	165.12
406.883	94.12
407.107	92.12
407.331	90.12
407.555	85.12
407.778	100.12
408.002	87.12
408.226	95.12
408.449	78.12
408.673	96.12
408.896	87.12
409.12	106.12
409.344	89.12
409.567	77.12
409.791	84.12
410.014	85.12
410.238	103.12
410.461	74.12
410.685	88.12
410.908	91.12
411.132	111.12
411.355	73.12
411.578	76.12
411.802	87.12
412.025	85.12
412.249	75.12
412.472	84.12
412.695	108.12
412.919	96.12
413.142	91.12
413.365	92.12
413.589	95.12
413.812	77.12
414.035	82.12
414.258	94.12
414.482	81.12
414.705	84.12
414.928	89.12
415.151	94.12
415.374	81.12
415.597	94.12
415.821	95.12
416.044	83.12
416.267	90.12
416.49	74.12
416.713	81.12
416.936	89.12
417.159	77.12
417.382	72.12
417.605	88.12
417.828	95.12
418.051	84.12
418.274	81.12
418.497	77.12
418.72	68.12
418.943	81.12
419.166	76.12
419.389	78.12
419.611	67.12
419.834	89.12
420.057	91.12
420.28	97.12
420.503	91.12
420.726	81.12
420.948	81.12
421.171	92.12
421.394	102.12
421.617	80.12
421.839	91.12
422.062	83.12
422.285	81.12
422.507	84.12
422.73	93.12
422.953	84.12
423.175	91.12
423.398	77.12
423.621	78.12
423.843	88.12
424.066	96.12
424.288	83.12
424.511	85.12
424.733	99.12
424.956	106.12
425.178	101.12
425.401	94.12
425.623	92.12
425.846	81.12
426.068	92.12
426.291	73.12
426.513	89.12
426.735	100.12
426.958	96.12
427.18	97.12
427.402	144.12
427.625	172.12
427.847	174.12
428.069	151.12
428.292	100.12
428.514	82.12
428.736	77.12
428.958	85.12
429.181	84.12
429.403	80.12
429.625	83.12
429.847	88.12
430.069	84.12
430.292	100.12
430.514	69.12
430.736	94.12
430.958	94.12
431.18	78.12
431.402	77.12
431.624	76.12
431.846	75.12
432.068	79.12
432.29	69.12
432.512	80.12
432.734	72.12
432.956	88.12
433.178	81.12
433.4	105.12
433.622	85.12
433.844	85.12
434.066	80.12
434.287	77.12
434.509	95.12
434.731	82.12
434.953	74.12
435.175	86.12
435.397	80.12
435.618	73.12
435.84	89.12
436.062	130.12
436.284	97.12
436.505	96.12
436.727	97.12
436.949	87.12
437.17	77.12
437.392	86.12
437.614	99.12
437.835	109.12
438.057	108.12
438.278	112.12
438.5	85.12
438.721	111.12
438.943	91.12
439.165	80.12
439.386	84.12
439.608	93.12
439.829	89.12
440.05	120.12
440.272	137.12
440.493	94.12
440.715	88.12
440.936	84.12
441.158	79.12
441.379	84.12
441.6	85.12
441.822	93.12
442.043	83.12
442.264	97.12
442.486	96.12
442.707	87.12
442.928	105.12
443.149	124.12
443.371	119.12
443.592	112.12
443.813	104.12
444.034	103.12
444.255	85.12
444.476	92.12
444.698	95.12
444.919	92.12
445.14	121.12
445.361	107.12
445.582	118.12
445.803	141.12
446.024	128.12
446.245	137.12
446.466	120.12
446.687	67.12
446.908	90.12
447.129	96.12
447.35	77.12
447.571	88.12
447.792	84.12
448.013	97.12
448.234	105.12
448.455	92.12
448.675	109.12
448.896	128.12
449.117	91.12
449.338	91.12
449.559	136.12
449.779	124.12
450	105.12
450.221	75.12
450.442	81.12
450.662	83.12
450.883	94.12
451.104	120.12
451.324	90.12
451.545	89.12
451.766	87.12
451.986	75.12
452.207	92.12
452.428	92.12
452.648	82.12
452.869	110.12
453.089	130.12
453.31	114.12
453.53	79.12
453.751	90.12
453.971	108.12
454.192	108.12
454.412	100.12
454.633	71.12
454.853	81.12
455.073	87.12
455.294	80.12
455.514	91.12
455.734	91.12
455.955	73.12
456.175	89.12
456.395	56.12
456.616	80.12
456.836	81.12
457.056	90.12
457.276	83.12
457.497	76.12
457.717	77.12
457.937	78.12
458.157	77.12
458.377	91.12
458.598	96.12
458.818	150.12
459.038	163.12
459.258	106.12
459.478	86.12
459.698	92.12
459.918	85.12
460.138	76.12
460.358	89.12
460.578	88.12
460.798	84.12
461.018	94.12
461.238	86.12
461.458	79.12
461.678	93.12
461.898	85.12
462.118	84.12
462.338	78.12
462.558	96.12
462.777	78.12
462.997	68.12
463.217	94.12
463.437	80.12
463.657	87.12
463.876	76.12
464.096	89.12
464.316	86.12
464.536	92.12
464.755	97.12
464.975	107.12
465.195	175.12
465.414	158.12
465.634	98.12
465.854	81.12
466.073	92.12
466.293	85.12
466.512	92.12
466.732	78.12
466.951	81.12
467.171	107.12
467.391	98.12
467.61	115.12
467.829	142.12
468.049	242.12
468.268	338.12
468.488	121.12
468.707	80.12
468.927	84.12
469.146	72.12
469.365	83.12
469.585	87.12
469.804	87.12
470.023	101.12
470.243	85.12
470.462	86.12
470.681	107.12
470.901	81.12
471.12	81.12
471.339	98.12
471.558	98.12
471.777	105.12
471.997	163.12
472.216	455.12
472.435	973.12
472.654	279.12
472.873	115.12
473.092	89.12
473.311	73.12
473.53	84.12
473.749	100.12
473.968	93.12
474.187	112.12
474.406	92.12
474.625	83.12
474.844	77.12
475.063	94.12
475.282	100.12
475.501	88.12
475.72	89.12
475.939	80.12
476.158	83.12
476.377	75.12
476.596	78.12
476.814	82.12
477.033	93.12
477.252	70.12
477.471	82.12
477.69	89.12
477.908	89.12
478.127	95.12
478.346	100.12
478.564	86.12
478.783	102.12
479.002	82.12
479.22	83.12
479.439	92.12
479.658	119.12
479.876	102.12
480.095	99.12
480.313	90.12
480.532	120.12
480.751	164.12
480.969	436.12
481.188	1615.12
481.406	981.12
481.624	193.12
481.843	96.12
482.061	92.12
482.28	105.12
482.498	92.12
482.717	79.12
482.935	85.12
483.153	85.12
483.372	75.12
483.59	66.12
483.808	94.12
484.027	91.12
484.245	95.12
484.463	73.12
484.681	89.12
484.9	72.12
485.118	94.12
485.336	91.12
485.554	82.12
485.772	79.12
485.99	105.12
486.209	81.12
486.427	92.12
486.645	112.12
486.863	105.12
487.081	95.12
487.299	85.12
487.517	95.12
487.735	88.12
487.953	93.12
488.171	83.12
488.389	88.12
488.607	98.12
488.825	103.12
489.043	79.12
489.261	78.12
489.479	95.12
489.696	92.12
489.914	93.12
490.132	84.12
490.35	92.12
490.568	91.12
490.786	88.12
491.003	73.12
491.221	84.12
491.439	89.12
491.657	86.12
491.874	80.12
492.092	91.12
492.31	89.12
492.527	86.12
492.745	88.12
492.963	85.12
493.18	91.12
493.398	95.12
493.615	107.12
493.833	88.12
494.05	89.12
494.268	95.12
494.485	91.12
494.703	87.12
494.92	98.12
495.138	85.12
495.355	80.12
495.573	89.12
495.79	84.12
496.008	74.12
496.225	80.12
496.442	94.12
496.66	81.12
496.877	77.12
497.094	95.12
497.312	83.12
497.529	75.12
497.746	86.12
497.963	80.12
498.181	101.12
498.398	93.12
498.615	97.12
498.832	113.12
499.049	91.12
499.267	88.12
499.484	81.12
499.701	80.12
499.918	83.12
500.135	81.12
500.352	96.12
500.569	96.12
500.786	82.12
501.003	76.12
501.22	79.12
501.437	83.12
501.654	83.12
501.871	120.12
502.088	83.12
502.305	79.12
502.522	88.12
502.739	81.12
502.956	71.12
503.172	84.12
503.389	101.12
503.606	98.12
503.823	95.12
504.04	74.12
504.256	81.12
504.473	80.12
504.69	90.12
504.907	79.12
505.123	79.12
505.34	86.12
505.557	84.12
505.773	89.12
505.99	98.12
506.207	91.12
506.423	92.12
506.64	77.12
506.856	90.12
507.073	99.12
507.289	91.12
507.506	96.12
507.722	95.12
507.939	107.12
508.155	77.12
508.372	95.12
508.588	85.12
508.805	86.12
509.021	100.12
509.238	109.12
509.454	82.12
509.67	99.12
509.887	116.12
510.103	110.12
510.319	220.12
510.536	783.12
510.752	2445.12
510.968	683.12
511.184	157.12
511.401	101.12
511.617	90.12
511.833	91.12
512.049	96.12
512.265	79.12
512.481	71.12
512.698	86.12
512.914	93.12
513.13	85.12
513.346	85.12
513.562	95.12
513.778	85.12
513.994	97.12
514.21	114.12
514.426	112.12
514.642	137.12
514.858	129.12
515.074	177.12
515.29	506.12
515.506	1703.12
515.721	643.12
515.937	164.12
516.153	112.12
516.369	93.12
516.585	97.12
