Data from Circ_2004_H10_HRD10591_00029.txt Node
Date: Wed Jan 03 10:33:20 EST 2024
User: Yrep
Spectrometer: HR+D1059
Trigger mode: 1
Integration Time (sec): 1.000000E-1
Scans to average: 1
Electric dark correction enabled: true
Nonlinearity correction enabled: false
Boxcar width: 0
XAxis mode: Wavelengths
Number of Pixels in Spectrum: 2048
>>>>>Begin Spectral Data<<<<<
223.165	-15.06
223.4	-15.06
223.635	-15.06
223.869	-26.06
224.104	-11.06
224.338	-24.06
224.573	-4.06
224.808	-6.06
225.042	-7.06
225.277	-9.06
225.511	-5.06
225.746	-5.06
225.98	7.94
226.215	10.94
226.449	12.94
226.683	6.94
226.918	33.94
227.152	39.94
227.387	44.94
227.621	40.94
227.856	47.94
228.09	45.94
228.324	53.94
228.559	52.94
228.793	66.94
229.027	58.94
229.262	60.94
229.496	85.94
229.73	85.94
229.964	77.94
230.199	73.94
230.433	70.94
230.667	64.94
230.901	79.94
231.136	86.94
231.37	90.94
231.604	98.94
231.838	69.94
232.072	74.94
232.306	83.94
232.541	79.94
232.775	79.94
233.009	83.94
233.243	78.94
233.477	81.94
233.711	81.94
233.945	76.94
234.179	79.94
234.413	82.94
234.647	72.94
234.881	88.94
235.115	96.94
235.349	84.94
235.583	90.94
235.817	77.94
236.051	73.94
236.285	76.94
236.519	83.94
236.753	75.94
236.987	90.94
237.221	88.94
237.455	79.94
237.689	75.94
237.922	85.94
238.156	86.94
238.39	73.94
238.624	83.94
238.858	86.94
239.091	82.94
239.325	82.94
239.559	83.94
239.793	80.94
240.027	81.94
240.26	74.94
240.494	90.94
240.728	83.94
240.961	79.94
241.195	94.94
241.429	89.94
241.662	100.94
241.896	90.94
242.13	80.94
242.363	92.94
242.597	67.94
242.83	69.94
243.064	78.94
243.298	91.94
243.531	79.94
243.765	92.94
243.998	86.94
244.232	72.94
244.465	77.94
244.699	84.94
244.932	78.94
245.166	95.94
245.399	77.94
245.633	81.94
245.866	89.94
246.099	84.94
246.333	98.94
246.566	91.94
246.8	79.94
247.033	79.94
247.266	64.94
247.5	72.94
247.733	89.94
247.966	81.94
248.2	82.94
248.433	88.94
248.666	105.94
248.899	84.94
249.133	79.94
249.366	100.94
249.599	100.94
249.832	102.94
250.066	79.94
250.299	90.94
250.532	83.94
250.765	63.94
250.998	75.94
251.231	91.94
251.465	71.94
251.698	87.94
251.931	70.94
252.164	68.94
252.397	83.94
252.63	81.94
252.863	84.94
253.096	85.94
253.329	73.94
253.562	76.94
253.795	86.94
254.028	86.94
254.261	74.94
254.494	78.94
254.727	75.94
254.96	80.94
255.193	79.94
255.426	75.94
255.659	92.94
255.892	94.94
256.124	90.94
256.357	98.94
256.59	78.94
256.823	95.94
257.056	84.94
257.289	83.94
257.521	86.94
257.754	87.94
257.987	90.94
258.22	104.94
258.452	93.94
258.685	87.94
258.918	90.94
259.151	85.94
259.383	96.94
259.616	69.94
259.849	77.94
260.081	95.94
260.314	84.94
260.547	82.94
260.779	89.94
261.012	92.94
261.244	86.94
261.477	89.94
261.71	106.94
261.942	104.94
262.175	105.94
262.407	79.94
262.64	88.94
262.872	79.94
263.105	79.94
263.337	80.94
263.57	86.94
263.802	80.94
264.035	81.94
264.267	94.94
264.499	82.94
264.732	87.94
264.964	79.94
265.197	82.94
265.429	86.94
265.661	88.94
265.894	93.94
266.126	85.94
266.358	88.94
266.591	84.94
266.823	71.94
267.055	88.94
267.287	85.94
267.52	98.94
267.752	86.94
267.984	87.94
268.216	78.94
268.448	86.94
268.681	74.94
268.913	88.94
269.145	86.94
269.377	82.94
269.609	81.94
269.841	75.94
270.073	89.94
270.306	84.94
270.538	83.94
270.77	88.94
271.002	85.94
271.234	94.94
271.466	89.94
271.698	66.94
271.93	89.94
272.162	90.94
272.394	85.94
272.626	96.94
272.858	82.94
273.09	90.94
273.322	82.94
273.553	87.94
273.785	82.94
274.017	87.94
274.249	78.94
274.481	82.94
274.713	69.94
274.945	92.94
275.176	99.94
275.408	89.94
275.64	98.94
275.872	88.94
276.104	94.94
276.335	92.94
276.567	105.94
276.799	98.94
277.031	112.94
277.262	92.94
277.494	97.94
277.726	80.94
277.957	87.94
278.189	78.94
278.421	88.94
278.652	91.94
278.884	88.94
279.115	81.94
279.347	80.94
279.579	83.94
279.81	88.94
280.042	113.94
280.273	98.94
280.505	96.94
280.736	83.94
280.968	87.94
281.199	92.94
281.431	83.94
281.662	85.94
281.894	98.94
282.125	103.94
282.356	119.94
282.588	142.94
282.819	112.94
283.051	94.94
283.282	92.94
283.513	92.94
283.745	86.94
283.976	90.94
284.207	88.94
284.439	81.94
284.67	98.94
284.901	78.94
285.132	74.94
285.364	95.94
285.595	100.94
285.826	89.94
286.057	89.94
286.288	100.94
286.52	87.94
286.751	88.94
286.982	76.94
287.213	91.94
287.444	86.94
287.675	94.94
287.906	83.94
288.138	89.94
288.369	94.94
288.6	95.94
288.831	89.94
289.062	86.94
289.293	97.94
289.524	99.94
289.755	97.94
289.986	91.94
290.217	82.94
290.448	82.94
290.679	91.94
290.91	82.94
291.141	69.94
291.371	85.94
291.602	81.94
291.833	92.94
292.064	89.94
292.295	91.94
292.526	100.94
292.757	85.94
292.987	86.94
293.218	86.94
293.449	95.94
293.68	98.94
293.91	102.94
294.141	88.94
294.372	98.94
294.603	99.94
294.833	95.94
295.064	87.94
295.295	91.94
295.525	92.94
295.756	107.94
295.987	111.94
296.217	139.94
296.448	129.94
296.679	98.94
296.909	96.94
297.14	81.94
297.37	87.94
297.601	84.94
297.831	87.94
298.062	100.94
298.292	99.94
298.523	88.94
298.753	84.94
298.984	91.94
299.214	84.94
299.445	84.94
299.675	90.94
299.905	79.94
300.136	87.94
300.366	85.94
300.597	99.94
300.827	97.94
301.057	109.94
301.288	108.94
301.518	99.94
301.748	97.94
301.979	107.94
302.209	111.94
302.439	97.94
302.669	88.94
302.9	91.94
303.13	92.94
303.36	97.94
303.59	107.94
303.82	114.94
304.051	105.94
304.281	89.94
304.511	88.94
304.741	87.94
304.971	98.94
305.201	88.94
305.431	97.94
305.661	102.94
305.891	89.94
306.121	98.94
306.352	103.94
306.582	105.94
306.812	103.94
307.042	98.94
307.272	98.94
307.502	108.94
307.731	109.94
307.961	111.94
308.191	91.94
308.421	92.94
308.651	81.94
308.881	75.94
309.111	88.94
309.341	92.94
309.571	111.94
309.8	98.94
310.03	89.94
310.26	97.94
310.49	98.94
310.72	102.94
310.949	94.94
311.179	89.94
311.409	78.94
311.639	100.94
311.868	88.94
312.098	100.94
312.328	89.94
312.557	111.94
312.787	93.94
313.017	82.94
313.246	93.94
313.476	92.94
313.706	96.94
313.935	98.94
314.165	81.94
314.394	99.94
314.624	104.94
314.853	93.94
315.083	102.94
315.312	103.94
315.542	97.94
315.771	100.94
316.001	81.94
316.23	92.94
316.46	78.94
316.689	103.94
316.919	96.94
317.148	94.94
317.377	103.94
317.607	100.94
317.836	93.94
318.065	100.94
318.295	91.94
318.524	96.94
318.753	95.94
318.983	106.94
319.212	95.94
319.441	99.94
319.67	118.94
319.9	90.94
320.129	95.94
320.358	99.94
320.587	91.94
320.816	98.94
321.046	105.94
321.275	97.94
321.504	102.94
321.733	101.94
321.962	99.94
322.191	96.94
322.42	98.94
322.649	98.94
322.878	110.94
323.108	121.94
323.337	111.94
323.566	127.94
323.795	156.94
324.024	208.94
324.253	401.94
324.482	811.94
324.71	1650.94
324.939	2118.94
325.168	780.94
325.397	235.94
325.626	144.94
325.855	136.94
326.084	123.94
326.313	122.94
326.542	155.94
326.77	236.94
326.999	470.94
327.228	908.94
327.457	1625.94
327.686	1305.94
327.914	368.94
328.143	242.94
328.372	211.94
328.6	152.94
328.829	115.94
329.058	146.94
329.287	131.94
329.515	102.94
329.744	144.94
329.972	160.94
330.201	240.94
330.43	335.94
330.658	196.94
330.887	142.94
331.115	112.94
331.344	102.94
331.572	91.94
331.801	103.94
332.03	98.94
332.258	99.94
332.486	101.94
332.715	110.94
332.943	96.94
333.172	103.94
333.4	103.94
333.629	112.94
333.857	126.94
334.085	162.94
334.314	227.94
334.542	388.94
334.771	379.94
334.999	153.94
335.227	98.94
335.455	100.94
335.684	110.94
335.912	90.94
336.14	96.94
336.369	111.94
336.597	105.94
336.825	90.94
337.053	94.94
337.281	97.94
337.51	96.94
337.738	87.94
337.966	94.94
338.194	96.94
338.422	93.94
338.65	102.94
338.878	83.94
339.106	84.94
339.334	87.94
339.562	95.94
339.79	88.94
340.018	105.94
340.246	91.94
340.474	91.94
340.702	109.94
340.93	92.94
341.158	104.94
341.386	96.94
341.614	91.94
341.842	103.94
342.07	83.94
342.298	87.94
342.526	87.94
342.754	95.94
342.981	74.94
343.209	96.94
343.437	83.94
343.665	91.94
343.893	89.94
344.12	102.94
344.348	97.94
344.576	85.94
344.804	85.94
345.031	98.94
345.259	96.94
345.487	90.94
345.714	92.94
345.942	94.94
346.17	102.94
346.397	105.94
346.625	91.94
346.853	95.94
347.08	91.94
347.308	112.94
347.535	103.94
347.763	89.94
347.99	95.94
348.218	102.94
348.445	108.94
348.673	102.94
348.9	95.94
349.128	94.94
349.355	92.94
349.583	95.94
349.81	82.94
350.037	105.94
350.265	96.94
350.492	103.94
350.72	86.94
350.947	108.94
351.174	92.94
351.402	103.94
351.629	106.94
351.856	102.94
352.083	91.94
352.311	114.94
352.538	95.94
352.765	105.94
352.992	110.94
353.22	106.94
353.447	107.94
353.674	110.94
353.901	104.94
354.128	107.94
354.355	94.94
354.583	96.94
354.81	95.94
355.037	95.94
355.264	98.94
355.491	97.94
355.718	109.94
355.945	106.94
356.172	99.94
356.399	91.94
356.626	85.94
356.853	89.94
357.08	110.94
357.307	88.94
357.534	91.94
357.761	90.94
357.988	99.94
358.215	91.94
358.441	95.94
358.668	101.94
358.895	89.94
359.122	92.94
359.349	84.94
359.576	86.94
359.802	106.94
360.029	127.94
360.256	89.94
360.483	107.94
360.709	84.94
360.936	92.94
361.163	96.94
361.39	91.94
361.616	101.94
361.843	91.94
362.07	89.94
362.296	104.94
362.523	89.94
362.749	92.94
362.976	93.94
363.203	98.94
363.429	96.94
363.656	90.94
363.882	97.94
364.109	88.94
364.335	105.94
364.562	79.94
364.788	91.94
365.015	95.94
365.241	93.94
365.468	107.94
365.694	106.94
365.92	73.94
366.147	88.94
366.373	92.94
366.599	90.94
366.826	88.94
367.052	82.94
367.278	86.94
367.505	89.94
367.731	97.94
367.957	95.94
368.184	110.94
368.41	98.94
368.636	96.94
368.862	110.94
369.089	109.94
369.315	89.94
369.541	115.94
369.767	101.94
369.993	92.94
370.219	88.94
370.445	90.94
370.672	96.94
370.898	83.94
371.124	113.94
371.35	85.94
371.576	90.94
371.802	84.94
372.028	89.94
372.254	84.94
372.48	96.94
372.706	95.94
372.932	76.94
373.158	92.94
373.384	92.94
373.61	92.94
373.835	89.94
374.061	94.94
374.287	84.94
374.513	99.94
374.739	106.94
374.965	68.94
375.191	92.94
375.416	95.94
375.642	93.94
375.868	99.94
376.094	94.94
376.319	84.94
376.545	100.94
376.771	81.94
376.997	85.94
377.222	88.94
377.448	93.94
377.674	87.94
377.899	90.94
378.125	94.94
378.35	90.94
378.576	87.94
378.802	87.94
379.027	83.94
379.253	100.94
379.478	101.94
379.704	97.94
379.929	89.94
380.155	91.94
380.38	97.94
380.606	89.94
380.831	91.94
381.057	101.94
381.282	91.94
381.507	99.94
381.733	92.94
381.958	89.94
382.184	97.94
382.409	105.94
382.634	106.94
382.86	113.94
383.085	82.94
383.31	92.94
383.535	101.94
383.761	98.94
383.986	103.94
384.211	109.94
384.436	97.94
384.662	99.94
384.887	102.94
385.112	100.94
385.337	104.94
385.562	92.94
385.787	103.94
386.013	119.94
386.238	124.94
386.463	108.94
386.688	114.94
386.913	103.94
387.138	113.94
387.363	107.94
387.588	96.94
387.813	108.94
388.038	104.94
388.263	115.94
388.488	121.94
388.713	101.94
388.938	97.94
389.163	95.94
389.387	82.94
389.612	91.94
389.837	100.94
390.062	84.94
390.287	105.94
390.512	94.94
390.736	94.94
390.961	86.94
391.186	93.94
391.411	89.94
391.636	98.94
391.86	102.94
392.085	83.94
392.31	82.94
392.534	77.94
392.759	91.94
392.984	89.94
393.208	104.94
393.433	89.94
393.658	99.94
393.882	90.94
394.107	78.94
394.331	90.94
394.556	91.94
394.78	79.94
395.005	96.94
395.229	82.94
395.454	92.94
395.678	89.94
395.903	82.94
396.127	79.94
396.352	99.94
396.576	95.94
396.801	98.94
397.025	95.94
397.249	84.94
397.474	92.94
397.698	94.94
397.922	109.94
398.147	83.94
398.371	86.94
398.595	83.94
398.82	92.94
399.044	87.94
399.268	96.94
399.492	83.94
399.717	86.94
399.941	84.94
400.165	89.94
400.389	96.94
400.613	88.94
400.837	94.94
401.062	90.94
401.286	78.94
401.51	94.94
401.734	114.94
401.958	103.94
402.182	133.94
402.406	148.94
402.63	115.94
402.854	86.94
403.078	95.94
403.302	94.94
403.526	90.94
403.75	99.94
403.974	99.94
404.198	96.94
404.422	87.94
404.645	88.94
404.869	92.94
405.093	90.94
405.317	95.94
405.541	101.94
405.765	99.94
405.988	110.94
406.212	162.94
406.436	211.94
406.66	137.94
406.883	106.94
407.107	107.94
407.331	105.94
407.555	101.94
407.778	101.94
408.002	91.94
408.226	94.94
408.449	87.94
408.673	95.94
408.896	102.94
409.12	94.94
409.344	95.94
409.567	82.94
409.791	95.94
410.014	105.94
410.238	97.94
410.461	100.94
410.685	99.94
410.908	91.94
411.132	80.94
411.355	105.94
411.578	89.94
411.802	100.94
412.025	94.94
412.249	86.94
412.472	83.94
412.695	94.94
412.919	105.94
413.142	88.94
413.365	90.94
413.589	95.94
413.812	98.94
414.035	89.94
414.258	83.94
414.482	111.94
414.705	88.94
414.928	97.94
415.151	87.94
415.374	97.94
415.597	94.94
415.821	87.94
416.044	94.94
416.267	92.94
416.49	86.94
416.713	88.94
416.936	96.94
417.159	99.94
417.382	88.94
417.605	75.94
417.828	110.94
418.051	91.94
418.274	81.94
418.497	94.94
418.72	78.94
418.943	94.94
419.166	84.94
419.389	90.94
419.611	91.94
419.834	97.94
420.057	103.94
420.28	101.94
420.503	96.94
420.726	100.94
420.948	95.94
421.171	103.94
421.394	98.94
421.617	98.94
421.839	97.94
422.062	97.94
422.285	77.94
422.507	97.94
422.73	98.94
422.953	117.94
423.175	86.94
423.398	80.94
423.621	92.94
423.843	91.94
424.066	85.94
424.288	97.94
424.511	84.94
424.733	90.94
424.956	100.94
425.178	108.94
425.401	106.94
425.623	108.94
425.846	88.94
426.068	84.94
426.291	92.94
426.513	98.94
426.735	84.94
426.958	76.94
427.18	98.94
427.402	131.94
427.625	158.94
427.847	154.94
428.069	141.94
428.292	95.94
428.514	89.94
428.736	84.94
428.958	94.94
429.181	76.94
429.403	84.94
429.625	90.94
429.847	82.94
430.069	99.94
430.292	81.94
430.514	79.94
430.736	103.94
430.958	92.94
431.18	80.94
431.402	89.94
431.624	96.94
431.846	84.94
432.068	91.94
432.29	96.94
432.512	84.94
432.734	98.94
432.956	95.94
433.178	110.94
433.4	91.94
433.622	98.94
433.844	86.94
434.066	103.94
434.287	91.94
434.509	92.94
434.731	87.94
434.953	82.94
435.175	98.94
435.397	105.94
435.618	100.94
435.84	100.94
436.062	123.94
436.284	118.94
436.505	105.94
436.727	101.94
436.949	79.94
437.17	81.94
437.392	92.94
437.614	102.94
437.835	106.94
438.057	115.94
438.278	103.94
438.5	96.94
438.721	116.94
438.943	110.94
439.165	89.94
439.386	104.94
439.608	94.94
439.829	108.94
440.05	129.94
440.272	134.94
440.493	91.94
440.715	98.94
440.936	85.94
441.158	89.94
441.379	77.94
441.6	103.94
441.822	95.94
442.043	103.94
442.264	107.94
442.486	113.94
442.707	71.94
442.928	98.94
443.149	139.94
443.371	117.94
443.592	112.94
443.813	94.94
444.034	108.94
444.255	106.94
444.476	87.94
444.698	90.94
444.919	88.94
445.14	120.94
445.361	120.94
445.582	117.94
445.803	142.94
446.024	123.94
446.245	119.94
446.466	100.94
446.687	89.94
446.908	99.94
447.129	88.94
447.35	86.94
447.571	92.94
447.792	84.94
448.013	107.94
448.234	105.94
448.455	105.94
448.675	121.94
448.896	110.94
449.117	94.94
449.338	104.94
449.559	129.94
449.779	125.94
450	94.94
450.221	95.94
450.442	87.94
450.662	80.94
450.883	112.94
451.104	113.94
451.324	108.94
451.545	84.94
451.766	82.94
451.986	83.94
452.207	90.94
452.428	100.94
452.648	92.94
452.869	110.94
453.089	102.94
453.31	107.94
453.53	103.94
453.751	97.94
453.971	103.94
454.192	104.94
454.412	102.94
454.633	88.94
454.853	82.94
455.073	77.94
455.294	82.94
455.514	87.94
455.734	86.94
455.955	90.94
456.175	97.94
456.395	76.94
456.616	96.94
456.836	84.94
457.056	95.94
457.276	92.94
457.497	91.94
457.717	83.94
457.937	98.94
458.157	80.94
458.377	96.94
458.598	103.94
458.818	133.94
459.038	158.94
459.258	105.94
459.478	94.94
459.698	76.94
459.918	81.94
460.138	94.94
460.358	99.94
460.578	91.94
460.798	100.94
461.018	96.94
461.238	98.94
461.458	97.94
461.678	100.94
461.898	90.94
462.118	88.94
462.338	86.94
462.558	94.94
462.777	98.94
462.997	98.94
463.217	90.94
463.437	87.94
463.657	92.94
463.876	94.94
464.096	78.94
464.316	82.94
464.536	85.94
464.755	73.94
464.975	94.94
465.195	164.94
465.414	149.94
465.634	99.94
465.854	104.94
466.073	93.94
466.293	91.94
466.512	80.94
466.732	96.94
466.951	105.94
467.171	111.94
467.391	99.94
467.61	107.94
467.829	127.94
468.049	188.94
468.268	208.94
468.488	106.94
468.707	78.94
468.927	94.94
469.146	75.94
469.365	93.94
469.585	104.94
469.804	101.94
470.023	104.94
470.243	102.94
470.462	104.94
470.681	117.94
470.901	105.94
471.12	91.94
471.339	97.94
471.558	86.94
471.777	96.94
471.997	136.94
472.216	290.94
472.435	550.94
472.654	167.94
472.873	111.94
473.092	85.94
473.311	97.94
473.53	106.94
473.749	82.94
473.968	103.94
474.187	77.94
474.406	90.94
474.625	90.94
474.844	97.94
475.063	91.94
475.282	104.94
475.501	80.94
475.72	99.94
475.939	86.94
476.158	96.94
476.377	82.94
476.596	93.94
476.814	91.94
477.033	92.94
477.252	78.94
477.471	74.94
477.69	90.94
477.908	82.94
478.127	90.94
478.346	113.94
478.564	108.94
478.783	98.94
479.002	96.94
479.22	87.94
479.439	108.94
479.658	94.94
479.876	100.94
480.095	112.94
480.313	104.94
480.532	107.94
480.751	128.94
480.969	306.94
481.188	873.94
481.406	555.94
481.624	151.94
481.843	98.94
482.061	112.94
482.28	96.94
482.498	86.94
482.717	104.94
482.935	103.94
483.153	93.94
483.372	98.94
483.59	98.94
483.808	84.94
484.027	97.94
484.245	110.94
484.463	95.94
484.681	96.94
484.9	88.94
485.118	83.94
485.336	92.94
485.554	92.94
485.772	100.94
485.99	103.94
486.209	115.94
486.427	111.94
486.645	119.94
486.863	115.94
487.081	90.94
487.299	95.94
487.517	95.94
487.735	98.94
487.953	80.94
488.171	84.94
488.389	90.94
488.607	107.94
488.825	102.94
489.043	90.94
489.261	96.94
489.479	98.94
489.696	87.94
489.914	89.94
490.132	80.94
490.35	80.94
490.568	90.94
490.786	92.94
491.003	88.94
491.221	89.94
491.439	78.94
491.657	95.94
491.874	80.94
492.092	102.94
492.31	91.94
492.527	87.94
492.745	84.94
492.963	95.94
493.18	98.94
493.398	87.94
493.615	110.94
493.833	93.94
494.05	102.94
494.268	95.94
494.485	97.94
494.703	99.94
494.92	98.94
495.138	92.94
495.355	86.94
495.573	89.94
495.79	83.94
496.008	86.94
496.225	89.94
496.442	81.94
496.66	102.94
496.877	91.94
497.094	103.94
497.312	91.94
497.529	101.94
497.746	86.94
497.963	92.94
498.181	91.94
498.398	98.94
498.615	114.94
498.832	98.94
499.049	100.94
499.267	91.94
499.484	89.94
499.701	99.94
499.918	110.94
500.135	92.94
500.352	85.94
500.569	97.94
500.786	90.94
501.003	93.94
501.22	90.94
501.437	75.94
501.654	99.94
501.871	93.94
502.088	93.94
502.305	87.94
502.522	100.94
502.739	104.94
502.956	97.94
503.172	86.94
503.389	98.94
503.606	106.94
503.823	107.94
504.04	97.94
504.256	97.94
504.473	86.94
504.69	94.94
504.907	92.94
505.123	101.94
505.34	84.94
505.557	92.94
505.773	102.94
505.99	84.94
506.207	91.94
506.423	91.94
506.64	88.94
506.856	86.94
507.073	98.94
507.289	106.94
507.506	109.94
507.722	110.94
507.939	106.94
508.155	93.94
508.372	96.94
508.588	95.94
508.805	91.94
509.021	83.94
509.238	99.94
509.454	100.94
509.67	87.94
509.887	90.94
510.103	132.94
510.319	205.94
510.536	698.94
510.752	2161.94
510.968	607.94
511.184	144.94
511.401	112.94
511.617	91.94
511.833	93.94
512.049	79.94
512.265	91.94
512.481	93.94
512.698	86.94
512.914	94.94
513.13	93.94
513.346	89.94
513.562	82.94
513.778	97.94
513.994	73.94
514.21	103.94
514.426	127.94
514.642	145.94
514.858	116.94
