Data from Circ_2004_H10_HRD10591_00070.txt Node
Date: Wed Jan 03 10:33:28 EST 2024
User: Yrep
Spectrometer: HR+D1059
Trigger mode: 1
Integration Time (sec): 1.000000E-1
Scans to average: 1
Electric dark correction enabled: true
Nonlinearity correction enabled: false
Boxcar width: 0
XAxis mode: Wavelengths
Number of Pixels in Spectrum: 2048
>>>>>Begin Spectral Data<<<<<
223.165	-14.69
223.4	-14.69
223.635	-14.69
223.869	-31.69
224.104	-23.69
224.338	-16.69
224.573	-11.69
224.808	-14.69
225.042	-8.69
225.277	-11.69
225.511	1.31
225.746	9.31
225.98	11.31
226.215	13.31
226.449	17.31
226.683	22.31
226.918	29.31
227.152	29.31
227.387	32.31
227.621	44.31
227.856	42.31
228.09	45.31
228.324	54.31
228.559	41.31
228.793	58.31
229.027	69.31
229.262	72.31
229.496	74.31
229.73	86.31
229.964	90.31
230.199	73.31
230.433	68.31
230.667	85.31
230.901	70.31
231.136	72.31
231.37	80.31
231.604	79.31
231.838	88.31
232.072	84.31
232.306	56.31
232.541	78.31
232.775	73.31
233.009	83.31
233.243	75.31
233.477	95.31
233.711	81.31
233.945	73.31
234.179	72.31
234.413	75.31
234.647	87.31
234.881	73.31
235.115	74.31
235.349	69.31
235.583	76.31
235.817	83.31
236.051	74.31
236.285	69.31
236.519	57.31
236.753	77.31
236.987	87.31
237.221	83.31
237.455	86.31
237.689	72.31
237.922	67.31
238.156	61.31
238.39	69.31
238.624	69.31
238.858	75.31
239.091	77.31
239.325	82.31
239.559	86.31
239.793	75.31
240.027	86.31
240.26	86.31
240.494	84.31
240.728	73.31
240.961	82.31
241.195	81.31
241.429	80.31
241.662	63.31
241.896	72.31
242.13	85.31
242.363	70.31
242.597	80.31
242.83	88.31
243.064	72.31
243.298	78.31
243.531	77.31
243.765	67.31
243.998	77.31
244.232	78.31
244.465	83.31
244.699	94.31
244.932	76.31
245.166	84.31
245.399	72.31
245.633	80.31
245.866	79.31
246.099	85.31
246.333	76.31
246.566	81.31
246.8	71.31
247.033	74.31
247.266	68.31
247.5	72.31
247.733	86.31
247.966	83.31
248.2	81.31
248.433	77.31
248.666	85.31
248.899	86.31
249.133	85.31
249.366	90.31
249.599	89.31
249.832	88.31
250.066	91.31
250.299	96.31
250.532	97.31
250.765	87.31
250.998	88.31
251.231	79.31
251.465	77.31
251.698	78.31
251.931	75.31
252.164	84.31
252.397	74.31
252.63	75.31
252.863	68.31
253.096	77.31
253.329	82.31
253.562	88.31
253.795	77.31
254.028	72.31
254.261	83.31
254.494	87.31
254.727	81.31
254.96	80.31
255.193	85.31
255.426	74.31
255.659	82.31
255.892	94.31
256.124	85.31
256.357	79.31
256.59	84.31
256.823	70.31
257.056	75.31
257.289	82.31
257.521	77.31
257.754	93.31
257.987	76.31
258.22	95.31
258.452	86.31
258.685	68.31
258.918	79.31
259.151	99.31
259.383	90.31
259.616	81.31
259.849	77.31
260.081	100.31
260.314	73.31
260.547	90.31
260.779	96.31
261.012	93.31
261.244	87.31
261.477	81.31
261.71	82.31
261.942	128.31
262.175	113.31
262.407	92.31
262.64	77.31
262.872	81.31
263.105	88.31
263.337	78.31
263.57	84.31
263.802	86.31
264.035	74.31
264.267	95.31
264.499	71.31
264.732	81.31
264.964	93.31
265.197	100.31
265.429	87.31
265.661	87.31
265.894	82.31
266.126	84.31
266.358	88.31
266.591	86.31
266.823	64.31
267.055	79.31
267.287	73.31
267.52	96.31
267.752	79.31
267.984	72.31
268.216	81.31
268.448	78.31
268.681	90.31
268.913	95.31
269.145	85.31
269.377	93.31
269.609	79.31
269.841	70.31
270.073	71.31
270.306	87.31
270.538	70.31
270.77	82.31
271.002	86.31
271.234	67.31
271.466	78.31
271.698	89.31
271.93	95.31
272.162	86.31
272.394	80.31
272.626	92.31
272.858	82.31
273.09	86.31
273.322	95.31
273.553	85.31
273.785	89.31
274.017	77.31
274.249	62.31
274.481	95.31
274.713	68.31
274.945	89.31
275.176	95.31
275.408	100.31
275.64	99.31
275.872	113.31
276.104	90.31
276.335	89.31
276.567	107.31
276.799	119.31
277.031	127.31
277.262	120.31
277.494	107.31
277.726	94.31
277.957	91.31
278.189	84.31
278.421	90.31
278.652	103.31
278.884	77.31
279.115	76.31
279.347	106.31
279.579	96.31
279.81	100.31
280.042	130.31
280.273	169.31
280.505	119.31
280.736	91.31
280.968	85.31
281.199	74.31
281.431	88.31
281.662	89.31
281.894	98.31
282.125	95.31
282.356	121.31
282.588	141.31
282.819	101.31
283.051	78.31
283.282	87.31
283.513	83.31
283.745	83.31
283.976	78.31
284.207	83.31
284.439	81.31
284.67	86.31
284.901	82.31
285.132	80.31
285.364	95.31
285.595	86.31
285.826	93.31
286.057	83.31
286.288	89.31
286.52	93.31
286.751	67.31
286.982	87.31
287.213	85.31
287.444	87.31
287.675	89.31
287.906	92.31
288.138	108.31
288.369	101.31
288.6	86.31
288.831	87.31
289.062	95.31
289.293	88.31
289.524	81.31
289.755	87.31
289.986	81.31
290.217	79.31
290.448	86.31
290.679	88.31
290.91	70.31
291.141	61.31
291.371	84.31
291.602	67.31
291.833	75.31
292.064	81.31
292.295	90.31
292.526	99.31
292.757	96.31
292.987	92.31
293.218	84.31
293.449	91.31
293.68	78.31
293.91	84.31
294.141	92.31
294.372	83.31
294.603	83.31
294.833	99.31
295.064	93.31
295.295	94.31
295.525	100.31
295.756	115.31
295.987	107.31
296.217	132.31
296.448	121.31
296.679	96.31
296.909	95.31
297.14	99.31
297.37	83.31
297.601	84.31
297.831	94.31
298.062	89.31
298.292	98.31
298.523	82.31
298.753	91.31
298.984	75.31
299.214	96.31
299.445	92.31
299.675	102.31
299.905	101.31
300.136	81.31
300.366	92.31
300.597	86.31
300.827	98.31
301.057	96.31
301.288	99.31
301.518	98.31
301.748	96.31
301.979	112.31
302.209	98.31
302.439	83.31
302.669	85.31
302.9	95.31
303.13	101.31
303.36	108.31
303.59	96.31
303.82	108.31
304.051	91.31
304.281	88.31
304.511	97.31
304.741	71.31
304.971	77.31
305.201	94.31
305.431	100.31
305.661	83.31
305.891	72.31
306.121	96.31
306.352	109.31
306.582	108.31
306.812	110.31
307.042	100.31
307.272	112.31
307.502	125.31
307.731	121.31
307.961	103.31
308.191	86.31
308.421	80.31
308.651	86.31
308.881	87.31
309.111	89.31
309.341	98.31
309.571	92.31
309.8	84.31
310.03	97.31
310.26	101.31
310.49	95.31
310.72	89.31
310.949	116.31
311.179	98.31
311.409	101.31
311.639	101.31
311.868	81.31
312.098	96.31
312.328	101.31
312.557	102.31
312.787	111.31
313.017	116.31
313.246	93.31
313.476	86.31
313.706	101.31
313.935	91.31
314.165	91.31
314.394	107.31
314.624	98.31
314.853	83.31
315.083	95.31
315.312	94.31
315.542	89.31
315.771	101.31
316.001	94.31
316.23	72.31
316.46	84.31
316.689	97.31
316.919	89.31
317.148	115.31
317.377	99.31
317.607	102.31
317.836	98.31
318.065	84.31
318.295	88.31
318.524	92.31
318.753	80.31
318.983	94.31
319.212	89.31
319.441	112.31
319.67	101.31
319.9	91.31
320.129	106.31
320.358	96.31
320.587	90.31
320.816	99.31
321.046	83.31
321.275	89.31
321.504	84.31
321.733	109.31
321.962	100.31
322.191	91.31
322.42	94.31
322.649	113.31
322.878	129.31
323.108	120.31
323.337	127.31
323.566	140.31
323.795	165.31
324.024	232.31
324.253	434.31
324.482	940.31
324.71	1973.31
324.939	2544.31
325.168	902.31
325.397	255.31
325.626	162.31
325.855	127.31
326.084	131.31
326.313	138.31
326.542	177.31
326.77	252.31
326.999	547.31
327.228	1109.31
327.457	1936.31
327.686	1555.31
327.914	452.31
328.143	315.31
328.372	363.31
328.6	234.31
328.829	148.31
329.058	146.31
329.287	153.31
329.515	127.31
329.744	169.31
329.972	265.31
330.201	486.31
330.43	683.31
330.658	337.31
330.887	201.31
331.115	137.31
331.344	110.31
331.572	98.31
331.801	123.31
332.03	106.31
332.258	110.31
332.486	103.31
332.715	85.31
332.943	97.31
333.172	101.31
333.4	110.31
333.629	129.31
333.857	161.31
334.085	279.31
334.314	471.31
334.542	848.31
334.771	824.31
334.999	243.31
335.227	140.31
335.455	110.31
335.684	102.31
335.912	98.31
336.14	90.31
336.369	89.31
336.597	99.31
336.825	109.31
337.053	94.31
337.281	99.31
337.51	89.31
337.738	99.31
337.966	99.31
338.194	96.31
338.422	102.31
338.65	77.31
338.878	104.31
339.106	75.31
339.334	85.31
339.562	93.31
339.79	107.31
340.018	89.31
340.246	82.31
340.474	93.31
340.702	93.31
340.93	113.31
341.158	98.31
341.386	91.31
341.614	108.31
341.842	84.31
342.07	94.31
342.298	95.31
342.526	87.31
342.754	94.31
342.981	83.31
343.209	78.31
343.437	98.31
343.665	88.31
343.893	89.31
344.12	84.31
344.348	93.31
344.576	95.31
344.804	88.31
345.031	99.31
345.259	100.31
345.487	94.31
345.714	92.31
345.942	89.31
346.17	103.31
346.397	85.31
346.625	103.31
346.853	92.31
347.08	85.31
347.308	96.31
347.535	91.31
347.763	98.31
347.99	96.31
348.218	100.31
348.445	78.31
348.673	101.31
348.9	104.31
349.128	91.31
349.355	100.31
349.583	86.31
349.81	93.31
350.037	85.31
350.265	98.31
350.492	108.31
350.72	97.31
350.947	89.31
351.174	117.31
351.402	114.31
351.629	104.31
351.856	110.31
352.083	107.31
352.311	104.31
352.538	112.31
352.765	117.31
352.992	118.31
353.22	113.31
353.447	102.31
353.674	108.31
353.901	104.31
354.128	87.31
354.355	100.31
354.583	109.31
354.81	86.31
355.037	91.31
355.264	89.31
355.491	95.31
355.718	93.31
355.945	107.31
356.172	87.31
356.399	92.31
356.626	97.31
356.853	88.31
357.08	99.31
357.307	91.31
357.534	80.31
357.761	95.31
357.988	88.31
358.215	93.31
358.441	82.31
358.668	92.31
358.895	79.31
359.122	102.31
359.349	87.31
359.576	83.31
359.802	95.31
360.029	129.31
360.256	113.31
360.483	108.31
360.709	98.31
360.936	81.31
361.163	100.31
361.39	109.31
361.616	102.31
361.843	90.31
362.07	106.31
362.296	89.31
362.523	91.31
362.749	95.31
362.976	89.31
363.203	109.31
363.429	88.31
363.656	94.31
363.882	88.31
364.109	82.31
364.335	111.31
364.562	93.31
364.788	89.31
365.015	83.31
365.241	89.31
365.468	112.31
365.694	101.31
365.92	95.31
366.147	82.31
366.373	95.31
366.599	93.31
366.826	95.31
367.052	92.31
367.278	110.31
367.505	96.31
367.731	79.31
367.957	80.31
368.184	94.31
368.41	98.31
368.636	103.31
368.862	118.31
369.089	113.31
369.315	104.31
369.541	98.31
369.767	79.31
369.993	90.31
370.219	93.31
370.445	85.31
370.672	84.31
370.898	102.31
371.124	80.31
371.35	78.31
371.576	90.31
371.802	98.31
372.028	86.31
372.254	92.31
372.48	69.31
372.706	81.31
372.932	95.31
373.158	87.31
373.384	93.31
373.61	76.31
373.835	84.31
374.061	94.31
374.287	94.31
374.513	100.31
374.739	86.31
374.965	99.31
375.191	92.31
375.416	100.31
375.642	79.31
375.868	88.31
376.094	80.31
376.319	84.31
376.545	79.31
376.771	78.31
376.997	94.31
377.222	84.31
377.448	91.31
377.674	87.31
377.899	104.31
378.125	85.31
378.35	74.31
378.576	85.31
378.802	81.31
379.027	84.31
379.253	99.31
379.478	99.31
379.704	99.31
379.929	103.31
380.155	89.31
380.38	90.31
380.606	87.31
380.831	89.31
381.057	87.31
381.282	103.31
381.507	89.31
381.733	91.31
381.958	97.31
382.184	99.31
382.409	100.31
382.634	93.31
382.86	95.31
383.085	97.31
383.31	94.31
383.535	95.31
383.761	93.31
383.986	100.31
384.211	95.31
384.436	94.31
384.662	81.31
384.887	91.31
385.112	100.31
385.337	108.31
385.562	108.31
385.787	93.31
386.013	109.31
386.238	115.31
386.463	97.31
386.688	108.31
386.913	104.31
387.138	107.31
387.363	86.31
387.588	96.31
387.813	100.31
388.038	110.31
388.263	101.31
388.488	98.31
388.713	92.31
388.938	97.31
389.163	93.31
389.387	90.31
389.612	86.31
389.837	80.31
390.062	93.31
390.287	81.31
390.512	101.31
390.736	100.31
390.961	86.31
391.186	80.31
391.411	89.31
391.636	87.31
391.86	73.31
392.085	86.31
392.31	95.31
392.534	88.31
392.759	89.31
392.984	87.31
393.208	91.31
393.433	84.31
393.658	99.31
393.882	92.31
394.107	82.31
394.331	85.31
394.556	98.31
394.78	95.31
395.005	85.31
395.229	87.31
395.454	84.31
395.678	85.31
395.903	96.31
396.127	86.31
396.352	100.31
396.576	87.31
396.801	72.31
397.025	97.31
397.249	94.31
397.474	75.31
397.698	71.31
397.922	93.31
398.147	85.31
398.371	97.31
398.595	89.31
398.82	89.31
399.044	85.31
399.268	95.31
399.492	86.31
399.717	105.31
399.941	100.31
400.165	91.31
400.389	98.31
400.613	98.31
400.837	81.31
401.062	84.31
401.286	87.31
401.51	98.31
401.734	102.31
401.958	112.31
402.182	132.31
402.406	152.31
402.63	137.31
402.854	95.31
403.078	95.31
403.302	85.31
403.526	73.31
403.75	93.31
403.974	96.31
404.198	99.31
404.422	81.31
404.645	73.31
404.869	104.31
405.093	110.31
405.317	131.31
405.541	116.31
405.765	113.31
405.988	108.31
406.212	193.31
406.436	251.31
406.66	152.31
406.883	113.31
407.107	83.31
407.331	93.31
407.555	108.31
407.778	98.31
408.002	104.31
408.226	87.31
408.449	81.31
408.673	66.31
408.896	93.31
409.12	87.31
409.344	100.31
409.567	84.31
409.791	92.31
410.014	99.31
410.238	97.31
410.461	77.31
410.685	96.31
410.908	104.31
411.132	103.31
411.355	99.31
411.578	82.31
411.802	87.31
412.025	69.31
412.249	95.31
412.472	102.31
412.695	132.31
412.919	107.31
413.142	87.31
413.365	82.31
413.589	100.31
413.812	96.31
414.035	85.31
414.258	81.31
414.482	87.31
414.705	82.31
414.928	83.31
415.151	84.31
415.374	88.31
415.597	104.31
415.821	92.31
416.044	88.31
416.267	96.31
416.49	86.31
416.713	87.31
416.936	98.31
417.159	93.31
417.382	84.31
417.605	96.31
417.828	111.31
418.051	109.31
418.274	89.31
418.497	94.31
418.72	89.31
418.943	77.31
419.166	97.31
419.389	89.31
419.611	93.31
419.834	82.31
420.057	84.31
420.28	100.31
420.503	87.31
420.726	89.31
420.948	86.31
421.171	111.31
421.394	93.31
421.617	84.31
421.839	87.31
422.062	87.31
422.285	89.31
422.507	108.31
422.73	97.31
422.953	99.31
423.175	75.31
423.398	85.31
423.621	84.31
423.843	100.31
424.066	90.31
424.288	94.31
424.511	107.31
424.733	102.31
424.956	112.31
425.178	102.31
425.401	104.31
425.623	94.31
425.846	90.31
426.068	94.31
426.291	91.31
426.513	86.31
426.735	94.31
426.958	106.31
427.18	107.31
427.402	137.31
427.625	181.31
427.847	203.31
428.069	182.31
428.292	109.31
428.514	89.31
428.736	84.31
428.958	84.31
429.181	92.31
429.403	85.31
429.625	79.31
429.847	86.31
430.069	107.31
430.292	84.31
430.514	89.31
430.736	87.31
430.958	89.31
431.18	81.31
431.402	100.31
431.624	99.31
431.846	87.31
432.068	103.31
432.29	84.31
432.512	97.31
432.734	97.31
432.956	85.31
433.178	108.31
433.4	106.31
433.622	106.31
433.844	93.31
434.066	90.31
434.287	81.31
434.509	91.31
434.731	85.31
434.953	74.31
435.175	76.31
435.397	88.31
435.618	89.31
435.84	103.31
436.062	131.31
436.284	111.31
436.505	108.31
436.727	109.31
436.949	91.31
437.17	79.31
437.392	88.31
437.614	88.31
437.835	105.31
438.057	127.31
438.278	112.31
438.5	104.31
438.721	123.31
438.943	116.31
439.165	79.31
439.386	90.31
439.608	108.31
439.829	105.31
440.05	107.31
440.272	156.31
440.493	103.31
440.715	96.31
440.936	83.31
441.158	93.31
441.379	75.31
441.6	96.31
441.822	99.31
442.043	108.31
442.264	126.31
442.486	114.31
442.707	107.31
442.928	107.31
443.149	130.31
443.371	137.31
443.592	112.31
443.813	135.31
444.034	122.31
444.255	97.31
444.476	86.31
444.698	83.31
444.919	75.31
445.14	136.31
445.361	109.31
445.582	143.31
445.803	137.31
446.024	150.31
446.245	144.31
446.466	122.31
446.687	94.31
446.908	86.31
447.129	79.31
447.35	70.31
447.571	92.31
447.792	91.31
448.013	98.31
448.234	103.31
448.455	112.31
448.675	117.31
448.896	122.31
449.117	102.31
449.338	115.31
449.559	143.31
449.779	128.31
450	95.31
450.221	96.31
450.442	86.31
450.662	92.31
450.883	112.31
451.104	100.31
451.324	91.31
451.545	100.31
451.766	86.31
451.986	82.31
452.207	87.31
452.428	111.31
452.648	89.31
452.869	115.31
453.089	116.31
453.31	115.31
453.53	104.31
453.751	101.31
453.971	96.31
454.192	134.31
454.412	97.31
454.633	87.31
454.853	89.31
455.073	91.31
455.294	87.31
455.514	97.31
455.734	89.31
455.955	79.31
456.175	84.31
456.395	105.31
456.616	86.31
456.836	81.31
457.056	90.31
457.276	87.31
457.497	83.31
457.717	72.31
457.937	83.31
458.157	99.31
458.377	92.31
458.598	94.31
458.818	173.31
459.038	179.31
459.258	113.31
459.478	96.31
459.698	75.31
459.918	94.31
460.138	93.31
460.358	73.31
460.578	82.31
460.798	90.31
461.018	87.31
461.238	81.31
461.458	86.31
461.678	72.31
461.898	89.31
462.118	79.31
462.338	97.31
462.558	101.31
462.777	92.31
462.997	86.31
463.217	97.31
463.437	94.31
463.657	80.31
463.876	76.31
464.096	99.31
464.316	96.31
464.536	86.31
464.755	88.31
464.975	107.31
465.195	176.31
465.414	161.31
465.634	91.31
465.854	81.31
466.073	96.31
466.293	84.31
466.512	82.31
466.732	86.31
466.951	91.31
467.171	97.31
467.391	81.31
467.61	112.31
467.829	149.31
468.049	295.31
468.268	427.31
468.488	146.31
468.707	100.31
468.927	71.31
469.146	94.31
469.365	78.31
469.585	107.31
469.804	107.31
470.023	94.31
470.243	89.31
470.462	109.31
470.681	118.31
470.901	88.31
471.12	95.31
471.339	107.31
471.558	101.31
471.777	113.31
471.997	203.31
472.216	573.31
472.435	1206.31
472.654	330.31
472.873	135.31
473.092	80.31
473.311	89.31
473.53	92.31
473.749	99.31
473.968	87.31
474.187	100.31
474.406	98.31
474.625	93.31
474.844	81.31
475.063	96.31
475.282	90.31
475.501	89.31
475.72	94.31
475.939	89.31
476.158	70.31
476.377	77.31
476.596	85.31
476.814	94.31
477.033	97.31
477.252	94.31
477.471	104.31
477.69	95.31
477.908	88.31
478.127	76.31
478.346	88.31
478.564	78.31
478.783	83.31
479.002	83.31
479.22	101.31
479.439	114.31
479.658	131.31
479.876	100.31
480.095	94.31
480.313	116.31
480.532	131.31
480.751	188.31
480.969	527.31
481.188	2033.31
481.406	1231.31
481.624	210.31
481.843	112.31
482.061	93.31
482.28	101.31
482.498	100.31
482.717	100.31
482.935	85.31
483.153	84.31
483.372	81.31
483.59	80.31
483.808	85.31
484.027	82.31
484.245	83.31
484.463	86.31
484.681	87.31
484.9	95.31
485.118	105.31
485.336	88.31
485.554	109.31
485.772	95.31
485.99	102.31
486.209	108.31
486.427	109.31
486.645	96.31
486.863	112.31
487.081	99.31
487.299	79.31
487.517	89.31
487.735	81.31
487.953	87.31
488.171	91.31
488.389	89.31
488.607	93.31
488.825	86.31
489.043	100.31
489.261	86.31
489.479	105.31
489.696	75.31
489.914	88.31
490.132	84.31
490.35	80.31
490.568	93.31
490.786	76.31
491.003	88.31
491.221	94.31
491.439	94.31
491.657	85.31
491.874	93.31
492.092	95.31
492.31	94.31
492.527	92.31
492.745	88.31
492.963	91.31
493.18	93.31
493.398	87.31
493.615	99.31
493.833	88.31
494.05	89.31
494.268	85.31
494.485	93.31
494.703	82.31
494.92	84.31
495.138	95.31
495.355	85.31
495.573	86.31
495.79	94.31
496.008	78.31
496.225	97.31
496.442	89.31
496.66	86.31
496.877	71.31
497.094	82.31
497.312	94.31
497.529	84.31
497.746	83.31
497.963	95.31
498.181	90.31
498.398	91.31
498.615	99.31
498.832	89.31
499.049	89.31
499.267	94.31
499.484	83.31
499.701	81.31
499.918	91.31
500.135	79.31
500.352	98.31
500.569	109.31
500.786	72.31
501.003	79.31
501.22	94.31
501.437	87.31
501.654	105.31
501.871	113.31
502.088	103.31
502.305	78.31
502.522	69.31
502.739	91.31
502.956	80.31
503.172	91.31
503.389	89.31
503.606	121.31
503.823	94.31
504.04	79.31
504.256	92.31
504.473	102.31
504.69	93.31
504.907	97.31
505.123	90.31
505.34	85.31
505.557	97.31
505.773	91.31
505.99	93.31
506.207	84.31
506.423	96.31
506.64	80.31
506.856	89.31
507.073	87.31
507.289	87.31
507.506	84.31
507.722	112.31
507.939	117.31
508.155	87.31
508.372	90.31
508.588	91.31
508.805	91.31
509.021	98.31
509.238	95.31
509.454	78.31
509.67	103.31
509.887	102.31
510.103	131.31
510.319	226.31
510.536	773.31
510.752	2489.31
510.968	699.31
511.184	160.31
511.401	104.31
511.617	102.31
511.833	95.31
512.049	99.31
512.265	92.31
512.481	102.31
512.698	75.31
512.914	78.31
513.13	89.31
513.346	99.31
513.562	99.31
513.778	112.31
513.994	96.31
514.21	110.31
514.426	136.31
514.642	157.31
514.858	147.31
