Data from Circ_2004_H10_HRD10591_00004.txt Node
Date: Wed Jan 03 10:33:15 EST 2024
User: Yrep
Spectrometer: HR+D1059
Trigger mode: 1
Integration Time (sec): 1.000000E-1
Scans to average: 1
Electric dark correction enabled: true
Nonlinearity correction enabled: false
Boxcar width: 0
XAxis mode: Wavelengths
Number of Pixels in Spectrum: 2048
>>>>>Begin Spectral Data<<<<<
223.165	-25.31
223.4	-25.31
223.635	-25.31
223.869	-6.31
224.104	-20.31
224.338	-9.31
224.573	-5.31
224.808	-14.31
225.042	-20.31
225.277	-1.31
225.511	-6.31
225.746	-12.31
225.98	8.69
226.215	15.69
226.449	22.69
226.683	3.69
226.918	32.69
227.152	37.69
227.387	29.69
227.621	43.69
227.856	30.69
228.09	35.69
228.324	54.69
228.559	43.69
228.793	51.69
229.027	51.69
229.262	68.69
229.496	82.69
229.73	79.69
229.964	95.69
230.199	72.69
230.433	74.69
230.667	85.69
230.901	79.69
231.136	82.69
231.37	80.69
231.604	77.69
231.838	84.69
232.072	82.69
232.306	76.69
232.541	80.69
232.775	103.69
233.009	86.69
233.243	83.69
233.477	93.69
233.711	70.69
233.945	76.69
234.179	71.69
234.413	64.69
234.647	75.69
234.881	77.69
235.115	86.69
235.349	73.69
235.583	71.69
235.817	89.69
236.051	69.69
236.285	70.69
236.519	57.69
236.753	84.69
236.987	83.69
237.221	75.69
237.455	90.69
237.689	67.69
237.922	72.69
238.156	81.69
238.39	75.69
238.624	74.69
238.858	73.69
239.091	61.69
239.325	73.69
239.559	70.69
239.793	78.69
240.027	89.69
240.26	84.69
240.494	77.69
240.728	69.69
240.961	72.69
241.195	75.69
241.429	67.69
241.662	70.69
241.896	81.69
242.13	68.69
242.363	74.69
242.597	87.69
242.83	62.69
243.064	69.69
243.298	76.69
243.531	77.69
243.765	61.69
243.998	77.69
244.232	88.69
244.465	66.69
244.699	86.69
244.932	69.69
245.166	78.69
245.399	81.69
245.633	72.69
245.866	55.69
246.099	78.69
246.333	92.69
246.566	57.69
246.8	95.69
247.033	82.69
247.266	55.69
247.5	81.69
247.733	85.69
247.966	75.69
248.2	84.69
248.433	80.69
248.666	83.69
248.899	73.69
249.133	78.69
249.366	99.69
249.599	86.69
249.832	81.69
250.066	88.69
250.299	79.69
250.532	81.69
250.765	81.69
250.998	69.69
251.231	87.69
251.465	80.69
251.698	86.69
251.931	89.69
252.164	89.69
252.397	71.69
252.63	75.69
252.863	83.69
253.096	92.69
253.329	77.69
253.562	100.69
253.795	71.69
254.028	75.69
254.261	75.69
254.494	85.69
254.727	98.69
254.96	92.69
255.193	90.69
255.426	71.69
255.659	82.69
255.892	83.69
256.124	79.69
256.357	74.69
256.59	79.69
256.823	76.69
257.056	85.69
257.289	85.69
257.521	86.69
257.754	80.69
257.987	60.69
258.22	88.69
258.452	92.69
258.685	89.69
258.918	87.69
259.151	78.69
259.383	78.69
259.616	98.69
259.849	77.69
260.081	87.69
260.314	93.69
260.547	80.69
260.779	86.69
261.012	83.69
261.244	73.69
261.477	102.69
261.71	94.69
261.942	107.69
262.175	95.69
262.407	92.69
262.64	83.69
262.872	58.69
263.105	77.69
263.337	84.69
263.57	84.69
263.802	88.69
264.035	84.69
264.267	75.69
264.499	78.69
264.732	88.69
264.964	90.69
265.197	82.69
265.429	84.69
265.661	67.69
265.894	80.69
266.126	72.69
266.358	84.69
266.591	82.69
266.823	70.69
267.055	83.69
267.287	75.69
267.52	89.69
267.752	87.69
267.984	70.69
268.216	81.69
268.448	88.69
268.681	73.69
268.913	94.69
269.145	80.69
269.377	80.69
269.609	95.69
269.841	83.69
270.073	85.69
270.306	98.69
270.538	91.69
270.77	76.69
271.002	91.69
271.234	87.69
271.466	89.69
271.698	85.69
271.93	83.69
272.162	89.69
272.394	95.69
272.626	70.69
272.858	94.69
273.09	75.69
273.322	95.69
273.553	88.69
273.785	78.69
274.017	83.69
274.249	84.69
274.481	85.69
274.713	85.69
274.945	78.69
275.176	78.69
275.408	86.69
275.64	82.69
275.872	81.69
276.104	96.69
276.335	74.69
276.567	86.69
276.799	97.69
277.031	104.69
277.262	109.69
277.494	99.69
277.726	87.69
277.957	87.69
278.189	92.69
278.421	96.69
278.652	91.69
278.884	89.69
279.115	83.69
279.347	97.69
279.579	94.69
279.81	80.69
280.042	106.69
280.273	104.69
280.505	86.69
280.736	78.69
280.968	88.69
281.199	79.69
281.431	75.69
281.662	76.69
281.894	88.69
282.125	94.69
282.356	100.69
282.588	115.69
282.819	96.69
283.051	94.69
283.282	87.69
283.513	101.69
283.745	86.69
283.976	88.69
284.207	89.69
284.439	83.69
284.67	92.69
284.901	79.69
285.132	81.69
285.364	77.69
285.595	82.69
285.826	85.69
286.057	98.69
286.288	75.69
286.52	84.69
286.751	88.69
286.982	92.69
287.213	102.69
287.444	89.69
287.675	92.69
287.906	102.69
288.138	95.69
288.369	93.69
288.6	88.69
288.831	84.69
289.062	85.69
289.293	89.69
289.524	89.69
289.755	95.69
289.986	90.69
290.217	82.69
290.448	89.69
290.679	102.69
290.91	89.69
291.141	80.69
291.371	85.69
291.602	88.69
291.833	94.69
292.064	71.69
292.295	81.69
292.526	93.69
292.757	73.69
292.987	80.69
293.218	88.69
293.449	94.69
293.68	93.69
293.91	83.69
294.141	97.69
294.372	89.69
294.603	85.69
294.833	80.69
295.064	81.69
295.295	90.69
295.525	75.69
295.756	114.69
295.987	111.69
296.217	109.69
296.448	99.69
296.679	89.69
296.909	81.69
297.14	90.69
297.37	83.69
297.601	94.69
297.831	98.69
298.062	84.69
298.292	85.69
298.523	80.69
298.753	78.69
298.984	88.69
299.214	89.69
299.445	81.69
299.675	90.69
299.905	82.69
300.136	95.69
300.366	91.69
300.597	75.69
300.827	97.69
301.057	87.69
301.288	96.69
301.518	86.69
301.748	81.69
301.979	101.69
302.209	91.69
302.439	76.69
302.669	85.69
302.9	87.69
303.13	81.69
303.36	99.69
303.59	89.69
303.82	93.69
304.051	91.69
304.281	93.69
304.511	89.69
304.741	75.69
304.971	88.69
305.201	92.69
305.431	91.69
305.661	88.69
305.891	96.69
306.121	86.69
306.352	96.69
306.582	97.69
306.812	87.69
307.042	101.69
307.272	118.69
307.502	89.69
307.731	117.69
307.961	100.69
308.191	82.69
308.421	94.69
308.651	91.69
308.881	94.69
309.111	92.69
309.341	107.69
309.571	89.69
309.8	88.69
310.03	100.69
310.26	82.69
310.49	80.69
310.72	101.69
310.949	101.69
311.179	96.69
311.409	96.69
311.639	94.69
311.868	98.69
312.098	93.69
312.328	106.69
312.557	104.69
312.787	101.69
313.017	100.69
313.246	107.69
313.476	97.69
313.706	90.69
313.935	100.69
314.165	104.69
314.394	99.69
314.624	95.69
314.853	93.69
315.083	88.69
315.312	93.69
315.542	79.69
315.771	107.69
316.001	88.69
316.23	104.69
316.46	93.69
316.689	90.69
316.919	89.69
317.148	87.69
317.377	97.69
317.607	111.69
317.836	95.69
318.065	83.69
318.295	92.69
318.524	85.69
318.753	97.69
318.983	99.69
319.212	97.69
319.441	87.69
319.67	110.69
319.9	94.69
320.129	97.69
320.358	99.69
320.587	101.69
320.816	99.69
321.046	101.69
321.275	103.69
321.504	103.69
321.733	92.69
321.962	94.69
322.191	103.69
322.42	105.69
322.649	103.69
322.878	102.69
323.108	112.69
323.337	124.69
323.566	127.69
323.795	136.69
324.024	192.69
324.253	324.69
324.482	651.69
324.71	1394.69
324.939	1802.69
325.168	685.69
325.397	207.69
325.626	130.69
325.855	130.69
326.084	118.69
326.313	114.69
326.542	154.69
326.77	204.69
326.999	419.69
327.228	821.69
327.457	1451.69
327.686	1149.69
327.914	325.69
328.143	209.69
328.372	174.69
328.6	138.69
328.829	113.69
329.058	112.69
329.287	133.69
329.515	118.69
329.744	122.69
329.972	120.69
330.201	183.69
330.43	242.69
330.658	165.69
330.887	133.69
331.115	118.69
331.344	93.69
331.572	104.69
331.801	112.69
332.03	99.69
332.258	93.69
332.486	91.69
332.715	90.69
332.943	93.69
333.172	93.69
333.4	99.69
333.629	120.69
333.857	122.69
334.085	127.69
334.314	186.69
334.542	281.69
334.771	275.69
334.999	123.69
335.227	89.69
335.455	107.69
335.684	88.69
335.912	104.69
336.14	87.69
336.369	97.69
336.597	104.69
336.825	109.69
337.053	79.69
337.281	96.69
337.51	94.69
337.738	93.69
337.966	88.69
338.194	95.69
338.422	83.69
338.65	85.69
338.878	93.69
339.106	81.69
339.334	85.69
339.562	99.69
339.79	87.69
340.018	95.69
340.246	83.69
340.474	103.69
340.702	101.69
340.93	85.69
341.158	94.69
341.386	91.69
341.614	92.69
341.842	88.69
342.07	73.69
342.298	90.69
342.526	75.69
342.754	99.69
342.981	99.69
343.209	91.69
343.437	95.69
343.665	99.69
343.893	95.69
344.12	82.69
344.348	83.69
344.576	76.69
344.804	92.69
345.031	94.69
345.259	89.69
345.487	101.69
345.714	94.69
345.942	92.69
346.17	98.69
346.397	79.69
346.625	102.69
346.853	89.69
347.08	79.69
347.308	103.69
347.535	101.69
347.763	97.69
347.99	95.69
348.218	104.69
348.445	102.69
348.673	96.69
348.9	88.69
349.128	86.69
349.355	87.69
349.583	91.69
349.81	100.69
350.037	89.69
350.265	92.69
350.492	93.69
350.72	101.69
350.947	91.69
351.174	110.69
351.402	98.69
351.629	98.69
351.856	104.69
352.083	91.69
352.311	94.69
352.538	103.69
352.765	89.69
352.992	105.69
353.22	108.69
353.447	103.69
353.674	95.69
353.901	103.69
354.128	90.69
354.355	84.69
354.583	95.69
354.81	102.69
355.037	92.69
355.264	79.69
355.491	85.69
355.718	101.69
355.945	102.69
356.172	102.69
356.399	101.69
356.626	87.69
356.853	79.69
357.08	93.69
357.307	86.69
357.534	99.69
357.761	72.69
357.988	92.69
358.215	92.69
358.441	102.69
358.668	96.69
358.895	104.69
359.122	102.69
359.349	86.69
359.576	90.69
359.802	99.69
360.029	102.69
360.256	101.69
360.483	93.69
360.709	90.69
360.936	74.69
361.163	87.69
361.39	94.69
361.616	95.69
361.843	76.69
362.07	95.69
362.296	87.69
362.523	91.69
362.749	91.69
362.976	88.69
363.203	95.69
363.429	86.69
363.656	99.69
363.882	95.69
364.109	83.69
364.335	83.69
364.562	88.69
364.788	102.69
365.015	103.69
365.241	110.69
365.468	104.69
365.694	111.69
365.92	97.69
366.147	77.69
366.373	96.69
366.599	85.69
366.826	81.69
367.052	80.69
367.278	93.69
367.505	77.69
367.731	82.69
367.957	100.69
368.184	102.69
368.41	99.69
368.636	100.69
368.862	108.69
369.089	93.69
369.315	105.69
369.541	86.69
369.767	88.69
369.993	96.69
370.219	97.69
370.445	113.69
370.672	87.69
370.898	86.69
371.124	92.69
371.35	100.69
371.576	89.69
371.802	103.69
372.028	95.69
372.254	73.69
372.48	78.69
372.706	85.69
372.932	93.69
373.158	83.69
373.384	84.69
373.61	97.69
373.835	95.69
374.061	89.69
374.287	100.69
374.513	88.69
374.739	88.69
374.965	84.69
375.191	79.69
375.416	95.69
375.642	95.69
375.868	91.69
376.094	87.69
376.319	80.69
376.545	86.69
376.771	93.69
376.997	89.69
377.222	76.69
377.448	105.69
377.674	87.69
377.899	97.69
378.125	87.69
378.35	89.69
378.576	102.69
378.802	80.69
379.027	90.69
379.253	105.69
379.478	112.69
379.704	85.69
379.929	96.69
380.155	86.69
380.38	89.69
380.606	93.69
380.831	92.69
381.057	111.69
381.282	93.69
381.507	103.69
381.733	89.69
381.958	84.69
382.184	94.69
382.409	115.69
382.634	95.69
382.86	92.69
383.085	100.69
383.31	111.69
383.535	89.69
383.761	103.69
383.986	97.69
384.211	92.69
384.436	108.69
384.662	99.69
384.887	114.69
385.112	108.69
385.337	107.69
385.562	112.69
385.787	125.69
386.013	116.69
386.238	102.69
386.463	119.69
386.688	108.69
386.913	97.69
387.138	107.69
387.363	116.69
387.588	114.69
387.813	102.69
388.038	112.69
388.263	108.69
388.488	111.69
388.713	103.69
388.938	102.69
389.163	101.69
389.387	93.69
389.612	89.69
389.837	101.69
390.062	88.69
390.287	84.69
390.512	91.69
390.736	84.69
390.961	94.69
391.186	88.69
391.411	92.69
391.636	92.69
391.86	85.69
392.085	80.69
392.31	96.69
392.534	80.69
392.759	71.69
392.984	84.69
393.208	97.69
393.433	106.69
393.658	85.69
393.882	83.69
394.107	78.69
394.331	80.69
394.556	89.69
394.78	86.69
395.005	84.69
395.229	85.69
395.454	79.69
395.678	78.69
395.903	91.69
396.127	94.69
396.352	91.69
396.576	81.69
396.801	72.69
397.025	85.69
397.249	83.69
397.474	87.69
397.698	81.69
397.922	77.69
398.147	104.69
398.371	86.69
398.595	103.69
398.82	82.69
399.044	89.69
399.268	74.69
399.492	88.69
399.717	80.69
399.941	92.69
400.165	88.69
400.389	84.69
400.613	94.69
400.837	83.69
401.062	82.69
401.286	102.69
401.51	76.69
401.734	82.69
401.958	89.69
402.182	117.69
402.406	140.69
402.63	95.69
402.854	87.69
403.078	109.69
403.302	79.69
403.526	91.69
403.75	74.69
403.974	82.69
404.198	96.69
404.422	82.69
404.645	82.69
404.869	87.69
405.093	100.69
405.317	106.69
405.541	108.69
405.765	99.69
405.988	108.69
406.212	142.69
406.436	183.69
406.66	124.69
406.883	96.69
407.107	82.69
407.331	90.69
407.555	89.69
407.778	87.69
408.002	89.69
408.226	87.69
408.449	77.69
408.673	87.69
408.896	70.69
409.12	85.69
409.344	88.69
409.567	99.69
409.791	98.69
410.014	93.69
410.238	94.69
410.461	99.69
410.685	99.69
410.908	76.69
411.132	86.69
411.355	92.69
411.578	86.69
411.802	87.69
412.025	87.69
412.249	90.69
412.472	96.69
412.695	102.69
412.919	72.69
413.142	78.69
413.365	78.69
413.589	82.69
413.812	101.69
414.035	95.69
414.258	82.69
414.482	99.69
414.705	100.69
414.928	77.69
415.151	79.69
415.374	105.69
415.597	94.69
415.821	88.69
416.044	88.69
416.267	101.69
416.49	92.69
416.713	92.69
416.936	83.69
417.159	95.69
417.382	86.69
417.605	99.69
417.828	92.69
418.051	94.69
418.274	83.69
418.497	86.69
418.72	85.69
418.943	82.69
419.166	83.69
419.389	99.69
419.611	93.69
419.834	78.69
420.057	86.69
420.28	96.69
420.503	77.69
420.726	98.69
420.948	94.69
421.171	96.69
421.394	86.69
421.617	93.69
421.839	91.69
422.062	85.69
422.285	76.69
422.507	84.69
422.73	99.69
422.953	89.69
423.175	91.69
423.398	87.69
423.621	86.69
423.843	83.69
424.066	83.69
424.288	82.69
424.511	88.69
424.733	86.69
424.956	96.69
425.178	80.69
425.401	93.69
425.623	99.69
425.846	78.69
426.068	102.69
426.291	78.69
426.513	75.69
426.735	98.69
426.958	85.69
427.18	116.69
427.402	126.69
427.625	137.69
427.847	126.69
428.069	108.69
428.292	96.69
428.514	85.69
428.736	82.69
428.958	68.69
429.181	82.69
429.403	84.69
429.625	80.69
429.847	94.69
430.069	89.69
430.292	97.69
430.514	95.69
430.736	88.69
430.958	99.69
431.18	77.69
431.402	83.69
431.624	97.69
431.846	74.69
432.068	81.69
432.29	94.69
432.512	83.69
432.734	83.69
432.956	93.69
433.178	107.69
433.4	79.69
433.622	86.69
433.844	87.69
434.066	86.69
434.287	96.69
434.509	76.69
434.731	87.69
434.953	88.69
435.175	79.69
435.397	85.69
435.618	77.69
435.84	96.69
436.062	92.69
436.284	98.69
436.505	99.69
436.727	105.69
436.949	86.69
437.17	77.69
437.392	86.69
437.614	88.69
437.835	106.69
438.057	108.69
438.278	96.69
438.5	107.69
438.721	97.69
438.943	97.69
439.165	98.69
439.386	82.69
439.608	88.69
439.829	92.69
440.05	105.69
440.272	133.69
440.493	94.69
440.715	86.69
440.936	77.69
441.158	98.69
441.379	79.69
441.6	77.69
441.822	88.69
442.043	99.69
442.264	106.69
442.486	93.69
442.707	89.69
442.928	89.69
443.149	107.69
443.371	128.69
443.592	99.69
443.813	103.69
444.034	109.69
444.255	94.69
444.476	97.69
444.698	72.69
444.919	89.69
445.14	130.69
445.361	115.69
445.582	96.69
445.803	116.69
446.024	119.69
446.245	124.69
446.466	105.69
446.687	93.69
446.908	92.69
447.129	97.69
447.35	86.69
447.571	65.69
447.792	93.69
448.013	91.69
448.234	102.69
448.455	101.69
448.675	102.69
448.896	93.69
449.117	81.69
449.338	96.69
449.559	108.69
449.779	120.69
450	85.69
450.221	93.69
450.442	98.69
450.662	93.69
450.883	102.69
451.104	89.69
451.324	95.69
451.545	87.69
451.766	98.69
451.986	101.69
452.207	75.69
452.428	83.69
452.648	88.69
452.869	98.69
453.089	108.69
453.31	110.69
453.53	89.69
453.751	93.69
453.971	95.69
454.192	104.69
454.412	92.69
454.633	103.69
454.853	87.69
455.073	76.69
455.294	87.69
455.514	97.69
455.734	85.69
455.955	106.69
456.175	88.69
456.395	67.69
456.616	92.69
456.836	87.69
457.056	83.69
457.276	86.69
457.497	80.69
457.717	89.69
457.937	67.69
458.157	80.69
458.377	99.69
458.598	100.69
458.818	119.69
459.038	128.69
459.258	113.69
459.478	91.69
459.698	92.69
459.918	78.69
460.138	79.69
460.358	80.69
460.578	82.69
460.798	87.69
461.018	78.69
461.238	84.69
461.458	85.69
461.678	88.69
461.898	75.69
462.118	80.69
462.338	80.69
462.558	89.69
462.777	79.69
462.997	86.69
463.217	88.69
463.437	94.69
463.657	87.69
463.876	76.69
464.096	86.69
464.316	84.69
464.536	88.69
464.755	80.69
464.975	87.69
465.195	146.69
465.414	126.69
465.634	94.69
465.854	87.69
466.073	90.69
466.293	88.69
466.512	85.69
466.732	104.69
466.951	86.69
467.171	88.69
467.391	84.69
467.61	104.69
467.829	98.69
468.049	123.69
468.268	168.69
468.488	83.69
468.707	79.69
468.927	88.69
469.146	81.69
469.365	83.69
469.585	93.69
469.804	88.69
470.023	95.69
470.243	75.69
470.462	85.69
470.681	109.69
470.901	86.69
471.12	78.69
471.339	83.69
471.558	87.69
471.777	89.69
471.997	110.69
472.216	214.69
472.435	380.69
472.654	149.69
472.873	84.69
473.092	83.69
473.311	80.69
473.53	110.69
473.749	81.69
473.968	70.69
474.187	93.69
474.406	82.69
474.625	90.69
474.844	86.69
475.063	83.69
475.282	80.69
475.501	88.69
475.72	80.69
475.939	87.69
476.158	86.69
476.377	91.69
476.596	106.69
476.814	93.69
477.033	97.69
477.252	96.69
477.471	86.69
477.69	68.69
477.908	84.69
478.127	90.69
478.346	80.69
478.564	89.69
478.783	99.69
479.002	103.69
479.22	95.69
479.439	97.69
479.658	107.69
479.876	93.69
480.095	92.69
480.313	96.69
480.532	91.69
480.751	100.69
480.969	219.69
481.188	585.69
481.406	373.69
481.624	119.69
481.843	85.69
482.061	89.69
482.28	89.69
482.498	89.69
482.717	89.69
482.935	85.69
483.153	95.69
483.372	88.69
483.59	90.69
483.808	87.69
484.027	108.69
484.245	81.69
484.463	99.69
484.681	84.69
484.9	100.69
485.118	99.69
485.336	90.69
485.554	85.69
485.772	88.69
485.99	88.69
486.209	129.69
486.427	112.69
486.645	108.69
486.863	112.69
487.081	76.69
487.299	76.69
487.517	97.69
487.735	84.69
487.953	81.69
488.171	72.69
488.389	102.69
488.607	88.69
488.825	85.69
489.043	93.69
489.261	83.69
489.479	86.69
489.696	91.69
489.914	97.69
490.132	75.69
490.35	91.69
490.568	103.69
490.786	97.69
491.003	97.69
491.221	90.69
491.439	93.69
491.657	93.69
491.874	87.69
492.092	97.69
492.31	104.69
492.527	96.69
492.745	79.69
492.963	88.69
493.18	82.69
493.398	86.69
493.615	101.69
493.833	112.69
494.05	94.69
494.268	85.69
494.485	84.69
494.703	99.69
494.92	87.69
495.138	82.69
495.355	87.69
495.573	102.69
495.79	93.69
496.008	105.69
496.225	88.69
496.442	92.69
496.66	97.69
496.877	104.69
497.094	91.69
497.312	98.69
497.529	93.69
497.746	89.69
497.963	97.69
498.181	83.69
498.398	79.69
498.615	99.69
498.832	112.69
499.049	87.69
499.267	92.69
499.484	97.69
499.701	85.69
499.918	94.69
500.135	83.69
500.352	81.69
500.569	89.69
500.786	80.69
501.003	105.69
501.22	103.69
501.437	100.69
501.654	104.69
501.871	110.69
502.088	89.69
502.305	91.69
502.522	85.69
502.739	81.69
502.956	79.69
503.172	100.69
503.389	93.69
503.606	99.69
503.823	89.69
504.04	102.69
504.256	97.69
504.473	84.69
504.69	75.69
504.907	87.69
505.123	84.69
505.34	89.69
505.557	92.69
505.773	86.69
505.99	94.69
506.207	79.69
506.423	88.69
506.64	73.69
506.856	103.69
507.073	85.69
507.289	87.69
507.506	106.69
507.722	99.69
507.939	89.69
508.155	104.69
508.372	87.69
508.588	87.69
508.805	99.69
509.021	93.69
509.238	86.69
509.454	90.69
509.67	92.69
509.887	86.69
510.103	108.69
510.319	182.69
510.536	585.69
510.752	1812.69
510.968	504.69
511.184	149.69
511.401	111.69
511.617	96.69
511.833	79.69
512.049	85.69
512.265	86.69
512.481	77.69
512.698	111.69
512.914	93.69
513.13	86.69
513.346	75.69
513.562	95.69
513.778	97.69
513.994	90.69
514.21	90.69
514.426	108.69
514.642	128.69
514.858	109.69
515.074	140.69
515.29	360.69
515.506	1137.69
515.721	443.69
515.937	146.69
