Data from Circ_2004_H10_HRD10591_00100.txt Node
Date: Wed Jan 03 10:33:34 EST 2024
User: Yrep
Spectrometer: HR+D1059
Trigger mode: 1
Integration Time (sec): 1.000000E-1
Scans to average: 1
Electric dark correction enabled: true
Nonlinearity correction enabled: false
Boxcar width: 0
XAxis mode: Wavelengths
Number of Pixels in Spectrum: 2048
>>>>>Begin Spectral Data<<<<<
223.165	-16.12
223.4	-16.12
223.635	-16.12
223.869	-14.12
224.104	-19.12
224.338	-2.12
224.573	-22.12
224.808	-6.12
225.042	-8.12
225.277	-6.12
225.511	4.88
225.746	-3.12
225.98	1.88
226.215	7.88
226.449	11.88
226.683	23.88
226.918	24.88
227.152	21.88
227.387	41.88
227.621	27.88
227.856	41.88
228.09	39.88
228.324	37.88
228.559	44.88
228.793	64.88
229.027	47.88
229.262	63.88
229.496	67.88
229.73	75.88
229.964	72.88
230.199	67.88
230.433	66.88
230.667	85.88
230.901	86.88
231.136	63.88
231.37	69.88
231.604	78.88
231.838	91.88
232.072	71.88
232.306	86.88
232.541	78.88
232.775	78.88
233.009	82.88
233.243	68.88
233.477	76.88
233.711	81.88
233.945	85.88
234.179	86.88
234.413	80.88
234.647	79.88
234.881	80.88
235.115	75.88
235.349	83.88
235.583	80.88
235.817	74.88
236.051	78.88
236.285	62.88
236.519	82.88
236.753	76.88
236.987	63.88
237.221	77.88
237.455	82.88
237.689	77.88
237.922	76.88
238.156	81.88
238.39	73.88
238.624	84.88
238.858	81.88
239.091	66.88
239.325	74.88
239.559	75.88
239.793	84.88
240.027	77.88
240.26	87.88
240.494	86.88
240.728	82.88
240.961	74.88
241.195	79.88
241.429	84.88
241.662	83.88
241.896	85.88
242.13	70.88
242.363	74.88
242.597	80.88
242.83	76.88
243.064	81.88
243.298	86.88
243.531	61.88
243.765	66.88
243.998	70.88
244.232	79.88
244.465	77.88
244.699	78.88
244.932	78.88
245.166	77.88
245.399	79.88
245.633	82.88
245.866	82.88
246.099	86.88
246.333	82.88
246.566	75.88
246.8	87.88
247.033	75.88
247.266	89.88
247.5	68.88
247.733	67.88
247.966	74.88
248.2	70.88
248.433	57.88
248.666	93.88
248.899	86.88
249.133	78.88
249.366	90.88
249.599	101.88
249.832	79.88
250.066	78.88
250.299	68.88
250.532	78.88
250.765	72.88
250.998	78.88
251.231	85.88
251.465	81.88
251.698	76.88
251.931	69.88
252.164	74.88
252.397	79.88
252.63	59.88
252.863	87.88
253.096	80.88
253.329	81.88
253.562	78.88
253.795	81.88
254.028	75.88
254.261	85.88
254.494	90.88
254.727	89.88
254.96	80.88
255.193	75.88
255.426	76.88
255.659	87.88
255.892	88.88
256.124	80.88
256.357	75.88
256.59	87.88
256.823	81.88
257.056	94.88
257.289	98.88
257.521	80.88
257.754	75.88
257.987	83.88
258.22	89.88
258.452	88.88
258.685	88.88
258.918	89.88
259.151	81.88
259.383	96.88
259.616	68.88
259.849	76.88
260.081	73.88
260.314	78.88
260.547	73.88
260.779	89.88
261.012	97.88
261.244	96.88
261.477	99.88
261.71	87.88
261.942	124.88
262.175	125.88
262.407	90.88
262.64	74.88
262.872	76.88
263.105	79.88
263.337	84.88
263.57	85.88
263.802	93.88
264.035	82.88
264.267	89.88
264.499	73.88
264.732	64.88
264.964	65.88
265.197	77.88
265.429	79.88
265.661	98.88
265.894	92.88
266.126	85.88
266.358	82.88
266.591	75.88
266.823	85.88
267.055	54.88
267.287	77.88
267.52	95.88
267.752	71.88
267.984	76.88
268.216	79.88
268.448	86.88
268.681	87.88
268.913	77.88
269.145	82.88
269.377	91.88
269.609	78.88
269.841	89.88
270.073	91.88
270.306	71.88
270.538	82.88
270.77	74.88
271.002	90.88
271.234	85.88
271.466	92.88
271.698	90.88
271.93	86.88
272.162	89.88
272.394	89.88
272.626	89.88
272.858	78.88
273.09	65.88
273.322	90.88
273.553	83.88
273.785	86.88
274.017	86.88
274.249	92.88
274.481	78.88
274.713	76.88
274.945	84.88
275.176	87.88
275.408	98.88
275.64	97.88
275.872	112.88
276.104	111.88
276.335	97.88
276.567	106.88
276.799	123.88
277.031	141.88
277.262	141.88
277.494	117.88
277.726	75.88
277.957	101.88
278.189	77.88
278.421	95.88
278.652	76.88
278.884	84.88
279.115	84.88
279.347	76.88
279.579	93.88
279.81	88.88
280.042	139.88
280.273	186.88
280.505	140.88
280.736	85.88
280.968	101.88
281.199	75.88
281.431	89.88
281.662	86.88
281.894	85.88
282.125	95.88
282.356	111.88
282.588	148.88
282.819	124.88
283.051	98.88
283.282	89.88
283.513	86.88
283.745	91.88
283.976	91.88
284.207	94.88
284.439	64.88
284.67	73.88
284.901	93.88
285.132	89.88
285.364	69.88
285.595	93.88
285.826	83.88
286.057	84.88
286.288	83.88
286.52	89.88
286.751	81.88
286.982	86.88
287.213	97.88
287.444	91.88
287.675	88.88
287.906	91.88
288.138	86.88
288.369	93.88
288.6	103.88
288.831	88.88
289.062	85.88
289.293	90.88
289.524	76.88
289.755	85.88
289.986	81.88
290.217	86.88
290.448	91.88
290.679	90.88
290.91	69.88
291.141	84.88
291.371	90.88
291.602	87.88
291.833	86.88
292.064	77.88
292.295	87.88
292.526	91.88
292.757	85.88
292.987	84.88
293.218	86.88
293.449	85.88
293.68	68.88
293.91	69.88
294.141	86.88
294.372	69.88
294.603	78.88
294.833	83.88
295.064	81.88
295.295	86.88
295.525	89.88
295.756	90.88
295.987	123.88
296.217	147.88
296.448	130.88
296.679	86.88
296.909	88.88
297.14	92.88
297.37	80.88
297.601	83.88
297.831	82.88
298.062	97.88
298.292	97.88
298.523	102.88
298.753	79.88
298.984	81.88
299.214	86.88
299.445	78.88
299.675	109.88
299.905	93.88
300.136	82.88
300.366	81.88
300.597	86.88
300.827	99.88
301.057	86.88
301.288	106.88
301.518	105.88
301.748	78.88
301.979	109.88
302.209	84.88
302.439	87.88
302.669	98.88
302.9	80.88
303.13	82.88
303.36	80.88
303.59	111.88
303.82	135.88
304.051	94.88
304.281	83.88
304.511	89.88
304.741	94.88
304.971	86.88
305.201	75.88
305.431	88.88
305.661	84.88
305.891	95.88
306.121	89.88
306.352	106.88
306.582	109.88
306.812	88.88
307.042	107.88
307.272	130.88
307.502	149.88
307.731	146.88
307.961	100.88
308.191	89.88
308.421	84.88
308.651	81.88
308.881	74.88
309.111	82.88
309.341	78.88
309.571	95.88
309.8	98.88
310.03	99.88
310.26	102.88
310.49	103.88
310.72	105.88
310.949	109.88
311.179	107.88
311.409	105.88
311.639	97.88
311.868	103.88
312.098	91.88
312.328	88.88
312.557	109.88
312.787	105.88
313.017	98.88
313.246	90.88
313.476	97.88
313.706	95.88
313.935	89.88
314.165	102.88
314.394	106.88
314.624	96.88
314.853	98.88
315.083	86.88
315.312	105.88
315.542	97.88
315.771	93.88
316.001	84.88
316.23	86.88
316.46	99.88
316.689	82.88
316.919	111.88
317.148	85.88
317.377	98.88
317.607	106.88
317.836	89.88
318.065	83.88
318.295	102.88
318.524	95.88
318.753	90.88
318.983	80.88
319.212	95.88
319.441	103.88
319.67	91.88
319.9	86.88
320.129	97.88
320.358	89.88
320.587	96.88
320.816	107.88
321.046	101.88
321.275	95.88
321.504	86.88
321.733	101.88
321.962	106.88
322.191	100.88
322.42	96.88
322.649	98.88
322.878	123.88
323.108	121.88
323.337	143.88
323.566	146.88
323.795	162.88
324.024	237.88
324.253	455.88
324.482	974.88
324.71	1982.88
324.939	2645.88
325.168	946.88
325.397	270.88
325.626	146.88
325.855	155.88
326.084	128.88
326.313	137.88
326.542	157.88
326.77	255.88
326.999	514.88
327.228	1051.88
327.457	1933.88
327.686	1539.88
327.914	492.88
328.143	378.88
328.372	438.88
328.6	299.88
328.829	155.88
329.058	171.88
329.287	168.88
329.515	157.88
329.744	195.88
329.972	343.88
330.201	609.88
330.43	946.88
330.658	450.88
330.887	225.88
331.115	145.88
331.344	132.88
331.572	124.88
331.801	117.88
332.03	122.88
332.258	107.88
332.486	92.88
332.715	105.88
332.943	104.88
333.172	106.88
333.4	117.88
333.629	143.88
333.857	179.88
334.085	296.88
334.314	576.88
334.542	1087.88
334.771	1086.88
334.999	308.88
335.227	142.88
335.455	110.88
335.684	109.88
335.912	96.88
336.14	102.88
336.369	105.88
336.597	98.88
336.825	90.88
337.053	98.88
337.281	114.88
337.51	95.88
337.738	94.88
337.966	100.88
338.194	98.88
338.422	94.88
338.65	98.88
338.878	84.88
339.106	87.88
339.334	97.88
339.562	86.88
339.79	85.88
340.018	90.88
340.246	86.88
340.474	102.88
340.702	105.88
340.93	97.88
341.158	98.88
341.386	95.88
341.614	100.88
341.842	92.88
342.07	89.88
342.298	76.88
342.526	83.88
342.754	78.88
342.981	87.88
343.209	95.88
343.437	98.88
343.665	77.88
343.893	89.88
344.12	96.88
344.348	90.88
344.576	91.88
344.804	82.88
345.031	83.88
345.259	104.88
345.487	98.88
345.714	97.88
345.942	91.88
346.17	97.88
346.397	73.88
346.625	79.88
346.853	103.88
347.08	92.88
347.308	103.88
347.535	99.88
347.763	102.88
347.99	98.88
348.218	98.88
348.445	101.88
348.673	102.88
348.9	105.88
349.128	87.88
349.355	96.88
349.583	91.88
349.81	95.88
350.037	83.88
350.265	77.88
350.492	93.88
350.72	83.88
350.947	90.88
351.174	117.88
351.402	112.88
351.629	107.88
351.856	105.88
352.083	109.88
352.311	96.88
352.538	114.88
352.765	115.88
352.992	108.88
353.22	108.88
353.447	102.88
353.674	98.88
353.901	106.88
354.128	95.88
354.355	87.88
354.583	103.88
354.81	97.88
355.037	100.88
355.264	107.88
355.491	96.88
355.718	96.88
355.945	100.88
356.172	94.88
356.399	89.88
356.626	87.88
356.853	79.88
357.08	80.88
357.307	99.88
357.534	87.88
357.761	89.88
357.988	94.88
358.215	101.88
358.441	93.88
358.668	78.88
358.895	95.88
359.122	90.88
359.349	86.88
359.576	90.88
359.802	90.88
360.029	131.88
360.256	121.88
360.483	104.88
360.709	83.88
360.936	79.88
361.163	94.88
361.39	91.88
361.616	99.88
361.843	110.88
362.07	97.88
362.296	100.88
362.523	93.88
362.749	92.88
362.976	89.88
363.203	87.88
363.429	87.88
363.656	86.88
363.882	97.88
364.109	98.88
364.335	82.88
364.562	93.88
364.788	95.88
365.015	97.88
365.241	101.88
365.468	113.88
365.694	121.88
365.92	92.88
366.147	102.88
366.373	81.88
366.599	109.88
366.826	93.88
367.052	87.88
367.278	82.88
367.505	100.88
367.731	87.88
367.957	80.88
368.184	94.88
368.41	106.88
368.636	113.88
368.862	132.88
369.089	121.88
369.315	87.88
369.541	86.88
369.767	92.88
369.993	97.88
370.219	81.88
370.445	79.88
370.672	98.88
370.898	89.88
371.124	94.88
371.35	81.88
371.576	71.88
371.802	83.88
372.028	86.88
372.254	92.88
372.48	86.88
372.706	81.88
372.932	90.88
373.158	77.88
373.384	88.88
373.61	77.88
373.835	85.88
374.061	90.88
374.287	82.88
374.513	108.88
374.739	86.88
374.965	83.88
375.191	72.88
375.416	75.88
375.642	77.88
375.868	94.88
376.094	79.88
376.319	86.88
376.545	81.88
376.771	77.88
376.997	89.88
377.222	84.88
377.448	91.88
377.674	86.88
377.899	89.88
378.125	82.88
378.35	86.88
378.576	82.88
378.802	80.88
379.027	91.88
379.253	90.88
379.478	89.88
379.704	85.88
379.929	84.88
380.155	81.88
380.38	89.88
380.606	90.88
380.831	93.88
381.057	84.88
381.282	92.88
381.507	80.88
381.733	92.88
381.958	82.88
382.184	80.88
382.409	105.88
382.634	97.88
382.86	102.88
383.085	86.88
383.31	98.88
383.535	102.88
383.761	86.88
383.986	93.88
384.211	82.88
384.436	93.88
384.662	93.88
384.887	97.88
385.112	107.88
385.337	86.88
385.562	95.88
385.787	91.88
386.013	108.88
386.238	112.88
386.463	93.88
386.688	98.88
386.913	94.88
387.138	91.88
387.363	95.88
387.588	85.88
387.813	90.88
388.038	101.88
388.263	107.88
388.488	102.88
388.713	84.88
388.938	86.88
389.163	90.88
389.387	84.88
389.612	98.88
389.837	95.88
390.062	90.88
390.287	96.88
390.512	94.88
390.736	95.88
390.961	87.88
391.186	92.88
391.411	89.88
391.636	92.88
391.86	84.88
392.085	88.88
392.31	82.88
392.534	94.88
392.759	77.88
392.984	87.88
393.208	97.88
393.433	89.88
393.658	69.88
393.882	74.88
394.107	83.88
394.331	87.88
394.556	79.88
394.78	70.88
395.005	86.88
395.229	81.88
395.454	73.88
395.678	86.88
395.903	90.88
396.127	80.88
396.352	92.88
396.576	80.88
396.801	89.88
397.025	90.88
397.249	88.88
397.474	91.88
397.698	68.88
397.922	82.88
398.147	84.88
398.371	79.88
398.595	78.88
398.82	89.88
399.044	86.88
399.268	92.88
399.492	85.88
399.717	95.88
399.941	86.88
400.165	80.88
400.389	90.88
400.613	90.88
400.837	86.88
401.062	78.88
401.286	101.88
401.51	103.88
401.734	112.88
401.958	94.88
402.182	119.88
402.406	180.88
402.63	139.88
402.854	92.88
403.078	77.88
403.302	77.88
403.526	85.88
403.75	92.88
403.974	84.88
404.198	81.88
404.422	90.88
404.645	85.88
404.869	83.88
405.093	92.88
405.317	117.88
405.541	133.88
405.765	98.88
405.988	119.88
406.212	183.88
406.436	267.88
406.66	169.88
406.883	121.88
407.107	103.88
407.331	120.88
407.555	103.88
407.778	97.88
408.002	85.88
408.226	80.88
408.449	88.88
408.673	91.88
408.896	94.88
409.12	98.88
409.344	85.88
409.567	91.88
409.791	86.88
410.014	81.88
410.238	96.88
410.461	90.88
410.685	91.88
410.908	103.88
411.132	95.88
411.355	101.88
411.578	97.88
411.802	99.88
412.025	82.88
412.249	102.88
412.472	103.88
412.695	121.88
412.919	99.88
413.142	95.88
413.365	104.88
413.589	99.88
413.812	92.88
414.035	75.88
414.258	97.88
414.482	92.88
414.705	76.88
414.928	90.88
415.151	74.88
415.374	95.88
415.597	84.88
415.821	78.88
416.044	94.88
416.267	91.88
416.49	78.88
416.713	87.88
416.936	86.88
417.159	90.88
417.382	102.88
417.605	97.88
417.828	115.88
418.051	111.88
418.274	98.88
418.497	98.88
418.72	93.88
418.943	85.88
419.166	73.88
419.389	73.88
419.611	88.88
419.834	88.88
420.057	103.88
420.28	87.88
420.503	85.88
420.726	82.88
420.948	91.88
421.171	91.88
421.394	86.88
421.617	92.88
421.839	99.88
422.062	74.88
422.285	95.88
422.507	98.88
422.73	105.88
422.953	87.88
423.175	86.88
423.398	82.88
423.621	84.88
423.843	91.88
424.066	89.88
424.288	83.88
424.511	109.88
424.733	96.88
424.956	92.88
425.178	101.88
425.401	107.88
425.623	113.88
425.846	81.88
426.068	106.88
426.291	95.88
426.513	93.88
426.735	100.88
426.958	110.88
427.18	110.88
427.402	146.88
427.625	215.88
427.847	188.88
428.069	169.88
428.292	123.88
428.514	112.88
428.736	95.88
428.958	85.88
429.181	92.88
429.403	93.88
429.625	87.88
429.847	68.88
430.069	105.88
430.292	100.88
430.514	91.88
430.736	84.88
430.958	83.88
431.18	99.88
431.402	99.88
431.624	86.88
431.846	88.88
432.068	75.88
432.29	81.88
432.512	92.88
432.734	91.88
432.956	89.88
433.178	87.88
433.4	88.88
433.622	86.88
433.844	92.88
434.066	73.88
434.287	87.88
434.509	80.88
434.731	83.88
434.953	95.88
435.175	79.88
435.397	96.88
435.618	82.88
435.84	97.88
436.062	133.88
436.284	129.88
436.505	94.88
436.727	100.88
436.949	90.88
437.17	75.88
437.392	100.88
437.614	93.88
437.835	109.88
438.057	116.88
438.278	109.88
438.5	106.88
438.721	129.88
438.943	98.88
439.165	74.88
439.386	86.88
439.608	73.88
439.829	93.88
440.05	133.88
440.272	163.88
440.493	96.88
440.715	93.88
440.936	98.88
441.158	81.88
441.379	88.88
441.6	89.88
441.822	98.88
442.043	97.88
442.264	111.88
442.486	110.88
442.707	90.88
442.928	108.88
443.149	150.88
443.371	147.88
443.592	113.88
443.813	124.88
444.034	111.88
444.255	92.88
444.476	90.88
444.698	77.88
444.919	97.88
445.14	148.88
445.361	105.88
445.582	119.88
445.803	158.88
446.024	157.88
446.245	162.88
446.466	114.88
446.687	95.88
446.908	83.88
447.129	98.88
447.35	93.88
447.571	99.88
447.792	83.88
448.013	95.88
448.234	99.88
448.455	105.88
448.675	123.88
448.896	118.88
449.117	91.88
449.338	99.88
449.559	133.88
449.779	145.88
450	87.88
450.221	94.88
450.442	86.88
450.662	87.88
450.883	103.88
451.104	127.88
451.324	111.88
451.545	95.88
451.766	87.88
451.986	95.88
452.207	95.88
452.428	85.88
452.648	98.88
452.869	128.88
453.089	114.88
453.31	127.88
453.53	90.88
453.751	101.88
453.971	102.88
454.192	114.88
454.412	97.88
454.633	88.88
454.853	75.88
455.073	73.88
455.294	84.88
455.514	97.88
455.734	93.88
455.955	90.88
456.175	88.88
456.395	84.88
456.616	65.88
456.836	67.88
457.056	82.88
457.276	86.88
457.497	89.88
457.717	98.88
457.937	78.88
458.157	97.88
458.377	101.88
458.598	123.88
458.818	160.88
459.038	182.88
459.258	135.88
459.478	84.88
459.698	89.88
459.918	77.88
460.138	75.88
460.358	77.88
460.578	82.88
460.798	95.88
461.018	86.88
461.238	82.88
461.458	71.88
461.678	77.88
461.898	84.88
462.118	91.88
462.338	85.88
462.558	78.88
462.777	79.88
462.997	81.88
463.217	87.88
463.437	83.88
463.657	81.88
463.876	97.88
464.096	93.88
464.316	90.88
464.536	107.88
464.755	90.88
464.975	110.88
465.195	201.88
465.414	198.88
465.634	112.88
465.854	87.88
466.073	87.88
466.293	90.88
466.512	88.88
466.732	87.88
466.951	85.88
467.171	95.88
467.391	91.88
467.61	128.88
467.829	172.88
468.049	394.88
468.268	558.88
468.488	164.88
468.707	91.88
468.927	79.88
469.146	84.88
469.365	89.88
469.585	98.88
469.804	93.88
470.023	91.88
470.243	103.88
470.462	114.88
470.681	119.88
470.901	101.88
471.12	90.88
471.339	99.88
471.558	99.88
471.777	134.88
471.997	198.88
472.216	718.88
472.435	1569.88
472.654	402.88
472.873	139.88
473.092	105.88
473.311	89.88
473.53	94.88
473.749	85.88
473.968	92.88
474.187	122.88
474.406	102.88
474.625	76.88
474.844	86.88
475.063	78.88
475.282	90.88
475.501	97.88
475.72	82.88
475.939	88.88
476.158	70.88
476.377	78.88
476.596	91.88
476.814	105.88
477.033	85.88
477.252	94.88
477.471	94.88
477.69	92.88
477.908	77.88
478.127	98.88
478.346	90.88
478.564	103.88
478.783	121.88
479.002	98.88
479.22	89.88
479.439	101.88
479.658	128.88
479.876	86.88
480.095	108.88
480.313	110.88
480.532	145.88
480.751	225.88
480.969	683.88
481.188	2675.88
481.406	1636.88
481.624	267.88
481.843	111.88
482.061	101.88
482.28	95.88
482.498	103.88
482.717	94.88
482.935	93.88
483.153	105.88
483.372	111.88
483.59	101.88
483.808	94.88
484.027	99.88
484.245	85.88
484.463	98.88
484.681	91.88
484.9	87.88
485.118	99.88
485.336	95.88
485.554	78.88
485.772	110.88
485.99	109.88
486.209	108.88
486.427	94.88
486.645	118.88
486.863	114.88
487.081	97.88
487.299	104.88
487.517	91.88
487.735	86.88
487.953	87.88
488.171	84.88
488.389	87.88
488.607	109.88
488.825	75.88
489.043	85.88
489.261	95.88
489.479	83.88
489.696	91.88
489.914	96.88
490.132	102.88
490.35	90.88
490.568	72.88
490.786	92.88
491.003	66.88
491.221	93.88
491.439	86.88
491.657	109.88
491.874	91.88
492.092	91.88
492.31	84.88
492.527	91.88
492.745	91.88
492.963	100.88
493.18	86.88
493.398	91.88
493.615	83.88
493.833	81.88
494.05	85.88
494.268	96.88
494.485	96.88
494.703	84.88
494.92	81.88
495.138	93.88
495.355	92.88
495.573	93.88
495.79	87.88
496.008	75.88
496.225	86.88
496.442	99.88
496.66	83.88
496.877	93.88
497.094	96.88
497.312	97.88
497.529	91.88
497.746	93.88
497.963	91.88
498.181	101.88
498.398	86.88
498.615	106.88
498.832	100.88
499.049	90.88
499.267	88.88
499.484	91.88
499.701	84.88
499.918	100.88
500.135	78.88
500.352	89.88
500.569	104.88
500.786	92.88
501.003	95.88
501.22	97.88
501.437	77.88
501.654	95.88
501.871	108.88
502.088	98.88
502.305	92.88
502.522	91.88
502.739	99.88
502.956	85.88
503.172	94.88
503.389	100.88
503.606	111.88
503.823	106.88
504.04	93.88
504.256	80.88
504.473	91.88
504.69	77.88
504.907	77.88
505.123	100.88
505.34	86.88
505.557	94.88
505.773	85.88
505.99	98.88
506.207	98.88
506.423	87.88
506.64	78.88
506.856	87.88
507.073	90.88
507.289	98.88
507.506	106.88
507.722	114.88
507.939	116.88
508.155	102.88
508.372	95.88
508.588	83.88
508.805	100.88
509.021	93.88
509.238	109.88
509.454	102.88
509.67	114.88
509.887	123.88
510.103	133.88
510.319	245.88
510.536	787.88
510.752	2644.88
510.968	731.88
511.184	165.88
511.401	115.88
511.617	105.88
511.833	115.88
512.049	105.88
512.265	91.88
512.481	109.88
512.698	81.88
512.914	91.88
513.13	83.88
513.346	93.88
513.562	100.88
513.778	102.88
513.994	109.88
514.21	105.88
514.426	126.88
514.642	161.88
514.858	146.88
515.074	201.88
