Data from Circ_2004_H10_HRD10591_00041.txt Node
Date: Wed Jan 03 10:33:22 EST 2024
User: Yrep
Spectrometer: HR+D1059
Trigger mode: 1
Integration Time (sec): 1.000000E-1
Scans to average: 1
Electric dark correction enabled: true
Nonlinearity correction enabled: false
Boxcar width: 0
XAxis mode: Wavelengths
Number of Pixels in Spectrum: 2048
>>>>>Begin Spectral Data<<<<<
223.165	-20.5
223.4	-20.5
223.635	-20.5
223.869	-20.5
224.104	-13.5
224.338	-14.5
224.573	-6.5
224.808	-5.5
225.042	-5.5
225.277	-8.5
225.511	-2.5
225.746	1.5
225.98	7.5
226.215	5.5
226.449	19.5
226.683	10.5
226.918	19.5
227.152	33.5
227.387	34.5
227.621	36.5
227.856	62.5
228.09	60.5
228.324	57.5
228.559	58.5
228.793	166.5
229.027	455.5
229.262	523.5
229.496	625.5
229.73	820.5
229.964	861.5
230.199	561.5
230.433	502.5
230.667	484.5
230.901	475.5
231.136	456.5
231.37	472.5
231.604	462.5
231.838	482.5
232.072	447.5
232.306	487.5
232.541	495.5
232.775	497.5
233.009	501.5
233.243	478.5
233.477	484.5
233.711	505.5
233.945	523.5
234.179	510.5
234.413	527.5
234.647	506.5
234.881	533.5
235.115	540.5
235.349	556.5
235.583	569.5
235.817	605.5
236.051	631.5
236.285	624.5
236.519	627.5
236.753	719.5
236.987	894.5
237.221	1390.5
237.455	1565.5
237.689	913.5
237.922	750.5
238.156	720.5
238.39	687.5
238.624	686.5
238.858	672.5
239.091	668.5
239.325	692.5
239.559	702.5
239.793	756.5
240.027	793.5
240.26	967.5
240.494	1004.5
240.728	963.5
240.961	911.5
241.195	803.5
241.429	807.5
241.662	803.5
241.896	799.5
242.13	805.5
242.363	808.5
242.597	856.5
242.83	866.5
243.064	882.5
243.298	882.5
243.531	886.5
243.765	895.5
243.998	882.5
244.232	917.5
244.465	947.5
244.699	961.5
244.932	960.5
245.166	954.5
245.399	959.5
245.633	936.5
245.866	968.5
246.099	987.5
246.333	990.5
246.566	1007.5
246.8	1028.5
247.033	1033.5
247.266	1082.5
247.5	1153.5
247.733	1212.5
247.966	1233.5
248.2	1139.5
248.433	1207.5
248.666	1294.5
248.899	1395.5
249.133	1553.5
249.366	1549.5
249.599	1461.5
249.832	1431.5
250.066	1555.5
250.299	1941.5
250.532	2575.5
250.765	2520.5
250.998	2234.5
251.231	1897.5
251.465	1688.5
251.698	1571.5
251.931	1485.5
252.164	1483.5
252.397	1516.5
252.63	1548.5
252.863	1611.5
253.096	1782.5
253.329	1778.5
253.562	1697.5
253.795	1653.5
254.028	1611.5
254.261	1725.5
254.494	1958.5
254.727	2272.5
254.96	2371.5
255.193	2176.5
255.426	2128.5
255.659	2425.5
255.892	3389.5
256.124	4422.5
256.357	3734.5
256.59	2717.5
256.823	2231.5
257.056	2025.5
257.289	1888.5
257.521	1817.5
257.754	1755.5
257.987	1753.5
258.22	1691.5
258.452	1698.5
258.685	1685.5
258.918	1717.5
259.151	1737.5
259.383	1792.5
259.616	1774.5
259.849	1838.5
260.081	2021.5
260.314	2180.5
260.547	2126.5
260.779	1944.5
261.012	1873.5
261.244	1801.5
261.477	1789.5
261.71	1819.5
261.942	1876.5
262.175	1901.5
262.407	1803.5
262.64	1693.5
262.872	1706.5
263.105	1745.5
263.337	1731.5
263.57	1722.5
263.802	1734.5
264.035	1742.5
264.267	1721.5
264.499	1753.5
264.732	1760.5
264.964	1793.5
265.197	1785.5
265.429	1830.5
265.661	1851.5
265.894	1848.5
266.126	1858.5
266.358	1876.5
266.591	1908.5
266.823	1942.5
267.055	1941.5
267.287	1950.5
267.52	1942.5
267.752	1969.5
267.984	1993.5
268.216	1945.5
268.448	2012.5
268.681	2032.5
268.913	2242.5
269.145	2400.5
269.377	2429.5
269.609	2321.5
269.841	2294.5
270.073	2424.5
270.306	2727.5
270.538	2841.5
270.77	2668.5
271.002	2562.5
271.234	2529.5
271.466	2640.5
271.698	2824.5
271.93	2821.5
272.162	2830.5
272.394	2712.5
272.626	2546.5
272.858	2405.5
273.09	2339.5
273.322	2419.5
273.553	2372.5
273.785	2344.5
274.017	2330.5
274.249	2364.5
274.481	2453.5
274.713	2399.5
274.945	2470.5
275.176	2491.5
275.408	2419.5
275.64	2501.5
275.872	2514.5
276.104	2534.5
276.335	2579.5
276.567	2730.5
276.799	2865.5
277.031	3174.5
277.262	3392.5
277.494	3165.5
277.726	2898.5
277.957	2776.5
278.189	2702.5
278.421	2617.5
278.652	2612.5
278.884	2614.5
279.115	2601.5
279.347	2598.5
279.579	2636.5
279.81	2747.5
280.042	2795.5
280.273	3034.5
280.505	2959.5
280.736	2790.5
280.968	2686.5
281.199	2638.5
281.431	2642.5
281.662	2654.5
281.894	2692.5
282.125	2715.5
282.356	2918.5
282.588	3103.5
282.819	2882.5
283.051	2697.5
283.282	2639.5
283.513	2741.5
283.745	2750.5
283.976	2799.5
284.207	2795.5
284.439	2802.5
284.67	2765.5
284.901	2791.5
285.132	2732.5
285.364	2726.5
285.595	2788.5
285.826	2798.5
286.057	2819.5
286.288	2810.5
286.52	2835.5
286.751	2795.5
286.982	2877.5
287.213	2837.5
287.444	2892.5
287.675	2991.5
287.906	3050.5
288.138	3089.5
288.369	3043.5
288.6	3079.5
288.831	3015.5
289.062	2999.5
289.293	2962.5
289.524	2947.5
289.755	2935.5
289.986	3010.5
290.217	2972.5
290.448	2951.5
290.679	2919.5
290.91	2941.5
291.141	2960.5
291.371	2993.5
291.602	2992.5
291.833	2944.5
292.064	2936.5
292.295	2984.5
292.526	2929.5
292.757	2941.5
292.987	2915.5
293.218	2982.5
293.449	2972.5
293.68	2955.5
293.91	2964.5
294.141	2976.5
294.372	2918.5
294.603	2966.5
294.833	2951.5
295.064	3012.5
295.295	3015.5
295.525	2993.5
295.756	3083.5
295.987	3186.5
296.217	3346.5
296.448	3260.5
296.679	3056.5
296.909	3064.5
297.14	3071.5
297.37	3095.5
297.601	3208.5
297.831	3163.5
298.062	3095.5
298.292	3194.5
298.523	3248.5
298.753	3205.5
298.984	3229.5
299.214	3281.5
299.445	3286.5
299.675	3243.5
299.905	3328.5
300.136	3282.5
300.366	3251.5
300.597	3278.5
300.827	3412.5
301.057	3469.5
301.288	3483.5
301.518	3494.5
301.748	3482.5
301.979	3548.5
302.209	3565.5
302.439	3554.5
302.669	3522.5
302.9	3479.5
303.13	3451.5
303.36	3550.5
303.59	3619.5
303.82	3634.5
304.051	3549.5
304.281	3489.5
304.511	3458.5
304.741	3375.5
304.971	3425.5
305.201	3421.5
305.431	3407.5
305.661	3411.5
305.891	3386.5
306.121	3443.5
306.352	3536.5
306.582	3481.5
306.812	3483.5
307.042	3488.5
307.272	3598.5
307.502	3679.5
307.731	3584.5
307.961	3523.5
308.191	3538.5
308.421	3444.5
308.651	3397.5
308.881	3443.5
309.111	3559.5
309.341	3489.5
309.571	3636.5
309.8	3673.5
310.03	3802.5
310.26	3833.5
310.49	3759.5
310.72	3913.5
310.949	4009.5
311.179	3961.5
311.409	3801.5
311.639	3828.5
311.868	3857.5
312.098	3885.5
312.328	3965.5
312.557	4168.5
312.787	4229.5
313.017	4134.5
313.246	3984.5
313.476	3864.5
313.706	4006.5
313.935	4048.5
314.165	4165.5
314.394	4223.5
314.624	4109.5
314.853	4048.5
315.083	3975.5
315.312	3897.5
315.542	3877.5
315.771	3833.5
316.001	3849.5
316.23	3867.5
316.46	3857.5
316.689	3966.5
316.919	3999.5
317.148	4031.5
317.377	3990.5
317.607	3909.5
317.836	3897.5
318.065	3865.5
318.295	3918.5
318.524	3887.5
318.753	3927.5
318.983	3941.5
319.212	3888.5
319.441	4012.5
319.67	4004.5
319.9	3908.5
320.129	3940.5
320.358	3916.5
320.587	3999.5
320.816	3971.5
321.046	4052.5
321.275	4058.5
321.504	4066.5
321.733	4098.5
321.962	4192.5
322.191	4237.5
322.42	4398.5
322.649	4458.5
322.878	4566.5
323.108	4689.5
323.337	4961.5
323.566	5147.5
323.795	5459.5
324.024	6128.5
324.253	8071.5
324.482	11832.5
324.71	15611.5
324.939	15611.5
325.168	13969.5
325.397	7183.5
325.626	5791.5
325.855	5346.5
326.084	5256.5
326.313	5281.5
326.542	5471.5
326.77	6189.5
326.999	7823.5
327.228	11335.5
327.457	15144.5
327.686	14812.5
327.914	9227.5
328.143	8518.5
328.372	8802.5
328.6	7457.5
328.829	6626.5
329.058	6808.5
329.287	6885.5
329.515	6746.5
329.744	7342.5
329.972	8904.5
330.201	11144.5
330.43	12571.5
330.658	9761.5
330.887	8078.5
331.115	7003.5
331.344	6149.5
331.572	5872.5
331.801	6048.5
332.03	5950.5
332.258	5910.5
332.486	5930.5
332.715	6057.5
332.943	6309.5
333.172	6615.5
333.4	6945.5
333.629	7451.5
333.857	8418.5
334.085	10031.5
334.314	12535.5
334.542	14755.5
334.771	14251.5
334.999	9411.5
335.227	7382.5
335.455	6711.5
335.684	6154.5
335.912	5994.5
336.14	5684.5
336.369	5572.5
336.597	5657.5
336.825	5517.5
337.053	5347.5
337.281	5254.5
337.51	5109.5
337.738	5199.5
337.966	5071.5
338.194	5122.5
338.422	4983.5
338.65	4921.5
338.878	4902.5
339.106	4824.5
339.334	4789.5
339.562	4726.5
339.79	4644.5
340.018	4625.5
340.246	4681.5
340.474	4723.5
340.702	4633.5
340.93	4706.5
341.158	4673.5
341.386	4648.5
341.614	4714.5
341.842	4651.5
342.07	4551.5
342.298	4493.5
342.526	4501.5
342.754	4515.5
342.981	4527.5
343.209	4610.5
343.437	4818.5
343.665	5130.5
343.893	5378.5
344.12	5357.5
344.348	5151.5
344.576	5021.5
344.804	4962.5
345.031	4903.5
345.259	4834.5
345.487	4670.5
345.714	4610.5
345.942	4442.5
346.17	4406.5
346.397	4359.5
346.625	4405.5
346.853	4382.5
347.08	4379.5
347.308	4426.5
347.535	4533.5
347.763	4499.5
347.99	4511.5
348.218	4540.5
348.445	4600.5
348.673	4440.5
348.9	4307.5
349.128	4277.5
349.355	4243.5
349.583	4278.5
349.81	4299.5
350.037	4214.5
350.265	4247.5
350.492	4250.5
350.72	4262.5
350.947	4307.5
351.174	4368.5
351.402	4431.5
351.629	4397.5
351.856	4397.5
352.083	4497.5
352.311	4492.5
352.538	4517.5
352.765	4443.5
352.992	4375.5
353.22	4325.5
353.447	4301.5
353.674	4213.5
353.901	4161.5
354.128	4146.5
354.355	4130.5
354.583	4162.5
354.81	4177.5
355.037	4053.5
355.264	4102.5
355.491	4091.5
355.718	4049.5
355.945	4131.5
356.172	4111.5
356.399	4059.5
356.626	4085.5
356.853	4160.5
357.08	4062.5
357.307	4154.5
357.534	4069.5
357.761	4129.5
357.988	4135.5
358.215	4160.5
358.441	4150.5
358.668	4098.5
358.895	4258.5
359.122	4238.5
359.349	4353.5
359.576	4460.5
359.802	4748.5
360.029	4896.5
360.256	4973.5
360.483	4662.5
360.709	4375.5
360.936	4418.5
361.163	4439.5
361.39	4403.5
361.616	4443.5
361.843	4339.5
362.07	4419.5
362.296	4357.5
362.523	4346.5
362.749	4383.5
362.976	4332.5
363.203	4250.5
363.429	4230.5
363.656	4331.5
363.882	4262.5
364.109	4227.5
364.335	4256.5
364.562	4223.5
364.788	4231.5
365.015	4288.5
365.241	4272.5
365.468	4339.5
365.694	4367.5
365.92	4265.5
366.147	4217.5
366.373	4226.5
366.599	4215.5
366.826	4219.5
367.052	4182.5
367.278	4225.5
367.505	4236.5
367.731	4248.5
367.957	4253.5
368.184	4224.5
368.41	4400.5
368.636	4437.5
368.862	4427.5
369.089	4341.5
369.315	4349.5
369.541	4333.5
369.767	4374.5
369.993	4374.5
370.219	4331.5
370.445	4385.5
370.672	4369.5
370.898	4366.5
371.124	4403.5
371.35	4546.5
371.576	4405.5
371.802	4495.5
372.028	4460.5
372.254	4470.5
372.48	4514.5
372.706	4557.5
372.932	4615.5
373.158	4586.5
373.384	4504.5
373.61	4481.5
373.835	4532.5
374.061	4498.5
374.287	4590.5
374.513	4671.5
374.739	4729.5
374.965	4888.5
375.191	4869.5
375.416	4755.5
375.642	4674.5
375.868	4628.5
376.094	4545.5
376.319	4499.5
376.545	4572.5
376.771	4464.5
376.997	4500.5
377.222	4444.5
377.448	4417.5
377.674	4433.5
377.899	4369.5
378.125	4380.5
378.35	4378.5
378.576	4364.5
378.802	4390.5
379.027	4415.5
379.253	4440.5
379.478	4315.5
379.704	4367.5
379.929	4436.5
380.155	4425.5
380.38	4483.5
380.606	4441.5
380.831	4365.5
381.057	4466.5
381.282	4484.5
381.507	4451.5
381.733	4513.5
381.958	4528.5
382.184	4563.5
382.409	4695.5
382.634	4711.5
382.86	4672.5
383.085	4708.5
383.31	4789.5
383.535	4911.5
383.761	4973.5
383.986	4991.5
384.211	5035.5
384.436	5185.5
384.662	5236.5
384.887	5268.5
385.112	5234.5
385.337	5331.5
385.562	5299.5
385.787	5343.5
386.013	5483.5
386.238	5485.5
386.463	5488.5
386.688	5367.5
386.913	5323.5
387.138	5262.5
387.363	5314.5
387.588	5289.5
387.813	5301.5
388.038	5217.5
388.263	5286.5
388.488	5315.5
388.713	5283.5
388.938	5320.5
389.163	5213.5
389.387	5223.5
389.612	5219.5
389.837	5195.5
390.062	5139.5
390.287	5175.5
390.512	5170.5
390.736	5306.5
390.961	5399.5
391.186	5392.5
391.411	5604.5
391.636	5708.5
391.86	5929.5
392.085	5914.5
392.31	5841.5
392.534	5638.5
392.759	5622.5
392.984	5522.5
393.208	5450.5
393.433	5536.5
393.658	5483.5
393.882	5495.5
394.107	5542.5
394.331	5559.5
394.556	5624.5
394.78	5624.5
395.005	5717.5
395.229	5632.5
395.454	5778.5
395.678	6007.5
395.903	6009.5
396.127	6000.5
396.352	5854.5
396.576	5637.5
396.801	5641.5
397.025	5649.5
397.249	5818.5
397.474	5973.5
397.698	5986.5
397.922	6088.5
398.147	6256.5
398.371	6330.5
398.595	6550.5
398.82	6771.5
399.044	7285.5
399.268	8120.5
399.492	9063.5
399.717	9779.5
399.941	9421.5
400.165	8963.5
400.389	8291.5
400.613	7448.5
400.837	7041.5
401.062	6819.5
401.286	6734.5
401.51	6679.5
401.734	6700.5
401.958	6848.5
402.182	7042.5
402.406	7045.5
402.63	7080.5
402.854	7245.5
403.078	7296.5
403.302	7425.5
403.526	7594.5
403.75	7610.5
403.974	7652.5
404.198	7678.5
404.422	7885.5
404.645	7915.5
404.869	8136.5
405.093	8618.5
405.317	9296.5
405.541	9117.5
405.765	8249.5
405.988	7870.5
406.212	7881.5
406.436	8036.5
406.66	8099.5
406.883	8036.5
407.107	8565.5
407.331	9039.5
407.555	9605.5
407.778	9261.5
408.002	8534.5
408.226	8168.5
408.449	8043.5
408.673	7795.5
408.896	8097.5
409.12	8171.5
409.344	7739.5
409.567	7425.5
409.791	7401.5
410.014	7256.5
410.238	7162.5
410.461	7190.5
410.685	7275.5
410.908	7400.5
411.132	7649.5
411.355	7712.5
411.578	7331.5
411.802	7166.5
412.025	7351.5
412.249	7841.5
412.472	8409.5
412.695	8990.5
412.919	8309.5
413.142	7900.5
413.365	7464.5
413.589	7247.5
413.812	6929.5
414.035	6823.5
414.258	6836.5
414.482	6803.5
414.705	6874.5
414.928	6756.5
415.151	6707.5
415.374	6735.5
415.597	6577.5
415.821	6531.5
416.044	6552.5
416.267	6545.5
416.49	6490.5
416.713	6431.5
416.936	6558.5
417.159	6632.5
417.382	6797.5
417.605	6932.5
417.828	7037.5
418.051	7034.5
418.274	6759.5
418.497	6690.5
418.72	6888.5
418.943	6788.5
419.166	7144.5
419.389	7590.5
419.611	7699.5
419.834	7497.5
420.057	7615.5
420.28	8055.5
420.503	7809.5
420.726	7545.5
420.948	7377.5
421.171	7652.5
421.394	7493.5
421.617	6923.5
421.839	6837.5
422.062	6907.5
422.285	7057.5
422.507	7655.5
422.73	8105.5
422.953	7521.5
423.175	7197.5
423.398	7123.5
423.621	7172.5
423.843	7530.5
424.066	7359.5
424.288	7259.5
424.511	7528.5
424.733	8060.5
424.956	8493.5
425.178	7892.5
425.401	8090.5
425.623	7983.5
425.846	7004.5
426.068	6871.5
426.291	6740.5
426.513	6784.5
426.735	6853.5
426.958	7348.5
427.18	8273.5
427.402	9547.5
427.625	9874.5
427.847	9155.5
428.069	8720.5
428.292	7296.5
428.514	6525.5
428.736	6318.5
428.958	6314.5
429.181	6122.5
429.403	5991.5
429.625	6142.5
429.847	6501.5
430.069	7123.5
430.292	6662.5
430.514	6053.5
430.736	6013.5
430.958	5898.5
431.18	5797.5
431.402	5781.5
431.624	5846.5
431.846	5917.5
432.068	5857.5
432.29	6009.5
432.512	5824.5
432.734	5949.5
432.956	5891.5
433.178	6031.5
433.4	6040.5
433.622	5857.5
433.844	5898.5
434.066	5946.5
434.287	6016.5
434.509	6214.5
434.731	6468.5
434.953	6611.5
435.175	6740.5
435.397	6894.5
435.618	6691.5
435.84	7113.5
436.062	8015.5
436.284	8002.5
436.505	6614.5
436.727	6410.5
436.949	6068.5
437.17	6038.5
437.392	5930.5
437.614	6208.5
437.835	6629.5
438.057	7615.5
438.278	8174.5
438.5	8015.5
438.721	9009.5
438.943	7799.5
439.165	6595.5
439.386	6392.5
439.608	6425.5
439.829	6528.5
440.05	6945.5
440.272	7496.5
440.493	6673.5
440.715	6302.5
440.936	6290.5
441.158	6230.5
441.379	6482.5
441.6	6858.5
441.822	6993.5
442.043	7410.5
442.264	8311.5
442.486	7917.5
442.707	7063.5
442.928	7001.5
443.149	7165.5
443.371	7385.5
443.592	7898.5
443.813	9016.5
444.034	8867.5
444.255	7617.5
444.476	7501.5
444.698	7637.5
444.919	7754.5
445.14	7580.5
445.361	7491.5
445.582	7676.5
445.803	8458.5
446.024	9167.5
446.245	8699.5
446.466	7777.5
446.687	6665.5
446.908	6256.5
447.129	6025.5
447.35	5854.5
447.571	5785.5
447.792	5690.5
448.013	5839.5
448.234	6029.5
448.455	6657.5
448.675	7985.5
448.896	8462.5
449.117	6917.5
449.338	7216.5
449.559	8469.5
449.779	8743.5
450	6708.5
450.221	5894.5
450.442	5623.5
450.662	5633.5
450.883	5812.5
451.104	5979.5
451.324	5697.5
451.545	5586.5
451.766	5403.5
451.986	5166.5
452.207	5201.5
452.428	5183.5
452.648	5279.5
452.869	5273.5
453.089	5337.5
453.31	5389.5
453.53	5243.5
453.751	5178.5
453.971	5191.5
454.192	5391.5
454.412	5149.5
454.633	5140.5
454.853	5044.5
455.073	5102.5
455.294	5491.5
455.514	6123.5
455.734	5488.5
455.955	5035.5
456.175	4831.5
456.395	4806.5
456.616	4777.5
456.836	4885.5
457.056	4824.5
457.276	4762.5
457.497	4905.5
457.717	4887.5
457.937	5025.5
458.157	5015.5
458.377	5161.5
458.598	5536.5
458.818	6338.5
459.038	7136.5
459.258	7003.5
459.478	6161.5
459.698	6026.5
459.918	6006.5
460.138	6298.5
460.358	6459.5
460.578	6424.5
460.798	6498.5
461.018	6494.5
461.238	6436.5
461.458	6349.5
461.678	6352.5
461.898	6458.5
462.118	6584.5
462.338	6957.5
462.558	7057.5
462.777	7340.5
462.997	7871.5
463.217	8259.5
463.437	8093.5
463.657	7465.5
463.876	7405.5
464.096	7391.5
464.316	7345.5
464.536	7469.5
464.755	7222.5
464.975	7143.5
465.195	7467.5
465.414	7646.5
465.634	6535.5
465.854	6181.5
466.073	5912.5
466.293	5716.5
466.512	5596.5
466.732	5532.5
466.951	5471.5
467.171	5565.5
467.391	5612.5
467.61	5768.5
467.829	5841.5
468.049	6493.5
468.268	7448.5
468.488	6285.5
468.707	5716.5
468.927	5471.5
469.146	5426.5
469.365	5409.5
469.585	5448.5
469.804	5652.5
470.023	5801.5
470.243	5804.5
470.462	5881.5
470.681	6019.5
470.901	5905.5
471.12	5742.5
471.339	5782.5
471.558	5773.5
471.777	5853.5
471.997	6097.5
472.216	7945.5
472.435	11693.5
472.654	8918.5
472.873	6896.5
473.092	6309.5
473.311	5969.5
473.53	5821.5
473.749	5751.5
473.968	6223.5
474.187	7262.5
474.406	6785.5
474.625	5725.5
474.844	5472.5
475.063	5411.5
475.282	5425.5
475.501	5464.5
475.72	5499.5
475.939	5455.5
476.158	5556.5
476.377	5533.5
476.596	5579.5
476.814	5709.5
477.033	5717.5
477.252	5837.5
477.471	5858.5
477.69	6016.5
477.908	6109.5
478.127	6224.5
478.346	6232.5
478.564	6449.5
478.783	6566.5
479.002	6718.5
479.22	6751.5
479.439	6915.5
479.658	7120.5
479.876	7169.5
480.095	7437.5
480.313	7908.5
480.532	7867.5
480.751	8237.5
480.969	10065.5
481.188	14936.5
481.406	15239.5
481.624	10897.5
481.843	8863.5
482.061	8039.5
482.28	7499.5
482.498	7205.5
482.717	6934.5
482.935	6774.5
483.153	6651.5
483.372	6517.5
483.59	6565.5
483.808	6548.5
484.027	6519.5
484.245	6527.5
484.463	6529.5
484.681	6615.5
484.9	6671.5
485.118	6685.5
485.336	6709.5
485.554	6816.5
485.772	6765.5
485.99	6735.5
486.209	6788.5
486.427	6825.5
486.645	6917.5
486.863	7073.5
487.081	7003.5
487.299	7006.5
487.517	6888.5
487.735	6825.5
487.953	6839.5
488.171	6955.5
488.389	6915.5
488.607	6935.5
488.825	6919.5
489.043	7028.5
489.261	7081.5
489.479	7134.5
489.696	7258.5
489.914	7331.5
490.132	7449.5
490.35	7615.5
490.568	7699.5
490.786	7942.5
491.003	8257.5
491.221	8584.5
491.439	8902.5
491.657	9100.5
491.874	9140.5
492.092	9243.5
492.31	9312.5
492.527	9677.5
492.745	9864.5
492.963	9752.5
493.18	9611.5
493.398	9537.5
493.615	9627.5
493.833	9385.5
494.05	9299.5
494.268	9103.5
494.485	8973.5
494.703	8813.5
494.92	8705.5
495.138	8593.5
495.355	8594.5
495.573	8539.5
495.79	8466.5
496.008	8539.5
496.225	8301.5
496.442	8456.5
496.66	8410.5
496.877	8410.5
497.094	8448.5
497.312	8543.5
497.529	8651.5
497.746	8903.5
497.963	9041.5
498.181	9554.5
498.398	9719.5
498.615	10115.5
498.832	10550.5
499.049	11074.5
499.267	11652.5
499.484	12390.5
499.701	13034.5
499.918	13703.5
500.135	14507.5
500.352	15094.5
500.569	15325.5
500.786	15290.5
501.003	14925.5
501.22	14191.5
501.437	13461.5
501.654	12690.5
501.871	12021.5
502.088	11216.5
502.305	10613.5
502.522	10191.5
502.739	9650.5
502.956	9265.5
503.172	8997.5
503.389	8725.5
