Data from Circ_2004_H10_HRD10591_00027.txt Node
Date: Wed Jan 03 10:33:19 EST 2024
User: Yrep
Spectrometer: HR+D1059
Trigger mode: 1
Integration Time (sec): 1.000000E-1
Scans to average: 1
Electric dark correction enabled: true
Nonlinearity correction enabled: false
Boxcar width: 0
XAxis mode: Wavelengths
Number of Pixels in Spectrum: 2048
>>>>>Begin Spectral Data<<<<<
223.165	-7.62
223.4	-7.62
223.635	-7.62
223.869	-21.62
224.104	-23.62
224.338	-15.62
224.573	-17.62
224.808	-9.62
225.042	-18.62
225.277	-17.62
225.511	4.38
225.746	15.38
225.98	-0.62
226.215	15.38
226.449	13.38
226.683	22.38
226.918	38.38
227.152	23.38
227.387	47.38
227.621	39.38
227.856	39.38
228.09	44.38
228.324	37.38
228.559	40.38
228.793	57.38
229.027	69.38
229.262	74.38
229.496	61.38
229.73	63.38
229.964	77.38
230.199	77.38
230.433	65.38
230.667	75.38
230.901	76.38
231.136	79.38
231.37	77.38
231.604	81.38
231.838	79.38
232.072	70.38
232.306	84.38
232.541	82.38
232.775	68.38
233.009	76.38
233.243	85.38
233.477	77.38
233.711	73.38
233.945	85.38
234.179	76.38
234.413	61.38
234.647	78.38
234.881	74.38
235.115	79.38
235.349	69.38
235.583	72.38
235.817	71.38
236.051	87.38
236.285	76.38
236.519	94.38
236.753	78.38
236.987	89.38
237.221	82.38
237.455	87.38
237.689	88.38
237.922	75.38
238.156	72.38
238.39	83.38
238.624	80.38
238.858	65.38
239.091	82.38
239.325	62.38
239.559	77.38
239.793	81.38
240.027	76.38
240.26	74.38
240.494	77.38
240.728	78.38
240.961	87.38
241.195	77.38
241.429	74.38
241.662	84.38
241.896	76.38
242.13	91.38
242.363	88.38
242.597	62.38
242.83	78.38
243.064	70.38
243.298	79.38
243.531	75.38
243.765	74.38
243.998	75.38
244.232	80.38
244.465	89.38
244.699	84.38
244.932	79.38
245.166	71.38
245.399	82.38
245.633	76.38
245.866	93.38
246.099	82.38
246.333	85.38
246.566	79.38
246.8	81.38
247.033	85.38
247.266	74.38
247.5	67.38
247.733	68.38
247.966	66.38
248.2	87.38
248.433	85.38
248.666	77.38
248.899	84.38
249.133	73.38
249.366	85.38
249.599	90.38
249.832	75.38
250.066	81.38
250.299	84.38
250.532	89.38
250.765	79.38
250.998	82.38
251.231	80.38
251.465	83.38
251.698	85.38
251.931	72.38
252.164	72.38
252.397	73.38
252.63	77.38
252.863	78.38
253.096	85.38
253.329	80.38
253.562	81.38
253.795	85.38
254.028	82.38
254.261	86.38
254.494	102.38
254.727	76.38
254.96	71.38
255.193	73.38
255.426	89.38
255.659	59.38
255.892	74.38
256.124	78.38
256.357	85.38
256.59	80.38
256.823	84.38
257.056	73.38
257.289	79.38
257.521	72.38
257.754	86.38
257.987	83.38
258.22	90.38
258.452	89.38
258.685	84.38
258.918	80.38
259.151	91.38
259.383	83.38
259.616	95.38
259.849	84.38
260.081	79.38
260.314	99.38
260.547	88.38
260.779	80.38
261.012	88.38
261.244	77.38
261.477	80.38
261.71	83.38
261.942	130.38
262.175	107.38
262.407	85.38
262.64	90.38
262.872	101.38
263.105	79.38
263.337	87.38
263.57	85.38
263.802	88.38
264.035	72.38
264.267	84.38
264.499	87.38
264.732	88.38
264.964	72.38
265.197	84.38
265.429	86.38
265.661	80.38
265.894	81.38
266.126	86.38
266.358	77.38
266.591	79.38
266.823	96.38
267.055	71.38
267.287	89.38
267.52	82.38
267.752	69.38
267.984	95.38
268.216	86.38
268.448	95.38
268.681	87.38
268.913	68.38
269.145	79.38
269.377	84.38
269.609	86.38
269.841	87.38
270.073	80.38
270.306	91.38
270.538	79.38
270.77	78.38
271.002	78.38
271.234	89.38
271.466	87.38
271.698	102.38
271.93	89.38
272.162	86.38
272.394	77.38
272.626	82.38
272.858	84.38
273.09	72.38
273.322	85.38
273.553	69.38
273.785	78.38
274.017	89.38
274.249	82.38
274.481	65.38
274.713	91.38
274.945	86.38
275.176	76.38
275.408	79.38
275.64	74.38
275.872	97.38
276.104	81.38
276.335	93.38
276.567	104.38
276.799	105.38
277.031	96.38
277.262	92.38
277.494	102.38
277.726	79.38
277.957	81.38
278.189	86.38
278.421	84.38
278.652	90.38
278.884	93.38
279.115	85.38
279.347	93.38
279.579	86.38
279.81	79.38
280.042	88.38
280.273	101.38
280.505	92.38
280.736	73.38
280.968	89.38
281.199	84.38
281.431	89.38
281.662	89.38
281.894	80.38
282.125	87.38
282.356	113.38
282.588	136.38
282.819	96.38
283.051	97.38
283.282	75.38
283.513	64.38
283.745	81.38
283.976	80.38
284.207	76.38
284.439	83.38
284.67	80.38
284.901	97.38
285.132	87.38
285.364	94.38
285.595	91.38
285.826	86.38
286.057	98.38
286.288	87.38
286.52	81.38
286.751	87.38
286.982	84.38
287.213	94.38
287.444	86.38
287.675	87.38
287.906	83.38
288.138	98.38
288.369	77.38
288.6	95.38
288.831	80.38
289.062	97.38
289.293	86.38
289.524	75.38
289.755	88.38
289.986	85.38
290.217	72.38
290.448	81.38
290.679	80.38
290.91	79.38
291.141	88.38
291.371	83.38
291.602	79.38
291.833	82.38
292.064	81.38
292.295	89.38
292.526	96.38
292.757	78.38
292.987	84.38
293.218	76.38
293.449	86.38
293.68	89.38
293.91	87.38
294.141	91.38
294.372	85.38
294.603	78.38
294.833	96.38
295.064	94.38
295.295	95.38
295.525	78.38
295.756	89.38
295.987	101.38
296.217	114.38
296.448	112.38
296.679	97.38
296.909	85.38
297.14	77.38
297.37	101.38
297.601	94.38
297.831	79.38
298.062	95.38
298.292	76.38
298.523	93.38
298.753	88.38
298.984	73.38
299.214	96.38
299.445	91.38
299.675	109.38
299.905	94.38
300.136	90.38
300.366	88.38
300.597	89.38
300.827	88.38
301.057	106.38
301.288	80.38
301.518	89.38
301.748	95.38
301.979	89.38
302.209	87.38
302.439	93.38
302.669	94.38
302.9	91.38
303.13	85.38
303.36	88.38
303.59	96.38
303.82	84.38
304.051	84.38
304.281	83.38
304.511	87.38
304.741	93.38
304.971	87.38
305.201	80.38
305.431	82.38
305.661	87.38
305.891	77.38
306.121	97.38
306.352	108.38
306.582	100.38
306.812	81.38
307.042	82.38
307.272	99.38
307.502	88.38
307.731	112.38
307.961	88.38
308.191	100.38
308.421	81.38
308.651	96.38
308.881	75.38
309.111	93.38
309.341	105.38
309.571	97.38
309.8	92.38
310.03	89.38
310.26	95.38
310.49	86.38
310.72	81.38
310.949	83.38
311.179	94.38
311.409	93.38
311.639	83.38
311.868	90.38
312.098	87.38
312.328	95.38
312.557	100.38
312.787	106.38
313.017	84.38
313.246	78.38
313.476	108.38
313.706	91.38
313.935	100.38
314.165	96.38
314.394	93.38
314.624	83.38
314.853	101.38
315.083	92.38
315.312	97.38
315.542	89.38
315.771	79.38
316.001	86.38
316.23	82.38
316.46	89.38
316.689	100.38
316.919	86.38
317.148	89.38
317.377	93.38
317.607	97.38
317.836	86.38
318.065	95.38
318.295	89.38
318.524	76.38
318.753	92.38
318.983	96.38
319.212	109.38
319.441	95.38
319.67	94.38
319.9	82.38
320.129	87.38
320.358	92.38
320.587	85.38
320.816	96.38
321.046	100.38
321.275	103.38
321.504	83.38
321.733	100.38
321.962	95.38
322.191	101.38
322.42	100.38
322.649	94.38
322.878	102.38
323.108	117.38
323.337	125.38
323.566	119.38
323.795	131.38
324.024	179.38
324.253	352.38
324.482	755.38
324.71	1483.38
324.939	1983.38
325.168	735.38
325.397	222.38
325.626	125.38
325.855	122.38
326.084	114.38
326.313	114.38
326.542	150.38
326.77	219.38
326.999	433.38
327.228	866.38
327.457	1542.38
327.686	1231.38
327.914	349.38
328.143	207.38
328.372	185.38
328.6	134.38
328.829	106.38
329.058	113.38
329.287	129.38
329.515	102.38
329.744	125.38
329.972	137.38
330.201	214.38
330.43	261.38
330.658	177.38
330.887	141.38
331.115	109.38
331.344	73.38
331.572	101.38
331.801	93.38
332.03	107.38
332.258	87.38
332.486	92.38
332.715	94.38
332.943	90.38
333.172	103.38
333.4	94.38
333.629	116.38
333.857	116.38
334.085	149.38
334.314	203.38
334.542	325.38
334.771	292.38
334.999	134.38
335.227	105.38
335.455	97.38
335.684	95.38
335.912	93.38
336.14	103.38
336.369	105.38
336.597	100.38
336.825	84.38
337.053	86.38
337.281	89.38
337.51	84.38
337.738	87.38
337.966	94.38
338.194	80.38
338.422	80.38
338.65	92.38
338.878	84.38
339.106	83.38
339.334	80.38
339.562	95.38
339.79	87.38
340.018	103.38
340.246	90.38
340.474	93.38
340.702	96.38
340.93	85.38
341.158	80.38
341.386	80.38
341.614	104.38
341.842	80.38
342.07	76.38
342.298	92.38
342.526	89.38
342.754	91.38
342.981	107.38
343.209	91.38
343.437	111.38
343.665	103.38
343.893	96.38
344.12	82.38
344.348	80.38
344.576	90.38
344.804	83.38
345.031	93.38
345.259	86.38
345.487	92.38
345.714	107.38
345.942	86.38
346.17	93.38
346.397	92.38
346.625	93.38
346.853	91.38
347.08	82.38
347.308	89.38
347.535	105.38
347.763	99.38
347.99	92.38
348.218	100.38
348.445	100.38
348.673	89.38
348.9	89.38
349.128	77.38
349.355	92.38
349.583	97.38
349.81	89.38
350.037	83.38
350.265	89.38
350.492	105.38
350.72	101.38
350.947	79.38
351.174	102.38
351.402	91.38
351.629	101.38
351.856	102.38
352.083	110.38
352.311	103.38
352.538	105.38
352.765	98.38
352.992	107.38
353.22	98.38
353.447	98.38
353.674	110.38
353.901	89.38
354.128	104.38
354.355	106.38
354.583	88.38
354.81	97.38
355.037	99.38
355.264	89.38
355.491	83.38
355.718	93.38
355.945	97.38
356.172	93.38
356.399	99.38
356.626	87.38
356.853	92.38
357.08	101.38
357.307	90.38
357.534	83.38
357.761	89.38
357.988	90.38
358.215	93.38
358.441	108.38
358.668	81.38
358.895	83.38
359.122	82.38
359.349	80.38
359.576	80.38
359.802	85.38
360.029	110.38
360.256	104.38
360.483	95.38
360.709	86.38
360.936	92.38
361.163	109.38
361.39	90.38
361.616	86.38
361.843	78.38
362.07	79.38
362.296	86.38
362.523	103.38
362.749	99.38
362.976	83.38
363.203	98.38
363.429	94.38
363.656	84.38
363.882	69.38
364.109	82.38
364.335	98.38
364.562	97.38
364.788	92.38
365.015	94.38
365.241	95.38
365.468	93.38
365.694	98.38
365.92	104.38
366.147	82.38
366.373	94.38
366.599	87.38
366.826	87.38
367.052	106.38
367.278	94.38
367.505	84.38
367.731	96.38
367.957	91.38
368.184	88.38
368.41	89.38
368.636	98.38
368.862	117.38
369.089	92.38
369.315	95.38
369.541	84.38
369.767	89.38
369.993	98.38
370.219	87.38
370.445	79.38
370.672	89.38
370.898	92.38
371.124	82.38
371.35	79.38
371.576	89.38
371.802	78.38
372.028	72.38
372.254	78.38
372.48	80.38
372.706	77.38
372.932	83.38
373.158	71.38
373.384	87.38
373.61	95.38
373.835	77.38
374.061	90.38
374.287	86.38
374.513	73.38
374.739	89.38
374.965	92.38
375.191	95.38
375.416	77.38
375.642	100.38
375.868	80.38
376.094	89.38
376.319	91.38
376.545	100.38
376.771	85.38
376.997	93.38
377.222	89.38
377.448	83.38
377.674	91.38
377.899	91.38
378.125	81.38
378.35	90.38
378.576	88.38
378.802	74.38
379.027	78.38
379.253	96.38
379.478	88.38
379.704	99.38
379.929	80.38
380.155	95.38
380.38	82.38
380.606	103.38
380.831	105.38
381.057	103.38
381.282	100.38
381.507	104.38
381.733	87.38
381.958	97.38
382.184	94.38
382.409	102.38
382.634	98.38
382.86	104.38
383.085	100.38
383.31	101.38
383.535	105.38
383.761	91.38
383.986	82.38
384.211	101.38
384.436	97.38
384.662	105.38
384.887	100.38
385.112	100.38
385.337	104.38
385.562	116.38
385.787	102.38
386.013	103.38
386.238	107.38
386.463	113.38
386.688	107.38
386.913	104.38
387.138	110.38
387.363	107.38
387.588	88.38
387.813	99.38
388.038	111.38
388.263	102.38
388.488	97.38
388.713	83.38
388.938	81.38
389.163	104.38
389.387	91.38
389.612	90.38
389.837	93.38
390.062	96.38
390.287	80.38
390.512	73.38
390.736	87.38
390.961	94.38
391.186	91.38
391.411	102.38
391.636	92.38
391.86	84.38
392.085	84.38
392.31	64.38
392.534	75.38
392.759	84.38
392.984	87.38
393.208	94.38
393.433	110.38
393.658	91.38
393.882	79.38
394.107	75.38
394.331	82.38
394.556	78.38
394.78	89.38
395.005	71.38
395.229	82.38
395.454	74.38
395.678	85.38
395.903	85.38
396.127	91.38
396.352	79.38
396.576	78.38
396.801	87.38
397.025	96.38
397.249	99.38
397.474	91.38
397.698	83.38
397.922	89.38
398.147	92.38
398.371	76.38
398.595	85.38
398.82	88.38
399.044	101.38
399.268	89.38
399.492	88.38
399.717	78.38
399.941	75.38
400.165	87.38
400.389	78.38
400.613	88.38
400.837	96.38
401.062	93.38
401.286	87.38
401.51	80.38
401.734	89.38
401.958	92.38
402.182	123.38
402.406	135.38
402.63	108.38
402.854	87.38
403.078	95.38
403.302	70.38
403.526	81.38
403.75	95.38
403.974	83.38
404.198	95.38
404.422	93.38
404.645	92.38
404.869	110.38
405.093	111.38
405.317	99.38
405.541	106.38
405.765	92.38
405.988	107.38
406.212	145.38
406.436	196.38
406.66	120.38
406.883	95.38
407.107	89.38
407.331	93.38
407.555	89.38
407.778	84.38
408.002	95.38
408.226	95.38
408.449	82.38
408.673	89.38
408.896	82.38
409.12	98.38
409.344	84.38
409.567	89.38
409.791	86.38
410.014	92.38
410.238	88.38
410.461	86.38
410.685	95.38
410.908	101.38
411.132	112.38
411.355	103.38
411.578	88.38
411.802	88.38
412.025	87.38
412.249	89.38
412.472	92.38
412.695	95.38
412.919	91.38
413.142	96.38
413.365	83.38
413.589	81.38
413.812	92.38
414.035	88.38
414.258	88.38
414.482	99.38
414.705	92.38
414.928	95.38
415.151	88.38
415.374	82.38
415.597	97.38
415.821	84.38
416.044	99.38
416.267	92.38
416.49	89.38
416.713	81.38
416.936	95.38
417.159	99.38
417.382	75.38
417.605	95.38
417.828	88.38
418.051	87.38
418.274	87.38
418.497	75.38
418.72	76.38
418.943	85.38
419.166	81.38
419.389	92.38
419.611	93.38
419.834	82.38
420.057	97.38
420.28	86.38
420.503	89.38
420.726	74.38
420.948	79.38
421.171	89.38
421.394	97.38
421.617	85.38
421.839	99.38
422.062	85.38
422.285	85.38
422.507	98.38
422.73	97.38
422.953	93.38
423.175	95.38
423.398	85.38
423.621	89.38
423.843	78.38
424.066	106.38
424.288	92.38
424.511	84.38
424.733	99.38
424.956	93.38
425.178	79.38
425.401	87.38
425.623	80.38
425.846	97.38
426.068	99.38
426.291	86.38
426.513	95.38
426.735	99.38
426.958	92.38
427.18	98.38
427.402	111.38
427.625	142.38
427.847	139.38
428.069	117.38
428.292	88.38
428.514	85.38
428.736	83.38
428.958	77.38
429.181	83.38
429.403	73.38
429.625	88.38
429.847	107.38
430.069	100.38
430.292	95.38
430.514	85.38
430.736	91.38
430.958	82.38
431.18	87.38
431.402	85.38
431.624	97.38
431.846	75.38
432.068	75.38
432.29	76.38
432.512	82.38
432.734	83.38
432.956	90.38
433.178	88.38
433.4	107.38
433.622	99.38
433.844	86.38
434.066	93.38
434.287	98.38
434.509	101.38
434.731	93.38
434.953	98.38
435.175	82.38
435.397	90.38
435.618	88.38
435.84	88.38
436.062	115.38
436.284	126.38
436.505	91.38
436.727	87.38
436.949	103.38
437.17	97.38
437.392	88.38
437.614	85.38
437.835	99.38
438.057	104.38
438.278	92.38
438.5	100.38
438.721	97.38
438.943	95.38
439.165	84.38
439.386	75.38
439.608	85.38
439.829	105.38
440.05	125.38
440.272	107.38
440.493	102.38
440.715	88.38
440.936	87.38
441.158	93.38
441.379	100.38
441.6	82.38
441.822	92.38
442.043	96.38
442.264	96.38
442.486	92.38
442.707	100.38
442.928	98.38
443.149	107.38
443.371	113.38
443.592	96.38
443.813	105.38
444.034	100.38
444.255	90.38
444.476	88.38
444.698	89.38
444.919	89.38
445.14	115.38
445.361	112.38
445.582	110.38
445.803	137.38
446.024	109.38
446.245	110.38
446.466	89.38
446.687	86.38
446.908	77.38
447.129	95.38
447.35	83.38
447.571	92.38
447.792	96.38
448.013	100.38
448.234	92.38
448.455	101.38
448.675	108.38
448.896	111.38
449.117	100.38
449.338	96.38
449.559	112.38
449.779	113.38
450	82.38
450.221	71.38
450.442	92.38
450.662	79.38
450.883	94.38
451.104	96.38
451.324	98.38
451.545	92.38
451.766	91.38
451.986	91.38
452.207	87.38
452.428	73.38
452.648	92.38
452.869	108.38
453.089	98.38
453.31	112.38
453.53	87.38
453.751	98.38
453.971	105.38
454.192	111.38
454.412	105.38
454.633	89.38
454.853	75.38
455.073	80.38
455.294	68.38
455.514	94.38
455.734	84.38
455.955	84.38
456.175	93.38
456.395	86.38
456.616	94.38
456.836	75.38
457.056	85.38
457.276	96.38
457.497	83.38
457.717	76.38
457.937	81.38
458.157	93.38
458.377	89.38
458.598	101.38
458.818	138.38
459.038	143.38
459.258	104.38
459.478	83.38
459.698	76.38
459.918	83.38
460.138	86.38
460.358	71.38
460.578	77.38
460.798	92.38
461.018	80.38
461.238	75.38
461.458	71.38
461.678	65.38
461.898	82.38
462.118	80.38
462.338	84.38
462.558	94.38
462.777	81.38
462.997	92.38
463.217	91.38
463.437	80.38
463.657	78.38
463.876	91.38
464.096	93.38
464.316	103.38
464.536	85.38
464.755	85.38
464.975	108.38
465.195	135.38
465.414	131.38
465.634	96.38
465.854	94.38
466.073	85.38
466.293	72.38
466.512	97.38
466.732	91.38
466.951	83.38
467.171	79.38
467.391	86.38
467.61	86.38
467.829	109.38
468.049	157.38
468.268	182.38
468.488	107.38
468.707	104.38
468.927	81.38
469.146	82.38
469.365	86.38
469.585	84.38
469.804	99.38
470.023	84.38
470.243	111.38
470.462	93.38
470.681	106.38
470.901	112.38
471.12	77.38
471.339	90.38
471.558	108.38
471.777	88.38
471.997	101.38
472.216	213.38
472.435	412.38
472.654	143.38
472.873	94.38
473.092	79.38
473.311	85.38
473.53	92.38
473.749	94.38
473.968	84.38
474.187	110.38
474.406	89.38
474.625	79.38
474.844	95.38
475.063	91.38
475.282	87.38
475.501	78.38
475.72	83.38
475.939	97.38
476.158	93.38
476.377	81.38
476.596	84.38
476.814	80.38
477.033	93.38
477.252	84.38
477.471	107.38
477.69	84.38
477.908	79.38
478.127	86.38
478.346	90.38
478.564	95.38
478.783	91.38
479.002	106.38
479.22	92.38
479.439	97.38
479.658	94.38
479.876	98.38
480.095	83.38
480.313	91.38
480.532	89.38
480.751	114.38
480.969	233.38
481.188	679.38
481.406	422.38
481.624	134.38
481.843	98.38
482.061	86.38
482.28	93.38
482.498	107.38
482.717	90.38
482.935	82.38
483.153	90.38
483.372	82.38
483.59	92.38
483.808	97.38
484.027	94.38
484.245	94.38
484.463	89.38
484.681	100.38
484.9	96.38
485.118	94.38
485.336	89.38
485.554	98.38
485.772	107.38
485.99	115.38
486.209	103.38
486.427	116.38
486.645	103.38
486.863	107.38
487.081	88.38
487.299	87.38
487.517	85.38
487.735	99.38
487.953	96.38
488.171	99.38
488.389	103.38
488.607	93.38
488.825	98.38
489.043	83.38
489.261	90.38
489.479	85.38
489.696	81.38
489.914	72.38
490.132	83.38
490.35	86.38
490.568	88.38
490.786	89.38
491.003	92.38
491.221	99.38
491.439	93.38
491.657	89.38
491.874	80.38
492.092	97.38
492.31	82.38
492.527	90.38
492.745	92.38
492.963	83.38
493.18	99.38
493.398	87.38
493.615	93.38
493.833	90.38
494.05	89.38
494.268	71.38
494.485	92.38
494.703	84.38
494.92	88.38
495.138	96.38
495.355	93.38
495.573	96.38
495.79	84.38
496.008	98.38
496.225	71.38
496.442	94.38
496.66	84.38
496.877	94.38
497.094	92.38
497.312	85.38
497.529	95.38
497.746	96.38
497.963	95.38
498.181	89.38
498.398	77.38
498.615	89.38
498.832	95.38
499.049	79.38
499.267	85.38
499.484	96.38
499.701	94.38
499.918	101.38
500.135	88.38
500.352	79.38
500.569	81.38
500.786	92.38
501.003	86.38
501.22	74.38
501.437	100.38
501.654	108.38
501.871	98.38
502.088	97.38
502.305	93.38
502.522	87.38
502.739	84.38
502.956	93.38
503.172	89.38
503.389	96.38
503.606	101.38
503.823	95.38
504.04	86.38
504.256	102.38
504.473	88.38
504.69	92.38
504.907	80.38
505.123	74.38
505.34	95.38
505.557	99.38
505.773	89.38
505.99	89.38
506.207	104.38
506.423	85.38
506.64	81.38
506.856	85.38
507.073	96.38
507.289	82.38
507.506	91.38
507.722	100.38
507.939	104.38
508.155	93.38
508.372	98.38
508.588	94.38
508.805	99.38
509.021	86.38
509.238	99.38
509.454	99.38
509.67	98.38
509.887	101.38
510.103	127.38
510.319	194.38
510.536	614.38
510.752	1916.38
510.968	550.38
511.184	137.38
511.401	110.38
511.617	100.38
511.833	100.38
512.049	90.38
512.265	97.38
512.481	84.38
512.698	79.38
512.914	95.38
513.13	99.38
513.346	97.38
513.562	93.38
513.778	82.38
513.994	93.38
514.21	102.38
514.426	108.38
514.642	129.38
514.858	118.38
515.074	150.38
515.29	387.38
515.506	1200.38
515.721	445.38
515.937	152.38
516.153	120.38
516.369	100.38
