Data from Circ_2004_H10_HRD10591_00012.txt Node
Date: Wed Jan 03 10:33:16 EST 2024
User: Yrep
Spectrometer: HR+D1059
Trigger mode: 1
Integration Time (sec): 1.000000E-1
Scans to average: 1
Electric dark correction enabled: true
Nonlinearity correction enabled: false
Boxcar width: 0
XAxis mode: Wavelengths
Number of Pixels in Spectrum: 2048
>>>>>Begin Spectral Data<<<<<
223.165	-25.5
223.4	-25.5
223.635	-25.5
223.869	-4.5
224.104	-14.5
224.338	-5.5
224.573	-11.5
224.808	-31.5
225.042	-9.5
225.277	-5.5
225.511	-10.5
225.746	15.5
225.98	9.5
226.215	10.5
226.449	14.5
226.683	9.5
226.918	22.5
227.152	36.5
227.387	34.5
227.621	34.5
227.856	53.5
228.09	53.5
228.324	65.5
228.559	65.5
228.793	165.5
229.027	439.5
229.262	511.5
229.496	577.5
229.73	770.5
229.964	833.5
230.199	557.5
230.433	495.5
230.667	455.5
230.901	449.5
231.136	447.5
231.37	461.5
231.604	445.5
231.838	467.5
232.072	453.5
232.306	456.5
232.541	462.5
232.775	473.5
233.009	461.5
233.243	463.5
233.477	487.5
233.711	492.5
233.945	498.5
234.179	522.5
234.413	517.5
234.647	496.5
234.881	531.5
235.115	541.5
235.349	545.5
235.583	562.5
235.817	582.5
236.051	635.5
236.285	621.5
236.519	613.5
236.753	679.5
236.987	898.5
237.221	1353.5
237.455	1484.5
237.689	868.5
237.922	740.5
238.156	711.5
238.39	677.5
238.624	647.5
238.858	656.5
239.091	681.5
239.325	671.5
239.559	684.5
239.793	689.5
240.027	764.5
240.26	881.5
240.494	949.5
240.728	933.5
240.961	916.5
241.195	810.5
241.429	785.5
241.662	764.5
241.896	771.5
242.13	787.5
242.363	771.5
242.597	804.5
242.83	845.5
243.064	843.5
243.298	843.5
243.531	856.5
243.765	874.5
243.998	888.5
244.232	868.5
244.465	875.5
244.699	871.5
244.932	899.5
245.166	886.5
245.399	912.5
245.633	921.5
245.866	915.5
246.099	964.5
246.333	959.5
246.566	977.5
246.8	995.5
247.033	1061.5
247.266	1046.5
247.5	1075.5
247.733	1135.5
247.966	1147.5
248.2	1137.5
248.433	1162.5
248.666	1214.5
248.899	1349.5
249.133	1487.5
249.366	1472.5
249.599	1382.5
249.832	1371.5
250.066	1466.5
250.299	1783.5
250.532	2291.5
250.765	2283.5
250.998	2076.5
251.231	1805.5
251.465	1553.5
251.698	1447.5
251.931	1460.5
252.164	1419.5
252.397	1431.5
252.63	1442.5
252.863	1555.5
253.096	1634.5
253.329	1713.5
253.562	1644.5
253.795	1527.5
254.028	1586.5
254.261	1622.5
254.494	1837.5
254.727	2165.5
254.96	2252.5
255.193	2038.5
255.426	1995.5
255.659	2153.5
255.892	3044.5
256.124	3835.5
256.357	3191.5
256.59	2417.5
256.823	1975.5
257.056	1818.5
257.289	1743.5
257.521	1729.5
257.754	1712.5
257.987	1625.5
258.22	1609.5
258.452	1588.5
258.685	1637.5
258.918	1643.5
259.151	1638.5
259.383	1721.5
259.616	1706.5
259.849	1815.5
260.081	1912.5
260.314	2107.5
260.547	1999.5
260.779	1827.5
261.012	1767.5
261.244	1753.5
261.477	1711.5
261.71	1694.5
261.942	1790.5
262.175	1771.5
262.407	1764.5
262.64	1636.5
262.872	1640.5
263.105	1677.5
263.337	1665.5
263.57	1646.5
263.802	1691.5
264.035	1674.5
264.267	1696.5
264.499	1688.5
264.732	1712.5
264.964	1688.5
265.197	1675.5
265.429	1754.5
265.661	1736.5
265.894	1701.5
266.126	1773.5
266.358	1784.5
266.591	1804.5
266.823	1938.5
267.055	1892.5
267.287	1849.5
267.52	1829.5
267.752	1854.5
267.984	1864.5
268.216	1887.5
268.448	1940.5
268.681	1973.5
268.913	2114.5
269.145	2285.5
269.377	2348.5
269.609	2228.5
269.841	2218.5
270.073	2305.5
270.306	2549.5
270.538	2729.5
270.77	2491.5
271.002	2382.5
271.234	2420.5
271.466	2553.5
271.698	2679.5
271.93	2685.5
272.162	2695.5
272.394	2590.5
272.626	2404.5
272.858	2321.5
273.09	2259.5
273.322	2267.5
273.553	2206.5
273.785	2227.5
274.017	2261.5
274.249	2265.5
274.481	2319.5
274.713	2319.5
274.945	2325.5
275.176	2334.5
275.408	2303.5
275.64	2341.5
275.872	2383.5
276.104	2404.5
276.335	2453.5
276.567	2502.5
276.799	2669.5
277.031	2923.5
277.262	3086.5
277.494	2910.5
277.726	2736.5
277.957	2591.5
278.189	2525.5
278.421	2483.5
278.652	2486.5
278.884	2489.5
279.115	2457.5
279.347	2489.5
279.579	2531.5
279.81	2556.5
280.042	2631.5
280.273	2772.5
280.505	2733.5
280.736	2629.5
280.968	2553.5
281.199	2559.5
281.431	2531.5
281.662	2555.5
281.894	2529.5
282.125	2628.5
282.356	2753.5
282.588	2898.5
282.819	2743.5
283.051	2607.5
283.282	2639.5
283.513	2653.5
283.745	2645.5
283.976	2691.5
284.207	2693.5
284.439	2653.5
284.67	2665.5
284.901	2606.5
285.132	2645.5
285.364	2623.5
285.595	2626.5
285.826	2662.5
286.057	2706.5
286.288	2708.5
286.52	2733.5
286.751	2721.5
286.982	2698.5
287.213	2714.5
287.444	2773.5
287.675	2831.5
287.906	2934.5
288.138	3006.5
288.369	2889.5
288.6	2957.5
288.831	2874.5
289.062	2886.5
289.293	2867.5
289.524	2822.5
289.755	2814.5
289.986	2824.5
290.217	2807.5
290.448	2804.5
290.679	2839.5
290.91	2825.5
291.141	2833.5
291.371	2829.5
291.602	2875.5
291.833	2773.5
292.064	2798.5
292.295	2826.5
292.526	2817.5
292.757	2831.5
292.987	2824.5
293.218	2778.5
293.449	2847.5
293.68	2839.5
293.91	2833.5
294.141	2825.5
294.372	2799.5
294.603	2887.5
294.833	2892.5
295.064	2886.5
295.295	2900.5
295.525	2915.5
295.756	2932.5
295.987	3016.5
296.217	3279.5
296.448	3176.5
296.679	2965.5
296.909	3000.5
297.14	3027.5
297.37	3001.5
297.601	3006.5
297.831	3029.5
298.062	3098.5
298.292	3064.5
298.523	3156.5
298.753	3141.5
298.984	3117.5
299.214	3122.5
299.445	3102.5
299.675	3066.5
299.905	3153.5
300.136	3090.5
300.366	3133.5
300.597	3154.5
300.827	3287.5
301.057	3316.5
301.288	3411.5
301.518	3325.5
301.748	3398.5
301.979	3459.5
302.209	3337.5
302.439	3375.5
302.669	3382.5
302.9	3299.5
303.13	3303.5
303.36	3380.5
303.59	3481.5
303.82	3442.5
304.051	3397.5
304.281	3329.5
304.511	3318.5
304.741	3307.5
304.971	3309.5
305.201	3268.5
305.431	3277.5
305.661	3320.5
305.891	3279.5
306.121	3255.5
306.352	3289.5
306.582	3338.5
306.812	3322.5
307.042	3380.5
307.272	3401.5
307.502	3565.5
307.731	3383.5
307.961	3360.5
308.191	3362.5
308.421	3281.5
308.651	3339.5
308.881	3297.5
309.111	3378.5
309.341	3406.5
309.571	3497.5
309.8	3502.5
310.03	3622.5
310.26	3591.5
310.49	3596.5
310.72	3706.5
310.949	3742.5
311.179	3758.5
311.409	3696.5
311.639	3691.5
311.868	3695.5
312.098	3726.5
312.328	3721.5
312.557	3926.5
312.787	4112.5
313.017	3878.5
313.246	3818.5
313.476	3717.5
313.706	3723.5
313.935	3836.5
314.165	3981.5
314.394	4013.5
314.624	3885.5
314.853	3870.5
315.083	3756.5
315.312	3769.5
315.542	3764.5
315.771	3740.5
316.001	3664.5
316.23	3694.5
316.46	3710.5
316.689	3744.5
316.919	3860.5
317.148	3881.5
317.377	3779.5
317.607	3754.5
317.836	3793.5
318.065	3735.5
318.295	3745.5
318.524	3747.5
318.753	3717.5
318.983	3692.5
319.212	3719.5
319.441	3799.5
319.67	3791.5
319.9	3737.5
320.129	3739.5
320.358	3795.5
320.587	3738.5
320.816	3841.5
321.046	3852.5
321.275	3871.5
321.504	3895.5
321.733	3855.5
321.962	3990.5
322.191	4093.5
322.42	4146.5
322.649	4288.5
322.878	4279.5
323.108	4515.5
323.337	4706.5
323.566	4853.5
323.795	5152.5
324.024	5645.5
324.253	7427.5
324.482	11084.5
324.71	15334.5
324.939	15615.5
325.168	13292.5
325.397	6738.5
325.626	5478.5
325.855	5038.5
326.084	4931.5
326.313	4968.5
326.542	5142.5
326.77	5769.5
326.999	7205.5
327.228	10486.5
327.457	14638.5
327.686	14257.5
327.914	8351.5
328.143	7564.5
328.372	7705.5
328.6	6674.5
328.829	6065.5
329.058	6121.5
329.287	6271.5
329.515	6120.5
329.744	6490.5
329.972	7618.5
330.201	9403.5
330.43	10708.5
330.658	8399.5
330.887	7182.5
331.115	6303.5
331.344	5622.5
331.572	5454.5
331.801	5549.5
332.03	5506.5
332.258	5394.5
332.486	5438.5
332.715	5639.5
332.943	5870.5
333.172	6137.5
333.4	6398.5
333.629	6786.5
333.857	7521.5
334.085	8827.5
334.314	10856.5
334.542	13203.5
334.771	12606.5
334.999	8242.5
335.227	6764.5
335.455	6031.5
335.684	5734.5
335.912	5576.5
336.14	5381.5
336.369	5300.5
336.597	5366.5
336.825	5191.5
337.053	5070.5
337.281	4965.5
337.51	4803.5
337.738	4916.5
337.966	4799.5
338.194	4834.5
338.422	4819.5
338.65	4676.5
338.878	4601.5
339.106	4675.5
339.334	4529.5
339.562	4507.5
339.79	4473.5
340.018	4540.5
340.246	4492.5
340.474	4492.5
340.702	4474.5
340.93	4454.5
341.158	4479.5
341.386	4428.5
341.614	4417.5
341.842	4407.5
342.07	4300.5
342.298	4326.5
342.526	4358.5
342.754	4373.5
342.981	4290.5
343.209	4498.5
343.437	4657.5
343.665	4887.5
343.893	5124.5
344.12	5195.5
344.348	5004.5
344.576	4788.5
344.804	4665.5
345.031	4689.5
345.259	4604.5
345.487	4480.5
345.714	4365.5
345.942	4311.5
346.17	4225.5
346.397	4177.5
346.625	4242.5
346.853	4163.5
347.08	4211.5
347.308	4248.5
347.535	4369.5
347.763	4317.5
347.99	4291.5
348.218	4295.5
348.445	4332.5
348.673	4270.5
348.9	4251.5
349.128	4141.5
349.355	4059.5
349.583	4051.5
349.81	4061.5
350.037	4039.5
350.265	3992.5
350.492	4101.5
350.72	4114.5
350.947	4154.5
351.174	4172.5
351.402	4275.5
351.629	4194.5
351.856	4257.5
352.083	4344.5
352.311	4293.5
352.538	4286.5
352.765	4228.5
352.992	4194.5
353.22	4106.5
353.447	4152.5
353.674	4077.5
353.901	4012.5
354.128	3997.5
354.355	3971.5
354.583	4015.5
354.81	3976.5
355.037	3969.5
355.264	3974.5
355.491	3919.5
355.718	3993.5
355.945	3972.5
356.172	3937.5
356.399	3925.5
356.626	3972.5
356.853	3965.5
357.08	3947.5
357.307	3956.5
357.534	3950.5
357.761	3986.5
357.988	4037.5
358.215	3990.5
358.441	4006.5
358.668	3930.5
358.895	4102.5
359.122	4101.5
359.349	4107.5
359.576	4275.5
359.802	4503.5
360.029	4681.5
360.256	4633.5
360.483	4451.5
360.709	4275.5
360.936	4150.5
361.163	4186.5
361.39	4302.5
361.616	4284.5
361.843	4216.5
362.07	4230.5
362.296	4255.5
362.523	4163.5
362.749	4166.5
362.976	4119.5
363.203	4111.5
363.429	4036.5
363.656	4104.5
363.882	4056.5
364.109	4012.5
364.335	4023.5
364.562	4085.5
364.788	4016.5
365.015	4047.5
365.241	4049.5
365.468	4118.5
365.694	4201.5
365.92	4095.5
366.147	4035.5
366.373	3994.5
366.599	4072.5
366.826	3985.5
367.052	3945.5
367.278	4111.5
367.505	4049.5
367.731	4097.5
367.957	4103.5
368.184	4113.5
368.41	4178.5
368.636	4313.5
368.862	4341.5
369.089	4100.5
369.315	4124.5
369.541	4153.5
369.767	4243.5
369.993	4202.5
370.219	4203.5
370.445	4199.5
370.672	4259.5
370.898	4191.5
371.124	4297.5
371.35	4366.5
371.576	4247.5
371.802	4298.5
372.028	4264.5
372.254	4264.5
372.48	4301.5
372.706	4395.5
372.932	4436.5
373.158	4403.5
373.384	4446.5
373.61	4319.5
373.835	4331.5
374.061	4312.5
374.287	4445.5
374.513	4510.5
374.739	4599.5
374.965	4733.5
375.191	4685.5
375.416	4554.5
375.642	4537.5
375.868	4477.5
376.094	4465.5
376.319	4375.5
376.545	4386.5
376.771	4275.5
376.997	4292.5
377.222	4317.5
377.448	4345.5
377.674	4281.5
377.899	4245.5
378.125	4301.5
378.35	4294.5
378.576	4283.5
378.802	4263.5
379.027	4273.5
379.253	4305.5
379.478	4251.5
379.704	4262.5
379.929	4260.5
380.155	4283.5
380.38	4281.5
380.606	4298.5
380.831	4234.5
381.057	4264.5
381.282	4309.5
381.507	4422.5
381.733	4402.5
381.958	4365.5
382.184	4430.5
382.409	4460.5
382.634	4558.5
382.86	4553.5
383.085	4630.5
383.31	4682.5
383.535	4741.5
383.761	4801.5
383.986	4825.5
384.211	4911.5
384.436	4995.5
384.662	5039.5
384.887	5191.5
385.112	5167.5
385.337	5242.5
385.562	5235.5
385.787	5243.5
386.013	5305.5
386.238	5326.5
386.463	5241.5
386.688	5254.5
386.913	5238.5
387.138	5130.5
387.363	5142.5
387.588	5042.5
387.813	5117.5
388.038	5108.5
388.263	5140.5
388.488	5202.5
388.713	5078.5
388.938	5095.5
389.163	5118.5
389.387	5090.5
389.612	4925.5
389.837	5052.5
390.062	4971.5
390.287	5107.5
390.512	5090.5
390.736	5109.5
390.961	5290.5
391.186	5233.5
391.411	5479.5
391.636	5529.5
391.86	5678.5
392.085	5741.5
392.31	5663.5
392.534	5440.5
392.759	5441.5
392.984	5334.5
393.208	5409.5
393.433	5353.5
393.658	5310.5
393.882	5339.5
394.107	5358.5
394.331	5442.5
394.556	5401.5
394.78	5434.5
395.005	5475.5
395.229	5529.5
395.454	5662.5
395.678	5792.5
395.903	5819.5
396.127	5866.5
396.352	5602.5
396.576	5446.5
396.801	5417.5
397.025	5583.5
397.249	5718.5
397.474	5796.5
397.698	5761.5
397.922	5931.5
398.147	6029.5
398.371	6128.5
398.595	6265.5
398.82	6532.5
399.044	7140.5
399.268	7804.5
399.492	8837.5
399.717	9465.5
399.941	9250.5
400.165	8682.5
400.389	7991.5
400.613	7159.5
400.837	6721.5
401.062	6583.5
401.286	6577.5
401.51	6501.5
401.734	6468.5
401.958	6619.5
402.182	6729.5
402.406	6851.5
402.63	6892.5
402.854	7075.5
403.078	7053.5
403.302	7215.5
403.526	7280.5
403.75	7341.5
403.974	7477.5
404.198	7538.5
404.422	7592.5
404.645	7701.5
404.869	7783.5
405.093	8287.5
405.317	8737.5
405.541	8718.5
405.765	7933.5
405.988	7541.5
406.212	7587.5
406.436	7689.5
406.66	7770.5
406.883	7778.5
407.107	8359.5
407.331	8880.5
407.555	9285.5
407.778	8997.5
408.002	8171.5
408.226	7785.5
408.449	7795.5
408.673	7589.5
408.896	7764.5
409.12	7965.5
409.344	7501.5
409.567	7170.5
409.791	7091.5
410.014	7016.5
410.238	7012.5
410.461	6987.5
410.685	7048.5
410.908	7114.5
411.132	7414.5
411.355	7482.5
411.578	7096.5
411.802	6931.5
412.025	6946.5
412.249	7391.5
412.472	7998.5
412.695	8523.5
412.919	7796.5
413.142	7331.5
413.365	7053.5
413.589	6917.5
413.812	6678.5
414.035	6526.5
414.258	6545.5
414.482	6646.5
414.705	6610.5
414.928	6572.5
415.151	6489.5
415.374	6443.5
415.597	6389.5
415.821	6307.5
416.044	6356.5
416.267	6353.5
416.49	6135.5
416.713	6257.5
416.936	6339.5
417.159	6378.5
417.382	6400.5
417.605	6593.5
417.828	6751.5
418.051	6695.5
418.274	6471.5
418.497	6532.5
418.72	6551.5
418.943	6578.5
419.166	6953.5
419.389	7384.5
419.611	7354.5
419.834	7228.5
420.057	7339.5
420.28	7549.5
420.503	7350.5
420.726	7066.5
420.948	7043.5
421.171	7316.5
421.394	7138.5
421.617	6644.5
421.839	6609.5
422.062	6620.5
422.285	6770.5
422.507	7445.5
422.73	7926.5
422.953	7320.5
423.175	6994.5
423.398	7053.5
423.621	7079.5
423.843	7273.5
424.066	7148.5
424.288	7083.5
424.511	7179.5
424.733	7716.5
424.956	8183.5
425.178	7695.5
425.401	7898.5
425.623	7732.5
425.846	6761.5
426.068	6643.5
426.291	6486.5
426.513	6555.5
426.735	6546.5
426.958	7113.5
427.18	7920.5
427.402	9287.5
427.625	9489.5
427.847	8574.5
428.069	8173.5
428.292	7065.5
428.514	6225.5
428.736	6052.5
428.958	6094.5
429.181	5756.5
429.403	5753.5
429.625	5930.5
429.847	6318.5
430.069	6814.5
430.292	6396.5
430.514	5841.5
430.736	5748.5
430.958	5733.5
431.18	5593.5
431.402	5655.5
431.624	5659.5
431.846	5689.5
432.068	5699.5
432.29	5822.5
432.512	5673.5
432.734	5821.5
432.956	5724.5
433.178	5817.5
433.4	5809.5
433.622	5753.5
433.844	5730.5
434.066	5707.5
434.287	5846.5
434.509	6090.5
434.731	6310.5
434.953	6352.5
435.175	6501.5
435.397	6609.5
435.618	6494.5
435.84	6969.5
436.062	7852.5
436.284	7831.5
436.505	6436.5
436.727	6219.5
436.949	5821.5
437.17	5802.5
437.392	5748.5
437.614	5906.5
437.835	6334.5
438.057	7285.5
438.278	7977.5
438.5	7949.5
438.721	8745.5
438.943	7584.5
439.165	6313.5
439.386	6164.5
439.608	6277.5
439.829	6297.5
440.05	6692.5
440.272	7098.5
440.493	6434.5
440.715	6142.5
440.936	6042.5
441.158	6063.5
441.379	6276.5
441.6	6532.5
441.822	6820.5
442.043	7109.5
442.264	8001.5
442.486	7741.5
442.707	6837.5
442.928	6716.5
443.149	6936.5
443.371	7140.5
443.592	7635.5
443.813	8718.5
444.034	8635.5
444.255	7447.5
444.476	7289.5
444.698	7443.5
444.919	7467.5
445.14	7365.5
445.361	7134.5
445.582	7389.5
445.803	8123.5
446.024	8755.5
446.245	8435.5
446.466	7490.5
446.687	6365.5
446.908	6115.5
447.129	5799.5
447.35	5619.5
447.571	5672.5
447.792	5525.5
448.013	5549.5
448.234	5808.5
448.455	6455.5
448.675	7671.5
448.896	8221.5
449.117	6649.5
449.338	6920.5
449.559	8291.5
449.779	8546.5
450	6364.5
450.221	5745.5
450.442	5422.5
450.662	5356.5
450.883	5528.5
451.104	5657.5
451.324	5478.5
451.545	5256.5
451.766	5135.5
451.986	5090.5
452.207	5022.5
452.428	5052.5
452.648	5032.5
452.869	5054.5
453.089	5117.5
453.31	5285.5
453.53	5079.5
453.751	4945.5
453.971	5023.5
454.192	5209.5
454.412	4959.5
454.633	4929.5
454.853	4824.5
455.073	4909.5
455.294	5325.5
455.514	5925.5
455.734	5297.5
455.955	4788.5
456.175	4664.5
456.395	4670.5
456.616	4619.5
456.836	4642.5
457.056	4653.5
457.276	4598.5
457.497	4752.5
457.717	4713.5
457.937	4826.5
458.157	4866.5
458.377	5017.5
458.598	5310.5
458.818	6067.5
459.038	6830.5
459.258	6752.5
459.478	5923.5
459.698	5843.5
459.918	5781.5
460.138	6072.5
460.358	6223.5
460.578	6265.5
460.798	6436.5
461.018	6315.5
461.238	6214.5
461.458	6252.5
461.678	6276.5
461.898	6306.5
462.118	6302.5
462.338	6679.5
462.558	6913.5
462.777	7137.5
462.997	7713.5
463.217	8057.5
463.437	7857.5
463.657	7349.5
463.876	7130.5
464.096	7185.5
464.316	7177.5
464.536	7249.5
464.755	6979.5
464.975	6913.5
465.195	7014.5
465.414	7181.5
465.634	6341.5
465.854	5941.5
466.073	5678.5
466.293	5471.5
466.512	5320.5
466.732	5237.5
466.951	5287.5
467.171	5303.5
467.391	5431.5
467.61	5430.5
467.829	5574.5
468.049	6032.5
468.268	6615.5
468.488	5727.5
468.707	5402.5
468.927	5271.5
469.146	5060.5
469.365	5166.5
469.585	5212.5
469.804	5479.5
470.023	5599.5
470.243	5452.5
470.462	5594.5
470.681	5717.5
470.901	5605.5
471.12	5525.5
471.339	5489.5
471.558	5468.5
471.777	5522.5
471.997	5705.5
472.216	7023.5
472.435	9734.5
472.654	7844.5
472.873	6329.5
473.092	5789.5
473.311	5589.5
473.53	5339.5
473.749	5495.5
473.968	5882.5
474.187	6925.5
474.406	6432.5
474.625	5465.5
474.844	5171.5
475.063	5168.5
475.282	5189.5
475.501	5212.5
475.72	5237.5
475.939	5291.5
476.158	5315.5
476.377	5329.5
476.596	5275.5
476.814	5436.5
477.033	5541.5
477.252	5626.5
477.471	5626.5
477.69	5827.5
477.908	5811.5
478.127	6051.5
478.346	6130.5
478.564	6212.5
478.783	6253.5
479.002	6411.5
479.22	6481.5
479.439	6559.5
479.658	6782.5
479.876	6858.5
480.095	6990.5
480.313	7495.5
480.532	7554.5
480.751	7817.5
480.969	9007.5
481.188	13392.5
481.406	13854.5
481.624	9685.5
481.843	7998.5
482.061	7240.5
482.28	6891.5
482.498	6622.5
482.717	6499.5
482.935	6409.5
483.153	6357.5
483.372	6186.5
483.59	6204.5
483.808	6162.5
484.027	6186.5
484.245	6180.5
484.463	6258.5
484.681	6297.5
484.9	6311.5
485.118	6365.5
485.336	6353.5
485.554	6379.5
485.772	6471.5
485.99	6484.5
486.209	6532.5
486.427	6480.5
486.645	6652.5
486.863	6715.5
487.081	6572.5
487.299	6554.5
487.517	6480.5
487.735	6527.5
487.953	6563.5
488.171	6570.5
488.389	6544.5
488.607	6606.5
488.825	6635.5
489.043	6590.5
489.261	6747.5
489.479	6805.5
489.696	6782.5
489.914	6895.5
490.132	7059.5
490.35	7125.5
490.568	7296.5
490.786	7495.5
491.003	7669.5
491.221	8055.5
491.439	8331.5
491.657	8397.5
491.874	8532.5
492.092	8547.5
492.31	8694.5
492.527	8925.5
492.745	9149.5
492.963	9091.5
493.18	8934.5
493.398	8935.5
493.615	8869.5
493.833	8711.5
494.05	8644.5
494.268	8533.5
494.485	8441.5
494.703	8265.5
494.92	8212.5
495.138	8119.5
495.355	8084.5
495.573	8109.5
495.79	8040.5
496.008	8065.5
496.225	7950.5
496.442	7951.5
496.66	7945.5
496.877	8017.5
497.094	7988.5
497.312	8236.5
497.529	8365.5
497.746	8471.5
497.963	8719.5
498.181	9019.5
498.398	9258.5
498.615	9650.5
498.832	10152.5
499.049	10595.5
499.267	11230.5
499.484	11965.5
499.701	12738.5
499.918	13445.5
500.135	14318.5
500.352	14896.5
500.569	15145.5
500.786	15116.5
501.003	14698.5
501.22	13937.5
501.437	13213.5
501.654	12300.5
501.871	11658.5
502.088	10851.5
502.305	10201.5
502.522	9748.5
502.739	9478.5
502.956	8935.5
503.172	8684.5
503.389	8438.5
503.606	8358.5
