Data from Circ_2004_H10_HRD10591_00044.txt Node
Date: Wed Jan 03 10:33:23 EST 2024
User: Yrep
Spectrometer: HR+D1059
Trigger mode: 1
Integration Time (sec): 1.000000E-1
Scans to average: 1
Electric dark correction enabled: true
Nonlinearity correction enabled: false
Boxcar width: 0
XAxis mode: Wavelengths
Number of Pixels in Spectrum: 2048
>>>>>Begin Spectral Data<<<<<
223.165	-19.88
223.4	-19.88
223.635	-19.88
223.869	-20.88
224.104	-17.88
224.338	-21.88
224.573	-31.88
224.808	-1.88
225.042	-7.88
225.277	-11.88
225.511	-5.88
225.746	11.12
225.98	4.12
226.215	8.12
226.449	8.12
226.683	27.12
226.918	32.12
227.152	49.12
227.387	46.12
227.621	40.12
227.856	31.12
228.09	53.12
228.324	60.12
228.559	53.12
228.793	63.12
229.027	59.12
229.262	78.12
229.496	68.12
229.73	74.12
229.964	75.12
230.199	68.12
230.433	75.12
230.667	76.12
230.901	68.12
231.136	55.12
231.37	76.12
231.604	74.12
231.838	72.12
232.072	77.12
232.306	92.12
232.541	81.12
232.775	70.12
233.009	72.12
233.243	79.12
233.477	71.12
233.711	85.12
233.945	72.12
234.179	77.12
234.413	68.12
234.647	66.12
234.881	84.12
235.115	88.12
235.349	79.12
235.583	79.12
235.817	73.12
236.051	75.12
236.285	72.12
236.519	78.12
236.753	70.12
236.987	91.12
237.221	87.12
237.455	71.12
237.689	72.12
237.922	89.12
238.156	74.12
238.39	78.12
238.624	73.12
238.858	82.12
239.091	77.12
239.325	84.12
239.559	70.12
239.793	79.12
240.027	75.12
240.26	69.12
240.494	78.12
240.728	84.12
240.961	84.12
241.195	71.12
241.429	72.12
241.662	67.12
241.896	74.12
242.13	83.12
242.363	80.12
242.597	66.12
242.83	74.12
243.064	62.12
243.298	80.12
243.531	77.12
243.765	69.12
243.998	92.12
244.232	79.12
244.465	79.12
244.699	71.12
244.932	75.12
245.166	93.12
245.399	75.12
245.633	82.12
245.866	66.12
246.099	77.12
246.333	80.12
246.566	78.12
246.8	83.12
247.033	77.12
247.266	72.12
247.5	83.12
247.733	77.12
247.966	77.12
248.2	64.12
248.433	72.12
248.666	95.12
248.899	68.12
249.133	78.12
249.366	85.12
249.599	89.12
249.832	78.12
250.066	86.12
250.299	85.12
250.532	68.12
250.765	74.12
250.998	81.12
251.231	80.12
251.465	79.12
251.698	78.12
251.931	73.12
252.164	84.12
252.397	77.12
252.63	76.12
252.863	79.12
253.096	71.12
253.329	78.12
253.562	89.12
253.795	91.12
254.028	71.12
254.261	70.12
254.494	86.12
254.727	68.12
254.96	67.12
255.193	89.12
255.426	91.12
255.659	88.12
255.892	80.12
256.124	98.12
256.357	86.12
256.59	77.12
256.823	68.12
257.056	84.12
257.289	85.12
257.521	74.12
257.754	73.12
257.987	86.12
258.22	90.12
258.452	77.12
258.685	76.12
258.918	87.12
259.151	83.12
259.383	87.12
259.616	80.12
259.849	75.12
260.081	82.12
260.314	99.12
260.547	76.12
260.779	86.12
261.012	91.12
261.244	83.12
261.477	84.12
261.71	94.12
261.942	106.12
262.175	121.12
262.407	90.12
262.64	97.12
262.872	85.12
263.105	70.12
263.337	86.12
263.57	98.12
263.802	87.12
264.035	80.12
264.267	84.12
264.499	75.12
264.732	74.12
264.964	87.12
265.197	78.12
265.429	70.12
265.661	90.12
265.894	80.12
266.126	83.12
266.358	80.12
266.591	82.12
266.823	87.12
267.055	78.12
267.287	81.12
267.52	79.12
267.752	99.12
267.984	78.12
268.216	87.12
268.448	83.12
268.681	89.12
268.913	80.12
269.145	90.12
269.377	81.12
269.609	76.12
269.841	78.12
270.073	86.12
270.306	71.12
270.538	83.12
270.77	72.12
271.002	86.12
271.234	78.12
271.466	80.12
271.698	87.12
271.93	78.12
272.162	75.12
272.394	82.12
272.626	84.12
272.858	88.12
273.09	81.12
273.322	84.12
273.553	84.12
273.785	95.12
274.017	76.12
274.249	81.12
274.481	89.12
274.713	94.12
274.945	91.12
275.176	92.12
275.408	86.12
275.64	96.12
275.872	89.12
276.104	80.12
276.335	80.12
276.567	86.12
276.799	105.12
277.031	102.12
277.262	99.12
277.494	98.12
277.726	81.12
277.957	84.12
278.189	85.12
278.421	90.12
278.652	69.12
278.884	84.12
279.115	68.12
279.347	83.12
279.579	87.12
279.81	93.12
280.042	108.12
280.273	124.12
280.505	101.12
280.736	99.12
280.968	90.12
281.199	94.12
281.431	78.12
281.662	88.12
281.894	104.12
282.125	92.12
282.356	103.12
282.588	136.12
282.819	96.12
283.051	84.12
283.282	78.12
283.513	92.12
283.745	83.12
283.976	80.12
284.207	92.12
284.439	82.12
284.67	78.12
284.901	91.12
285.132	86.12
285.364	86.12
285.595	91.12
285.826	81.12
286.057	84.12
286.288	72.12
286.52	72.12
286.751	65.12
286.982	85.12
287.213	89.12
287.444	74.12
287.675	80.12
287.906	98.12
288.138	73.12
288.369	96.12
288.6	83.12
288.831	77.12
289.062	83.12
289.293	84.12
289.524	79.12
289.755	92.12
289.986	70.12
290.217	75.12
290.448	83.12
290.679	78.12
290.91	92.12
291.141	81.12
291.371	83.12
291.602	82.12
291.833	84.12
292.064	82.12
292.295	93.12
292.526	76.12
292.757	80.12
292.987	83.12
293.218	77.12
293.449	84.12
293.68	84.12
293.91	81.12
294.141	79.12
294.372	86.12
294.603	96.12
294.833	83.12
295.064	77.12
295.295	85.12
295.525	97.12
295.756	98.12
295.987	123.12
296.217	110.12
296.448	126.12
296.679	97.12
296.909	92.12
297.14	98.12
297.37	93.12
297.601	90.12
297.831	78.12
298.062	71.12
298.292	77.12
298.523	90.12
298.753	94.12
298.984	86.12
299.214	90.12
299.445	94.12
299.675	93.12
299.905	97.12
300.136	91.12
300.366	87.12
300.597	79.12
300.827	86.12
301.057	104.12
301.288	100.12
301.518	84.12
301.748	93.12
301.979	94.12
302.209	101.12
302.439	90.12
302.669	91.12
302.9	86.12
303.13	87.12
303.36	91.12
303.59	94.12
303.82	103.12
304.051	108.12
304.281	99.12
304.511	88.12
304.741	83.12
304.971	84.12
305.201	88.12
305.431	83.12
305.661	81.12
305.891	89.12
306.121	80.12
306.352	82.12
306.582	111.12
306.812	92.12
307.042	91.12
307.272	99.12
307.502	109.12
307.731	113.12
307.961	80.12
308.191	91.12
308.421	88.12
308.651	85.12
308.881	88.12
309.111	89.12
309.341	98.12
309.571	98.12
309.8	95.12
310.03	100.12
310.26	97.12
310.49	94.12
310.72	102.12
310.949	92.12
311.179	94.12
311.409	90.12
311.639	85.12
311.868	90.12
312.098	80.12
312.328	102.12
312.557	86.12
312.787	98.12
313.017	92.12
313.246	102.12
313.476	90.12
313.706	94.12
313.935	84.12
314.165	103.12
314.394	87.12
314.624	87.12
314.853	97.12
315.083	87.12
315.312	94.12
315.542	86.12
315.771	81.12
316.001	88.12
316.23	94.12
316.46	84.12
316.689	106.12
316.919	83.12
317.148	90.12
317.377	89.12
317.607	100.12
317.836	100.12
318.065	87.12
318.295	87.12
318.524	93.12
318.753	74.12
318.983	95.12
319.212	110.12
319.441	94.12
319.67	102.12
319.9	87.12
320.129	96.12
320.358	100.12
320.587	91.12
320.816	95.12
321.046	84.12
321.275	96.12
321.504	95.12
321.733	84.12
321.962	98.12
322.191	97.12
322.42	98.12
322.649	102.12
322.878	117.12
323.108	105.12
323.337	119.12
323.566	116.12
323.795	156.12
324.024	192.12
324.253	404.12
324.482	845.12
324.71	1710.12
324.939	2302.12
325.168	826.12
325.397	241.12
325.626	149.12
325.855	123.12
326.084	115.12
326.313	147.12
326.542	167.12
326.77	224.12
326.999	470.12
327.228	963.12
327.457	1786.12
327.686	1422.12
327.914	366.12
328.143	251.12
328.372	264.12
328.6	172.12
328.829	128.12
329.058	129.12
329.287	138.12
329.515	122.12
329.744	125.12
329.972	207.12
330.201	307.12
330.43	468.12
330.658	245.12
330.887	164.12
331.115	134.12
331.344	108.12
331.572	94.12
331.801	87.12
332.03	95.12
332.258	93.12
332.486	85.12
332.715	85.12
332.943	96.12
333.172	94.12
333.4	102.12
333.629	110.12
333.857	111.12
334.085	191.12
334.314	326.12
334.542	550.12
334.771	530.12
334.999	192.12
335.227	111.12
335.455	94.12
335.684	95.12
335.912	100.12
336.14	103.12
336.369	78.12
336.597	98.12
336.825	78.12
337.053	92.12
337.281	93.12
337.51	83.12
337.738	98.12
337.966	87.12
338.194	111.12
338.422	88.12
338.65	78.12
338.878	89.12
339.106	97.12
339.334	79.12
339.562	93.12
339.79	88.12
340.018	86.12
340.246	89.12
340.474	82.12
340.702	88.12
340.93	91.12
341.158	97.12
341.386	88.12
341.614	96.12
341.842	78.12
342.07	94.12
342.298	101.12
342.526	85.12
342.754	93.12
342.981	88.12
343.209	99.12
343.437	89.12
343.665	90.12
343.893	80.12
344.12	101.12
344.348	82.12
344.576	68.12
344.804	82.12
345.031	82.12
345.259	106.12
345.487	96.12
345.714	78.12
345.942	89.12
346.17	78.12
346.397	76.12
346.625	82.12
346.853	100.12
347.08	90.12
347.308	108.12
347.535	91.12
347.763	96.12
347.99	102.12
348.218	106.12
348.445	90.12
348.673	91.12
348.9	93.12
349.128	94.12
349.355	92.12
349.583	94.12
349.81	96.12
350.037	94.12
350.265	87.12
350.492	86.12
350.72	93.12
350.947	97.12
351.174	105.12
351.402	97.12
351.629	96.12
351.856	90.12
352.083	91.12
352.311	103.12
352.538	111.12
352.765	104.12
352.992	94.12
353.22	110.12
353.447	104.12
353.674	83.12
353.901	99.12
354.128	92.12
354.355	96.12
354.583	69.12
354.81	87.12
355.037	105.12
355.264	100.12
355.491	98.12
355.718	96.12
355.945	106.12
356.172	93.12
356.399	87.12
356.626	92.12
356.853	94.12
357.08	88.12
357.307	78.12
357.534	93.12
357.761	83.12
357.988	85.12
358.215	81.12
358.441	81.12
358.668	87.12
358.895	93.12
359.122	88.12
359.349	85.12
359.576	91.12
359.802	103.12
360.029	100.12
360.256	105.12
360.483	94.12
360.709	89.12
360.936	96.12
361.163	93.12
361.39	87.12
361.616	109.12
361.843	99.12
362.07	91.12
362.296	81.12
362.523	76.12
362.749	87.12
362.976	76.12
363.203	94.12
363.429	71.12
363.656	89.12
363.882	104.12
364.109	90.12
364.335	75.12
364.562	89.12
364.788	98.12
365.015	83.12
365.241	98.12
365.468	113.12
365.694	114.12
365.92	105.12
366.147	93.12
366.373	75.12
366.599	88.12
366.826	90.12
367.052	85.12
367.278	95.12
367.505	84.12
367.731	87.12
367.957	99.12
368.184	81.12
368.41	97.12
368.636	94.12
368.862	118.12
369.089	113.12
369.315	96.12
369.541	104.12
369.767	87.12
369.993	93.12
370.219	96.12
370.445	81.12
370.672	87.12
370.898	83.12
371.124	94.12
371.35	88.12
371.576	106.12
371.802	90.12
372.028	81.12
372.254	71.12
372.48	80.12
372.706	95.12
372.932	90.12
373.158	87.12
373.384	81.12
373.61	81.12
373.835	96.12
374.061	70.12
374.287	84.12
374.513	95.12
374.739	80.12
374.965	89.12
375.191	84.12
375.416	83.12
375.642	87.12
375.868	86.12
376.094	87.12
376.319	96.12
376.545	90.12
376.771	79.12
376.997	85.12
377.222	78.12
377.448	88.12
377.674	91.12
377.899	90.12
378.125	79.12
378.35	94.12
378.576	83.12
378.802	61.12
379.027	102.12
379.253	92.12
379.478	89.12
379.704	86.12
379.929	101.12
380.155	81.12
380.38	94.12
380.606	88.12
380.831	87.12
381.057	92.12
381.282	80.12
381.507	87.12
381.733	83.12
381.958	93.12
382.184	96.12
382.409	93.12
382.634	88.12
382.86	79.12
383.085	100.12
383.31	91.12
383.535	88.12
383.761	94.12
383.986	95.12
384.211	99.12
384.436	88.12
384.662	88.12
384.887	87.12
385.112	83.12
385.337	101.12
385.562	107.12
385.787	101.12
386.013	109.12
386.238	108.12
386.463	115.12
386.688	113.12
386.913	109.12
387.138	85.12
387.363	97.12
387.588	94.12
387.813	100.12
388.038	105.12
388.263	109.12
388.488	110.12
388.713	101.12
388.938	80.12
389.163	97.12
389.387	92.12
389.612	88.12
389.837	83.12
390.062	71.12
390.287	76.12
390.512	97.12
390.736	87.12
390.961	98.12
391.186	101.12
391.411	87.12
391.636	91.12
391.86	80.12
392.085	86.12
392.31	69.12
392.534	75.12
392.759	86.12
392.984	88.12
393.208	82.12
393.433	101.12
393.658	101.12
393.882	82.12
394.107	94.12
394.331	101.12
394.556	94.12
394.78	83.12
395.005	86.12
395.229	90.12
395.454	86.12
395.678	79.12
395.903	93.12
396.127	84.12
396.352	84.12
396.576	74.12
396.801	89.12
397.025	88.12
397.249	75.12
397.474	93.12
397.698	94.12
397.922	82.12
398.147	79.12
398.371	86.12
398.595	90.12
398.82	94.12
399.044	91.12
399.268	81.12
399.492	80.12
399.717	89.12
399.941	85.12
400.165	96.12
400.389	89.12
400.613	78.12
400.837	92.12
401.062	88.12
401.286	95.12
401.51	83.12
401.734	93.12
401.958	100.12
402.182	110.12
402.406	162.12
402.63	111.12
402.854	85.12
403.078	85.12
403.302	100.12
403.526	80.12
403.75	86.12
403.974	91.12
404.198	90.12
404.422	86.12
404.645	85.12
404.869	84.12
405.093	89.12
405.317	110.12
405.541	107.12
405.765	96.12
405.988	98.12
406.212	156.12
406.436	233.12
406.66	141.12
406.883	104.12
407.107	85.12
407.331	89.12
407.555	101.12
407.778	88.12
408.002	89.12
408.226	88.12
408.449	74.12
408.673	86.12
408.896	99.12
409.12	99.12
409.344	82.12
409.567	86.12
409.791	85.12
410.014	90.12
410.238	96.12
410.461	91.12
410.685	84.12
410.908	87.12
411.132	97.12
411.355	100.12
411.578	93.12
411.802	84.12
412.025	94.12
412.249	91.12
412.472	91.12
412.695	107.12
412.919	94.12
413.142	72.12
413.365	95.12
413.589	88.12
413.812	81.12
414.035	88.12
414.258	93.12
414.482	103.12
414.705	100.12
414.928	93.12
415.151	96.12
415.374	90.12
415.597	84.12
415.821	81.12
416.044	87.12
416.267	81.12
416.49	76.12
416.713	95.12
416.936	82.12
417.159	77.12
417.382	94.12
417.605	98.12
417.828	87.12
418.051	93.12
418.274	94.12
418.497	75.12
418.72	78.12
418.943	92.12
419.166	90.12
419.389	100.12
419.611	92.12
419.834	88.12
420.057	95.12
420.28	81.12
420.503	72.12
420.726	91.12
420.948	80.12
421.171	87.12
421.394	94.12
421.617	84.12
421.839	85.12
422.062	86.12
422.285	93.12
422.507	86.12
422.73	101.12
422.953	108.12
423.175	83.12
423.398	84.12
423.621	78.12
423.843	84.12
424.066	79.12
424.288	84.12
424.511	90.12
424.733	83.12
424.956	109.12
425.178	87.12
425.401	100.12
425.623	107.12
425.846	98.12
426.068	81.12
426.291	78.12
426.513	85.12
426.735	91.12
426.958	85.12
427.18	99.12
427.402	147.12
427.625	172.12
427.847	172.12
428.069	153.12
428.292	107.12
428.514	90.12
428.736	92.12
428.958	80.12
429.181	72.12
429.403	85.12
429.625	79.12
429.847	87.12
430.069	99.12
430.292	89.12
430.514	68.12
430.736	85.12
430.958	88.12
431.18	79.12
431.402	87.12
431.624	78.12
431.846	74.12
432.068	85.12
432.29	81.12
432.512	87.12
432.734	86.12
432.956	98.12
433.178	94.12
433.4	100.12
433.622	88.12
433.844	81.12
434.066	88.12
434.287	81.12
434.509	88.12
434.731	101.12
434.953	84.12
435.175	88.12
435.397	92.12
435.618	82.12
435.84	104.12
436.062	131.12
436.284	111.12
436.505	100.12
436.727	109.12
436.949	92.12
437.17	97.12
437.392	95.12
437.614	93.12
437.835	96.12
438.057	114.12
438.278	108.12
438.5	91.12
438.721	132.12
438.943	103.12
439.165	85.12
439.386	88.12
439.608	77.12
439.829	100.12
440.05	115.12
440.272	139.12
440.493	100.12
440.715	96.12
440.936	92.12
441.158	94.12
441.379	113.12
441.6	88.12
441.822	81.12
442.043	98.12
442.264	91.12
442.486	103.12
442.707	86.12
442.928	95.12
443.149	135.12
443.371	145.12
443.592	108.12
443.813	110.12
444.034	109.12
444.255	88.12
444.476	87.12
444.698	86.12
444.919	98.12
445.14	122.12
445.361	125.12
445.582	113.12
445.803	142.12
446.024	144.12
446.245	134.12
446.466	116.12
446.687	94.12
446.908	79.12
447.129	74.12
447.35	83.12
447.571	79.12
447.792	64.12
448.013	85.12
448.234	108.12
448.455	107.12
448.675	108.12
448.896	127.12
449.117	94.12
449.338	107.12
449.559	123.12
449.779	131.12
450	90.12
450.221	69.12
450.442	81.12
450.662	95.12
450.883	98.12
451.104	114.12
451.324	93.12
451.545	86.12
451.766	98.12
451.986	76.12
452.207	85.12
452.428	92.12
452.648	81.12
452.869	123.12
453.089	107.12
453.31	104.12
453.53	91.12
453.751	93.12
453.971	88.12
454.192	110.12
454.412	103.12
454.633	92.12
454.853	87.12
455.073	85.12
455.294	98.12
455.514	100.12
455.734	88.12
455.955	87.12
456.175	89.12
456.395	84.12
456.616	86.12
456.836	87.12
457.056	76.12
457.276	77.12
457.497	79.12
457.717	85.12
457.937	70.12
458.157	89.12
458.377	83.12
458.598	95.12
458.818	161.12
459.038	131.12
459.258	117.12
459.478	96.12
459.698	80.12
459.918	91.12
460.138	76.12
460.358	89.12
460.578	84.12
460.798	71.12
461.018	77.12
461.238	93.12
461.458	88.12
461.678	88.12
461.898	70.12
462.118	89.12
462.338	92.12
462.558	70.12
462.777	95.12
462.997	86.12
463.217	88.12
463.437	81.12
463.657	79.12
463.876	92.12
464.096	87.12
464.316	104.12
464.536	94.12
464.755	105.12
464.975	117.12
465.195	152.12
465.414	143.12
465.634	96.12
465.854	84.12
466.073	83.12
466.293	69.12
466.512	91.12
466.732	88.12
466.951	81.12
467.171	100.12
467.391	95.12
467.61	96.12
467.829	143.12
468.049	215.12
468.268	285.12
468.488	106.12
468.707	94.12
468.927	87.12
469.146	98.12
469.365	93.12
469.585	87.12
469.804	84.12
470.023	95.12
470.243	94.12
470.462	105.12
470.681	87.12
470.901	98.12
471.12	84.12
471.339	94.12
471.558	81.12
471.777	104.12
471.997	140.12
472.216	352.12
472.435	738.12
472.654	221.12
472.873	100.12
473.092	98.12
473.311	94.12
473.53	83.12
473.749	84.12
473.968	101.12
474.187	87.12
474.406	94.12
474.625	78.12
474.844	88.12
475.063	84.12
475.282	97.12
475.501	75.12
475.72	79.12
475.939	86.12
476.158	84.12
476.377	75.12
476.596	92.12
476.814	98.12
477.033	91.12
477.252	76.12
477.471	75.12
477.69	90.12
477.908	92.12
478.127	81.12
478.346	83.12
478.564	104.12
478.783	101.12
479.002	103.12
479.22	100.12
479.439	110.12
479.658	104.12
479.876	99.12
480.095	70.12
480.313	94.12
480.532	107.12
480.751	144.12
480.969	349.12
481.188	1261.12
481.406	770.12
481.624	162.12
481.843	90.12
482.061	93.12
482.28	86.12
482.498	88.12
482.717	80.12
482.935	81.12
483.153	94.12
483.372	82.12
483.59	83.12
483.808	88.12
484.027	90.12
484.245	78.12
484.463	79.12
484.681	99.12
484.9	92.12
485.118	105.12
485.336	98.12
485.554	100.12
485.772	99.12
485.99	94.12
486.209	94.12
486.427	99.12
486.645	113.12
486.863	107.12
487.081	101.12
487.299	83.12
487.517	94.12
487.735	98.12
487.953	93.12
488.171	88.12
488.389	85.12
488.607	86.12
488.825	87.12
489.043	84.12
489.261	82.12
489.479	93.12
489.696	94.12
489.914	95.12
490.132	87.12
490.35	94.12
490.568	105.12
490.786	79.12
491.003	79.12
491.221	85.12
491.439	85.12
491.657	98.12
491.874	79.12
492.092	87.12
492.31	102.12
492.527	105.12
492.745	78.12
492.963	82.12
493.18	83.12
493.398	80.12
493.615	91.12
493.833	79.12
494.05	89.12
494.268	83.12
494.485	84.12
494.703	85.12
494.92	91.12
495.138	85.12
495.355	83.12
495.573	90.12
495.79	80.12
496.008	92.12
496.225	87.12
496.442	95.12
496.66	97.12
496.877	80.12
497.094	95.12
497.312	98.12
497.529	94.12
497.746	92.12
497.963	92.12
498.181	94.12
498.398	83.12
498.615	94.12
498.832	106.12
499.049	90.12
499.267	92.12
499.484	77.12
499.701	79.12
499.918	83.12
500.135	85.12
500.352	80.12
500.569	91.12
500.786	104.12
501.003	78.12
501.22	93.12
501.437	81.12
501.654	101.12
501.871	97.12
502.088	100.12
502.305	95.12
502.522	89.12
502.739	93.12
502.956	80.12
503.172	78.12
503.389	107.12
503.606	105.12
503.823	94.12
504.04	80.12
504.256	87.12
504.473	83.12
504.69	84.12
504.907	103.12
505.123	98.12
505.34	82.12
505.557	79.12
505.773	83.12
505.99	80.12
506.207	90.12
506.423	72.12
506.64	81.12
506.856	87.12
507.073	92.12
507.289	94.12
507.506	103.12
507.722	88.12
507.939	108.12
508.155	91.12
508.372	81.12
508.588	92.12
508.805	84.12
509.021	98.12
509.238	90.12
509.454	93.12
509.67	106.12
509.887	106.12
510.103	126.12
510.319	199.12
510.536	674.12
510.752	2102.12
510.968	574.12
511.184	148.12
511.401	119.12
511.617	95.12
511.833	104.12
512.049	87.12
512.265	90.12
512.481	92.12
512.698	91.12
512.914	95.12
513.13	94.12
513.346	106.12
513.562	92.12
513.778	88.12
513.994	98.12
514.21	85.12
514.426	114.12
514.642	128.12
514.858	117.12
515.074	169.12
515.29	435.12
515.506	1427.12
515.721	535.12
515.937	155.12
516.153	98.12
