Data from Circ_2004_H10_HRD10591_00060.txt Node
Date: Wed Jan 03 10:33:26 EST 2024
User: Yrep
Spectrometer: HR+D1059
Trigger mode: 1
Integration Time (sec): 1.000000E-1
Scans to average: 1
Electric dark correction enabled: true
Nonlinearity correction enabled: false
Boxcar width: 0
XAxis mode: Wavelengths
Number of Pixels in Spectrum: 2048
>>>>>Begin Spectral Data<<<<<
223.165	-27.19
223.4	-27.19
223.635	-27.19
223.869	-21.19
224.104	-24.19
224.338	9.81
224.573	-13.19
224.808	-15.19
225.042	-7.19
225.277	-0.19
225.511	-0.19
225.746	-14.19
225.98	23.81
226.215	12.81
226.449	6.81
226.683	13.81
226.918	25.81
227.152	29.81
227.387	41.81
227.621	43.81
227.856	46.81
228.09	48.81
228.324	51.81
228.559	55.81
228.793	56.81
229.027	62.81
229.262	73.81
229.496	72.81
229.73	77.81
229.964	71.81
230.199	80.81
230.433	75.81
230.667	77.81
230.901	63.81
231.136	84.81
231.37	73.81
231.604	70.81
231.838	84.81
232.072	94.81
232.306	83.81
232.541	70.81
232.775	75.81
233.009	69.81
233.243	80.81
233.477	87.81
233.711	84.81
233.945	76.81
234.179	68.81
234.413	83.81
234.647	86.81
234.881	80.81
235.115	75.81
235.349	92.81
235.583	88.81
235.817	76.81
236.051	79.81
236.285	80.81
236.519	79.81
236.753	83.81
236.987	81.81
237.221	86.81
237.455	87.81
237.689	64.81
237.922	69.81
238.156	84.81
238.39	74.81
238.624	68.81
238.858	72.81
239.091	67.81
239.325	79.81
239.559	82.81
239.793	75.81
240.027	76.81
240.26	83.81
240.494	80.81
240.728	74.81
240.961	85.81
241.195	90.81
241.429	91.81
241.662	69.81
241.896	72.81
242.13	64.81
242.363	87.81
242.597	77.81
242.83	85.81
243.064	67.81
243.298	83.81
243.531	73.81
243.765	72.81
243.998	71.81
244.232	76.81
244.465	84.81
244.699	87.81
244.932	69.81
245.166	83.81
245.399	79.81
245.633	85.81
245.866	76.81
246.099	82.81
246.333	77.81
246.566	82.81
246.8	76.81
247.033	86.81
247.266	66.81
247.5	81.81
247.733	79.81
247.966	96.81
248.2	89.81
248.433	78.81
248.666	71.81
248.899	79.81
249.133	77.81
249.366	84.81
249.599	95.81
249.832	80.81
250.066	85.81
250.299	70.81
250.532	72.81
250.765	73.81
250.998	86.81
251.231	92.81
251.465	80.81
251.698	72.81
251.931	81.81
252.164	82.81
252.397	65.81
252.63	75.81
252.863	81.81
253.096	84.81
253.329	85.81
253.562	71.81
253.795	82.81
254.028	78.81
254.261	88.81
254.494	81.81
254.727	82.81
254.96	72.81
255.193	89.81
255.426	85.81
255.659	81.81
255.892	79.81
256.124	78.81
256.357	93.81
256.59	79.81
256.823	89.81
257.056	78.81
257.289	80.81
257.521	78.81
257.754	82.81
257.987	89.81
258.22	88.81
258.452	78.81
258.685	86.81
258.918	82.81
259.151	75.81
259.383	90.81
259.616	73.81
259.849	94.81
260.081	74.81
260.314	83.81
260.547	79.81
260.779	74.81
261.012	100.81
261.244	94.81
261.477	89.81
261.71	93.81
261.942	122.81
262.175	108.81
262.407	91.81
262.64	89.81
262.872	82.81
263.105	85.81
263.337	102.81
263.57	69.81
263.802	85.81
264.035	89.81
264.267	76.81
264.499	87.81
264.732	84.81
264.964	81.81
265.197	83.81
265.429	88.81
265.661	68.81
265.894	77.81
266.126	78.81
266.358	86.81
266.591	85.81
266.823	74.81
267.055	79.81
267.287	80.81
267.52	76.81
267.752	88.81
267.984	88.81
268.216	88.81
268.448	82.81
268.681	80.81
268.913	85.81
269.145	72.81
269.377	80.81
269.609	82.81
269.841	77.81
270.073	87.81
270.306	77.81
270.538	83.81
270.77	74.81
271.002	87.81
271.234	74.81
271.466	96.81
271.698	84.81
271.93	69.81
272.162	77.81
272.394	83.81
272.626	83.81
272.858	78.81
273.09	93.81
273.322	91.81
273.553	74.81
273.785	81.81
274.017	75.81
274.249	87.81
274.481	87.81
274.713	84.81
274.945	91.81
275.176	94.81
275.408	82.81
275.64	89.81
275.872	96.81
276.104	95.81
276.335	80.81
276.567	95.81
276.799	108.81
277.031	104.81
277.262	108.81
277.494	97.81
277.726	80.81
277.957	78.81
278.189	92.81
278.421	73.81
278.652	82.81
278.884	91.81
279.115	76.81
279.347	92.81
279.579	93.81
279.81	86.81
280.042	110.81
280.273	124.81
280.505	114.81
280.736	86.81
280.968	77.81
281.199	81.81
281.431	81.81
281.662	95.81
281.894	101.81
282.125	90.81
282.356	95.81
282.588	127.81
282.819	96.81
283.051	94.81
283.282	93.81
283.513	85.81
283.745	88.81
283.976	82.81
284.207	77.81
284.439	95.81
284.67	83.81
284.901	94.81
285.132	86.81
285.364	94.81
285.595	82.81
285.826	105.81
286.057	84.81
286.288	74.81
286.52	77.81
286.751	82.81
286.982	83.81
287.213	93.81
287.444	92.81
287.675	75.81
287.906	89.81
288.138	81.81
288.369	88.81
288.6	90.81
288.831	87.81
289.062	78.81
289.293	84.81
289.524	78.81
289.755	72.81
289.986	79.81
290.217	94.81
290.448	68.81
290.679	67.81
290.91	89.81
291.141	81.81
291.371	87.81
291.602	82.81
291.833	91.81
292.064	82.81
292.295	80.81
292.526	105.81
292.757	96.81
292.987	83.81
293.218	82.81
293.449	77.81
293.68	79.81
293.91	90.81
294.141	83.81
294.372	80.81
294.603	85.81
294.833	68.81
295.064	88.81
295.295	84.81
295.525	91.81
295.756	99.81
295.987	117.81
296.217	122.81
296.448	113.81
296.679	90.81
296.909	101.81
297.14	85.81
297.37	79.81
297.601	90.81
297.831	80.81
298.062	93.81
298.292	79.81
298.523	86.81
298.753	85.81
298.984	86.81
299.214	97.81
299.445	92.81
299.675	96.81
299.905	86.81
300.136	93.81
300.366	81.81
300.597	87.81
300.827	81.81
301.057	111.81
301.288	97.81
301.518	88.81
301.748	95.81
301.979	92.81
302.209	99.81
302.439	87.81
302.669	97.81
302.9	93.81
303.13	80.81
303.36	80.81
303.59	109.81
303.82	112.81
304.051	91.81
304.281	85.81
304.511	92.81
304.741	91.81
304.971	87.81
305.201	97.81
305.431	79.81
305.661	97.81
305.891	91.81
306.121	93.81
306.352	87.81
306.582	87.81
306.812	86.81
307.042	86.81
307.272	94.81
307.502	111.81
307.731	114.81
307.961	108.81
308.191	90.81
308.421	103.81
308.651	91.81
308.881	87.81
309.111	106.81
309.341	94.81
309.571	96.81
309.8	87.81
310.03	92.81
310.26	94.81
310.49	88.81
310.72	102.81
310.949	106.81
311.179	99.81
311.409	94.81
311.639	97.81
311.868	107.81
312.098	94.81
312.328	90.81
312.557	104.81
312.787	113.81
313.017	101.81
313.246	94.81
313.476	91.81
313.706	98.81
313.935	93.81
314.165	114.81
314.394	98.81
314.624	93.81
314.853	88.81
315.083	97.81
315.312	87.81
315.542	96.81
315.771	99.81
316.001	76.81
316.23	79.81
316.46	78.81
316.689	83.81
316.919	88.81
317.148	89.81
317.377	87.81
317.607	91.81
317.836	88.81
318.065	86.81
318.295	76.81
318.524	79.81
318.753	92.81
318.983	93.81
319.212	99.81
319.441	106.81
319.67	95.81
319.9	87.81
320.129	86.81
320.358	95.81
320.587	96.81
320.816	99.81
321.046	111.81
321.275	97.81
321.504	92.81
321.733	95.81
321.962	91.81
322.191	97.81
322.42	102.81
322.649	106.81
322.878	98.81
323.108	111.81
323.337	134.81
323.566	132.81
323.795	117.81
324.024	208.81
324.253	381.81
324.482	795.81
324.71	1643.81
324.939	2178.81
325.168	802.81
325.397	228.81
325.626	150.81
325.855	128.81
326.084	116.81
326.313	130.81
326.542	156.81
326.77	233.81
326.999	445.81
327.228	916.81
327.457	1624.81
327.686	1326.81
327.914	386.81
328.143	262.81
328.372	266.81
328.6	188.81
328.829	127.81
329.058	151.81
329.287	138.81
329.515	132.81
329.744	134.81
329.972	190.81
330.201	315.81
330.43	446.81
330.658	262.81
330.887	166.81
331.115	128.81
331.344	96.81
331.572	98.81
331.801	109.81
332.03	93.81
332.258	93.81
332.486	76.81
332.715	103.81
332.943	101.81
333.172	99.81
333.4	108.81
333.629	118.81
333.857	141.81
334.085	186.81
334.314	323.81
334.542	565.81
334.771	542.81
334.999	206.81
335.227	117.81
335.455	103.81
335.684	85.81
335.912	88.81
336.14	86.81
336.369	88.81
336.597	102.81
336.825	102.81
337.053	100.81
337.281	96.81
337.51	98.81
337.738	88.81
337.966	102.81
338.194	103.81
338.422	101.81
338.65	86.81
338.878	114.81
339.106	95.81
339.334	83.81
339.562	99.81
339.79	87.81
340.018	76.81
340.246	91.81
340.474	90.81
340.702	100.81
340.93	81.81
341.158	97.81
341.386	87.81
341.614	82.81
341.842	91.81
342.07	79.81
342.298	90.81
342.526	104.81
342.754	87.81
342.981	93.81
343.209	96.81
343.437	106.81
343.665	90.81
343.893	76.81
344.12	85.81
344.348	82.81
344.576	80.81
344.804	98.81
345.031	94.81
345.259	106.81
345.487	91.81
345.714	95.81
345.942	97.81
346.17	80.81
346.397	90.81
346.625	93.81
346.853	91.81
347.08	90.81
347.308	81.81
347.535	77.81
347.763	100.81
347.99	78.81
348.218	92.81
348.445	84.81
348.673	88.81
348.9	104.81
349.128	94.81
349.355	86.81
349.583	87.81
349.81	83.81
350.037	85.81
350.265	87.81
350.492	105.81
350.72	91.81
350.947	116.81
351.174	95.81
351.402	104.81
351.629	99.81
351.856	85.81
352.083	98.81
352.311	83.81
352.538	102.81
352.765	99.81
352.992	99.81
353.22	113.81
353.447	104.81
353.674	96.81
353.901	98.81
354.128	96.81
354.355	99.81
354.583	110.81
354.81	99.81
355.037	95.81
355.264	103.81
355.491	93.81
355.718	91.81
355.945	102.81
356.172	89.81
356.399	93.81
356.626	91.81
356.853	92.81
357.08	93.81
357.307	84.81
357.534	103.81
357.761	90.81
357.988	87.81
358.215	96.81
358.441	87.81
358.668	93.81
358.895	78.81
359.122	85.81
359.349	63.81
359.576	103.81
359.802	102.81
360.029	112.81
360.256	107.81
360.483	108.81
360.709	86.81
360.936	94.81
361.163	98.81
361.39	94.81
361.616	92.81
361.843	87.81
362.07	88.81
362.296	78.81
362.523	88.81
362.749	77.81
362.976	104.81
363.203	88.81
363.429	73.81
363.656	87.81
363.882	86.81
364.109	83.81
364.335	83.81
364.562	88.81
364.788	86.81
365.015	93.81
365.241	93.81
365.468	103.81
365.694	103.81
365.92	98.81
366.147	88.81
366.373	90.81
366.599	86.81
366.826	90.81
367.052	82.81
367.278	98.81
367.505	84.81
367.731	103.81
367.957	87.81
368.184	90.81
368.41	100.81
368.636	110.81
368.862	106.81
369.089	117.81
369.315	77.81
369.541	85.81
369.767	95.81
369.993	86.81
370.219	82.81
370.445	81.81
370.672	90.81
370.898	86.81
371.124	79.81
371.35	91.81
371.576	76.81
371.802	93.81
372.028	87.81
372.254	88.81
372.48	83.81
372.706	83.81
372.932	84.81
373.158	77.81
373.384	77.81
373.61	84.81
373.835	81.81
374.061	94.81
374.287	85.81
374.513	76.81
374.739	84.81
374.965	66.81
375.191	70.81
375.416	88.81
375.642	85.81
375.868	85.81
376.094	102.81
376.319	91.81
376.545	84.81
376.771	98.81
376.997	95.81
377.222	82.81
377.448	90.81
377.674	88.81
377.899	85.81
378.125	85.81
378.35	80.81
378.576	81.81
378.802	80.81
379.027	91.81
379.253	85.81
379.478	85.81
379.704	85.81
379.929	89.81
380.155	84.81
380.38	93.81
380.606	79.81
380.831	88.81
381.057	98.81
381.282	81.81
381.507	95.81
381.733	87.81
381.958	94.81
382.184	103.81
382.409	84.81
382.634	98.81
382.86	88.81
383.085	96.81
383.31	97.81
383.535	95.81
383.761	91.81
383.986	103.81
384.211	94.81
384.436	91.81
384.662	92.81
384.887	85.81
385.112	87.81
385.337	103.81
385.562	96.81
385.787	97.81
386.013	94.81
386.238	99.81
386.463	100.81
386.688	102.81
386.913	92.81
387.138	94.81
387.363	92.81
387.588	96.81
387.813	95.81
388.038	101.81
388.263	99.81
388.488	115.81
388.713	79.81
388.938	90.81
389.163	86.81
389.387	85.81
389.612	69.81
389.837	88.81
390.062	98.81
390.287	91.81
390.512	93.81
390.736	83.81
390.961	73.81
391.186	98.81
391.411	87.81
391.636	94.81
391.86	88.81
392.085	83.81
392.31	79.81
392.534	89.81
392.759	82.81
392.984	85.81
393.208	92.81
393.433	92.81
393.658	89.81
393.882	76.81
394.107	80.81
394.331	71.81
394.556	66.81
394.78	94.81
395.005	77.81
395.229	90.81
395.454	90.81
395.678	100.81
395.903	88.81
396.127	88.81
396.352	79.81
396.576	79.81
396.801	76.81
397.025	74.81
397.249	80.81
397.474	93.81
397.698	82.81
397.922	86.81
398.147	100.81
398.371	97.81
398.595	82.81
398.82	78.81
399.044	85.81
399.268	99.81
399.492	87.81
399.717	86.81
399.941	81.81
400.165	90.81
400.389	80.81
400.613	90.81
400.837	84.81
401.062	91.81
401.286	85.81
401.51	85.81
401.734	80.81
401.958	100.81
402.182	116.81
402.406	158.81
402.63	103.81
402.854	86.81
403.078	82.81
403.302	95.81
403.526	92.81
403.75	93.81
403.974	99.81
404.198	82.81
404.422	73.81
404.645	64.81
404.869	88.81
405.093	94.81
405.317	100.81
405.541	95.81
405.765	103.81
405.988	112.81
406.212	157.81
406.436	215.81
406.66	132.81
406.883	89.81
407.107	90.81
407.331	91.81
407.555	103.81
407.778	96.81
408.002	98.81
408.226	72.81
408.449	84.81
408.673	94.81
408.896	84.81
409.12	103.81
409.344	81.81
409.567	90.81
409.791	92.81
410.014	80.81
410.238	89.81
410.461	80.81
410.685	92.81
410.908	91.81
411.132	99.81
411.355	84.81
411.578	82.81
411.802	76.81
412.025	69.81
412.249	95.81
412.472	106.81
412.695	108.81
412.919	99.81
413.142	92.81
413.365	90.81
413.589	86.81
413.812	80.81
414.035	102.81
414.258	90.81
414.482	93.81
414.705	99.81
414.928	98.81
415.151	80.81
415.374	94.81
415.597	79.81
415.821	83.81
416.044	78.81
416.267	82.81
416.49	83.81
416.713	89.81
416.936	74.81
417.159	67.81
417.382	87.81
417.605	92.81
417.828	108.81
418.051	88.81
418.274	88.81
418.497	82.81
418.72	85.81
418.943	87.81
419.166	83.81
419.389	91.81
419.611	91.81
419.834	84.81
420.057	68.81
420.28	68.81
420.503	91.81
420.726	103.81
420.948	77.81
421.171	85.81
421.394	93.81
421.617	87.81
421.839	93.81
422.062	81.81
422.285	94.81
422.507	85.81
422.73	82.81
422.953	82.81
423.175	79.81
423.398	77.81
423.621	83.81
423.843	64.81
424.066	76.81
424.288	87.81
424.511	92.81
424.733	88.81
424.956	104.81
425.178	61.81
425.401	82.81
425.623	90.81
425.846	95.81
426.068	81.81
426.291	87.81
426.513	93.81
426.735	92.81
426.958	94.81
427.18	88.81
427.402	149.81
427.625	162.81
427.847	146.81
428.069	141.81
428.292	102.81
428.514	85.81
428.736	77.81
428.958	81.81
429.181	77.81
429.403	86.81
429.625	77.81
429.847	83.81
430.069	95.81
430.292	92.81
430.514	95.81
430.736	81.81
430.958	67.81
431.18	68.81
431.402	88.81
431.624	80.81
431.846	86.81
432.068	77.81
432.29	81.81
432.512	70.81
432.734	84.81
432.956	96.81
433.178	90.81
433.4	96.81
433.622	92.81
433.844	91.81
434.066	101.81
434.287	75.81
434.509	92.81
434.731	97.81
434.953	79.81
435.175	90.81
435.397	77.81
435.618	99.81
435.84	96.81
436.062	116.81
436.284	114.81
436.505	102.81
436.727	105.81
436.949	92.81
437.17	91.81
437.392	61.81
437.614	105.81
437.835	104.81
438.057	108.81
438.278	95.81
438.5	109.81
438.721	110.81
438.943	109.81
439.165	84.81
439.386	95.81
439.608	80.81
439.829	89.81
440.05	111.81
440.272	125.81
440.493	87.81
440.715	95.81
440.936	82.81
441.158	87.81
441.379	74.81
441.6	85.81
441.822	84.81
442.043	95.81
442.264	106.81
442.486	98.81
442.707	98.81
442.928	88.81
443.149	134.81
443.371	130.81
443.592	107.81
443.813	103.81
444.034	102.81
444.255	80.81
444.476	80.81
444.698	86.81
444.919	76.81
445.14	114.81
445.361	115.81
445.582	115.81
445.803	116.81
446.024	117.81
446.245	144.81
446.466	101.81
446.687	95.81
446.908	87.81
447.129	89.81
447.35	88.81
447.571	102.81
447.792	91.81
448.013	109.81
448.234	106.81
448.455	97.81
448.675	103.81
448.896	120.81
449.117	85.81
449.338	115.81
449.559	132.81
449.779	130.81
450	93.81
450.221	96.81
450.442	89.81
450.662	85.81
450.883	96.81
451.104	90.81
451.324	80.81
451.545	96.81
451.766	75.81
451.986	89.81
452.207	87.81
452.428	91.81
452.648	95.81
452.869	113.81
453.089	96.81
453.31	111.81
453.53	107.81
453.751	79.81
453.971	105.81
454.192	132.81
454.412	86.81
454.633	94.81
454.853	82.81
455.073	84.81
455.294	76.81
455.514	86.81
455.734	80.81
455.955	76.81
456.175	84.81
456.395	66.81
456.616	81.81
456.836	74.81
457.056	78.81
457.276	91.81
457.497	92.81
457.717	71.81
457.937	76.81
458.157	81.81
458.377	95.81
458.598	100.81
458.818	128.81
459.038	161.81
459.258	112.81
459.478	103.81
459.698	81.81
459.918	79.81
460.138	68.81
460.358	83.81
460.578	95.81
460.798	77.81
461.018	87.81
461.238	83.81
461.458	85.81
461.678	78.81
461.898	85.81
462.118	91.81
462.338	83.81
462.558	84.81
462.777	78.81
462.997	73.81
463.217	87.81
463.437	97.81
463.657	86.81
463.876	79.81
464.096	103.81
464.316	88.81
464.536	94.81
464.755	94.81
464.975	103.81
465.195	163.81
465.414	149.81
465.634	86.81
465.854	88.81
466.073	78.81
466.293	88.81
466.512	75.81
466.732	91.81
466.951	80.81
467.171	95.81
467.391	102.81
467.61	124.81
467.829	131.81
468.049	235.81
468.268	298.81
468.488	111.81
468.707	96.81
468.927	86.81
469.146	84.81
469.365	85.81
469.585	83.81
469.804	81.81
470.023	98.81
470.243	101.81
470.462	103.81
470.681	102.81
470.901	110.81
471.12	82.81
471.339	95.81
471.558	83.81
471.777	95.81
471.997	133.81
472.216	403.81
472.435	800.81
472.654	234.81
472.873	112.81
473.092	81.81
473.311	93.81
473.53	93.81
473.749	84.81
473.968	92.81
474.187	101.81
474.406	92.81
474.625	88.81
474.844	100.81
475.063	91.81
475.282	73.81
475.501	87.81
475.72	94.81
475.939	82.81
476.158	85.81
476.377	91.81
476.596	93.81
476.814	112.81
477.033	88.81
477.252	83.81
477.471	89.81
477.69	74.81
477.908	83.81
478.127	94.81
478.346	91.81
478.564	89.81
478.783	99.81
479.002	101.81
479.22	82.81
479.439	99.81
479.658	105.81
479.876	102.81
480.095	92.81
480.313	118.81
480.532	105.81
480.751	146.81
480.969	374.81
481.188	1354.81
481.406	851.81
481.624	179.81
481.843	102.81
482.061	92.81
482.28	84.81
482.498	88.81
482.717	93.81
482.935	77.81
483.153	72.81
483.372	80.81
483.59	91.81
483.808	94.81
484.027	84.81
484.245	92.81
484.463	79.81
484.681	88.81
484.9	97.81
485.118	86.81
485.336	80.81
485.554	103.81
485.772	81.81
485.99	90.81
486.209	105.81
486.427	83.81
486.645	98.81
486.863	100.81
487.081	87.81
487.299	97.81
487.517	86.81
487.735	80.81
487.953	79.81
488.171	92.81
488.389	90.81
488.607	99.81
488.825	93.81
489.043	70.81
489.261	89.81
489.479	98.81
489.696	73.81
489.914	85.81
490.132	94.81
490.35	96.81
490.568	92.81
490.786	94.81
491.003	75.81
491.221	83.81
491.439	91.81
491.657	94.81
491.874	110.81
492.092	91.81
492.31	98.81
492.527	86.81
492.745	78.81
492.963	74.81
493.18	76.81
493.398	100.81
493.615	100.81
493.833	98.81
494.05	90.81
494.268	98.81
494.485	84.81
494.703	97.81
494.92	82.81
495.138	96.81
495.355	90.81
495.573	90.81
495.79	92.81
496.008	93.81
496.225	91.81
496.442	77.81
496.66	77.81
496.877	84.81
497.094	98.81
497.312	92.81
497.529	80.81
497.746	88.81
497.963	82.81
498.181	90.81
498.398	82.81
498.615	116.81
498.832	108.81
499.049	83.81
499.267	74.81
499.484	89.81
499.701	83.81
499.918	83.81
500.135	94.81
500.352	83.81
500.569	85.81
500.786	98.81
501.003	94.81
501.22	92.81
501.437	84.81
501.654	84.81
501.871	115.81
502.088	74.81
502.305	68.81
502.522	74.81
502.739	98.81
502.956	95.81
503.172	88.81
503.389	88.81
503.606	96.81
503.823	99.81
504.04	106.81
504.256	75.81
504.473	75.81
504.69	92.81
504.907	85.81
505.123	80.81
505.34	87.81
505.557	85.81
505.773	92.81
505.99	101.81
506.207	87.81
506.423	88.81
506.64	71.81
506.856	79.81
507.073	78.81
507.289	88.81
507.506	93.81
507.722	105.81
507.939	97.81
508.155	85.81
508.372	88.81
508.588	89.81
508.805	85.81
509.021	100.81
509.238	93.81
509.454	94.81
509.67	88.81
509.887	102.81
510.103	126.81
510.319	199.81
510.536	678.81
510.752	2080.81
510.968	611.81
511.184	149.81
511.401	111.81
511.617	92.81
511.833	82.81
512.049	94.81
512.265	83.81
512.481	83.81
512.698	85.81
512.914	90.81
513.13	98.81
513.346	87.81
513.562	82.81
513.778	94.81
513.994	88.81
514.21	92.81
514.426	112.81
514.642	129.81
514.858	117.81
515.074	147.81
515.29	418.81
515.506	1380.81
515.721	529.81
515.937	149.81
516.153	116.81
516.369	93.81
