Data from Circ_2004_H10_HRD10591_00073.txt Node
Date: Wed Jan 03 10:33:28 EST 2024
User: Yrep
Spectrometer: HR+D1059
Trigger mode: 1
Integration Time (sec): 1.000000E-1
Scans to average: 1
Electric dark correction enabled: true
Nonlinearity correction enabled: false
Boxcar width: 0
XAxis mode: Wavelengths
Number of Pixels in Spectrum: 2048
>>>>>Begin Spectral Data<<<<<
223.165	-21.06
223.4	-21.06
223.635	-21.06
223.869	-18.06
224.104	-23.06
224.338	-23.06
224.573	-18.06
224.808	-17.06
225.042	-8.06
225.277	-12.06
225.511	-8.06
225.746	10.94
225.98	17.94
226.215	18.94
226.449	5.94
226.683	23.94
226.918	22.94
227.152	47.94
227.387	30.94
227.621	32.94
227.856	46.94
228.09	32.94
228.324	42.94
228.559	68.94
228.793	51.94
229.027	70.94
229.262	69.94
229.496	82.94
229.73	98.94
229.964	96.94
230.199	73.94
230.433	86.94
230.667	84.94
230.901	86.94
231.136	88.94
231.37	76.94
231.604	85.94
231.838	80.94
232.072	74.94
232.306	87.94
232.541	88.94
232.775	82.94
233.009	106.94
233.243	66.94
233.477	78.94
233.711	85.94
233.945	83.94
234.179	89.94
234.413	80.94
234.647	76.94
234.881	67.94
235.115	81.94
235.349	76.94
235.583	81.94
235.817	90.94
236.051	71.94
236.285	75.94
236.519	82.94
236.753	57.94
236.987	88.94
237.221	87.94
237.455	85.94
237.689	76.94
237.922	78.94
238.156	77.94
238.39	78.94
238.624	76.94
238.858	84.94
239.091	89.94
239.325	74.94
239.559	92.94
239.793	82.94
240.027	81.94
240.26	70.94
240.494	87.94
240.728	71.94
240.961	75.94
241.195	87.94
241.429	88.94
241.662	80.94
241.896	84.94
242.13	75.94
242.363	66.94
242.597	63.94
242.83	81.94
243.064	83.94
243.298	78.94
243.531	80.94
243.765	89.94
243.998	79.94
244.232	76.94
244.465	95.94
244.699	83.94
244.932	60.94
245.166	82.94
245.399	83.94
245.633	75.94
245.866	97.94
246.099	78.94
246.333	71.94
246.566	90.94
246.8	80.94
247.033	67.94
247.266	76.94
247.5	82.94
247.733	76.94
247.966	88.94
248.2	88.94
248.433	88.94
248.666	89.94
248.899	110.94
249.133	94.94
249.366	106.94
249.599	91.94
249.832	89.94
250.066	96.94
250.299	87.94
250.532	96.94
250.765	77.94
250.998	95.94
251.231	80.94
251.465	85.94
251.698	83.94
251.931	81.94
252.164	76.94
252.397	82.94
252.63	78.94
252.863	82.94
253.096	74.94
253.329	75.94
253.562	87.94
253.795	89.94
254.028	84.94
254.261	90.94
254.494	84.94
254.727	100.94
254.96	72.94
255.193	82.94
255.426	78.94
255.659	99.94
255.892	101.94
256.124	95.94
256.357	89.94
256.59	87.94
256.823	84.94
257.056	74.94
257.289	80.94
257.521	80.94
257.754	79.94
257.987	81.94
258.22	72.94
258.452	85.94
258.685	82.94
258.918	86.94
259.151	76.94
259.383	81.94
259.616	93.94
259.849	92.94
260.081	86.94
260.314	95.94
260.547	90.94
260.779	101.94
261.012	97.94
261.244	101.94
261.477	93.94
261.71	102.94
261.942	123.94
262.175	132.94
262.407	103.94
262.64	97.94
262.872	82.94
263.105	87.94
263.337	90.94
263.57	89.94
263.802	86.94
264.035	82.94
264.267	96.94
264.499	84.94
264.732	79.94
264.964	85.94
265.197	96.94
265.429	99.94
265.661	89.94
265.894	86.94
266.126	84.94
266.358	65.94
266.591	92.94
266.823	81.94
267.055	74.94
267.287	84.94
267.52	91.94
267.752	81.94
267.984	86.94
268.216	87.94
268.448	82.94
268.681	104.94
268.913	80.94
269.145	98.94
269.377	102.94
269.609	92.94
269.841	87.94
270.073	79.94
270.306	105.94
270.538	83.94
270.77	82.94
271.002	82.94
271.234	88.94
271.466	90.94
271.698	97.94
271.93	74.94
272.162	94.94
272.394	84.94
272.626	75.94
272.858	80.94
273.09	82.94
273.322	74.94
273.553	91.94
273.785	91.94
274.017	84.94
274.249	88.94
274.481	88.94
274.713	80.94
274.945	106.94
275.176	94.94
275.408	109.94
275.64	118.94
275.872	100.94
276.104	96.94
276.335	95.94
276.567	100.94
276.799	146.94
277.031	127.94
277.262	143.94
277.494	130.94
277.726	104.94
277.957	90.94
278.189	80.94
278.421	90.94
278.652	90.94
278.884	85.94
279.115	90.94
279.347	102.94
279.579	90.94
279.81	114.94
280.042	152.94
280.273	179.94
280.505	152.94
280.736	105.94
280.968	91.94
281.199	98.94
281.431	98.94
281.662	102.94
281.894	103.94
282.125	88.94
282.356	133.94
282.588	148.94
282.819	137.94
283.051	92.94
283.282	64.94
283.513	81.94
283.745	96.94
283.976	88.94
284.207	90.94
284.439	96.94
284.67	70.94
284.901	100.94
285.132	89.94
285.364	81.94
285.595	80.94
285.826	96.94
286.057	95.94
286.288	103.94
286.52	96.94
286.751	79.94
286.982	86.94
287.213	97.94
287.444	102.94
287.675	80.94
287.906	104.94
288.138	92.94
288.369	100.94
288.6	104.94
288.831	86.94
289.062	99.94
289.293	97.94
289.524	92.94
289.755	95.94
289.986	93.94
290.217	91.94
290.448	73.94
290.679	86.94
290.91	92.94
291.141	97.94
291.371	92.94
291.602	82.94
291.833	84.94
292.064	76.94
292.295	95.94
292.526	91.94
292.757	89.94
292.987	90.94
293.218	76.94
293.449	82.94
293.68	86.94
293.91	85.94
294.141	95.94
294.372	87.94
294.603	80.94
294.833	79.94
295.064	78.94
295.295	95.94
295.525	90.94
295.756	99.94
295.987	124.94
296.217	162.94
296.448	128.94
296.679	96.94
296.909	87.94
297.14	87.94
297.37	88.94
297.601	92.94
297.831	98.94
298.062	102.94
298.292	92.94
298.523	116.94
298.753	105.94
298.984	78.94
299.214	88.94
299.445	92.94
299.675	87.94
299.905	96.94
300.136	91.94
300.366	96.94
300.597	107.94
300.827	98.94
301.057	102.94
301.288	107.94
301.518	96.94
301.748	102.94
301.979	110.94
302.209	70.94
302.439	88.94
302.669	88.94
302.9	85.94
303.13	98.94
303.36	107.94
303.59	111.94
303.82	126.94
304.051	111.94
304.281	89.94
304.511	79.94
304.741	83.94
304.971	83.94
305.201	92.94
305.431	89.94
305.661	86.94
305.891	95.94
306.121	109.94
306.352	101.94
306.582	104.94
306.812	99.94
307.042	123.94
307.272	130.94
307.502	139.94
307.731	120.94
307.961	114.94
308.191	103.94
308.421	102.94
308.651	83.94
308.881	104.94
309.111	93.94
309.341	105.94
309.571	105.94
309.8	110.94
310.03	95.94
310.26	107.94
310.49	84.94
310.72	99.94
310.949	102.94
311.179	106.94
311.409	101.94
311.639	95.94
311.868	111.94
312.098	84.94
312.328	95.94
312.557	113.94
312.787	127.94
313.017	117.94
313.246	104.94
313.476	116.94
313.706	101.94
313.935	98.94
314.165	107.94
314.394	101.94
314.624	112.94
314.853	102.94
315.083	96.94
315.312	90.94
315.542	92.94
315.771	87.94
316.001	99.94
316.23	92.94
316.46	94.94
316.689	89.94
316.919	103.94
317.148	90.94
317.377	91.94
317.607	106.94
317.836	103.94
318.065	85.94
318.295	115.94
318.524	91.94
318.753	97.94
318.983	92.94
319.212	98.94
319.441	103.94
319.67	113.94
319.9	108.94
320.129	95.94
320.358	95.94
320.587	103.94
320.816	99.94
321.046	107.94
321.275	107.94
321.504	85.94
321.733	103.94
321.962	102.94
322.191	103.94
322.42	126.94
322.649	107.94
322.878	107.94
323.108	131.94
323.337	133.94
323.566	146.94
323.795	183.94
324.024	248.94
324.253	478.94
324.482	1019.94
324.71	2178.94
324.939	2872.94
325.168	1046.94
325.397	294.94
325.626	164.94
325.855	129.94
326.084	138.94
326.313	140.94
326.542	182.94
326.77	268.94
326.999	544.94
327.228	1130.94
327.457	2150.94
327.686	1734.94
327.914	521.94
328.143	413.94
328.372	426.94
328.6	268.94
328.829	151.94
329.058	175.94
329.287	177.94
329.515	148.94
329.744	187.94
329.972	324.94
330.201	634.94
330.43	910.94
330.658	440.94
330.887	241.94
331.115	150.94
331.344	113.94
331.572	121.94
331.801	119.94
332.03	128.94
332.258	105.94
332.486	101.94
332.715	96.94
332.943	98.94
333.172	104.94
333.4	123.94
333.629	140.94
333.857	188.94
334.085	295.94
334.314	593.94
334.542	1120.94
334.771	1108.94
334.999	326.94
335.227	154.94
335.455	114.94
335.684	128.94
335.912	113.94
336.14	104.94
336.369	118.94
336.597	117.94
336.825	119.94
337.053	105.94
337.281	84.94
337.51	95.94
337.738	99.94
337.966	100.94
338.194	111.94
338.422	92.94
338.65	83.94
338.878	98.94
339.106	107.94
339.334	86.94
339.562	82.94
339.79	95.94
340.018	97.94
340.246	115.94
340.474	86.94
340.702	87.94
340.93	113.94
341.158	93.94
341.386	106.94
341.614	98.94
341.842	105.94
342.07	101.94
342.298	104.94
342.526	89.94
342.754	98.94
342.981	94.94
343.209	102.94
343.437	103.94
343.665	89.94
343.893	98.94
344.12	97.94
344.348	89.94
344.576	92.94
344.804	101.94
345.031	107.94
345.259	102.94
345.487	114.94
345.714	103.94
345.942	95.94
346.17	98.94
346.397	100.94
346.625	91.94
346.853	99.94
347.08	90.94
347.308	101.94
347.535	111.94
347.763	107.94
347.99	95.94
348.218	103.94
348.445	108.94
348.673	113.94
348.9	89.94
349.128	98.94
349.355	93.94
349.583	93.94
349.81	105.94
350.037	104.94
350.265	104.94
350.492	94.94
350.72	99.94
350.947	110.94
351.174	123.94
351.402	123.94
351.629	106.94
351.856	111.94
352.083	99.94
352.311	112.94
352.538	128.94
352.765	110.94
352.992	115.94
353.22	103.94
353.447	100.94
353.674	100.94
353.901	99.94
354.128	89.94
354.355	107.94
354.583	97.94
354.81	98.94
355.037	91.94
355.264	96.94
355.491	106.94
355.718	83.94
355.945	102.94
356.172	84.94
356.399	84.94
356.626	91.94
356.853	97.94
357.08	93.94
357.307	91.94
357.534	111.94
357.761	95.94
357.988	88.94
358.215	82.94
358.441	96.94
358.668	99.94
358.895	87.94
359.122	90.94
359.349	91.94
359.576	108.94
359.802	103.94
360.029	144.94
360.256	133.94
360.483	114.94
360.709	114.94
360.936	98.94
361.163	90.94
361.39	103.94
361.616	113.94
361.843	87.94
362.07	111.94
362.296	105.94
362.523	102.94
362.749	109.94
362.976	112.94
363.203	101.94
363.429	104.94
363.656	87.94
363.882	88.94
364.109	105.94
364.335	96.94
364.562	100.94
364.788	103.94
365.015	110.94
365.241	103.94
365.468	116.94
365.694	111.94
365.92	100.94
366.147	89.94
366.373	98.94
366.599	92.94
366.826	91.94
367.052	88.94
367.278	98.94
367.505	87.94
367.731	112.94
367.957	109.94
368.184	90.94
368.41	106.94
368.636	117.94
368.862	138.94
369.089	105.94
369.315	100.94
369.541	91.94
369.767	90.94
369.993	103.94
370.219	98.94
370.445	85.94
370.672	75.94
370.898	97.94
371.124	99.94
371.35	95.94
371.576	92.94
371.802	91.94
372.028	85.94
372.254	86.94
372.48	79.94
372.706	65.94
372.932	82.94
373.158	88.94
373.384	90.94
373.61	91.94
373.835	88.94
374.061	97.94
374.287	104.94
374.513	95.94
374.739	89.94
374.965	77.94
375.191	106.94
375.416	89.94
375.642	91.94
375.868	89.94
376.094	89.94
376.319	87.94
376.545	92.94
376.771	95.94
376.997	84.94
377.222	89.94
377.448	113.94
377.674	86.94
377.899	87.94
378.125	91.94
378.35	94.94
378.576	93.94
378.802	92.94
379.027	95.94
379.253	84.94
379.478	97.94
379.704	96.94
379.929	86.94
380.155	81.94
380.38	108.94
380.606	88.94
380.831	102.94
381.057	110.94
381.282	76.94
381.507	104.94
381.733	89.94
381.958	103.94
382.184	110.94
382.409	98.94
382.634	101.94
382.86	94.94
383.085	110.94
383.31	100.94
383.535	103.94
383.761	88.94
383.986	97.94
384.211	110.94
384.436	84.94
384.662	106.94
384.887	109.94
385.112	105.94
385.337	94.94
385.562	109.94
385.787	117.94
386.013	106.94
386.238	104.94
386.463	107.94
386.688	116.94
386.913	115.94
387.138	106.94
387.363	100.94
387.588	116.94
387.813	102.94
388.038	87.94
388.263	87.94
388.488	103.94
388.713	92.94
388.938	96.94
389.163	102.94
389.387	104.94
389.612	89.94
389.837	98.94
390.062	98.94
390.287	80.94
390.512	105.94
390.736	93.94
390.961	96.94
391.186	81.94
391.411	105.94
391.636	99.94
391.86	87.94
392.085	91.94
392.31	86.94
392.534	91.94
392.759	98.94
392.984	92.94
393.208	85.94
393.433	88.94
393.658	86.94
393.882	80.94
394.107	77.94
394.331	80.94
394.556	83.94
394.78	88.94
395.005	88.94
395.229	86.94
395.454	83.94
395.678	93.94
395.903	91.94
396.127	96.94
396.352	101.94
396.576	89.94
396.801	84.94
397.025	81.94
397.249	106.94
397.474	89.94
397.698	82.94
397.922	93.94
398.147	88.94
398.371	94.94
398.595	85.94
398.82	78.94
399.044	69.94
399.268	101.94
399.492	94.94
399.717	95.94
399.941	96.94
400.165	113.94
400.389	97.94
400.613	81.94
400.837	83.94
401.062	91.94
401.286	90.94
401.51	96.94
401.734	99.94
401.958	101.94
402.182	134.94
402.406	170.94
402.63	140.94
402.854	110.94
403.078	100.94
403.302	111.94
403.526	100.94
403.75	101.94
403.974	102.94
404.198	96.94
404.422	86.94
404.645	84.94
404.869	93.94
405.093	116.94
405.317	147.94
405.541	138.94
405.765	97.94
405.988	131.94
406.212	184.94
406.436	272.94
406.66	179.94
406.883	108.94
407.107	111.94
407.331	104.94
407.555	114.94
407.778	108.94
408.002	89.94
408.226	102.94
408.449	89.94
408.673	91.94
408.896	99.94
409.12	97.94
409.344	91.94
409.567	82.94
409.791	90.94
410.014	102.94
410.238	92.94
410.461	98.94
410.685	85.94
410.908	116.94
411.132	120.94
411.355	112.94
411.578	110.94
411.802	90.94
412.025	84.94
412.249	106.94
412.472	114.94
412.695	142.94
412.919	126.94
413.142	92.94
413.365	94.94
413.589	87.94
413.812	100.94
414.035	95.94
414.258	92.94
414.482	86.94
414.705	94.94
414.928	93.94
415.151	105.94
415.374	99.94
415.597	81.94
415.821	85.94
416.044	91.94
416.267	94.94
416.49	104.94
416.713	90.94
416.936	90.94
417.159	92.94
417.382	92.94
417.605	96.94
417.828	99.94
418.051	97.94
418.274	72.94
418.497	96.94
418.72	85.94
418.943	84.94
419.166	98.94
419.389	95.94
419.611	87.94
419.834	86.94
420.057	90.94
420.28	96.94
420.503	102.94
420.726	100.94
420.948	90.94
421.171	93.94
421.394	100.94
421.617	97.94
421.839	87.94
422.062	98.94
422.285	88.94
422.507	112.94
422.73	121.94
422.953	91.94
423.175	76.94
423.398	89.94
423.621	105.94
423.843	83.94
424.066	85.94
424.288	99.94
424.511	89.94
424.733	98.94
424.956	135.94
425.178	99.94
425.401	95.94
425.623	102.94
425.846	99.94
426.068	99.94
426.291	96.94
426.513	81.94
426.735	91.94
426.958	91.94
427.18	127.94
427.402	168.94
427.625	220.94
427.847	210.94
428.069	204.94
428.292	114.94
428.514	96.94
428.736	93.94
428.958	86.94
429.181	95.94
429.403	90.94
429.625	78.94
429.847	99.94
430.069	120.94
430.292	110.94
430.514	97.94
430.736	75.94
430.958	79.94
431.18	90.94
431.402	83.94
431.624	91.94
431.846	76.94
432.068	103.94
432.29	80.94
432.512	98.94
432.734	106.94
432.956	96.94
433.178	102.94
433.4	107.94
433.622	102.94
433.844	100.94
434.066	91.94
434.287	96.94
434.509	94.94
434.731	96.94
434.953	93.94
435.175	90.94
435.397	89.94
435.618	88.94
435.84	105.94
436.062	142.94
436.284	131.94
436.505	123.94
436.727	114.94
436.949	91.94
437.17	77.94
437.392	98.94
437.614	91.94
437.835	126.94
438.057	144.94
438.278	126.94
438.5	130.94
438.721	128.94
438.943	132.94
439.165	100.94
439.386	105.94
439.608	102.94
439.829	100.94
440.05	134.94
440.272	171.94
440.493	121.94
440.715	78.94
440.936	90.94
441.158	95.94
441.379	91.94
441.6	89.94
441.822	98.94
442.043	106.94
442.264	118.94
442.486	118.94
442.707	103.94
442.928	123.94
443.149	159.94
443.371	152.94
443.592	132.94
443.813	128.94
444.034	104.94
444.255	95.94
444.476	107.94
444.698	100.94
444.919	87.94
445.14	126.94
445.361	110.94
445.582	135.94
445.803	190.94
446.024	189.94
446.245	170.94
446.466	146.94
446.687	90.94
446.908	114.94
447.129	107.94
447.35	98.94
447.571	98.94
447.792	83.94
448.013	100.94
448.234	118.94
448.455	106.94
448.675	129.94
448.896	119.94
449.117	115.94
449.338	115.94
449.559	141.94
449.779	174.94
450	107.94
450.221	91.94
450.442	100.94
450.662	103.94
450.883	119.94
451.104	137.94
451.324	102.94
451.545	92.94
451.766	98.94
451.986	74.94
452.207	108.94
452.428	96.94
452.648	103.94
452.869	122.94
453.089	132.94
453.31	130.94
453.53	99.94
453.751	108.94
453.971	103.94
454.192	126.94
454.412	101.94
454.633	82.94
454.853	82.94
455.073	90.94
455.294	97.94
455.514	97.94
455.734	103.94
455.955	99.94
456.175	82.94
456.395	84.94
456.616	102.94
456.836	94.94
457.056	82.94
457.276	92.94
457.497	98.94
457.717	92.94
457.937	91.94
458.157	111.94
458.377	100.94
458.598	120.94
458.818	181.94
459.038	219.94
459.258	156.94
459.478	107.94
459.698	70.94
459.918	87.94
460.138	87.94
460.358	91.94
460.578	76.94
460.798	76.94
461.018	91.94
461.238	90.94
461.458	97.94
461.678	94.94
461.898	86.94
462.118	84.94
462.338	91.94
462.558	79.94
462.777	96.94
462.997	89.94
463.217	110.94
463.437	90.94
463.657	88.94
463.876	105.94
464.096	89.94
464.316	94.94
464.536	98.94
464.755	106.94
464.975	112.94
465.195	186.94
465.414	206.94
465.634	91.94
465.854	108.94
466.073	91.94
466.293	89.94
466.512	107.94
466.732	101.94
466.951	98.94
467.171	92.94
467.391	113.94
467.61	134.94
467.829	153.94
468.049	356.94
468.268	516.94
468.488	167.94
468.707	86.94
468.927	91.94
469.146	96.94
469.365	88.94
469.585	84.94
469.804	110.94
470.023	116.94
470.243	93.94
470.462	105.94
470.681	145.94
470.901	110.94
471.12	90.94
471.339	110.94
471.558	115.94
471.777	131.94
471.997	212.94
472.216	687.94
472.435	1513.94
472.654	400.94
472.873	129.94
473.092	102.94
473.311	94.94
473.53	93.94
473.749	98.94
473.968	116.94
474.187	121.94
474.406	106.94
474.625	87.94
474.844	107.94
475.063	87.94
475.282	90.94
475.501	94.94
475.72	85.94
475.939	93.94
476.158	81.94
476.377	82.94
476.596	107.94
476.814	92.94
477.033	100.94
477.252	94.94
477.471	97.94
477.69	86.94
477.908	103.94
478.127	90.94
478.346	92.94
478.564	102.94
478.783	104.94
479.002	111.94
479.22	113.94
479.439	110.94
479.658	122.94
479.876	111.94
480.095	113.94
480.313	117.94
480.532	136.94
480.751	219.94
480.969	640.94
481.188	2596.94
481.406	1557.94
481.624	258.94
481.843	136.94
482.061	101.94
482.28	84.94
482.498	91.94
482.717	78.94
482.935	102.94
483.153	90.94
483.372	92.94
483.59	109.94
483.808	89.94
484.027	98.94
484.245	102.94
484.463	91.94
484.681	96.94
484.9	94.94
485.118	92.94
485.336	108.94
485.554	104.94
485.772	102.94
485.99	112.94
486.209	98.94
486.427	101.94
486.645	105.94
486.863	104.94
487.081	84.94
487.299	81.94
487.517	101.94
487.735	99.94
487.953	104.94
488.171	106.94
488.389	99.94
488.607	103.94
488.825	98.94
489.043	91.94
489.261	92.94
489.479	100.94
489.696	87.94
489.914	96.94
490.132	100.94
490.35	106.94
490.568	89.94
490.786	87.94
491.003	90.94
491.221	91.94
491.439	97.94
491.657	105.94
491.874	102.94
492.092	94.94
492.31	91.94
492.527	98.94
492.745	83.94
492.963	90.94
493.18	85.94
493.398	103.94
493.615	110.94
493.833	90.94
494.05	94.94
494.268	88.94
494.485	82.94
494.703	85.94
494.92	92.94
495.138	85.94
495.355	106.94
495.573	97.94
495.79	90.94
496.008	93.94
496.225	89.94
496.442	83.94
496.66	97.94
496.877	78.94
497.094	96.94
497.312	110.94
497.529	90.94
497.746	81.94
497.963	101.94
498.181	81.94
498.398	84.94
498.615	121.94
498.832	111.94
499.049	95.94
499.267	98.94
499.484	82.94
499.701	87.94
499.918	94.94
500.135	91.94
500.352	79.94
500.569	107.94
500.786	80.94
501.003	99.94
501.22	83.94
501.437	89.94
501.654	95.94
501.871	111.94
502.088	95.94
502.305	86.94
502.522	91.94
502.739	90.94
502.956	86.94
503.172	106.94
503.389	110.94
503.606	114.94
503.823	105.94
504.04	100.94
504.256	93.94
504.473	86.94
504.69	96.94
504.907	105.94
505.123	86.94
505.34	82.94
505.557	100.94
505.773	97.94
505.99	91.94
506.207	99.94
506.423	90.94
506.64	92.94
506.856	94.94
507.073	101.94
507.289	92.94
507.506	108.94
507.722	127.94
507.939	122.94
508.155	104.94
508.372	88.94
508.588	103.94
508.805	94.94
509.021	98.94
509.238	112.94
509.454	96.94
509.67	99.94
509.887	102.94
510.103	136.94
510.319	224.94
510.536	867.94
510.752	2689.94
510.968	762.94
511.184	180.94
511.401	130.94
511.617	108.94
511.833	103.94
512.049	105.94
512.265	94.94
512.481	82.94
512.698	99.94
