Data from Circ_2004_H10_HRD10591_00068.txt Node
Date: Wed Jan 03 10:33:27 EST 2024
User: Yrep
Spectrometer: HR+D1059
Trigger mode: 1
Integration Time (sec): 1.000000E-1
Scans to average: 1
Electric dark correction enabled: true
Nonlinearity correction enabled: false
Boxcar width: 0
XAxis mode: Wavelengths
Number of Pixels in Spectrum: 2048
>>>>>Begin Spectral Data<<<<<
223.165	-22
223.4	-22
223.635	-22
223.869	-22
224.104	8
224.338	-17
224.573	-21
224.808	-11
225.042	-15
225.277	7
225.511	-19
225.746	-1
225.98	0
226.215	22
226.449	14
226.683	13
226.918	21
227.152	43
227.387	33
227.621	48
227.856	44
228.09	50
228.324	64
228.559	52
228.793	54
229.027	66
229.262	76
229.496	78
229.73	80
229.964	88
230.199	73
230.433	81
230.667	72
230.901	99
231.136	80
231.37	89
231.604	85
231.838	87
232.072	88
232.306	86
232.541	72
232.775	79
233.009	81
233.243	78
233.477	80
233.711	85
233.945	82
234.179	72
234.413	90
234.647	76
234.881	87
235.115	96
235.349	82
235.583	84
235.817	81
236.051	80
236.285	74
236.519	76
236.753	76
236.987	91
237.221	74
237.455	83
237.689	78
237.922	80
238.156	71
238.39	68
238.624	80
238.858	72
239.091	77
239.325	82
239.559	92
239.793	99
240.027	79
240.26	79
240.494	82
240.728	81
240.961	72
241.195	81
241.429	92
241.662	74
241.896	83
242.13	86
242.363	68
242.597	82
242.83	68
243.064	74
243.298	75
243.531	79
243.765	63
243.998	80
244.232	77
244.465	85
244.699	85
244.932	88
245.166	73
245.399	83
245.633	77
245.866	82
246.099	71
246.333	81
246.566	74
246.8	82
247.033	92
247.266	78
247.5	70
247.733	91
247.966	85
248.2	86
248.433	80
248.666	79
248.899	86
249.133	80
249.366	95
249.599	101
249.832	86
250.066	79
250.299	70
250.532	98
250.765	72
250.998	78
251.231	91
251.465	75
251.698	78
251.931	73
252.164	76
252.397	90
252.63	84
252.863	73
253.096	72
253.329	82
253.562	78
253.795	67
254.028	76
254.261	86
254.494	78
254.727	84
254.96	71
255.193	84
255.426	91
255.659	94
255.892	81
256.124	82
256.357	89
256.59	90
256.823	82
257.056	75
257.289	80
257.521	83
257.754	90
257.987	87
258.22	76
258.452	97
258.685	90
258.918	81
259.151	84
259.383	80
259.616	83
259.849	83
260.081	81
260.314	62
260.547	76
260.779	78
261.012	79
261.244	93
261.477	89
261.71	80
261.942	96
262.175	100
262.407	92
262.64	96
262.872	83
263.105	79
263.337	78
263.57	88
263.802	86
264.035	72
264.267	80
264.499	66
264.732	80
264.964	70
265.197	94
265.429	84
265.661	79
265.894	74
266.126	75
266.358	77
266.591	94
266.823	70
267.055	75
267.287	84
267.52	73
267.752	95
267.984	78
268.216	75
268.448	92
268.681	87
268.913	103
269.145	95
269.377	100
269.609	79
269.841	88
270.073	87
270.306	84
270.538	85
270.77	84
271.002	83
271.234	92
271.466	86
271.698	84
271.93	91
272.162	82
272.394	91
272.626	97
272.858	98
273.09	84
273.322	84
273.553	90
273.785	92
274.017	79
274.249	86
274.481	84
274.713	79
274.945	100
275.176	87
275.408	96
275.64	84
275.872	83
276.104	83
276.335	100
276.567	89
276.799	117
277.031	102
277.262	112
277.494	90
277.726	86
277.957	90
278.189	92
278.421	98
278.652	95
278.884	72
279.115	88
279.347	78
279.579	99
279.81	93
280.042	111
280.273	108
280.505	99
280.736	92
280.968	87
281.199	91
281.431	78
281.662	80
281.894	96
282.125	92
282.356	99
282.588	111
282.819	102
283.051	91
283.282	90
283.513	86
283.745	78
283.976	85
284.207	80
284.439	71
284.67	97
284.901	100
285.132	99
285.364	90
285.595	89
285.826	96
286.057	87
286.288	72
286.52	82
286.751	90
286.982	80
287.213	91
287.444	92
287.675	87
287.906	87
288.138	85
288.369	90
288.6	96
288.831	83
289.062	87
289.293	90
289.524	100
289.755	83
289.986	89
290.217	91
290.448	81
290.679	87
290.91	78
291.141	90
291.371	82
291.602	86
291.833	86
292.064	96
292.295	88
292.526	84
292.757	97
292.987	95
293.218	98
293.449	96
293.68	87
293.91	85
294.141	88
294.372	72
294.603	90
294.833	81
295.064	88
295.295	85
295.525	95
295.756	100
295.987	103
296.217	109
296.448	106
296.679	84
296.909	87
297.14	96
297.37	90
297.601	94
297.831	102
298.062	78
298.292	102
298.523	87
298.753	88
298.984	82
299.214	97
299.445	93
299.675	100
299.905	97
300.136	105
300.366	102
300.597	90
300.827	87
301.057	105
301.288	97
301.518	95
301.748	95
301.979	107
302.209	96
302.439	94
302.669	90
302.9	97
303.13	96
303.36	107
303.59	108
303.82	109
304.051	81
304.281	91
304.511	86
304.741	103
304.971	80
305.201	88
305.431	78
305.661	69
305.891	90
306.121	94
306.352	103
306.582	102
306.812	90
307.042	93
307.272	105
307.502	100
307.731	127
307.961	98
308.191	84
308.421	88
308.651	87
308.881	88
309.111	99
309.341	93
309.571	88
309.8	99
310.03	93
310.26	82
310.49	96
310.72	90
310.949	102
311.179	99
311.409	91
311.639	99
311.868	91
312.098	82
312.328	100
312.557	91
312.787	103
313.017	99
313.246	97
313.476	99
313.706	90
313.935	98
314.165	104
314.394	106
314.624	88
314.853	104
315.083	103
315.312	92
315.542	100
315.771	93
316.001	88
316.23	92
316.46	104
316.689	98
316.919	85
317.148	99
317.377	92
317.607	84
317.836	103
318.065	80
318.295	82
318.524	86
318.753	90
318.983	102
319.212	106
319.441	100
319.67	108
319.9	92
320.129	95
320.358	79
320.587	110
320.816	94
321.046	90
321.275	98
321.504	97
321.733	94
321.962	96
322.191	96
322.42	98
322.649	102
322.878	121
323.108	110
323.337	117
323.566	136
323.795	151
324.024	202
324.253	348
324.482	740
324.71	1488
324.939	1964
325.168	730
325.397	229
325.626	148
325.855	128
326.084	123
326.313	138
326.542	154
326.77	209
326.999	420
327.228	832
327.457	1529
327.686	1230
327.914	351
328.143	239
328.372	226
328.6	150
328.829	128
329.058	129
329.287	135
329.515	110
329.744	137
329.972	176
330.201	291
330.43	384
330.658	212
330.887	151
331.115	122
331.344	116
331.572	99
331.801	104
332.03	111
332.258	103
332.486	85
332.715	96
332.943	103
333.172	96
333.4	105
333.629	111
333.857	132
334.085	187
334.314	299
334.542	498
334.771	474
334.999	184
335.227	128
335.455	98
335.684	83
335.912	103
336.14	96
336.369	96
336.597	95
336.825	103
337.053	100
337.281	95
337.51	103
337.738	92
337.966	85
338.194	90
338.422	92
338.65	101
338.878	88
339.106	92
339.334	108
339.562	94
339.79	82
340.018	93
340.246	78
340.474	98
340.702	98
340.93	94
341.158	103
341.386	85
341.614	105
341.842	78
342.07	90
342.298	84
342.526	101
342.754	102
342.981	91
343.209	96
343.437	94
343.665	75
343.893	92
344.12	96
344.348	114
344.576	94
344.804	90
345.031	74
345.259	104
345.487	111
345.714	88
345.942	87
346.17	83
346.397	86
346.625	105
346.853	88
347.08	108
347.308	105
347.535	88
347.763	103
347.99	94
348.218	109
348.445	108
348.673	98
348.9	100
349.128	100
349.355	112
349.583	95
349.81	87
350.037	90
350.265	91
350.492	98
350.72	100
350.947	106
351.174	98
351.402	102
351.629	94
351.856	95
352.083	82
352.311	100
352.538	94
352.765	97
352.992	104
353.22	102
353.447	99
353.674	104
353.901	91
354.128	98
354.355	100
354.583	100
354.81	94
355.037	88
355.264	89
355.491	80
355.718	97
355.945	94
356.172	94
356.399	88
356.626	87
356.853	84
357.08	94
357.307	96
357.534	81
357.761	99
357.988	80
358.215	85
358.441	89
358.668	76
358.895	91
359.122	95
359.349	81
359.576	80
359.802	100
360.029	108
360.256	102
360.483	94
360.709	92
360.936	91
361.163	97
361.39	99
361.616	74
361.843	81
362.07	93
362.296	96
362.523	103
362.749	88
362.976	81
363.203	98
363.429	86
363.656	92
363.882	104
364.109	92
364.335	90
364.562	92
364.788	95
365.015	106
365.241	96
365.468	111
365.694	99
365.92	106
366.147	100
366.373	90
366.599	83
366.826	93
367.052	79
367.278	89
367.505	88
367.731	90
367.957	88
368.184	87
368.41	93
368.636	104
368.862	108
369.089	119
369.315	86
369.541	91
369.767	90
369.993	93
370.219	90
370.445	94
370.672	90
370.898	94
371.124	83
371.35	93
371.576	87
371.802	90
372.028	91
372.254	97
372.48	89
372.706	86
372.932	86
373.158	81
373.384	88
373.61	102
373.835	79
374.061	99
374.287	98
374.513	94
374.739	84
374.965	89
375.191	85
375.416	71
375.642	89
375.868	96
376.094	95
376.319	84
376.545	86
376.771	87
376.997	92
377.222	92
377.448	89
377.674	87
377.899	98
378.125	86
378.35	94
378.576	87
378.802	95
379.027	91
379.253	78
379.478	86
379.704	89
379.929	92
380.155	93
380.38	86
380.606	90
380.831	86
381.057	92
381.282	93
381.507	94
381.733	96
381.958	90
382.184	87
382.409	88
382.634	102
382.86	102
383.085	103
383.31	88
383.535	93
383.761	103
383.986	111
384.211	104
384.436	103
384.662	116
384.887	98
385.112	91
385.337	106
385.562	96
385.787	96
386.013	97
386.238	99
386.463	103
386.688	101
386.913	97
387.138	106
387.363	104
387.588	89
387.813	87
388.038	103
388.263	111
388.488	87
388.713	92
388.938	95
389.163	96
389.387	95
389.612	101
389.837	81
390.062	87
390.287	96
390.512	86
390.736	89
390.961	86
391.186	102
391.411	90
391.636	92
391.86	86
392.085	99
392.31	96
392.534	94
392.759	93
392.984	97
393.208	95
393.433	87
393.658	92
393.882	74
394.107	87
394.331	88
394.556	91
394.78	88
395.005	93
395.229	79
395.454	85
395.678	87
395.903	85
396.127	83
396.352	79
396.576	76
396.801	79
397.025	92
397.249	96
397.474	90
397.698	93
397.922	85
398.147	89
398.371	89
398.595	72
398.82	75
399.044	93
399.268	95
399.492	87
399.717	91
399.941	91
400.165	99
400.389	85
400.613	90
400.837	86
401.062	103
401.286	91
401.51	81
401.734	94
401.958	92
402.182	111
402.406	126
402.63	126
402.854	97
403.078	92
403.302	87
403.526	107
403.75	87
403.974	90
404.198	83
404.422	96
404.645	88
404.869	102
405.093	88
405.317	111
405.541	108
405.765	101
405.988	117
406.212	147
406.436	184
406.66	120
406.883	103
407.107	96
407.331	111
407.555	86
407.778	96
408.002	88
408.226	97
408.449	88
408.673	92
408.896	87
409.12	85
409.344	86
409.567	88
409.791	88
410.014	91
410.238	83
410.461	103
410.685	93
410.908	89
411.132	100
411.355	83
411.578	92
411.802	100
412.025	102
412.249	96
412.472	102
412.695	104
412.919	99
413.142	100
413.365	102
413.589	87
413.812	78
414.035	80
414.258	81
414.482	81
414.705	84
414.928	102
415.151	82
415.374	91
415.597	98
415.821	75
416.044	88
416.267	96
416.49	88
416.713	88
416.936	89
417.159	76
417.382	89
417.605	77
417.828	89
418.051	104
418.274	86
418.497	81
418.72	86
418.943	94
419.166	100
419.389	94
419.611	81
419.834	86
420.057	82
420.28	88
420.503	86
420.726	83
420.948	105
421.171	99
421.394	87
421.617	98
421.839	80
422.062	91
422.285	94
422.507	91
422.73	96
422.953	90
423.175	97
423.398	97
423.621	84
423.843	91
424.066	78
424.288	90
424.511	76
424.733	106
424.956	115
425.178	107
425.401	108
425.623	100
425.846	106
426.068	97
426.291	89
426.513	87
426.735	95
426.958	107
427.18	101
427.402	112
427.625	147
427.847	142
428.069	137
428.292	92
428.514	92
428.736	81
428.958	77
429.181	94
429.403	86
429.625	85
429.847	91
430.069	104
430.292	79
430.514	100
430.736	87
430.958	88
431.18	84
431.402	87
431.624	82
431.846	91
432.068	103
432.29	91
432.512	97
432.734	95
432.956	86
433.178	100
433.4	97
433.622	97
433.844	103
434.066	86
434.287	100
434.509	86
434.731	82
434.953	94
435.175	83
435.397	86
435.618	91
435.84	94
436.062	102
436.284	108
436.505	104
436.727	92
436.949	89
437.17	78
437.392	91
437.614	99
437.835	86
438.057	110
438.278	109
438.5	102
438.721	130
438.943	103
439.165	94
439.386	88
439.608	82
439.829	103
440.05	113
440.272	142
440.493	107
440.715	94
440.936	85
441.158	95
441.379	85
441.6	94
441.822	86
442.043	94
442.264	103
442.486	89
442.707	96
442.928	114
443.149	120
443.371	129
443.592	106
443.813	107
444.034	111
444.255	100
444.476	97
444.698	87
444.919	87
445.14	117
445.361	116
445.582	118
445.803	147
446.024	122
446.245	121
446.466	97
446.687	82
446.908	88
447.129	72
447.35	92
447.571	97
447.792	101
448.013	94
448.234	107
448.455	100
448.675	100
448.896	113
449.117	91
449.338	100
449.559	123
449.779	126
450	92
450.221	99
450.442	82
450.662	95
450.883	104
451.104	107
451.324	102
451.545	100
451.766	80
451.986	72
452.207	90
452.428	99
452.648	81
452.869	114
453.089	109
453.31	107
453.53	88
453.751	80
453.971	93
454.192	100
454.412	88
454.633	82
454.853	86
455.073	71
455.294	83
455.514	105
455.734	97
455.955	81
456.175	83
456.395	89
456.616	84
456.836	90
457.056	91
457.276	91
457.497	92
457.717	76
457.937	86
458.157	83
458.377	80
458.598	108
458.818	145
459.038	143
459.258	116
459.478	92
459.698	91
459.918	79
460.138	89
460.358	91
460.578	88
460.798	92
461.018	95
461.238	88
461.458	87
461.678	90
461.898	84
462.118	106
462.338	80
462.558	63
462.777	74
462.997	87
463.217	94
463.437	84
463.657	100
463.876	82
464.096	82
464.316	97
464.536	96
464.755	99
464.975	108
465.195	140
465.414	149
465.634	100
465.854	92
466.073	80
466.293	86
466.512	87
466.732	75
466.951	89
467.171	99
467.391	91
467.61	96
467.829	139
468.049	207
468.268	268
468.488	119
468.707	89
468.927	89
469.146	86
469.365	95
469.585	97
469.804	103
470.023	95
470.243	99
470.462	100
470.681	99
470.901	87
471.12	102
471.339	80
471.558	90
471.777	95
471.997	130
472.216	336
472.435	647
472.654	211
472.873	105
473.092	96
473.311	76
473.53	95
473.749	95
473.968	98
474.187	98
474.406	95
474.625	90
474.844	95
475.063	92
475.282	76
475.501	93
475.72	103
475.939	99
476.158	94
476.377	83
476.596	101
476.814	90
477.033	96
477.252	101
477.471	81
477.69	99
477.908	86
478.127	104
478.346	94
478.564	89
478.783	98
479.002	111
479.22	95
479.439	86
479.658	115
479.876	98
480.095	91
480.313	95
480.532	97
480.751	147
480.969	351
481.188	1155
481.406	712
481.624	154
481.843	100
482.061	96
482.28	100
482.498	90
482.717	69
482.935	82
483.153	90
483.372	79
483.59	85
483.808	86
484.027	96
484.245	98
484.463	81
484.681	78
484.9	79
485.118	102
485.336	104
485.554	97
485.772	116
485.99	99
486.209	96
486.427	106
486.645	108
486.863	91
487.081	92
487.299	99
487.517	107
487.735	89
487.953	91
488.171	89
488.389	83
488.607	92
488.825	83
489.043	111
489.261	92
489.479	91
489.696	92
489.914	86
490.132	102
490.35	94
490.568	92
490.786	75
491.003	104
491.221	78
491.439	87
491.657	96
491.874	92
492.092	91
492.31	93
492.527	102
492.745	87
492.963	93
493.18	91
493.398	91
493.615	85
493.833	99
494.05	100
494.268	91
494.485	91
494.703	87
494.92	90
495.138	102
495.355	105
495.573	96
495.79	95
496.008	79
496.225	88
496.442	77
496.66	91
496.877	94
497.094	100
497.312	94
497.529	88
497.746	83
497.963	97
498.181	96
498.398	99
498.615	110
498.832	106
499.049	83
499.267	89
499.484	96
499.701	94
499.918	92
500.135	79
500.352	103
500.569	86
500.786	93
501.003	86
501.22	90
501.437	97
501.654	90
501.871	101
502.088	95
502.305	84
502.522	91
502.739	96
502.956	91
503.172	99
503.389	104
503.606	94
503.823	103
504.04	91
504.256	90
504.473	90
504.69	95
504.907	101
505.123	93
505.34	90
505.557	87
505.773	89
505.99	91
506.207	91
506.423	95
506.64	91
506.856	86
507.073	87
507.289	83
507.506	97
507.722	119
507.939	115
508.155	95
508.372	89
508.588	87
508.805	95
509.021	99
509.238	100
509.454	105
509.67	97
509.887	112
510.103	127
510.319	188
510.536	599
510.752	1855
510.968	558
511.184	134
511.401	118
511.617	82
511.833	95
512.049	83
512.265	91
512.481	84
512.698	81
512.914	97
513.13	91
513.346	95
513.562	96
513.778	100
513.994	101
514.21	107
514.426	114
514.642	117
514.858	119
515.074	137
515.29	376
515.506	1159
515.721	453
515.937	141
516.153	104
516.369	106
516.585	97
516.801	91
517.016	95
517.232	103
517.448	82
517.664	88
517.879	92
518.095	104
518.311	100
518.527	92
518.742	96
518.958	98
519.173	96
519.389	92
519.605	100
519.82	103
520.036	99
520.251	107
520.467	107
520.682	98
520.898	94
521.113	111
521.329	134
521.544	193
521.76	479
521.975	1905
522.19	1171
522.406	280
522.621	114
522.836	104
523.052	95
523.267	102
523.482	99
523.698	99
523.913	113
524.128	94
524.343	91
524.559	92
524.774	97
524.989	87
525.204	112
525.419	106
525.634	103
525.849	97
526.064	87
526.28	89
526.495	91
526.71	81
526.925	88
527.14	103
527.355	84
527.57	89
527.785	85
527.999	91
528.214	90
528.429	93
528.644	91
528.859	87
529.074	86
529.289	116
529.503	151
529.718	94
529.933	85
530.148	90
530.363	98
530.577	90
530.792	98
531.007	97
531.221	99
531.436	92
531.651	97
531.865	97
532.08	88
532.295	104
532.509	98
532.724	90
532.938	99
533.153	89
533.367	92
533.582	93
533.796	105
534.011	94
534.225	95
534.44	81
534.654	90
534.868	97
535.083	103
535.297	88
535.511	83
535.726	99
535.94	90
536.154	82
536.369	92
536.583	106
536.797	102
537.011	100
537.225	97
537.44	85
537.654	92
537.868	97
538.082	92
538.296	100
538.51	94
538.724	97
538.938	71
539.153	102
539.367	108
539.581	97
539.795	90
540.009	93
540.222	97
540.436	104
540.65	102
540.864	90
541.078	103
541.292	81
541.506	84
541.72	86
541.934	98
542.147	89
542.361	87
542.575	81
542.789	102
543.002	96
543.216	91
543.43	102
543.644	92
543.857	88
544.071	86
544.285	89
544.498	83
544.712	98
544.925	86
545.139	85
545.352	89
545.566	90
545.779	91
545.993	90
546.206	78
546.42	90
546.633	106
546.847	91
547.06	91
547.274	99
547.487	87
547.7	82
547.914	96
548.127	97
548.34	75
548.554	91
548.767	91
548.98	79
549.193	88
549.407	100
549.62	85
549.833	90
550.046	90
550.259	79
550.473	95
550.686	74
550.899	93
551.112	86
551.325	79
551.538	96
551.751	86
551.964	76
552.177	85
552.39	89
552.603	87
552.816	89
553.029	93
553.242	92
553.455	107
553.667	109
553.88	95
554.093	90
554.306	93
554.519	84
554.732	81
554.944	88
555.157	75
555.37	81
555.583	81
555.795	101
556.008	78
556.221	93
556.433	85
556.646	86
556.859	100
557.071	87
557.284	80
557.496	105
557.709	93
557.921	88
558.134	83
558.346	88
558.559	85
558.771	90
558.984	82
559.196	93
559.409	96
559.621	90
559.833	83
560.046	93
560.258	96
560.47	108
560.683	83
560.895	100
561.107	83
561.32	91
561.532	95
561.744	102
561.956	90
562.168	88
562.381	95
562.593	87
562.805	95
563.017	73
563.229	97
563.441	80
563.653	88
563.865	80
564.077	78
564.289	88
564.501	83
564.713	85
564.925	83
565.137	95
565.349	95
565.561	92
565.773	76
565.985	90
566.197	96
566.408	90
566.62	102
566.832	86
567.044	74
567.255	108
567.467	84
567.679	86
567.891	87
568.102	102
568.314	85
568.526	74
568.737	96
568.949	74
569.161	90
569.372	105
569.584	99
569.795	103
570.007	104
570.218	198
570.43	133
570.641	102
570.853	75
571.064	83
571.276	95
571.487	100
571.698	92
571.91	91
572.121	90
572.333	76
572.544	79
572.755	87
572.966	74
573.178	92
573.389	89
573.6	79
573.811	75
574.023	79
574.234	90
574.445	87
574.656	87
574.867	70
575.078	86
575.289	84
575.501	86
575.712	83
575.923	94
576.134	87
576.345	90
576.556	88
576.767	97
576.978	104
577.188	92
577.399	85
577.61	98
577.821	95
578.032	115
578.243	223
578.454	576
578.665	190
578.875	99
579.086	91
579.297	86
579.508	94
579.718	88
579.929	83
580.14	87
580.35	92
580.561	89
580.772	99
580.982	87
581.193	84
581.403	85
581.614	92
581.825	91
582.035	87
582.246	88
582.456	81
582.667	96
582.877	80
583.087	91
583.298	99
583.508	90
583.719	82
583.929	88
