Data from Circ_2004_H10_HRD10591_00096.txt Node
Date: Wed Jan 03 10:33:33 EST 2024
User: Yrep
Spectrometer: HR+D1059
Trigger mode: 1
Integration Time (sec): 1.000000E-1
Scans to average: 1
Electric dark correction enabled: true
Nonlinearity correction enabled: false
Boxcar width: 0
XAxis mode: Wavelengths
Number of Pixels in Spectrum: 2048
>>>>>Begin Spectral Data<<<<<
223.165	-18
223.4	-18
223.635	-18
223.869	-23
224.104	-15
224.338	-16
224.573	-8
224.808	-17
225.042	-11
225.277	0
225.511	-3
225.746	-3
225.98	15
226.215	18
226.449	22
226.683	5
226.918	30
227.152	24
227.387	38
227.621	63
227.856	65
228.09	52
228.324	47
228.559	58
228.793	65
229.027	76
229.262	58
229.496	80
229.73	91
229.964	89
230.199	91
230.433	78
230.667	75
230.901	85
231.136	83
231.37	80
231.604	87
231.838	85
232.072	96
232.306	78
232.541	83
232.775	100
233.009	73
233.243	84
233.477	87
233.711	82
233.945	77
234.179	84
234.413	80
234.647	70
234.881	85
235.115	93
235.349	92
235.583	74
235.817	86
236.051	86
236.285	81
236.519	99
236.753	80
236.987	83
237.221	76
237.455	83
237.689	72
237.922	83
238.156	74
238.39	81
238.624	82
238.858	81
239.091	73
239.325	74
239.559	76
239.793	83
240.027	83
240.26	90
240.494	80
240.728	69
240.961	80
241.195	84
241.429	91
241.662	93
241.896	79
242.13	66
242.363	76
242.597	77
242.83	73
243.064	80
243.298	80
243.531	84
243.765	85
243.998	80
244.232	84
244.465	90
244.699	90
244.932	86
245.166	70
245.399	85
245.633	80
245.866	92
246.099	78
246.333	103
246.566	80
246.8	76
247.033	86
247.266	75
247.5	93
247.733	76
247.966	85
248.2	82
248.433	76
248.666	86
248.899	102
249.133	95
249.366	93
249.599	87
249.832	86
250.066	96
250.299	87
250.532	99
250.765	83
250.998	82
251.231	91
251.465	89
251.698	84
251.931	89
252.164	77
252.397	76
252.63	86
252.863	86
253.096	87
253.329	78
253.562	81
253.795	89
254.028	82
254.261	89
254.494	82
254.727	85
254.96	90
255.193	78
255.426	78
255.659	92
255.892	93
256.124	86
256.357	88
256.59	85
256.823	71
257.056	96
257.289	92
257.521	84
257.754	86
257.987	81
258.22	87
258.452	96
258.685	83
258.918	91
259.151	100
259.383	90
259.616	92
259.849	107
260.081	93
260.314	86
260.547	74
260.779	75
261.012	91
261.244	96
261.477	95
261.71	93
261.942	129
262.175	129
262.407	86
262.64	85
262.872	76
263.105	82
263.337	84
263.57	81
263.802	89
264.035	81
264.267	77
264.499	90
264.732	104
264.964	84
265.197	84
265.429	87
265.661	84
265.894	84
266.126	103
266.358	89
266.591	93
266.823	83
267.055	91
267.287	88
267.52	88
267.752	90
267.984	85
268.216	88
268.448	80
268.681	98
268.913	108
269.145	94
269.377	84
269.609	77
269.841	92
270.073	92
270.306	86
270.538	87
270.77	102
271.002	80
271.234	73
271.466	101
271.698	91
271.93	90
272.162	100
272.394	77
272.626	84
272.858	88
273.09	98
273.322	105
273.553	87
273.785	86
274.017	98
274.249	82
274.481	101
274.713	100
274.945	101
275.176	101
275.408	78
275.64	98
275.872	117
276.104	86
276.335	98
276.567	98
276.799	116
277.031	112
277.262	131
277.494	107
277.726	97
277.957	88
278.189	96
278.421	87
278.652	96
278.884	78
279.115	96
279.347	90
279.579	98
279.81	110
280.042	133
280.273	160
280.505	135
280.736	105
280.968	101
281.199	86
281.431	92
281.662	90
281.894	97
282.125	100
282.356	132
282.588	155
282.819	113
283.051	100
283.282	85
283.513	101
283.745	102
283.976	94
284.207	94
284.439	94
284.67	99
284.901	96
285.132	96
285.364	87
285.595	106
285.826	87
286.057	92
286.288	85
286.52	89
286.751	103
286.982	95
287.213	82
287.444	87
287.675	94
287.906	91
288.138	91
288.369	105
288.6	92
288.831	95
289.062	99
289.293	69
289.524	85
289.755	84
289.986	88
290.217	96
290.448	100
290.679	98
290.91	85
291.141	97
291.371	89
291.602	101
291.833	82
292.064	87
292.295	97
292.526	93
292.757	89
292.987	94
293.218	85
293.449	105
293.68	86
293.91	100
294.141	93
294.372	98
294.603	81
294.833	97
295.064	76
295.295	98
295.525	82
295.756	89
295.987	99
296.217	131
296.448	127
296.679	117
296.909	98
297.14	98
297.37	103
297.601	84
297.831	72
298.062	102
298.292	98
298.523	100
298.753	90
298.984	95
299.214	90
299.445	89
299.675	94
299.905	112
300.136	92
300.366	98
300.597	83
300.827	109
301.057	99
301.288	106
301.518	87
301.748	87
301.979	101
302.209	101
302.439	107
302.669	109
302.9	81
303.13	92
303.36	110
303.59	103
303.82	112
304.051	101
304.281	96
304.511	89
304.741	98
304.971	90
305.201	95
305.431	78
305.661	89
305.891	99
306.121	105
306.352	98
306.582	111
306.812	118
307.042	98
307.272	134
307.502	133
307.731	122
307.961	117
308.191	103
308.421	104
308.651	97
308.881	99
309.111	101
309.341	98
309.571	108
309.8	102
310.03	101
310.26	106
310.49	93
310.72	92
310.949	124
311.179	111
311.409	101
311.639	101
311.868	100
312.098	100
312.328	95
312.557	103
312.787	107
313.017	104
313.246	97
313.476	104
313.706	105
313.935	97
314.165	108
314.394	112
314.624	97
314.853	105
315.083	80
315.312	104
315.542	92
315.771	104
316.001	88
316.23	91
316.46	99
316.689	85
316.919	97
317.148	107
317.377	101
317.607	91
317.836	93
318.065	89
318.295	87
318.524	97
318.753	113
318.983	97
319.212	113
319.441	109
319.67	112
319.9	72
320.129	84
320.358	88
320.587	107
320.816	105
321.046	103
321.275	94
321.504	102
321.733	95
321.962	93
322.191	102
322.42	114
322.649	116
322.878	116
323.108	114
323.337	131
323.566	120
323.795	168
324.024	203
324.253	408
324.482	812
324.71	1678
324.939	2272
325.168	828
325.397	248
325.626	148
325.855	134
326.084	118
326.313	145
326.542	164
326.77	232
326.999	450
327.228	951
327.457	1697
327.686	1344
327.914	435
328.143	287
328.372	333
328.6	208
328.829	144
329.058	152
329.287	139
329.515	137
329.744	175
329.972	250
330.201	464
330.43	675
330.658	342
330.887	192
331.115	142
331.344	118
331.572	113
331.801	112
332.03	106
332.258	110
332.486	102
332.715	99
332.943	109
333.172	108
333.4	100
333.629	133
333.857	162
334.085	244
334.314	421
334.542	835
334.771	786
334.999	246
335.227	154
335.455	121
335.684	97
335.912	99
336.14	115
336.369	104
336.597	93
336.825	99
337.053	81
337.281	90
337.51	86
337.738	115
337.966	87
338.194	105
338.422	92
338.65	102
338.878	101
339.106	81
339.334	98
339.562	111
339.79	100
340.018	102
340.246	103
340.474	99
340.702	98
340.93	99
341.158	95
341.386	109
341.614	94
341.842	93
342.07	116
342.298	89
342.526	83
342.754	89
342.981	84
343.209	91
343.437	112
343.665	106
343.893	98
344.12	89
344.348	105
344.576	96
344.804	94
345.031	92
345.259	107
345.487	105
345.714	106
345.942	108
346.17	101
346.397	103
346.625	114
346.853	92
347.08	99
347.308	90
347.535	101
347.763	109
347.99	113
348.218	97
348.445	118
348.673	87
348.9	103
349.128	78
349.355	89
349.583	97
349.81	98
350.037	98
350.265	108
350.492	106
350.72	95
350.947	112
351.174	124
351.402	109
351.629	110
351.856	102
352.083	111
352.311	94
352.538	100
352.765	109
352.992	95
353.22	131
353.447	99
353.674	105
353.901	100
354.128	93
354.355	108
354.583	97
354.81	103
355.037	98
355.264	85
355.491	89
355.718	100
355.945	89
356.172	92
356.399	91
356.626	104
356.853	93
357.08	93
357.307	94
357.534	86
357.761	85
357.988	81
358.215	101
358.441	98
358.668	89
358.895	92
359.122	100
359.349	83
359.576	115
359.802	114
360.029	125
360.256	105
360.483	120
360.709	73
360.936	105
361.163	94
361.39	98
361.616	98
361.843	97
362.07	90
362.296	98
362.523	86
362.749	89
362.976	88
363.203	111
363.429	105
363.656	103
363.882	83
364.109	92
364.335	93
364.562	96
364.788	107
365.015	116
365.241	114
365.468	123
365.694	101
365.92	100
366.147	98
366.373	92
366.599	97
366.826	93
367.052	88
367.278	95
367.505	82
367.731	90
367.957	90
368.184	85
368.41	97
368.636	120
368.862	92
369.089	118
369.315	107
369.541	91
369.767	99
369.993	88
370.219	104
370.445	95
370.672	96
370.898	92
371.124	114
371.35	100
371.576	94
371.802	101
372.028	96
372.254	98
372.48	86
372.706	94
372.932	101
373.158	88
373.384	89
373.61	89
373.835	99
374.061	92
374.287	108
374.513	91
374.739	97
374.965	88
375.191	86
375.416	84
375.642	112
375.868	84
376.094	96
376.319	90
376.545	81
376.771	98
376.997	97
377.222	99
377.448	108
377.674	100
377.899	97
378.125	97
378.35	114
378.576	94
378.802	94
379.027	94
379.253	94
379.478	98
379.704	94
379.929	89
380.155	101
380.38	106
380.606	81
380.831	95
381.057	91
381.282	92
381.507	94
381.733	94
381.958	104
382.184	98
382.409	94
382.634	99
382.86	98
383.085	97
383.31	90
383.535	118
383.761	98
383.986	98
384.211	98
384.436	98
384.662	92
384.887	89
385.112	86
385.337	96
385.562	111
385.787	98
386.013	107
386.238	110
386.463	103
386.688	89
386.913	106
387.138	103
387.363	94
387.588	96
387.813	88
388.038	108
388.263	115
388.488	110
388.713	99
388.938	107
389.163	94
389.387	99
389.612	103
389.837	78
390.062	100
390.287	98
390.512	87
390.736	84
390.961	98
391.186	81
391.411	98
391.636	100
391.86	82
392.085	97
392.31	87
392.534	90
392.759	97
392.984	86
393.208	97
393.433	103
393.658	101
393.882	85
394.107	80
394.331	98
394.556	82
394.78	93
395.005	94
395.229	88
395.454	93
395.678	96
395.903	94
396.127	100
396.352	83
396.576	85
396.801	90
397.025	87
397.249	84
397.474	91
397.698	80
397.922	106
398.147	93
398.371	79
398.595	84
398.82	94
399.044	99
399.268	67
399.492	90
399.717	81
399.941	93
400.165	81
400.389	104
400.613	92
400.837	90
401.062	88
401.286	107
401.51	100
401.734	102
401.958	100
402.182	129
402.406	160
402.63	117
402.854	87
403.078	89
403.302	104
403.526	100
403.75	88
403.974	92
404.198	96
404.422	98
404.645	84
404.869	104
405.093	112
405.317	128
405.541	107
405.765	111
405.988	119
406.212	173
406.436	221
406.66	170
406.883	106
407.107	77
407.331	105
407.555	99
407.778	90
408.002	95
408.226	96
408.449	89
408.673	91
408.896	70
409.12	94
409.344	98
409.567	88
409.791	100
410.014	99
410.238	94
410.461	99
410.685	99
410.908	106
411.132	112
411.355	102
411.578	87
411.802	98
412.025	95
412.249	86
412.472	103
412.695	117
412.919	106
413.142	109
413.365	87
413.589	88
413.812	81
414.035	88
414.258	94
414.482	81
414.705	108
414.928	100
415.151	92
415.374	92
415.597	80
415.821	101
416.044	100
416.267	96
416.49	91
416.713	86
416.936	76
417.159	96
417.382	96
417.605	83
417.828	98
418.051	107
418.274	108
418.497	82
418.72	90
418.943	91
419.166	94
419.389	99
419.611	83
419.834	88
420.057	101
420.28	90
420.503	99
420.726	98
420.948	97
421.171	94
421.394	102
421.617	100
421.839	86
422.062	102
422.285	94
422.507	100
422.73	113
422.953	83
423.175	92
423.398	99
423.621	80
423.843	84
424.066	81
424.288	104
424.511	99
424.733	96
424.956	116
425.178	90
425.401	105
425.623	112
425.846	94
426.068	90
426.291	87
426.513	80
426.735	93
426.958	88
427.18	113
427.402	161
427.625	198
427.847	185
428.069	183
428.292	115
428.514	97
428.736	75
428.958	87
429.181	91
429.403	98
429.625	81
429.847	106
430.069	106
430.292	95
430.514	76
430.736	71
430.958	89
431.18	82
431.402	76
431.624	103
431.846	102
432.068	81
432.29	86
432.512	105
432.734	92
432.956	106
433.178	105
433.4	90
433.622	91
433.844	103
434.066	92
434.287	86
434.509	91
434.731	102
434.953	97
435.175	105
435.397	106
435.618	90
435.84	89
436.062	114
436.284	112
436.505	105
436.727	104
436.949	98
437.17	95
437.392	93
437.614	100
437.835	119
438.057	118
438.278	102
438.5	109
438.721	134
438.943	110
439.165	109
439.386	92
439.608	89
439.829	104
440.05	126
440.272	132
440.493	93
440.715	84
440.936	86
441.158	104
441.379	92
441.6	96
441.822	95
442.043	105
442.264	115
442.486	95
442.707	86
442.928	98
443.149	149
443.371	144
443.592	133
443.813	108
444.034	110
444.255	102
444.476	99
444.698	76
444.919	84
445.14	123
445.361	125
445.582	107
445.803	151
446.024	123
446.245	142
446.466	124
446.687	93
446.908	89
447.129	100
447.35	69
447.571	111
447.792	103
448.013	116
448.234	108
448.455	92
448.675	116
448.896	124
449.117	101
449.338	115
449.559	136
449.779	152
450	94
450.221	104
450.442	88
450.662	98
450.883	117
451.104	119
451.324	92
451.545	95
451.766	95
451.986	87
452.207	96
452.428	95
452.648	105
452.869	124
453.089	109
453.31	123
453.53	93
453.751	85
453.971	107
454.192	105
454.412	91
454.633	85
454.853	92
455.073	82
455.294	102
455.514	112
455.734	100
455.955	106
456.175	98
456.395	98
456.616	102
456.836	94
457.056	88
457.276	88
457.497	84
457.717	79
457.937	87
458.157	96
458.377	96
458.598	110
458.818	151
459.038	174
459.258	136
459.478	101
459.698	98
459.918	86
460.138	77
460.358	88
460.578	78
460.798	100
461.018	98
461.238	93
461.458	97
461.678	102
461.898	92
462.118	97
462.338	89
462.558	89
462.777	91
462.997	86
463.217	105
463.437	95
463.657	78
463.876	91
464.096	91
464.316	92
464.536	93
464.755	105
464.975	121
465.195	161
465.414	174
465.634	95
465.854	82
466.073	90
466.293	103
466.512	94
466.732	75
466.951	99
467.171	112
467.391	95
467.61	121
467.829	143
468.049	300
468.268	416
468.488	151
468.707	97
468.927	86
469.146	76
469.365	96
469.585	92
469.804	100
470.023	97
470.243	97
470.462	109
470.681	109
470.901	107
471.12	91
471.339	98
471.558	106
471.777	117
471.997	184
472.216	550
472.435	1162
472.654	298
472.873	109
473.092	91
473.311	109
473.53	95
473.749	88
473.968	97
474.187	105
474.406	115
474.625	87
474.844	90
475.063	98
475.282	91
475.501	93
475.72	96
475.939	98
476.158	80
476.377	100
476.596	82
476.814	99
477.033	93
477.252	113
477.471	91
477.69	97
477.908	71
478.127	108
478.346	91
478.564	88
478.783	110
479.002	93
479.22	103
479.439	117
479.658	119
479.876	117
480.095	104
480.313	122
480.532	116
480.751	189
480.969	503
481.188	1953
481.406	1165
481.624	211
481.843	108
482.061	93
482.28	110
482.498	96
482.717	104
482.935	79
483.153	91
483.372	93
483.59	87
483.808	94
484.027	96
484.245	100
484.463	84
484.681	87
484.9	104
485.118	100
485.336	104
485.554	99
485.772	100
485.99	97
486.209	100
486.427	107
486.645	105
486.863	99
487.081	103
487.299	96
487.517	106
487.735	83
487.953	91
488.171	100
488.389	102
488.607	101
488.825	91
489.043	90
489.261	92
489.479	103
489.696	98
489.914	89
490.132	89
490.35	89
490.568	103
490.786	98
491.003	89
491.221	77
491.439	100
491.657	93
491.874	86
492.092	85
492.31	90
492.527	98
492.745	88
492.963	91
493.18	74
493.398	90
493.615	97
493.833	88
494.05	97
494.268	91
494.485	97
494.703	103
494.92	101
495.138	97
495.355	100
495.573	98
495.79	92
496.008	101
496.225	110
496.442	95
496.66	99
496.877	80
497.094	97
497.312	88
497.529	90
497.746	91
497.963	105
498.181	87
498.398	92
498.615	108
498.832	100
499.049	93
499.267	91
499.484	100
499.701	96
499.918	97
500.135	100
500.352	99
500.569	86
500.786	95
501.003	100
501.22	96
501.437	89
501.654	96
501.871	92
502.088	95
502.305	98
502.522	100
502.739	97
502.956	111
503.172	100
503.389	89
503.606	103
503.823	102
504.04	99
504.256	100
504.473	93
504.69	93
504.907	100
505.123	89
505.34	92
505.557	104
505.773	100
505.99	100
506.207	84
506.423	102
506.64	91
506.856	104
507.073	106
507.289	103
507.506	105
507.722	104
507.939	116
508.155	92
508.372	82
508.588	85
508.805	90
509.021	89
509.238	108
509.454	82
509.67	113
509.887	122
510.103	125
510.319	198
510.536	698
510.752	2241
510.968	621
511.184	158
511.401	120
511.617	94
511.833	106
512.049	102
512.265	106
512.481	102
512.698	90
512.914	100
513.13	102
513.346	103
513.562	105
513.778	98
513.994	104
514.21	118
514.426	120
514.642	139
514.858	116
515.074	164
515.29	459
515.506	1584
515.721	586
515.937	166
516.153	113
516.369	102
516.585	114
516.801	106
517.016	110
517.232	108
517.448	98
517.664	88
517.879	93
518.095	105
518.311	88
518.527	101
518.742	99
518.958	98
519.173	93
519.389	93
519.605	115
519.82	106
520.036	99
520.251	134
520.467	116
520.682	93
520.898	113
521.113	125
521.329	130
521.544	227
521.76	587
521.975	2598
522.19	1551
522.406	336
522.621	140
522.836	103
523.052	97
523.267	102
523.482	105
523.698	105
523.913	118
524.128	128
524.343	109
524.559	105
524.774	95
524.989	93
525.204	113
525.419	110
525.634	104
525.849	83
526.064	93
526.28	101
526.495	91
526.71	89
526.925	90
527.14	102
527.355	76
527.57	83
527.785	86
527.999	77
528.214	91
528.429	93
528.644	104
528.859	96
529.074	96
529.289	134
529.503	189
529.718	111
529.933	100
530.148	98
530.363	97
530.577	97
530.792	92
531.007	92
531.221	93
531.436	94
531.651	97
531.865	94
532.08	102
532.295	97
532.509	104
532.724	87
532.938	94
533.153	97
533.367	89
533.582	105
533.796	91
534.011	87
534.225	101
534.44	93
534.654	77
534.868	83
535.083	89
535.297	99
535.511	110
535.726	115
535.94	94
536.154	105
536.369	93
536.583	90
536.797	99
537.011	89
537.225	97
537.44	106
537.654	94
537.868	100
538.082	94
538.296	105
538.51	98
538.724	81
538.938	95
539.153	109
539.367	116
539.581	97
539.795	94
540.009	99
540.222	100
540.436	88
540.65	92
540.864	94
541.078	102
541.292	101
541.506	112
541.72	104
541.934	89
542.147	105
542.361	85
542.575	91
542.789	93
543.002	102
543.216	96
543.43	99
543.644	98
543.857	86
544.071	73
544.285	97
544.498	97
544.712	81
544.925	93
545.139	95
545.352	106
545.566	95
545.779	85
545.993	90
546.206	99
546.42	93
546.633	86
546.847	93
547.06	89
547.274	86
547.487	85
547.7	80
547.914	75
548.127	94
548.34	83
548.554	93
548.767	97
548.98	99
549.193	91
549.407	89
549.62	103
549.833	85
550.046	90
550.259	96
550.473	109
550.686	101
550.899	91
551.112	98
551.325	91
551.538	93
551.751	90
551.964	94
552.177	90
552.39	99
552.603	96
552.816	92
553.029	91
553.242	90
553.455	97
553.667	122
553.88	109
554.093	93
554.306	100
554.519	107
554.732	92
554.944	92
555.157	93
555.37	93
555.583	105
555.795	102
556.008	98
556.221	103
556.433	90
556.646	100
556.859	98
557.071	102
557.284	102
557.496	93
557.709	103
557.921	85
558.134	94
558.346	91
558.559	102
558.771	72
558.984	86
559.196	90
559.409	106
559.621	101
559.833	84
560.046	89
560.258	106
560.47	129
560.683	99
560.895	93
561.107	94
561.32	86
561.532	94
561.744	86
561.956	93
562.168	97
562.381	103
562.593	94
562.805	96
563.017	100
563.229	88
563.441	99
563.653	100
563.865	88
564.077	93
564.289	92
564.501	75
564.713	84
564.925	88
565.137	103
565.349	90
565.561	101
565.773	87
565.985	99
566.197	82
566.408	96
566.62	88
566.832	89
567.044	91
567.255	92
567.467	88
567.679	83
567.891	117
568.102	89
568.314	93
568.526	96
568.737	93
568.949	88
569.161	76
569.372	87
569.584	91
569.795	104
570.007	114
570.218	231
570.43	135
570.641	95
570.853	100
571.064	93
571.276	91
571.487	92
571.698	100
571.91	76
572.121	94
572.333	99
572.544	89
572.755	93
572.966	96
573.178	96
573.389	98
573.6	98
573.811	99
574.023	89
574.234	88
574.445	89
574.656	91
574.867	99
575.078	106
575.289	86
575.501	106
575.712	84
575.923	86
576.134	80
576.345	85
576.556	93
576.767	90
576.978	95
577.188	93
577.399	96
577.61	94
577.821	86
578.032	122
578.243	245
578.454	700
578.665	204
578.875	104
579.086	79
579.297	95
579.508	100
579.718	95
579.929	89
580.14	88
580.35	97
