Data from Circ_2004_H10_HRD10591_00093.txt Node
Date: Wed Jan 03 10:33:32 EST 2024
User: Yrep
Spectrometer: HR+D1059
Trigger mode: 1
Integration Time (sec): 1.000000E-1
Scans to average: 1
Electric dark correction enabled: true
Nonlinearity correction enabled: false
Boxcar width: 0
XAxis mode: Wavelengths
Number of Pixels in Spectrum: 2048
>>>>>Begin Spectral Data<<<<<
223.165	-24.56
223.4	-24.56
223.635	-24.56
223.869	-21.56
224.104	-19.56
224.338	-11.56
224.573	-17.56
224.808	-18.56
225.042	-14.56
225.277	3.44
225.511	1.44
225.746	12.44
225.98	17.44
226.215	16.44
226.449	11.44
226.683	15.44
226.918	22.44
227.152	27.44
227.387	39.44
227.621	28.44
227.856	47.44
228.09	29.44
228.324	41.44
228.559	60.44
228.793	63.44
229.027	69.44
229.262	59.44
229.496	82.44
229.73	97.44
229.964	95.44
230.199	69.44
230.433	84.44
230.667	83.44
230.901	81.44
231.136	82.44
231.37	73.44
231.604	90.44
231.838	87.44
232.072	78.44
232.306	73.44
232.541	77.44
232.775	83.44
233.009	83.44
233.243	97.44
233.477	85.44
233.711	76.44
233.945	78.44
234.179	76.44
234.413	74.44
234.647	75.44
234.881	84.44
235.115	79.44
235.349	71.44
235.583	71.44
235.817	84.44
236.051	85.44
236.285	79.44
236.519	63.44
236.753	77.44
236.987	86.44
237.221	95.44
237.455	101.44
237.689	85.44
237.922	84.44
238.156	85.44
238.39	83.44
238.624	85.44
238.858	69.44
239.091	65.44
239.325	68.44
239.559	87.44
239.793	81.44
240.027	79.44
240.26	87.44
240.494	85.44
240.728	75.44
240.961	74.44
241.195	66.44
241.429	77.44
241.662	69.44
241.896	77.44
242.13	76.44
242.363	76.44
242.597	72.44
242.83	70.44
243.064	78.44
243.298	76.44
243.531	89.44
243.765	83.44
243.998	89.44
244.232	80.44
244.465	86.44
244.699	72.44
244.932	87.44
245.166	75.44
245.399	78.44
245.633	82.44
245.866	87.44
246.099	67.44
246.333	79.44
246.566	68.44
246.8	73.44
247.033	74.44
247.266	86.44
247.5	86.44
247.733	71.44
247.966	82.44
248.2	73.44
248.433	76.44
248.666	90.44
248.899	77.44
249.133	89.44
249.366	91.44
249.599	100.44
249.832	96.44
250.066	83.44
250.299	95.44
250.532	84.44
250.765	82.44
250.998	76.44
251.231	85.44
251.465	79.44
251.698	87.44
251.931	86.44
252.164	95.44
252.397	82.44
252.63	82.44
252.863	72.44
253.096	76.44
253.329	84.44
253.562	84.44
253.795	90.44
254.028	77.44
254.261	78.44
254.494	85.44
254.727	89.44
254.96	82.44
255.193	83.44
255.426	75.44
255.659	89.44
255.892	98.44
256.124	77.44
256.357	70.44
256.59	81.44
256.823	72.44
257.056	94.44
257.289	84.44
257.521	94.44
257.754	99.44
257.987	83.44
258.22	97.44
258.452	92.44
258.685	94.44
258.918	89.44
259.151	86.44
259.383	93.44
259.616	79.44
259.849	87.44
260.081	80.44
260.314	81.44
260.547	82.44
260.779	88.44
261.012	92.44
261.244	87.44
261.477	86.44
261.71	93.44
261.942	130.44
262.175	132.44
262.407	97.44
262.64	85.44
262.872	77.44
263.105	95.44
263.337	87.44
263.57	87.44
263.802	93.44
264.035	74.44
264.267	88.44
264.499	82.44
264.732	81.44
264.964	81.44
265.197	95.44
265.429	72.44
265.661	81.44
265.894	82.44
266.126	80.44
266.358	87.44
266.591	82.44
266.823	79.44
267.055	80.44
267.287	79.44
267.52	78.44
267.752	94.44
267.984	88.44
268.216	80.44
268.448	87.44
268.681	88.44
268.913	66.44
269.145	82.44
269.377	83.44
269.609	89.44
269.841	82.44
270.073	95.44
270.306	84.44
270.538	82.44
270.77	91.44
271.002	87.44
271.234	87.44
271.466	92.44
271.698	83.44
271.93	97.44
272.162	96.44
272.394	87.44
272.626	78.44
272.858	82.44
273.09	78.44
273.322	83.44
273.553	79.44
273.785	76.44
274.017	93.44
274.249	74.44
274.481	75.44
274.713	81.44
274.945	96.44
275.176	100.44
275.408	87.44
275.64	110.44
275.872	107.44
276.104	92.44
276.335	89.44
276.567	109.44
276.799	142.44
277.031	154.44
277.262	152.44
277.494	132.44
277.726	99.44
277.957	84.44
278.189	85.44
278.421	88.44
278.652	75.44
278.884	77.44
279.115	75.44
279.347	73.44
279.579	93.44
279.81	115.44
280.042	155.44
280.273	207.44
280.505	140.44
280.736	93.44
280.968	81.44
281.199	89.44
281.431	78.44
281.662	86.44
281.894	103.44
282.125	92.44
282.356	132.44
282.588	166.44
282.819	119.44
283.051	84.44
283.282	106.44
283.513	83.44
283.745	89.44
283.976	88.44
284.207	85.44
284.439	87.44
284.67	80.44
284.901	72.44
285.132	72.44
285.364	81.44
285.595	76.44
285.826	88.44
286.057	85.44
286.288	87.44
286.52	77.44
286.751	85.44
286.982	85.44
287.213	81.44
287.444	83.44
287.675	89.44
287.906	89.44
288.138	94.44
288.369	87.44
288.6	94.44
288.831	80.44
289.062	98.44
289.293	80.44
289.524	93.44
289.755	103.44
289.986	89.44
290.217	83.44
290.448	89.44
290.679	65.44
290.91	76.44
291.141	84.44
291.371	84.44
291.602	81.44
291.833	91.44
292.064	87.44
292.295	76.44
292.526	95.44
292.757	89.44
292.987	80.44
293.218	83.44
293.449	87.44
293.68	92.44
293.91	89.44
294.141	95.44
294.372	86.44
294.603	82.44
294.833	84.44
295.064	87.44
295.295	95.44
295.525	100.44
295.756	116.44
295.987	128.44
296.217	159.44
296.448	129.44
296.679	90.44
296.909	85.44
297.14	87.44
297.37	93.44
297.601	96.44
297.831	87.44
298.062	83.44
298.292	81.44
298.523	89.44
298.753	88.44
298.984	92.44
299.214	95.44
299.445	77.44
299.675	91.44
299.905	95.44
300.136	80.44
300.366	79.44
300.597	97.44
300.827	95.44
301.057	89.44
301.288	106.44
301.518	93.44
301.748	93.44
301.979	101.44
302.209	95.44
302.439	77.44
302.669	92.44
302.9	86.44
303.13	92.44
303.36	107.44
303.59	113.44
303.82	116.44
304.051	96.44
304.281	95.44
304.511	99.44
304.741	96.44
304.971	84.44
305.201	88.44
305.431	81.44
305.661	96.44
305.891	103.44
306.121	95.44
306.352	116.44
306.582	104.44
306.812	108.44
307.042	115.44
307.272	128.44
307.502	162.44
307.731	147.44
307.961	105.44
308.191	109.44
308.421	80.44
308.651	90.44
308.881	102.44
309.111	80.44
309.341	98.44
309.571	95.44
309.8	107.44
310.03	95.44
310.26	112.44
310.49	86.44
310.72	112.44
310.949	116.44
311.179	104.44
311.409	87.44
311.639	88.44
311.868	104.44
312.098	96.44
312.328	104.44
312.557	112.44
312.787	112.44
313.017	103.44
313.246	95.44
313.476	85.44
313.706	100.44
313.935	96.44
314.165	113.44
314.394	85.44
314.624	108.44
314.853	100.44
315.083	100.44
315.312	101.44
315.542	96.44
315.771	93.44
316.001	85.44
316.23	80.44
316.46	85.44
316.689	88.44
316.919	91.44
317.148	90.44
317.377	99.44
317.607	96.44
317.836	80.44
318.065	80.44
318.295	86.44
318.524	98.44
318.753	98.44
318.983	102.44
319.212	105.44
319.441	127.44
319.67	108.44
319.9	113.44
320.129	97.44
320.358	95.44
320.587	119.44
320.816	103.44
321.046	111.44
321.275	99.44
321.504	89.44
321.733	108.44
321.962	103.44
322.191	113.44
322.42	103.44
322.649	105.44
322.878	115.44
323.108	122.44
323.337	129.44
323.566	160.44
323.795	177.44
324.024	237.44
324.253	504.44
324.482	1045.44
324.71	2156.44
324.939	2863.44
325.168	1022.44
325.397	292.44
325.626	175.44
325.855	135.44
326.084	141.44
326.313	144.44
326.542	178.44
326.77	268.44
326.999	559.44
327.228	1121.44
327.457	2104.44
327.686	1693.44
327.914	535.44
328.143	403.44
328.372	499.44
328.6	289.44
328.829	160.44
329.058	156.44
329.287	185.44
329.515	157.44
329.744	207.44
329.972	346.44
330.201	687.44
330.43	1040.44
330.658	481.44
330.887	241.44
331.115	157.44
331.344	113.44
331.572	130.44
331.801	112.44
332.03	116.44
332.258	121.44
332.486	109.44
332.715	97.44
332.943	120.44
333.172	114.44
333.4	117.44
333.629	144.44
333.857	200.44
334.085	327.44
334.314	631.44
334.542	1207.44
334.771	1199.44
334.999	340.44
335.227	151.44
335.455	127.44
335.684	127.44
335.912	101.44
336.14	111.44
336.369	111.44
336.597	105.44
336.825	110.44
337.053	104.44
337.281	79.44
337.51	95.44
337.738	95.44
337.966	93.44
338.194	93.44
338.422	107.44
338.65	81.44
338.878	97.44
339.106	81.44
339.334	92.44
339.562	92.44
339.79	101.44
340.018	77.44
340.246	81.44
340.474	95.44
340.702	86.44
340.93	89.44
341.158	109.44
341.386	99.44
341.614	102.44
341.842	100.44
342.07	91.44
342.298	89.44
342.526	99.44
342.754	84.44
342.981	82.44
343.209	78.44
343.437	100.44
343.665	82.44
343.893	85.44
344.12	95.44
344.348	85.44
344.576	80.44
344.804	88.44
345.031	109.44
345.259	106.44
345.487	87.44
345.714	87.44
345.942	84.44
346.17	91.44
346.397	88.44
346.625	112.44
346.853	100.44
347.08	89.44
347.308	97.44
347.535	106.44
347.763	112.44
347.99	104.44
348.218	99.44
348.445	96.44
348.673	113.44
348.9	88.44
349.128	99.44
349.355	93.44
349.583	90.44
349.81	86.44
350.037	93.44
350.265	80.44
350.492	94.44
350.72	97.44
350.947	95.44
351.174	100.44
351.402	106.44
351.629	106.44
351.856	118.44
352.083	107.44
352.311	118.44
352.538	108.44
352.765	112.44
352.992	119.44
353.22	112.44
353.447	113.44
353.674	106.44
353.901	90.44
354.128	94.44
354.355	95.44
354.583	104.44
354.81	88.44
355.037	102.44
355.264	87.44
355.491	84.44
355.718	87.44
355.945	100.44
356.172	94.44
356.399	101.44
356.626	88.44
356.853	87.44
357.08	82.44
357.307	87.44
357.534	99.44
357.761	93.44
357.988	87.44
358.215	83.44
358.441	72.44
358.668	80.44
358.895	89.44
359.122	86.44
359.349	82.44
359.576	102.44
359.802	113.44
360.029	124.44
360.256	130.44
360.483	96.44
360.709	81.44
360.936	88.44
361.163	95.44
361.39	111.44
361.616	95.44
361.843	102.44
362.07	77.44
362.296	91.44
362.523	99.44
362.749	93.44
362.976	94.44
363.203	75.44
363.429	87.44
363.656	79.44
363.882	98.44
364.109	97.44
364.335	87.44
364.562	97.44
364.788	80.44
365.015	98.44
365.241	87.44
365.468	97.44
365.694	110.44
365.92	100.44
366.147	93.44
366.373	90.44
366.599	89.44
366.826	93.44
367.052	96.44
367.278	77.44
367.505	87.44
367.731	104.44
367.957	88.44
368.184	107.44
368.41	103.44
368.636	107.44
368.862	118.44
369.089	108.44
369.315	98.44
369.541	101.44
369.767	108.44
369.993	83.44
370.219	87.44
370.445	89.44
370.672	83.44
370.898	104.44
371.124	108.44
371.35	105.44
371.576	84.44
371.802	91.44
372.028	78.44
372.254	77.44
372.48	81.44
372.706	83.44
372.932	71.44
373.158	90.44
373.384	85.44
373.61	76.44
373.835	103.44
374.061	88.44
374.287	84.44
374.513	96.44
374.739	72.44
374.965	87.44
375.191	89.44
375.416	86.44
375.642	104.44
375.868	98.44
376.094	94.44
376.319	100.44
376.545	87.44
376.771	74.44
376.997	102.44
377.222	89.44
377.448	102.44
377.674	96.44
377.899	89.44
378.125	77.44
378.35	86.44
378.576	80.44
378.802	78.44
379.027	104.44
379.253	104.44
379.478	97.44
379.704	87.44
379.929	100.44
380.155	88.44
380.38	91.44
380.606	101.44
380.831	100.44
381.057	109.44
381.282	97.44
381.507	85.44
381.733	83.44
381.958	89.44
382.184	85.44
382.409	112.44
382.634	99.44
382.86	99.44
383.085	105.44
383.31	90.44
383.535	98.44
383.761	107.44
383.986	95.44
384.211	97.44
384.436	93.44
384.662	96.44
384.887	96.44
385.112	93.44
385.337	86.44
385.562	95.44
385.787	89.44
386.013	96.44
386.238	97.44
386.463	92.44
386.688	91.44
386.913	100.44
387.138	88.44
387.363	104.44
387.588	88.44
387.813	100.44
388.038	87.44
388.263	101.44
388.488	97.44
388.713	78.44
388.938	93.44
389.163	80.44
389.387	104.44
389.612	92.44
389.837	85.44
390.062	94.44
390.287	92.44
390.512	90.44
390.736	88.44
390.961	81.44
391.186	98.44
391.411	95.44
391.636	93.44
391.86	91.44
392.085	97.44
392.31	92.44
392.534	86.44
392.759	87.44
392.984	92.44
393.208	91.44
393.433	88.44
393.658	87.44
393.882	93.44
394.107	85.44
394.331	84.44
394.556	75.44
394.78	83.44
395.005	79.44
395.229	83.44
395.454	78.44
395.678	86.44
395.903	85.44
396.127	94.44
396.352	92.44
396.576	86.44
396.801	82.44
397.025	93.44
397.249	83.44
397.474	89.44
397.698	86.44
397.922	86.44
398.147	75.44
398.371	89.44
398.595	90.44
398.82	91.44
399.044	82.44
399.268	78.44
399.492	73.44
399.717	89.44
399.941	93.44
400.165	104.44
400.389	95.44
400.613	101.44
400.837	85.44
401.062	80.44
401.286	95.44
401.51	85.44
401.734	84.44
401.958	110.44
402.182	149.44
402.406	197.44
402.63	138.44
402.854	96.44
403.078	95.44
403.302	84.44
403.526	79.44
403.75	83.44
403.974	89.44
404.198	85.44
404.422	91.44
404.645	103.44
404.869	86.44
405.093	112.44
405.317	117.44
405.541	133.44
405.765	110.44
405.988	148.44
406.212	210.44
406.436	301.44
406.66	187.44
406.883	125.44
407.107	123.44
407.331	100.44
407.555	104.44
407.778	102.44
408.002	106.44
408.226	81.44
408.449	82.44
408.673	107.44
408.896	84.44
409.12	80.44
409.344	91.44
409.567	83.44
409.791	87.44
410.014	93.44
410.238	86.44
410.461	94.44
410.685	97.44
410.908	98.44
411.132	98.44
411.355	93.44
411.578	98.44
411.802	91.44
412.025	91.44
412.249	96.44
412.472	103.44
412.695	126.44
412.919	111.44
413.142	81.44
413.365	79.44
413.589	88.44
413.812	96.44
414.035	80.44
414.258	84.44
414.482	100.44
414.705	98.44
414.928	94.44
415.151	77.44
415.374	102.44
415.597	87.44
415.821	100.44
416.044	84.44
416.267	97.44
416.49	85.44
416.713	100.44
416.936	80.44
417.159	95.44
417.382	93.44
417.605	111.44
417.828	107.44
418.051	85.44
418.274	94.44
418.497	78.44
418.72	80.44
418.943	91.44
419.166	95.44
419.389	101.44
419.611	97.44
419.834	95.44
420.057	88.44
420.28	100.44
420.503	94.44
420.726	101.44
420.948	85.44
421.171	95.44
421.394	73.44
421.617	82.44
421.839	102.44
422.062	96.44
422.285	94.44
422.507	92.44
422.73	103.44
422.953	102.44
423.175	101.44
423.398	95.44
423.621	87.44
423.843	97.44
424.066	87.44
424.288	107.44
424.511	107.44
424.733	92.44
424.956	98.44
425.178	89.44
425.401	105.44
425.623	96.44
425.846	94.44
426.068	93.44
426.291	88.44
426.513	118.44
426.735	80.44
426.958	104.44
427.18	117.44
427.402	181.44
427.625	228.44
427.847	213.44
428.069	192.44
428.292	120.44
428.514	86.44
428.736	97.44
428.958	89.44
429.181	80.44
429.403	88.44
429.625	86.44
429.847	85.44
430.069	99.44
430.292	91.44
430.514	85.44
430.736	81.44
430.958	79.44
431.18	81.44
431.402	82.44
431.624	91.44
431.846	83.44
432.068	92.44
432.29	99.44
432.512	83.44
432.734	76.44
432.956	94.44
433.178	97.44
433.4	101.44
433.622	88.44
433.844	69.44
434.066	88.44
434.287	90.44
434.509	93.44
434.731	85.44
434.953	95.44
435.175	87.44
435.397	103.44
435.618	92.44
435.84	119.44
436.062	110.44
436.284	134.44
436.505	108.44
436.727	113.44
436.949	100.44
437.17	84.44
437.392	89.44
437.614	88.44
437.835	109.44
438.057	150.44
438.278	128.44
438.5	115.44
438.721	139.44
438.943	110.44
439.165	90.44
439.386	91.44
439.608	84.44
439.829	104.44
440.05	150.44
440.272	191.44
440.493	119.44
440.715	93.44
440.936	91.44
441.158	86.44
441.379	100.44
441.6	93.44
441.822	87.44
442.043	104.44
442.264	111.44
442.486	97.44
442.707	107.44
442.928	108.44
443.149	160.44
443.371	139.44
443.592	123.44
443.813	128.44
444.034	108.44
444.255	99.44
444.476	97.44
444.698	87.44
444.919	88.44
445.14	126.44
445.361	127.44
445.582	140.44
445.803	189.44
446.024	151.44
446.245	150.44
446.466	103.44
446.687	110.44
446.908	95.44
447.129	89.44
447.35	95.44
447.571	95.44
447.792	101.44
448.013	107.44
448.234	129.44
448.455	103.44
448.675	119.44
448.896	123.44
449.117	103.44
449.338	119.44
449.559	134.44
449.779	143.44
450	100.44
450.221	90.44
450.442	80.44
450.662	91.44
450.883	120.44
451.104	142.44
451.324	100.44
451.545	71.44
451.766	71.44
451.986	93.44
452.207	100.44
452.428	97.44
452.648	91.44
452.869	118.44
453.089	124.44
453.31	133.44
453.53	98.44
453.751	107.44
453.971	126.44
454.192	135.44
454.412	125.44
454.633	98.44
454.853	65.44
455.073	69.44
455.294	96.44
455.514	98.44
455.734	95.44
455.955	88.44
456.175	89.44
456.395	86.44
456.616	88.44
456.836	92.44
457.056	86.44
457.276	85.44
457.497	89.44
457.717	81.44
457.937	86.44
458.157	84.44
458.377	109.44
458.598	124.44
458.818	184.44
459.038	209.44
459.258	138.44
459.478	105.44
459.698	88.44
459.918	91.44
460.138	83.44
460.358	79.44
460.578	76.44
460.798	99.44
461.018	99.44
461.238	93.44
461.458	77.44
461.678	97.44
461.898	90.44
462.118	80.44
462.338	85.44
462.558	83.44
462.777	93.44
462.997	102.44
463.217	117.44
463.437	91.44
463.657	81.44
463.876	87.44
464.096	81.44
464.316	102.44
464.536	86.44
464.755	74.44
464.975	127.44
465.195	203.44
465.414	220.44
465.634	105.44
465.854	100.44
466.073	91.44
466.293	92.44
466.512	88.44
466.732	101.44
466.951	101.44
467.171	94.44
467.391	96.44
467.61	125.44
467.829	197.44
468.049	413.44
468.268	613.44
468.488	182.44
468.707	87.44
468.927	86.44
469.146	103.44
469.365	93.44
469.585	85.44
469.804	103.44
470.023	104.44
470.243	103.44
470.462	103.44
470.681	122.44
470.901	97.44
471.12	94.44
471.339	73.44
471.558	100.44
471.777	135.44
471.997	230.44
472.216	784.44
472.435	1701.44
472.654	428.44
472.873	149.44
473.092	126.44
473.311	103.44
473.53	93.44
473.749	90.44
473.968	106.44
474.187	104.44
474.406	98.44
474.625	90.44
474.844	80.44
475.063	96.44
475.282	80.44
475.501	87.44
475.72	95.44
475.939	84.44
476.158	91.44
476.377	84.44
476.596	75.44
476.814	93.44
477.033	93.44
477.252	89.44
477.471	84.44
477.69	87.44
477.908	94.44
478.127	87.44
478.346	96.44
478.564	103.44
478.783	110.44
479.002	114.44
479.22	107.44
479.439	108.44
479.658	123.44
479.876	108.44
480.095	108.44
480.313	124.44
480.532	151.44
480.751	239.44
480.969	722.44
481.188	2913.44
481.406	1765.44
481.624	277.44
481.843	108.44
482.061	100.44
482.28	96.44
482.498	93.44
482.717	89.44
482.935	80.44
483.153	96.44
483.372	80.44
483.59	86.44
483.808	91.44
484.027	101.44
484.245	103.44
484.463	105.44
484.681	96.44
484.9	87.44
485.118	97.44
485.336	98.44
485.554	96.44
485.772	116.44
485.99	126.44
486.209	103.44
486.427	110.44
486.645	111.44
486.863	121.44
487.081	96.44
487.299	103.44
487.517	72.44
487.735	93.44
487.953	93.44
488.171	90.44
488.389	90.44
488.607	104.44
488.825	84.44
489.043	85.44
489.261	80.44
489.479	100.44
489.696	106.44
489.914	90.44
490.132	102.44
490.35	98.44
490.568	93.44
490.786	96.44
491.003	92.44
491.221	100.44
491.439	93.44
491.657	88.44
491.874	89.44
492.092	102.44
492.31	89.44
492.527	97.44
492.745	87.44
492.963	86.44
493.18	97.44
493.398	98.44
493.615	110.44
493.833	104.44
494.05	97.44
494.268	87.44
494.485	95.44
494.703	91.44
494.92	87.44
495.138	92.44
495.355	91.44
495.573	85.44
495.79	101.44
496.008	104.44
496.225	91.44
496.442	90.44
496.66	85.44
496.877	85.44
497.094	84.44
497.312	87.44
497.529	87.44
497.746	95.44
497.963	81.44
498.181	83.44
498.398	112.44
498.615	116.44
498.832	108.44
499.049	79.44
499.267	91.44
499.484	83.44
499.701	96.44
499.918	104.44
500.135	87.44
500.352	89.44
500.569	97.44
500.786	82.44
501.003	86.44
501.22	76.44
501.437	90.44
501.654	99.44
501.871	129.44
502.088	97.44
502.305	88.44
502.522	97.44
502.739	85.44
502.956	104.44
503.172	89.44
503.389	105.44
503.606	118.44
503.823	98.44
504.04	111.44
504.256	88.44
504.473	94.44
504.69	102.44
504.907	100.44
505.123	96.44
505.34	101.44
505.557	106.44
505.773	88.44
505.99	95.44
506.207	86.44
506.423	98.44
506.64	101.44
506.856	84.44
507.073	99.44
507.289	87.44
507.506	91.44
507.722	120.44
507.939	121.44
508.155	105.44
508.372	100.44
508.588	95.44
508.805	79.44
509.021	95.44
509.238	97.44
509.454	93.44
509.67	111.44
509.887	125.44
510.103	119.44
510.319	229.44
510.536	875.44
510.752	2851.44
510.968	790.44
511.184	174.44
511.401	121.44
511.617	109.44
511.833	105.44
512.049	96.44
512.265	89.44
512.481	100.44
512.698	102.44
512.914	88.44
513.13	103.44
513.346	110.44
513.562	99.44
513.778	95.44
513.994	106.44
