Data from Uncirc_2003_H10_HRD10591_00081.txt Node
Date: Wed Jan 03 10:36:04 EST 2024
User: Yrep
Spectrometer: HR+D1059
Trigger mode: 1
Integration Time (sec): 1.000000E-1
Scans to average: 1
Electric dark correction enabled: true
Nonlinearity correction enabled: false
Boxcar width: 0
XAxis mode: Wavelengths
Number of Pixels in Spectrum: 2048
>>>>>Begin Spectral Data<<<<<
223.165	-25.12
223.4	-25.12
223.635	-25.12
223.869	-11.12
224.104	-17.12
224.338	-3.12
224.573	-15.12
224.808	-18.12
225.042	-8.12
225.277	-21.12
225.511	9.88
225.746	-6.12
225.98	-1.12
226.215	20.88
226.449	5.88
226.683	24.88
226.918	26.88
227.152	37.88
227.387	34.88
227.621	27.88
227.856	39.88
228.09	41.88
228.324	52.88
228.559	51.88
228.793	67.88
229.027	63.88
229.262	70.88
229.496	79.88
229.73	83.88
229.964	81.88
230.199	73.88
230.433	70.88
230.667	87.88
230.901	77.88
231.136	73.88
231.37	80.88
231.604	76.88
231.838	79.88
232.072	69.88
232.306	64.88
232.541	72.88
232.775	74.88
233.009	85.88
233.243	79.88
233.477	85.88
233.711	78.88
233.945	65.88
234.179	91.88
234.413	70.88
234.647	66.88
234.881	83.88
235.115	82.88
235.349	72.88
235.583	81.88
235.817	85.88
236.051	85.88
236.285	85.88
236.519	64.88
236.753	71.88
236.987	72.88
237.221	81.88
237.455	92.88
237.689	72.88
237.922	68.88
238.156	73.88
238.39	82.88
238.624	83.88
238.858	89.88
239.091	77.88
239.325	68.88
239.559	64.88
239.793	74.88
240.027	78.88
240.26	80.88
240.494	76.88
240.728	73.88
240.961	75.88
241.195	86.88
241.429	94.88
241.662	77.88
241.896	88.88
242.13	80.88
242.363	69.88
242.597	76.88
242.83	85.88
243.064	91.88
243.298	80.88
243.531	66.88
243.765	82.88
243.998	68.88
244.232	74.88
244.465	72.88
244.699	74.88
244.932	82.88
245.166	87.88
245.399	83.88
245.633	89.88
245.866	74.88
246.099	88.88
246.333	69.88
246.566	78.88
246.8	79.88
247.033	85.88
247.266	82.88
247.5	87.88
247.733	82.88
247.966	74.88
248.2	84.88
248.433	77.88
248.666	79.88
248.899	77.88
249.133	82.88
249.366	89.88
249.599	97.88
249.832	87.88
250.066	82.88
250.299	83.88
250.532	71.88
250.765	90.88
250.998	70.88
251.231	93.88
251.465	88.88
251.698	77.88
251.931	84.88
252.164	90.88
252.397	60.88
252.63	87.88
252.863	74.88
253.096	67.88
253.329	64.88
253.562	79.88
253.795	77.88
254.028	79.88
254.261	79.88
254.494	74.88
254.727	73.88
254.96	81.88
255.193	85.88
255.426	74.88
255.659	94.88
255.892	101.88
256.124	85.88
256.357	73.88
256.59	69.88
256.823	72.88
257.056	88.88
257.289	76.88
257.521	81.88
257.754	80.88
257.987	91.88
258.22	90.88
258.452	98.88
258.685	92.88
258.918	85.88
259.151	70.88
259.383	82.88
259.616	72.88
259.849	86.88
260.081	89.88
260.314	89.88
260.547	96.88
260.779	72.88
261.012	80.88
261.244	90.88
261.477	102.88
261.71	95.88
261.942	104.88
262.175	116.88
262.407	84.88
262.64	84.88
262.872	92.88
263.105	83.88
263.337	72.88
263.57	81.88
263.802	80.88
264.035	90.88
264.267	92.88
264.499	89.88
264.732	85.88
264.964	98.88
265.197	89.88
265.429	84.88
265.661	87.88
265.894	79.88
266.126	79.88
266.358	88.88
266.591	59.88
266.823	82.88
267.055	81.88
267.287	85.88
267.52	84.88
267.752	80.88
267.984	76.88
268.216	86.88
268.448	83.88
268.681	78.88
268.913	81.88
269.145	84.88
269.377	71.88
269.609	84.88
269.841	71.88
270.073	83.88
270.306	62.88
270.538	89.88
270.77	81.88
271.002	80.88
271.234	85.88
271.466	78.88
271.698	77.88
271.93	73.88
272.162	72.88
272.394	77.88
272.626	82.88
272.858	85.88
273.09	97.88
273.322	71.88
273.553	87.88
273.785	82.88
274.017	86.88
274.249	84.88
274.481	87.88
274.713	84.88
274.945	84.88
275.176	67.88
275.408	89.88
275.64	80.88
275.872	92.88
276.104	95.88
276.335	86.88
276.567	96.88
276.799	116.88
277.031	90.88
277.262	90.88
277.494	92.88
277.726	89.88
277.957	86.88
278.189	80.88
278.421	92.88
278.652	84.88
278.884	84.88
279.115	84.88
279.347	72.88
279.579	92.88
279.81	81.88
280.042	80.88
280.273	81.88
280.505	83.88
280.736	83.88
280.968	92.88
281.199	90.88
281.431	81.88
281.662	92.88
281.894	105.88
282.125	93.88
282.356	112.88
282.588	142.88
282.819	120.88
283.051	102.88
283.282	87.88
283.513	83.88
283.745	84.88
283.976	89.88
284.207	77.88
284.439	81.88
284.67	79.88
284.901	72.88
285.132	83.88
285.364	87.88
285.595	81.88
285.826	86.88
286.057	80.88
286.288	81.88
286.52	81.88
286.751	86.88
286.982	79.88
287.213	78.88
287.444	84.88
287.675	85.88
287.906	93.88
288.138	104.88
288.369	90.88
288.6	92.88
288.831	80.88
289.062	92.88
289.293	82.88
289.524	87.88
289.755	95.88
289.986	76.88
290.217	93.88
290.448	87.88
290.679	83.88
290.91	83.88
291.141	79.88
291.371	101.88
291.602	77.88
291.833	80.88
292.064	100.88
292.295	97.88
292.526	96.88
292.757	89.88
292.987	86.88
293.218	72.88
293.449	87.88
293.68	87.88
293.91	87.88
294.141	80.88
294.372	81.88
294.603	90.88
294.833	87.88
295.064	87.88
295.295	94.88
295.525	90.88
295.756	102.88
295.987	108.88
296.217	137.88
296.448	106.88
296.679	84.88
296.909	94.88
297.14	87.88
297.37	103.88
297.601	85.88
297.831	80.88
298.062	81.88
298.292	98.88
298.523	85.88
298.753	79.88
298.984	85.88
299.214	92.88
299.445	103.88
299.675	98.88
299.905	87.88
300.136	97.88
300.366	86.88
300.597	80.88
300.827	100.88
301.057	92.88
301.288	102.88
301.518	94.88
301.748	85.88
301.979	93.88
302.209	98.88
302.439	78.88
302.669	83.88
302.9	82.88
303.13	89.88
303.36	92.88
303.59	88.88
303.82	110.88
304.051	84.88
304.281	98.88
304.511	81.88
304.741	87.88
304.971	90.88
305.201	78.88
305.431	83.88
305.661	86.88
305.891	96.88
306.121	105.88
306.352	92.88
306.582	109.88
306.812	90.88
307.042	90.88
307.272	82.88
307.502	80.88
307.731	91.88
307.961	97.88
308.191	87.88
308.421	86.88
308.651	90.88
308.881	82.88
309.111	89.88
309.341	94.88
309.571	98.88
309.8	95.88
310.03	98.88
310.26	87.88
310.49	94.88
310.72	87.88
310.949	92.88
311.179	87.88
311.409	96.88
311.639	106.88
311.868	93.88
312.098	98.88
312.328	87.88
312.557	99.88
312.787	94.88
313.017	100.88
313.246	97.88
313.476	91.88
313.706	80.88
313.935	104.88
314.165	102.88
314.394	102.88
314.624	84.88
314.853	95.88
315.083	96.88
315.312	92.88
315.542	92.88
315.771	85.88
316.001	84.88
316.23	90.88
316.46	69.88
316.689	90.88
316.919	90.88
317.148	95.88
317.377	102.88
317.607	86.88
317.836	105.88
318.065	101.88
318.295	91.88
318.524	90.88
318.753	86.88
318.983	103.88
319.212	90.88
319.441	102.88
319.67	118.88
319.9	101.88
320.129	93.88
320.358	95.88
320.587	100.88
320.816	86.88
321.046	103.88
321.275	96.88
321.504	92.88
321.733	83.88
321.962	90.88
322.191	99.88
322.42	91.88
322.649	106.88
322.878	111.88
323.108	110.88
323.337	124.88
323.566	134.88
323.795	130.88
324.024	205.88
324.253	421.88
324.482	932.88
324.71	1893.88
324.939	2496.88
325.168	879.88
325.397	245.88
325.626	167.88
325.855	122.88
326.084	137.88
326.313	125.88
326.542	158.88
326.77	243.88
326.999	513.88
327.228	1040.88
327.457	1889.88
327.686	1514.88
327.914	392.88
328.143	210.88
328.372	145.88
328.6	105.88
328.829	122.88
329.058	127.88
329.287	126.88
329.515	111.88
329.744	103.88
329.972	96.88
330.201	107.88
330.43	100.88
330.658	111.88
330.887	125.88
331.115	120.88
331.344	93.88
331.572	97.88
331.801	110.88
332.03	105.88
332.258	88.88
332.486	94.88
332.715	94.88
332.943	96.88
333.172	92.88
333.4	96.88
333.629	100.88
333.857	94.88
334.085	91.88
334.314	103.88
334.542	103.88
334.771	99.88
334.999	96.88
335.227	92.88
335.455	96.88
335.684	99.88
335.912	94.88
336.14	96.88
336.369	77.88
336.597	97.88
336.825	101.88
337.053	114.88
337.281	97.88
337.51	90.88
337.738	105.88
337.966	84.88
338.194	110.88
338.422	94.88
338.65	86.88
338.878	95.88
339.106	80.88
339.334	95.88
339.562	93.88
339.79	84.88
340.018	90.88
340.246	108.88
340.474	92.88
340.702	97.88
340.93	80.88
341.158	93.88
341.386	73.88
341.614	94.88
341.842	86.88
342.07	84.88
342.298	93.88
342.526	105.88
342.754	88.88
342.981	74.88
343.209	87.88
343.437	98.88
343.665	100.88
343.893	79.88
344.12	92.88
344.348	87.88
344.576	81.88
344.804	80.88
345.031	86.88
345.259	91.88
345.487	94.88
345.714	84.88
345.942	96.88
346.17	88.88
346.397	92.88
346.625	98.88
346.853	89.88
347.08	102.88
347.308	109.88
347.535	86.88
347.763	104.88
347.99	91.88
348.218	105.88
348.445	103.88
348.673	93.88
348.9	89.88
349.128	96.88
349.355	108.88
349.583	97.88
349.81	86.88
350.037	88.88
350.265	89.88
350.492	99.88
350.72	99.88
350.947	116.88
351.174	103.88
351.402	111.88
351.629	97.88
351.856	100.88
352.083	83.88
352.311	91.88
352.538	107.88
352.765	116.88
352.992	108.88
353.22	104.88
353.447	100.88
353.674	100.88
353.901	97.88
354.128	114.88
354.355	96.88
354.583	96.88
354.81	81.88
355.037	97.88
355.264	79.88
355.491	93.88
355.718	101.88
355.945	92.88
356.172	97.88
356.399	87.88
356.626	109.88
356.853	85.88
357.08	106.88
357.307	97.88
357.534	91.88
357.761	96.88
357.988	99.88
358.215	88.88
358.441	85.88
358.668	91.88
358.895	90.88
359.122	96.88
359.349	78.88
359.576	88.88
359.802	105.88
360.029	117.88
360.256	117.88
360.483	95.88
360.709	82.88
360.936	108.88
361.163	90.88
361.39	92.88
361.616	98.88
361.843	88.88
362.07	89.88
362.296	113.88
362.523	81.88
362.749	86.88
362.976	87.88
363.203	87.88
363.429	90.88
363.656	78.88
363.882	90.88
364.109	78.88
364.335	82.88
364.562	91.88
364.788	87.88
365.015	99.88
365.241	110.88
365.468	104.88
365.694	103.88
365.92	90.88
366.147	86.88
366.373	101.88
366.599	73.88
366.826	89.88
367.052	87.88
367.278	101.88
367.505	92.88
367.731	89.88
367.957	88.88
368.184	88.88
368.41	95.88
368.636	102.88
368.862	131.88
369.089	97.88
369.315	89.88
369.541	104.88
369.767	91.88
369.993	84.88
370.219	88.88
370.445	91.88
370.672	84.88
370.898	87.88
371.124	110.88
371.35	81.88
371.576	107.88
371.802	81.88
372.028	102.88
372.254	82.88
372.48	87.88
372.706	91.88
372.932	86.88
373.158	97.88
373.384	86.88
373.61	96.88
373.835	100.88
374.061	99.88
374.287	101.88
374.513	92.88
374.739	72.88
374.965	98.88
375.191	93.88
375.416	76.88
375.642	98.88
375.868	91.88
376.094	93.88
376.319	72.88
376.545	87.88
376.771	88.88
376.997	90.88
377.222	78.88
377.448	80.88
377.674	97.88
377.899	85.88
378.125	89.88
378.35	98.88
378.576	88.88
378.802	80.88
379.027	82.88
379.253	90.88
379.478	97.88
379.704	90.88
379.929	92.88
380.155	93.88
380.38	89.88
380.606	113.88
380.831	104.88
381.057	97.88
381.282	90.88
381.507	82.88
381.733	104.88
381.958	96.88
382.184	100.88
382.409	82.88
382.634	92.88
382.86	100.88
383.085	95.88
383.31	90.88
383.535	95.88
383.761	112.88
383.986	100.88
384.211	97.88
384.436	103.88
384.662	107.88
384.887	103.88
385.112	95.88
385.337	90.88
385.562	89.88
385.787	108.88
386.013	107.88
386.238	117.88
386.463	115.88
386.688	113.88
386.913	108.88
387.138	99.88
387.363	105.88
387.588	109.88
387.813	114.88
388.038	105.88
388.263	118.88
388.488	126.88
388.713	99.88
388.938	101.88
389.163	93.88
389.387	93.88
389.612	86.88
389.837	99.88
390.062	94.88
390.287	87.88
390.512	81.88
390.736	114.88
390.961	102.88
391.186	90.88
391.411	89.88
391.636	93.88
391.86	92.88
392.085	93.88
392.31	101.88
392.534	100.88
392.759	98.88
392.984	106.88
393.208	86.88
393.433	92.88
393.658	105.88
393.882	82.88
394.107	101.88
394.331	102.88
394.556	93.88
394.78	94.88
395.005	84.88
395.229	72.88
395.454	90.88
395.678	76.88
395.903	92.88
396.127	80.88
396.352	89.88
396.576	92.88
396.801	89.88
397.025	94.88
397.249	88.88
397.474	90.88
397.698	90.88
397.922	87.88
398.147	71.88
398.371	83.88
398.595	89.88
398.82	83.88
399.044	85.88
399.268	74.88
399.492	96.88
399.717	84.88
399.941	89.88
400.165	100.88
400.389	105.88
400.613	81.88
400.837	96.88
401.062	88.88
401.286	86.88
401.51	105.88
401.734	104.88
401.958	97.88
402.182	117.88
402.406	150.88
402.63	124.88
402.854	93.88
403.078	75.88
403.302	86.88
403.526	83.88
403.75	87.88
403.974	83.88
404.198	90.88
404.422	96.88
404.645	98.88
404.869	84.88
405.093	91.88
405.317	89.88
405.541	103.88
405.765	94.88
405.988	110.88
406.212	175.88
406.436	233.88
406.66	151.88
406.883	106.88
407.107	84.88
407.331	97.88
407.555	90.88
407.778	99.88
408.002	102.88
408.226	94.88
408.449	74.88
408.673	90.88
408.896	95.88
409.12	77.88
409.344	85.88
409.567	87.88
409.791	85.88
410.014	100.88
410.238	100.88
410.461	87.88
410.685	97.88
410.908	103.88
411.132	121.88
411.355	107.88
411.578	100.88
411.802	82.88
412.025	76.88
412.249	92.88
412.472	80.88
412.695	87.88
412.919	97.88
413.142	94.88
413.365	90.88
413.589	95.88
413.812	101.88
414.035	98.88
414.258	93.88
414.482	83.88
414.705	88.88
414.928	90.88
415.151	87.88
415.374	109.88
415.597	94.88
415.821	94.88
416.044	85.88
416.267	95.88
416.49	99.88
416.713	100.88
416.936	73.88
417.159	84.88
417.382	92.88
417.605	102.88
417.828	93.88
418.051	93.88
418.274	89.88
418.497	84.88
418.72	84.88
418.943	91.88
419.166	96.88
419.389	96.88
419.611	95.88
419.834	98.88
420.057	84.88
420.28	84.88
420.503	84.88
420.726	99.88
420.948	85.88
421.171	96.88
421.394	100.88
421.617	90.88
421.839	90.88
422.062	93.88
422.285	96.88
422.507	100.88
422.73	89.88
422.953	96.88
423.175	88.88
423.398	82.88
423.621	95.88
423.843	87.88
424.066	89.88
424.288	93.88
424.511	96.88
424.733	109.88
424.956	103.88
425.178	88.88
425.401	105.88
425.623	103.88
425.846	83.88
426.068	92.88
426.291	90.88
426.513	82.88
426.735	92.88
426.958	94.88
427.18	111.88
427.402	150.88
427.625	166.88
427.847	133.88
428.069	94.88
428.292	92.88
428.514	100.88
428.736	101.88
428.958	90.88
429.181	87.88
429.403	89.88
429.625	88.88
429.847	99.88
430.069	106.88
430.292	96.88
430.514	92.88
430.736	84.88
430.958	82.88
431.18	97.88
431.402	101.88
431.624	86.88
431.846	86.88
432.068	80.88
432.29	75.88
432.512	86.88
432.734	79.88
432.956	82.88
433.178	93.88
433.4	100.88
433.622	84.88
433.844	94.88
434.066	94.88
434.287	91.88
434.509	79.88
434.731	85.88
434.953	94.88
435.175	81.88
435.397	80.88
435.618	87.88
435.84	103.88
436.062	118.88
436.284	120.88
436.505	104.88
436.727	103.88
436.949	102.88
437.17	97.88
437.392	86.88
437.614	94.88
437.835	98.88
438.057	97.88
438.278	104.88
438.5	96.88
438.721	112.88
438.943	91.88
439.165	93.88
439.386	93.88
439.608	81.88
439.829	103.88
440.05	115.88
440.272	135.88
440.493	108.88
440.715	89.88
440.936	82.88
441.158	96.88
441.379	86.88
441.6	87.88
441.822	93.88
442.043	91.88
442.264	101.88
442.486	108.88
442.707	94.88
442.928	101.88
443.149	130.88
443.371	134.88
443.592	115.88
443.813	115.88
444.034	111.88
444.255	88.88
444.476	97.88
444.698	94.88
444.919	101.88
445.14	126.88
445.361	126.88
445.582	117.88
445.803	146.88
446.024	127.88
446.245	145.88
446.466	115.88
446.687	104.88
446.908	81.88
447.129	90.88
447.35	80.88
447.571	100.88
447.792	93.88
448.013	101.88
448.234	118.88
448.455	98.88
448.675	118.88
448.896	135.88
449.117	90.88
449.338	109.88
449.559	126.88
449.779	115.88
450	101.88
450.221	85.88
450.442	78.88
450.662	101.88
450.883	100.88
451.104	117.88
451.324	95.88
451.545	107.88
451.766	73.88
451.986	88.88
452.207	95.88
452.428	113.88
452.648	83.88
452.869	105.88
453.089	113.88
453.31	102.88
453.53	101.88
453.751	89.88
453.971	94.88
454.192	108.88
454.412	89.88
454.633	87.88
454.853	69.88
455.073	85.88
455.294	96.88
455.514	86.88
455.734	79.88
455.955	84.88
456.175	81.88
456.395	79.88
456.616	85.88
456.836	84.88
457.056	68.88
457.276	79.88
457.497	96.88
457.717	81.88
457.937	89.88
458.157	96.88
458.377	85.88
458.598	103.88
458.818	140.88
459.038	146.88
459.258	127.88
459.478	76.88
459.698	71.88
459.918	87.88
460.138	83.88
460.358	88.88
460.578	84.88
460.798	80.88
461.018	76.88
461.238	96.88
461.458	77.88
461.678	90.88
461.898	80.88
462.118	84.88
462.338	82.88
462.558	97.88
462.777	95.88
462.997	76.88
463.217	86.88
463.437	93.88
463.657	89.88
463.876	86.88
464.096	93.88
464.316	78.88
464.536	65.88
464.755	98.88
464.975	102.88
465.195	161.88
465.414	161.88
465.634	103.88
465.854	90.88
466.073	102.88
466.293	85.88
466.512	83.88
466.732	91.88
466.951	76.88
467.171	80.88
467.391	76.88
467.61	100.88
467.829	106.88
468.049	93.88
468.268	93.88
468.488	80.88
468.707	97.88
468.927	79.88
469.146	73.88
469.365	85.88
469.585	94.88
469.804	93.88
470.023	90.88
470.243	82.88
470.462	102.88
470.681	105.88
470.901	88.88
471.12	82.88
471.339	90.88
471.558	81.88
471.777	99.88
471.997	108.88
472.216	100.88
472.435	99.88
472.654	92.88
472.873	81.88
473.092	80.88
473.311	88.88
473.53	94.88
473.749	81.88
473.968	104.88
474.187	111.88
474.406	80.88
474.625	80.88
474.844	85.88
475.063	94.88
475.282	84.88
475.501	88.88
475.72	90.88
475.939	98.88
476.158	85.88
476.377	87.88
476.596	88.88
476.814	92.88
477.033	94.88
477.252	82.88
477.471	97.88
477.69	78.88
477.908	82.88
478.127	78.88
478.346	88.88
478.564	108.88
478.783	90.88
479.002	89.88
479.22	84.88
479.439	99.88
479.658	102.88
479.876	87.88
480.095	84.88
480.313	83.88
480.532	86.88
480.751	71.88
480.969	99.88
481.188	90.88
481.406	97.88
481.624	98.88
481.843	95.88
482.061	92.88
482.28	87.88
482.498	82.88
482.717	89.88
482.935	88.88
483.153	101.88
483.372	77.88
483.59	84.88
483.808	84.88
484.027	86.88
484.245	83.88
484.463	96.88
484.681	100.88
484.9	89.88
485.118	113.88
485.336	92.88
485.554	101.88
485.772	104.88
485.99	91.88
486.209	96.88
486.427	105.88
486.645	115.88
486.863	101.88
487.081	93.88
487.299	85.88
487.517	89.88
487.735	81.88
487.953	88.88
488.171	106.88
488.389	99.88
488.607	98.88
488.825	77.88
489.043	76.88
489.261	93.88
489.479	109.88
489.696	82.88
489.914	88.88
490.132	84.88
490.35	92.88
490.568	89.88
490.786	90.88
491.003	96.88
491.221	81.88
491.439	99.88
491.657	95.88
491.874	92.88
492.092	86.88
492.31	103.88
492.527	91.88
492.745	94.88
492.963	96.88
493.18	77.88
493.398	85.88
493.615	109.88
493.833	93.88
494.05	101.88
494.268	86.88
494.485	103.88
494.703	93.88
494.92	101.88
495.138	91.88
495.355	86.88
495.573	100.88
495.79	93.88
496.008	98.88
496.225	97.88
496.442	83.88
496.66	99.88
496.877	87.88
497.094	92.88
497.312	93.88
497.529	97.88
497.746	82.88
497.963	90.88
498.181	98.88
498.398	96.88
498.615	113.88
498.832	99.88
499.049	93.88
499.267	93.88
499.484	92.88
499.701	94.88
499.918	100.88
500.135	90.88
500.352	83.88
500.569	89.88
500.786	88.88
501.003	81.88
501.22	80.88
501.437	90.88
501.654	89.88
501.871	106.88
502.088	86.88
502.305	110.88
502.522	99.88
502.739	90.88
502.956	92.88
503.172	94.88
503.389	100.88
503.606	94.88
503.823	89.88
504.04	98.88
504.256	97.88
504.473	93.88
504.69	67.88
504.907	92.88
505.123	86.88
505.34	88.88
505.557	86.88
505.773	72.88
505.99	72.88
506.207	98.88
506.423	82.88
506.64	87.88
506.856	93.88
507.073	94.88
507.289	83.88
507.506	97.88
507.722	105.88
507.939	113.88
508.155	103.88
508.372	93.88
508.588	80.88
508.805	93.88
509.021	105.88
509.238	107.88
509.454	95.88
509.67	88.88
509.887	107.88
510.103	135.88
510.319	234.88
510.536	832.88
510.752	2665.88
510.968	729.88
511.184	168.88
511.401	109.88
511.617	96.88
511.833	99.88
512.049	92.88
512.265	86.88
512.481	98.88
512.698	71.88
512.914	92.88
513.13	95.88
513.346	86.88
513.562	96.88
513.778	81.88
513.994	94.88
514.21	121.88
514.426	125.88
514.642	144.88
514.858	126.88
515.074	153.88
515.29	477.88
515.506	1568.88
515.721	574.88
