Data from Uncirc_2003_H10_HRD10591_00006.txt Node
Date: Wed Jan 03 10:35:49 EST 2024
User: Yrep
Spectrometer: HR+D1059
Trigger mode: 1
Integration Time (sec): 1.000000E-1
Scans to average: 1
Electric dark correction enabled: true
Nonlinearity correction enabled: false
Boxcar width: 0
XAxis mode: Wavelengths
Number of Pixels in Spectrum: 2048
>>>>>Begin Spectral Data<<<<<
223.165	-22.31
223.4	-22.31
223.635	-22.31
223.869	-23.31
224.104	-21.31
224.338	-4.31
224.573	-10.31
224.808	-13.31
225.042	0.69
225.277	-2.31
225.511	-5.31
225.746	1.69
225.98	2.69
226.215	19.69
226.449	6.69
226.683	15.69
226.918	24.69
227.152	30.69
227.387	25.69
227.621	45.69
227.856	52.69
228.09	42.69
228.324	65.69
228.559	65.69
228.793	47.69
229.027	57.69
229.262	75.69
229.496	72.69
229.73	94.69
229.964	73.69
230.199	61.69
230.433	74.69
230.667	78.69
230.901	76.69
231.136	96.69
231.37	74.69
231.604	77.69
231.838	86.69
232.072	81.69
232.306	83.69
232.541	86.69
232.775	94.69
233.009	84.69
233.243	86.69
233.477	79.69
233.711	77.69
233.945	87.69
234.179	86.69
234.413	75.69
234.647	82.69
234.881	82.69
235.115	70.69
235.349	80.69
235.583	89.69
235.817	80.69
236.051	82.69
236.285	70.69
236.519	89.69
236.753	80.69
236.987	79.69
237.221	90.69
237.455	78.69
237.689	80.69
237.922	88.69
238.156	74.69
238.39	66.69
238.624	73.69
238.858	73.69
239.091	59.69
239.325	80.69
239.559	89.69
239.793	74.69
240.027	78.69
240.26	73.69
240.494	66.69
240.728	77.69
240.961	81.69
241.195	91.69
241.429	73.69
241.662	75.69
241.896	81.69
242.13	71.69
242.363	83.69
242.597	76.69
242.83	75.69
243.064	83.69
243.298	89.69
243.531	81.69
243.765	71.69
243.998	76.69
244.232	76.69
244.465	90.69
244.699	66.69
244.932	83.69
245.166	64.69
245.399	79.69
245.633	78.69
245.866	71.69
246.099	64.69
246.333	72.69
246.566	73.69
246.8	95.69
247.033	77.69
247.266	91.69
247.5	75.69
247.733	94.69
247.966	83.69
248.2	82.69
248.433	78.69
248.666	82.69
248.899	79.69
249.133	77.69
249.366	86.69
249.599	95.69
249.832	84.69
250.066	78.69
250.299	76.69
250.532	72.69
250.765	83.69
250.998	78.69
251.231	79.69
251.465	83.69
251.698	83.69
251.931	74.69
252.164	70.69
252.397	70.69
252.63	91.69
252.863	77.69
253.096	78.69
253.329	77.69
253.562	78.69
253.795	80.69
254.028	67.69
254.261	85.69
254.494	68.69
254.727	86.69
254.96	91.69
255.193	90.69
255.426	72.69
255.659	90.69
255.892	86.69
256.124	80.69
256.357	90.69
256.59	85.69
256.823	83.69
257.056	87.69
257.289	94.69
257.521	97.69
257.754	100.69
257.987	72.69
258.22	82.69
258.452	73.69
258.685	73.69
258.918	80.69
259.151	72.69
259.383	89.69
259.616	81.69
259.849	86.69
260.081	74.69
260.314	76.69
260.547	71.69
260.779	88.69
261.012	94.69
261.244	86.69
261.477	89.69
261.71	93.69
261.942	114.69
262.175	112.69
262.407	75.69
262.64	84.69
262.872	72.69
263.105	87.69
263.337	87.69
263.57	71.69
263.802	93.69
264.035	86.69
264.267	82.69
264.499	66.69
264.732	73.69
264.964	74.69
265.197	93.69
265.429	80.69
265.661	76.69
265.894	72.69
266.126	75.69
266.358	82.69
266.591	79.69
266.823	89.69
267.055	88.69
267.287	81.69
267.52	96.69
267.752	89.69
267.984	90.69
268.216	75.69
268.448	90.69
268.681	86.69
268.913	81.69
269.145	90.69
269.377	85.69
269.609	85.69
269.841	88.69
270.073	79.69
270.306	86.69
270.538	88.69
270.77	72.69
271.002	89.69
271.234	94.69
271.466	88.69
271.698	86.69
271.93	88.69
272.162	87.69
272.394	92.69
272.626	82.69
272.858	80.69
273.09	80.69
273.322	104.69
273.553	73.69
273.785	78.69
274.017	90.69
274.249	88.69
274.481	77.69
274.713	85.69
274.945	85.69
275.176	91.69
275.408	95.69
275.64	77.69
275.872	82.69
276.104	91.69
276.335	90.69
276.567	89.69
276.799	102.69
277.031	99.69
277.262	84.69
277.494	86.69
277.726	84.69
277.957	89.69
278.189	83.69
278.421	90.69
278.652	88.69
278.884	66.69
279.115	83.69
279.347	87.69
279.579	86.69
279.81	96.69
280.042	91.69
280.273	85.69
280.505	75.69
280.736	91.69
280.968	72.69
281.199	89.69
281.431	85.69
281.662	83.69
281.894	83.69
282.125	108.69
282.356	102.69
282.588	131.69
282.819	101.69
283.051	81.69
283.282	90.69
283.513	82.69
283.745	98.69
283.976	84.69
284.207	85.69
284.439	69.69
284.67	88.69
284.901	92.69
285.132	96.69
285.364	90.69
285.595	102.69
285.826	90.69
286.057	83.69
286.288	101.69
286.52	87.69
286.751	87.69
286.982	75.69
287.213	68.69
287.444	92.69
287.675	104.69
287.906	87.69
288.138	81.69
288.369	90.69
288.6	81.69
288.831	71.69
289.062	92.69
289.293	93.69
289.524	82.69
289.755	88.69
289.986	79.69
290.217	78.69
290.448	72.69
290.679	68.69
290.91	82.69
291.141	99.69
291.371	79.69
291.602	94.69
291.833	85.69
292.064	97.69
292.295	95.69
292.526	91.69
292.757	93.69
292.987	84.69
293.218	69.69
293.449	86.69
293.68	79.69
293.91	86.69
294.141	87.69
294.372	73.69
294.603	92.69
294.833	89.69
295.064	82.69
295.295	78.69
295.525	89.69
295.756	101.69
295.987	105.69
296.217	138.69
296.448	139.69
296.679	100.69
296.909	95.69
297.14	83.69
297.37	96.69
297.601	89.69
297.831	77.69
298.062	78.69
298.292	90.69
298.523	103.69
298.753	91.69
298.984	82.69
299.214	94.69
299.445	97.69
299.675	84.69
299.905	104.69
300.136	90.69
300.366	93.69
300.597	79.69
300.827	86.69
301.057	100.69
301.288	106.69
301.518	90.69
301.748	92.69
301.979	92.69
302.209	98.69
302.439	90.69
302.669	86.69
302.9	105.69
303.13	95.69
303.36	99.69
303.59	106.69
303.82	115.69
304.051	77.69
304.281	87.69
304.511	78.69
304.741	79.69
304.971	90.69
305.201	91.69
305.431	85.69
305.661	91.69
305.891	114.69
306.121	97.69
306.352	95.69
306.582	100.69
306.812	109.69
307.042	107.69
307.272	96.69
307.502	87.69
307.731	100.69
307.961	108.69
308.191	80.69
308.421	81.69
308.651	99.69
308.881	102.69
309.111	94.69
309.341	119.69
309.571	109.69
309.8	91.69
310.03	111.69
310.26	96.69
310.49	86.69
310.72	105.69
310.949	110.69
311.179	95.69
311.409	98.69
311.639	96.69
311.868	88.69
312.098	94.69
312.328	97.69
312.557	105.69
312.787	110.69
313.017	97.69
313.246	90.69
313.476	95.69
313.706	86.69
313.935	86.69
314.165	97.69
314.394	100.69
314.624	111.69
314.853	91.69
315.083	98.69
315.312	85.69
315.542	81.69
315.771	88.69
316.001	95.69
316.23	88.69
316.46	92.69
316.689	83.69
316.919	103.69
317.148	106.69
317.377	99.69
317.607	90.69
317.836	101.69
318.065	80.69
318.295	87.69
318.524	89.69
318.753	91.69
318.983	97.69
319.212	95.69
319.441	114.69
319.67	104.69
319.9	118.69
320.129	97.69
320.358	95.69
320.587	90.69
320.816	87.69
321.046	109.69
321.275	94.69
321.504	89.69
321.733	94.69
321.962	99.69
322.191	108.69
322.42	102.69
322.649	106.69
322.878	113.69
323.108	119.69
323.337	133.69
323.566	137.69
323.795	157.69
324.024	209.69
324.253	463.69
324.482	964.69
324.71	2013.69
324.939	2630.69
325.168	935.69
325.397	257.69
325.626	161.69
325.855	121.69
326.084	150.69
326.313	134.69
326.542	167.69
326.77	242.69
326.999	513.69
327.228	1121.69
327.457	2054.69
327.686	1565.69
327.914	411.69
328.143	200.69
328.372	153.69
328.6	114.69
328.829	115.69
329.058	136.69
329.287	134.69
329.515	100.69
329.744	99.69
329.972	100.69
330.201	100.69
330.43	102.69
330.658	111.69
330.887	138.69
331.115	127.69
331.344	94.69
331.572	97.69
331.801	105.69
332.03	117.69
332.258	88.69
332.486	102.69
332.715	97.69
332.943	85.69
333.172	98.69
333.4	95.69
333.629	104.69
333.857	113.69
334.085	111.69
334.314	91.69
334.542	90.69
334.771	101.69
334.999	99.69
335.227	94.69
335.455	89.69
335.684	93.69
335.912	77.69
336.14	94.69
336.369	91.69
336.597	103.69
336.825	86.69
337.053	101.69
337.281	91.69
337.51	103.69
337.738	93.69
337.966	93.69
338.194	95.69
338.422	101.69
338.65	89.69
338.878	101.69
339.106	85.69
339.334	83.69
339.562	89.69
339.79	91.69
340.018	88.69
340.246	95.69
340.474	85.69
340.702	84.69
340.93	94.69
341.158	108.69
341.386	106.69
341.614	98.69
341.842	86.69
342.07	86.69
342.298	82.69
342.526	77.69
342.754	85.69
342.981	80.69
343.209	85.69
343.437	82.69
343.665	87.69
343.893	101.69
344.12	104.69
344.348	95.69
344.576	90.69
344.804	94.69
345.031	95.69
345.259	96.69
345.487	86.69
345.714	93.69
345.942	97.69
346.17	68.69
346.397	95.69
346.625	97.69
346.853	103.69
347.08	89.69
347.308	101.69
347.535	108.69
347.763	101.69
347.99	102.69
348.218	97.69
348.445	93.69
348.673	92.69
348.9	91.69
349.128	98.69
349.355	89.69
349.583	93.69
349.81	90.69
350.037	87.69
350.265	101.69
350.492	78.69
350.72	108.69
350.947	105.69
351.174	112.69
351.402	107.69
351.629	103.69
351.856	99.69
352.083	89.69
352.311	96.69
352.538	109.69
352.765	105.69
352.992	122.69
353.22	104.69
353.447	98.69
353.674	97.69
353.901	103.69
354.128	98.69
354.355	110.69
354.583	102.69
354.81	102.69
355.037	92.69
355.264	111.69
355.491	84.69
355.718	99.69
355.945	81.69
356.172	86.69
356.399	94.69
356.626	97.69
356.853	87.69
357.08	74.69
357.307	86.69
357.534	95.69
357.761	88.69
357.988	103.69
358.215	96.69
358.441	88.69
358.668	99.69
358.895	93.69
359.122	90.69
359.349	95.69
359.576	97.69
359.802	112.69
360.029	116.69
360.256	102.69
360.483	99.69
360.709	91.69
360.936	89.69
361.163	105.69
361.39	92.69
361.616	102.69
361.843	82.69
362.07	102.69
362.296	95.69
362.523	88.69
362.749	98.69
362.976	96.69
363.203	101.69
363.429	89.69
363.656	88.69
363.882	87.69
364.109	82.69
364.335	89.69
364.562	94.69
364.788	96.69
365.015	93.69
365.241	97.69
365.468	101.69
365.694	110.69
365.92	94.69
366.147	90.69
366.373	76.69
366.599	96.69
366.826	82.69
367.052	83.69
367.278	92.69
367.505	89.69
367.731	93.69
367.957	84.69
368.184	85.69
368.41	97.69
368.636	113.69
368.862	134.69
369.089	105.69
369.315	97.69
369.541	95.69
369.767	79.69
369.993	85.69
370.219	98.69
370.445	96.69
370.672	86.69
370.898	101.69
371.124	81.69
371.35	86.69
371.576	88.69
371.802	71.69
372.028	83.69
372.254	80.69
372.48	100.69
372.706	92.69
372.932	97.69
373.158	82.69
373.384	81.69
373.61	94.69
373.835	87.69
374.061	103.69
374.287	87.69
374.513	91.69
374.739	105.69
374.965	79.69
375.191	92.69
375.416	90.69
375.642	79.69
375.868	92.69
376.094	75.69
376.319	82.69
376.545	95.69
376.771	88.69
376.997	81.69
377.222	86.69
377.448	81.69
377.674	106.69
377.899	95.69
378.125	95.69
378.35	92.69
378.576	89.69
378.802	84.69
379.027	95.69
379.253	91.69
379.478	83.69
379.704	94.69
379.929	87.69
380.155	76.69
380.38	97.69
380.606	96.69
380.831	93.69
381.057	99.69
381.282	86.69
381.507	84.69
381.733	108.69
381.958	98.69
382.184	109.69
382.409	105.69
382.634	104.69
382.86	109.69
383.085	112.69
383.31	102.69
383.535	100.69
383.761	104.69
383.986	103.69
384.211	86.69
384.436	119.69
384.662	117.69
384.887	95.69
385.112	110.69
385.337	103.69
385.562	111.69
385.787	112.69
386.013	104.69
386.238	122.69
386.463	101.69
386.688	111.69
386.913	101.69
387.138	102.69
387.363	92.69
387.588	101.69
387.813	101.69
388.038	101.69
388.263	115.69
388.488	102.69
388.713	103.69
388.938	95.69
389.163	94.69
389.387	96.69
389.612	91.69
389.837	85.69
390.062	103.69
390.287	97.69
390.512	81.69
390.736	107.69
390.961	106.69
391.186	98.69
391.411	98.69
391.636	83.69
391.86	77.69
392.085	81.69
392.31	96.69
392.534	90.69
392.759	88.69
392.984	98.69
393.208	72.69
393.433	78.69
393.658	78.69
393.882	68.69
394.107	99.69
394.331	82.69
394.556	70.69
394.78	96.69
395.005	88.69
395.229	89.69
395.454	83.69
395.678	80.69
395.903	95.69
396.127	81.69
396.352	96.69
396.576	84.69
396.801	89.69
397.025	91.69
397.249	82.69
397.474	91.69
397.698	85.69
397.922	79.69
398.147	88.69
398.371	91.69
398.595	87.69
398.82	88.69
399.044	86.69
399.268	80.69
399.492	85.69
399.717	93.69
399.941	80.69
400.165	100.69
400.389	95.69
400.613	94.69
400.837	89.69
401.062	100.69
401.286	69.69
401.51	79.69
401.734	99.69
401.958	114.69
402.182	119.69
402.406	161.69
402.63	116.69
402.854	93.69
403.078	89.69
403.302	86.69
403.526	107.69
403.75	89.69
403.974	93.69
404.198	90.69
404.422	86.69
404.645	89.69
404.869	89.69
405.093	97.69
405.317	94.69
405.541	97.69
405.765	109.69
405.988	130.69
406.212	172.69
406.436	226.69
406.66	144.69
406.883	93.69
407.107	91.69
407.331	96.69
407.555	106.69
407.778	102.69
408.002	84.69
408.226	80.69
408.449	83.69
408.673	93.69
408.896	92.69
409.12	83.69
409.344	100.69
409.567	85.69
409.791	102.69
410.014	95.69
410.238	75.69
410.461	104.69
410.685	82.69
410.908	98.69
411.132	88.69
411.355	88.69
411.578	86.69
411.802	101.69
412.025	93.69
412.249	88.69
412.472	99.69
412.695	97.69
412.919	84.69
413.142	95.69
413.365	93.69
413.589	93.69
413.812	82.69
414.035	97.69
414.258	96.69
414.482	90.69
414.705	80.69
414.928	103.69
415.151	92.69
415.374	100.69
415.597	75.69
415.821	97.69
416.044	80.69
416.267	96.69
416.49	75.69
416.713	72.69
416.936	81.69
417.159	75.69
417.382	98.69
417.605	102.69
417.828	90.69
418.051	81.69
418.274	83.69
418.497	95.69
418.72	91.69
418.943	90.69
419.166	81.69
419.389	95.69
419.611	91.69
419.834	91.69
420.057	99.69
420.28	89.69
420.503	72.69
420.726	78.69
420.948	83.69
421.171	81.69
421.394	99.69
421.617	84.69
421.839	91.69
422.062	77.69
422.285	94.69
422.507	91.69
422.73	90.69
422.953	91.69
423.175	94.69
423.398	83.69
423.621	95.69
423.843	92.69
424.066	86.69
424.288	89.69
424.511	93.69
424.733	81.69
424.956	122.69
425.178	96.69
425.401	114.69
425.623	87.69
425.846	75.69
426.068	102.69
426.291	87.69
426.513	87.69
426.735	103.69
426.958	101.69
427.18	103.69
427.402	123.69
427.625	153.69
427.847	123.69
428.069	86.69
428.292	89.69
428.514	102.69
428.736	72.69
428.958	85.69
429.181	85.69
429.403	77.69
429.625	88.69
429.847	80.69
430.069	102.69
430.292	82.69
430.514	85.69
430.736	80.69
430.958	91.69
431.18	99.69
431.402	95.69
431.624	72.69
431.846	87.69
432.068	65.69
432.29	73.69
432.512	96.69
432.734	91.69
432.956	81.69
433.178	110.69
433.4	104.69
433.622	97.69
433.844	97.69
434.066	73.69
434.287	79.69
434.509	97.69
434.731	95.69
434.953	97.69
435.175	88.69
435.397	102.69
435.618	94.69
435.84	107.69
436.062	107.69
436.284	121.69
436.505	107.69
436.727	110.69
436.949	99.69
437.17	93.69
437.392	96.69
437.614	103.69
437.835	94.69
438.057	110.69
438.278	101.69
438.5	109.69
438.721	114.69
438.943	98.69
439.165	77.69
439.386	98.69
439.608	81.69
439.829	107.69
440.05	105.69
440.272	154.69
440.493	96.69
440.715	75.69
440.936	67.69
441.158	89.69
441.379	76.69
441.6	97.69
441.822	103.69
442.043	91.69
442.264	115.69
442.486	93.69
442.707	83.69
442.928	103.69
443.149	132.69
443.371	120.69
443.592	107.69
443.813	117.69
444.034	121.69
444.255	106.69
444.476	91.69
444.698	91.69
444.919	92.69
445.14	128.69
445.361	113.69
445.582	118.69
445.803	135.69
446.024	116.69
446.245	135.69
446.466	101.69
446.687	97.69
446.908	90.69
447.129	90.69
447.35	78.69
447.571	81.69
447.792	81.69
448.013	89.69
448.234	105.69
448.455	100.69
448.675	122.69
448.896	123.69
449.117	83.69
449.338	104.69
449.559	122.69
449.779	136.69
450	99.69
450.221	101.69
450.442	75.69
450.662	90.69
450.883	95.69
451.104	95.69
451.324	91.69
451.545	97.69
451.766	90.69
451.986	86.69
452.207	94.69
452.428	85.69
452.648	103.69
452.869	105.69
453.089	101.69
453.31	106.69
453.53	104.69
453.751	97.69
453.971	95.69
454.192	115.69
454.412	95.69
454.633	80.69
454.853	76.69
455.073	82.69
455.294	81.69
455.514	105.69
455.734	78.69
455.955	79.69
456.175	85.69
456.395	89.69
456.616	90.69
456.836	94.69
457.056	82.69
457.276	88.69
457.497	78.69
457.717	90.69
457.937	97.69
458.157	96.69
458.377	90.69
458.598	109.69
458.818	150.69
459.038	149.69
459.258	102.69
459.478	80.69
459.698	93.69
459.918	83.69
460.138	87.69
460.358	84.69
460.578	90.69
460.798	102.69
461.018	83.69
461.238	69.69
461.458	101.69
461.678	93.69
461.898	96.69
462.118	82.69
462.338	86.69
462.558	74.69
462.777	84.69
462.997	82.69
463.217	95.69
463.437	84.69
463.657	92.69
463.876	89.69
464.096	82.69
464.316	85.69
464.536	85.69
464.755	95.69
464.975	125.69
465.195	161.69
465.414	152.69
465.634	106.69
465.854	79.69
466.073	84.69
466.293	90.69
466.512	91.69
466.732	92.69
466.951	94.69
467.171	98.69
467.391	105.69
467.61	103.69
467.829	82.69
468.049	85.69
468.268	83.69
468.488	89.69
468.707	78.69
468.927	89.69
469.146	86.69
469.365	97.69
469.585	100.69
469.804	95.69
470.023	100.69
470.243	92.69
470.462	105.69
470.681	122.69
470.901	101.69
471.12	92.69
471.339	87.69
471.558	97.69
471.777	86.69
471.997	91.69
472.216	73.69
472.435	86.69
472.654	82.69
472.873	79.69
473.092	93.69
473.311	88.69
473.53	64.69
473.749	86.69
473.968	92.69
474.187	95.69
474.406	88.69
474.625	82.69
474.844	93.69
475.063	97.69
475.282	99.69
475.501	92.69
475.72	85.69
475.939	83.69
476.158	81.69
476.377	88.69
476.596	91.69
476.814	95.69
477.033	98.69
477.252	83.69
477.471	90.69
477.69	90.69
477.908	76.69
478.127	91.69
478.346	98.69
478.564	97.69
478.783	90.69
479.002	93.69
479.22	98.69
479.439	85.69
479.658	97.69
479.876	94.69
480.095	91.69
480.313	96.69
480.532	87.69
480.751	93.69
480.969	82.69
481.188	76.69
481.406	89.69
481.624	105.69
481.843	95.69
482.061	79.69
482.28	94.69
482.498	94.69
482.717	83.69
482.935	83.69
483.153	102.69
483.372	95.69
483.59	102.69
483.808	95.69
484.027	93.69
484.245	92.69
484.463	109.69
484.681	102.69
484.9	106.69
485.118	94.69
485.336	77.69
485.554	99.69
485.772	102.69
485.99	100.69
486.209	99.69
486.427	97.69
486.645	93.69
486.863	106.69
487.081	105.69
487.299	94.69
487.517	72.69
487.735	101.69
487.953	107.69
488.171	99.69
488.389	98.69
488.607	97.69
488.825	96.69
489.043	97.69
489.261	96.69
489.479	91.69
489.696	79.69
489.914	88.69
490.132	88.69
490.35	108.69
490.568	99.69
490.786	81.69
491.003	79.69
491.221	87.69
491.439	94.69
491.657	105.69
491.874	102.69
492.092	89.69
492.31	96.69
492.527	91.69
492.745	94.69
492.963	70.69
493.18	76.69
493.398	83.69
493.615	110.69
493.833	103.69
494.05	89.69
494.268	90.69
494.485	102.69
494.703	96.69
494.92	74.69
495.138	89.69
495.355	76.69
495.573	82.69
495.79	85.69
496.008	88.69
496.225	89.69
496.442	97.69
496.66	103.69
496.877	96.69
497.094	103.69
497.312	98.69
497.529	99.69
497.746	93.69
497.963	89.69
498.181	107.69
498.398	95.69
498.615	114.69
498.832	99.69
499.049	92.69
499.267	79.69
499.484	98.69
499.701	80.69
499.918	95.69
500.135	99.69
500.352	90.69
500.569	83.69
500.786	90.69
501.003	81.69
501.22	84.69
501.437	84.69
501.654	94.69
501.871	108.69
502.088	95.69
502.305	89.69
502.522	90.69
502.739	79.69
502.956	85.69
503.172	93.69
503.389	102.69
503.606	109.69
503.823	90.69
504.04	99.69
504.256	92.69
504.473	73.69
504.69	83.69
504.907	89.69
505.123	80.69
505.34	81.69
505.557	95.69
505.773	94.69
505.99	81.69
506.207	91.69
506.423	92.69
506.64	93.69
506.856	83.69
507.073	87.69
507.289	93.69
507.506	98.69
507.722	111.69
507.939	105.69
508.155	101.69
508.372	80.69
508.588	98.69
508.805	102.69
509.021	99.69
509.238	97.69
509.454	101.69
509.67	112.69
509.887	108.69
510.103	132.69
510.319	220.69
510.536	860.69
510.752	2617.69
510.968	737.69
511.184	153.69
511.401	131.69
511.617	102.69
511.833	96.69
512.049	105.69
512.265	107.69
512.481	88.69
512.698	86.69
512.914	88.69
513.13	97.69
513.346	88.69
513.562	91.69
513.778	106.69
513.994	93.69
514.21	94.69
514.426	116.69
514.642	125.69
514.858	118.69
515.074	189.69
515.29	475.69
515.506	1593.69
