Data from Uncirc_2003_H10_HRD10591_00047.txt Node
Date: Wed Jan 03 10:35:57 EST 2024
User: Yrep
Spectrometer: HR+D1059
Trigger mode: 1
Integration Time (sec): 1.000000E-1
Scans to average: 1
Electric dark correction enabled: true
Nonlinearity correction enabled: false
Boxcar width: 0
XAxis mode: Wavelengths
Number of Pixels in Spectrum: 2048
>>>>>Begin Spectral Data<<<<<
223.165	-34.44
223.4	-34.44
223.635	-34.44
223.869	-21.44
224.104	-10.44
224.338	-11.44
224.573	-10.44
224.808	-18.44
225.042	-5.44
225.277	-16.44
225.511	-1.44
225.746	12.56
225.98	11.56
226.215	16.56
226.449	22.56
226.683	15.56
226.918	30.56
227.152	20.56
227.387	36.56
227.621	42.56
227.856	36.56
228.09	46.56
228.324	38.56
228.559	65.56
228.793	58.56
229.027	61.56
229.262	44.56
229.496	56.56
229.73	76.56
229.964	67.56
230.199	65.56
230.433	74.56
230.667	70.56
230.901	66.56
231.136	74.56
231.37	70.56
231.604	81.56
231.838	74.56
232.072	76.56
232.306	88.56
232.541	84.56
232.775	78.56
233.009	83.56
233.243	70.56
233.477	71.56
233.711	76.56
233.945	83.56
234.179	85.56
234.413	86.56
234.647	69.56
234.881	66.56
235.115	73.56
235.349	72.56
235.583	78.56
235.817	81.56
236.051	71.56
236.285	81.56
236.519	80.56
236.753	73.56
236.987	72.56
237.221	77.56
237.455	87.56
237.689	82.56
237.922	81.56
238.156	80.56
238.39	73.56
238.624	75.56
238.858	75.56
239.091	65.56
239.325	58.56
239.559	80.56
239.793	76.56
240.027	72.56
240.26	82.56
240.494	78.56
240.728	70.56
240.961	67.56
241.195	68.56
241.429	63.56
241.662	72.56
241.896	64.56
242.13	53.56
242.363	73.56
242.597	67.56
242.83	73.56
243.064	76.56
243.298	60.56
243.531	65.56
243.765	79.56
243.998	86.56
244.232	94.56
244.465	77.56
244.699	77.56
244.932	66.56
245.166	65.56
245.399	72.56
245.633	73.56
245.866	78.56
246.099	70.56
246.333	84.56
246.566	70.56
246.8	76.56
247.033	82.56
247.266	81.56
247.5	59.56
247.733	82.56
247.966	67.56
248.2	76.56
248.433	74.56
248.666	69.56
248.899	78.56
249.133	76.56
249.366	73.56
249.599	85.56
249.832	78.56
250.066	84.56
250.299	91.56
250.532	82.56
250.765	72.56
250.998	74.56
251.231	71.56
251.465	77.56
251.698	78.56
251.931	78.56
252.164	71.56
252.397	76.56
252.63	68.56
252.863	81.56
253.096	75.56
253.329	78.56
253.562	68.56
253.795	63.56
254.028	68.56
254.261	78.56
254.494	74.56
254.727	78.56
254.96	65.56
255.193	74.56
255.426	80.56
255.659	76.56
255.892	78.56
256.124	75.56
256.357	73.56
256.59	64.56
256.823	80.56
257.056	61.56
257.289	76.56
257.521	86.56
257.754	80.56
257.987	64.56
258.22	74.56
258.452	68.56
258.685	84.56
258.918	70.56
259.151	72.56
259.383	73.56
259.616	60.56
259.849	66.56
260.081	83.56
260.314	76.56
260.547	75.56
260.779	81.56
261.012	80.56
261.244	68.56
261.477	73.56
261.71	83.56
261.942	114.56
262.175	99.56
262.407	91.56
262.64	81.56
262.872	80.56
263.105	67.56
263.337	97.56
263.57	62.56
263.802	76.56
264.035	71.56
264.267	85.56
264.499	79.56
264.732	77.56
264.964	86.56
265.197	65.56
265.429	84.56
265.661	59.56
265.894	80.56
266.126	82.56
266.358	70.56
266.591	61.56
266.823	75.56
267.055	75.56
267.287	74.56
267.52	86.56
267.752	85.56
267.984	79.56
268.216	80.56
268.448	68.56
268.681	84.56
268.913	78.56
269.145	68.56
269.377	68.56
269.609	78.56
269.841	72.56
270.073	62.56
270.306	83.56
270.538	77.56
270.77	79.56
271.002	53.56
271.234	77.56
271.466	86.56
271.698	86.56
271.93	84.56
272.162	86.56
272.394	82.56
272.626	84.56
272.858	83.56
273.09	83.56
273.322	74.56
273.553	72.56
273.785	75.56
274.017	79.56
274.249	83.56
274.481	72.56
274.713	92.56
274.945	89.56
275.176	83.56
275.408	74.56
275.64	64.56
275.872	84.56
276.104	72.56
276.335	90.56
276.567	86.56
276.799	97.56
277.031	101.56
277.262	69.56
277.494	70.56
277.726	67.56
277.957	74.56
278.189	85.56
278.421	75.56
278.652	92.56
278.884	100.56
279.115	86.56
279.347	69.56
279.579	81.56
279.81	92.56
280.042	83.56
280.273	68.56
280.505	76.56
280.736	82.56
280.968	83.56
281.199	94.56
281.431	83.56
281.662	88.56
281.894	91.56
282.125	104.56
282.356	101.56
282.588	120.56
282.819	105.56
283.051	81.56
283.282	69.56
283.513	81.56
283.745	97.56
283.976	74.56
284.207	85.56
284.439	85.56
284.67	77.56
284.901	83.56
285.132	97.56
285.364	89.56
285.595	85.56
285.826	80.56
286.057	89.56
286.288	78.56
286.52	82.56
286.751	83.56
286.982	98.56
287.213	76.56
287.444	68.56
287.675	69.56
287.906	84.56
288.138	87.56
288.369	84.56
288.6	81.56
288.831	90.56
289.062	81.56
289.293	86.56
289.524	88.56
289.755	70.56
289.986	76.56
290.217	87.56
290.448	72.56
290.679	74.56
290.91	81.56
291.141	86.56
291.371	85.56
291.602	99.56
291.833	82.56
292.064	65.56
292.295	85.56
292.526	79.56
292.757	83.56
292.987	92.56
293.218	85.56
293.449	83.56
293.68	77.56
293.91	75.56
294.141	92.56
294.372	89.56
294.603	88.56
294.833	77.56
295.064	82.56
295.295	89.56
295.525	80.56
295.756	78.56
295.987	95.56
296.217	149.56
296.448	126.56
296.679	94.56
296.909	86.56
297.14	73.56
297.37	79.56
297.601	71.56
297.831	85.56
298.062	93.56
298.292	83.56
298.523	81.56
298.753	75.56
298.984	71.56
299.214	82.56
299.445	78.56
299.675	87.56
299.905	92.56
300.136	94.56
300.366	91.56
300.597	94.56
300.827	87.56
301.057	83.56
301.288	85.56
301.518	84.56
301.748	77.56
301.979	86.56
302.209	82.56
302.439	95.56
302.669	80.56
302.9	90.56
303.13	97.56
303.36	95.56
303.59	98.56
303.82	96.56
304.051	87.56
304.281	92.56
304.511	62.56
304.741	77.56
304.971	93.56
305.201	93.56
305.431	80.56
305.661	86.56
305.891	86.56
306.121	91.56
306.352	92.56
306.582	94.56
306.812	100.56
307.042	94.56
307.272	83.56
307.502	83.56
307.731	93.56
307.961	76.56
308.191	89.56
308.421	80.56
308.651	93.56
308.881	88.56
309.111	75.56
309.341	85.56
309.571	80.56
309.8	84.56
310.03	91.56
310.26	92.56
310.49	92.56
310.72	108.56
310.949	99.56
311.179	91.56
311.409	76.56
311.639	80.56
311.868	81.56
312.098	99.56
312.328	98.56
312.557	116.56
312.787	107.56
313.017	87.56
313.246	85.56
313.476	103.56
313.706	79.56
313.935	87.56
314.165	84.56
314.394	81.56
314.624	88.56
314.853	89.56
315.083	86.56
315.312	92.56
315.542	85.56
315.771	84.56
316.001	83.56
316.23	92.56
316.46	85.56
316.689	78.56
316.919	89.56
317.148	91.56
317.377	99.56
317.607	86.56
317.836	80.56
318.065	83.56
318.295	100.56
318.524	94.56
318.753	87.56
318.983	86.56
319.212	102.56
319.441	110.56
319.67	98.56
319.9	82.56
320.129	80.56
320.358	77.56
320.587	84.56
320.816	93.56
321.046	99.56
321.275	83.56
321.504	86.56
321.733	84.56
321.962	107.56
322.191	108.56
322.42	109.56
322.649	120.56
322.878	112.56
323.108	116.56
323.337	135.56
323.566	128.56
323.795	142.56
324.024	212.56
324.253	414.56
324.482	914.56
324.71	1893.56
324.939	2456.56
325.168	888.56
325.397	253.56
325.626	154.56
325.855	136.56
326.084	117.56
326.313	134.56
326.542	141.56
326.77	226.56
326.999	462.56
327.228	1055.56
327.457	1856.56
327.686	1473.56
327.914	380.56
328.143	188.56
328.372	141.56
328.6	120.56
328.829	110.56
329.058	111.56
329.287	109.56
329.515	104.56
329.744	122.56
329.972	101.56
330.201	82.56
330.43	104.56
330.658	126.56
330.887	136.56
331.115	117.56
331.344	93.56
331.572	88.56
331.801	91.56
332.03	85.56
332.258	84.56
332.486	82.56
332.715	86.56
332.943	110.56
333.172	94.56
333.4	85.56
333.629	104.56
333.857	122.56
334.085	105.56
334.314	96.56
334.542	83.56
334.771	84.56
334.999	90.56
335.227	92.56
335.455	82.56
335.684	95.56
335.912	91.56
336.14	86.56
336.369	95.56
336.597	89.56
336.825	99.56
337.053	79.56
337.281	89.56
337.51	86.56
337.738	82.56
337.966	89.56
338.194	89.56
338.422	93.56
338.65	94.56
338.878	89.56
339.106	101.56
339.334	84.56
339.562	93.56
339.79	100.56
340.018	82.56
340.246	92.56
340.474	83.56
340.702	86.56
340.93	90.56
341.158	85.56
341.386	113.56
341.614	77.56
341.842	88.56
342.07	87.56
342.298	89.56
342.526	93.56
342.754	85.56
342.981	78.56
343.209	94.56
343.437	92.56
343.665	97.56
343.893	85.56
344.12	85.56
344.348	89.56
344.576	80.56
344.804	92.56
345.031	82.56
345.259	84.56
345.487	85.56
345.714	84.56
345.942	101.56
346.17	109.56
346.397	94.56
346.625	92.56
346.853	97.56
347.08	109.56
347.308	75.56
347.535	95.56
347.763	102.56
347.99	88.56
348.218	93.56
348.445	94.56
348.673	99.56
348.9	102.56
349.128	78.56
349.355	88.56
349.583	86.56
349.81	94.56
350.037	94.56
350.265	77.56
350.492	86.56
350.72	83.56
350.947	96.56
351.174	101.56
351.402	94.56
351.629	100.56
351.856	84.56
352.083	96.56
352.311	91.56
352.538	121.56
352.765	96.56
352.992	105.56
353.22	100.56
353.447	88.56
353.674	117.56
353.901	94.56
354.128	97.56
354.355	84.56
354.583	97.56
354.81	102.56
355.037	91.56
355.264	99.56
355.491	78.56
355.718	85.56
355.945	83.56
356.172	101.56
356.399	89.56
356.626	100.56
356.853	99.56
357.08	84.56
357.307	78.56
357.534	84.56
357.761	82.56
357.988	100.56
358.215	108.56
358.441	96.56
358.668	83.56
358.895	84.56
359.122	75.56
359.349	85.56
359.576	94.56
359.802	100.56
360.029	112.56
360.256	94.56
360.483	78.56
360.709	77.56
360.936	80.56
361.163	90.56
361.39	76.56
361.616	98.56
361.843	91.56
362.07	91.56
362.296	91.56
362.523	100.56
362.749	88.56
362.976	80.56
363.203	96.56
363.429	87.56
363.656	92.56
363.882	87.56
364.109	94.56
364.335	93.56
364.562	78.56
364.788	72.56
365.015	80.56
365.241	102.56
365.468	104.56
365.694	104.56
365.92	90.56
366.147	85.56
366.373	90.56
366.599	97.56
366.826	92.56
367.052	89.56
367.278	89.56
367.505	90.56
367.731	96.56
367.957	92.56
368.184	92.56
368.41	91.56
368.636	95.56
368.862	111.56
369.089	90.56
369.315	91.56
369.541	78.56
369.767	80.56
369.993	82.56
370.219	88.56
370.445	72.56
370.672	80.56
370.898	83.56
371.124	89.56
371.35	81.56
371.576	88.56
371.802	76.56
372.028	73.56
372.254	91.56
372.48	86.56
372.706	85.56
372.932	76.56
373.158	84.56
373.384	83.56
373.61	89.56
373.835	94.56
374.061	84.56
374.287	72.56
374.513	78.56
374.739	77.56
374.965	96.56
375.191	93.56
375.416	76.56
375.642	96.56
375.868	90.56
376.094	93.56
376.319	92.56
376.545	85.56
376.771	69.56
376.997	81.56
377.222	96.56
377.448	76.56
377.674	74.56
377.899	82.56
378.125	94.56
378.35	85.56
378.576	76.56
378.802	85.56
379.027	81.56
379.253	86.56
379.478	82.56
379.704	99.56
379.929	81.56
380.155	79.56
380.38	75.56
380.606	84.56
380.831	91.56
381.057	79.56
381.282	95.56
381.507	100.56
381.733	94.56
381.958	93.56
382.184	110.56
382.409	82.56
382.634	96.56
382.86	101.56
383.085	103.56
383.31	104.56
383.535	107.56
383.761	91.56
383.986	81.56
384.211	86.56
384.436	90.56
384.662	91.56
384.887	83.56
385.112	103.56
385.337	112.56
385.562	106.56
385.787	103.56
386.013	108.56
386.238	107.56
386.463	104.56
386.688	85.56
386.913	93.56
387.138	101.56
387.363	83.56
387.588	95.56
387.813	101.56
388.038	89.56
388.263	95.56
388.488	101.56
388.713	98.56
388.938	85.56
389.163	81.56
389.387	95.56
389.612	89.56
389.837	88.56
390.062	85.56
390.287	81.56
390.512	90.56
390.736	96.56
390.961	91.56
391.186	105.56
391.411	95.56
391.636	86.56
391.86	77.56
392.085	72.56
392.31	68.56
392.534	76.56
392.759	83.56
392.984	82.56
393.208	77.56
393.433	87.56
393.658	96.56
393.882	79.56
394.107	82.56
394.331	93.56
394.556	86.56
394.78	94.56
395.005	84.56
395.229	84.56
395.454	81.56
395.678	78.56
395.903	81.56
396.127	82.56
396.352	75.56
396.576	78.56
396.801	80.56
397.025	70.56
397.249	90.56
397.474	86.56
397.698	78.56
397.922	69.56
398.147	82.56
398.371	72.56
398.595	89.56
398.82	80.56
399.044	72.56
399.268	80.56
399.492	83.56
399.717	90.56
399.941	76.56
400.165	91.56
400.389	85.56
400.613	88.56
400.837	81.56
401.062	90.56
401.286	79.56
401.51	92.56
401.734	82.56
401.958	87.56
402.182	134.56
402.406	146.56
402.63	115.56
402.854	94.56
403.078	88.56
403.302	81.56
403.526	80.56
403.75	76.56
403.974	89.56
404.198	80.56
404.422	86.56
404.645	84.56
404.869	89.56
405.093	99.56
405.317	93.56
405.541	79.56
405.765	110.56
405.988	101.56
406.212	161.56
406.436	214.56
406.66	122.56
406.883	92.56
407.107	75.56
407.331	83.56
407.555	93.56
407.778	92.56
408.002	80.56
408.226	82.56
408.449	90.56
408.673	82.56
408.896	98.56
409.12	84.56
409.344	91.56
409.567	85.56
409.791	94.56
410.014	81.56
410.238	83.56
410.461	90.56
410.685	83.56
410.908	97.56
411.132	106.56
411.355	100.56
411.578	86.56
411.802	80.56
412.025	86.56
412.249	84.56
412.472	84.56
412.695	88.56
412.919	74.56
413.142	89.56
413.365	75.56
413.589	80.56
413.812	80.56
414.035	75.56
414.258	94.56
414.482	77.56
414.705	91.56
414.928	95.56
415.151	87.56
415.374	85.56
415.597	82.56
415.821	78.56
416.044	80.56
416.267	80.56
416.49	85.56
416.713	84.56
416.936	82.56
417.159	72.56
417.382	77.56
417.605	93.56
417.828	77.56
418.051	82.56
418.274	84.56
418.497	78.56
418.72	91.56
418.943	90.56
419.166	79.56
419.389	91.56
419.611	99.56
419.834	79.56
420.057	97.56
420.28	80.56
420.503	68.56
420.726	74.56
420.948	75.56
421.171	80.56
421.394	86.56
421.617	74.56
421.839	96.56
422.062	78.56
422.285	81.56
422.507	81.56
422.73	97.56
422.953	104.56
423.175	71.56
423.398	88.56
423.621	92.56
423.843	90.56
424.066	76.56
424.288	84.56
424.511	84.56
424.733	85.56
424.956	83.56
425.178	80.56
425.401	92.56
425.623	88.56
425.846	97.56
426.068	80.56
426.291	102.56
426.513	78.56
426.735	85.56
426.958	80.56
427.18	90.56
427.402	128.56
427.625	146.56
427.847	117.56
428.069	82.56
428.292	72.56
428.514	69.56
428.736	87.56
428.958	90.56
429.181	83.56
429.403	79.56
429.625	88.56
429.847	93.56
430.069	98.56
430.292	93.56
430.514	90.56
430.736	89.56
430.958	90.56
431.18	81.56
431.402	80.56
431.624	99.56
431.846	90.56
432.068	85.56
432.29	81.56
432.512	82.56
432.734	87.56
432.956	90.56
433.178	81.56
433.4	93.56
433.622	88.56
433.844	76.56
434.066	86.56
434.287	84.56
434.509	87.56
434.731	85.56
434.953	78.56
435.175	98.56
435.397	76.56
435.618	91.56
435.84	114.56
436.062	114.56
436.284	115.56
436.505	106.56
436.727	81.56
436.949	89.56
437.17	87.56
437.392	74.56
437.614	107.56
437.835	102.56
438.057	124.56
438.278	115.56
438.5	94.56
438.721	105.56
438.943	97.56
439.165	89.56
439.386	74.56
439.608	80.56
439.829	93.56
440.05	96.56
440.272	127.56
440.493	103.56
440.715	80.56
440.936	89.56
441.158	84.56
441.379	81.56
441.6	99.56
441.822	91.56
442.043	90.56
442.264	82.56
442.486	101.56
442.707	103.56
442.928	107.56
443.149	103.56
443.371	105.56
443.592	112.56
443.813	110.56
444.034	97.56
444.255	79.56
444.476	94.56
444.698	88.56
444.919	93.56
445.14	135.56
445.361	116.56
445.582	118.56
445.803	136.56
446.024	113.56
446.245	124.56
446.466	102.56
446.687	97.56
446.908	91.56
447.129	80.56
447.35	95.56
447.571	89.56
447.792	92.56
448.013	95.56
448.234	119.56
448.455	92.56
448.675	116.56
448.896	104.56
449.117	92.56
449.338	93.56
449.559	114.56
449.779	122.56
450	93.56
450.221	84.56
450.442	92.56
450.662	85.56
450.883	100.56
451.104	107.56
451.324	85.56
451.545	88.56
451.766	83.56
451.986	94.56
452.207	76.56
452.428	81.56
452.648	98.56
452.869	112.56
453.089	101.56
453.31	121.56
453.53	88.56
453.751	86.56
453.971	91.56
454.192	90.56
454.412	100.56
454.633	74.56
454.853	84.56
455.073	72.56
455.294	93.56
455.514	88.56
455.734	92.56
455.955	69.56
456.175	93.56
456.395	69.56
456.616	62.56
456.836	78.56
457.056	83.56
457.276	87.56
457.497	99.56
457.717	85.56
457.937	68.56
458.157	77.56
458.377	85.56
458.598	110.56
458.818	140.56
459.038	144.56
459.258	114.56
459.478	77.56
459.698	75.56
459.918	86.56
460.138	82.56
460.358	84.56
460.578	92.56
460.798	80.56
461.018	83.56
461.238	90.56
461.458	85.56
461.678	72.56
461.898	88.56
462.118	92.56
462.338	74.56
462.558	68.56
462.777	80.56
462.997	79.56
463.217	82.56
463.437	78.56
463.657	83.56
463.876	86.56
464.096	93.56
464.316	92.56
464.536	96.56
464.755	102.56
464.975	99.56
465.195	154.56
465.414	154.56
465.634	75.56
465.854	83.56
466.073	77.56
466.293	80.56
466.512	78.56
466.732	83.56
466.951	80.56
467.171	93.56
467.391	82.56
467.61	104.56
467.829	97.56
468.049	78.56
468.268	83.56
468.488	70.56
468.707	86.56
468.927	91.56
469.146	70.56
469.365	77.56
469.585	86.56
469.804	78.56
470.023	92.56
470.243	92.56
470.462	92.56
470.681	101.56
470.901	92.56
471.12	69.56
471.339	72.56
471.558	73.56
471.777	80.56
471.997	75.56
472.216	81.56
472.435	98.56
472.654	80.56
472.873	75.56
473.092	82.56
473.311	89.56
473.53	75.56
473.749	70.56
473.968	81.56
474.187	85.56
474.406	85.56
474.625	78.56
474.844	81.56
475.063	74.56
475.282	86.56
475.501	87.56
475.72	76.56
475.939	85.56
476.158	81.56
476.377	78.56
476.596	82.56
476.814	97.56
477.033	91.56
477.252	85.56
477.471	73.56
477.69	74.56
477.908	81.56
478.127	85.56
478.346	86.56
478.564	85.56
478.783	100.56
479.002	90.56
479.22	96.56
479.439	92.56
479.658	104.56
479.876	93.56
480.095	104.56
480.313	84.56
480.532	78.56
480.751	88.56
480.969	95.56
481.188	92.56
481.406	109.56
481.624	103.56
481.843	92.56
482.061	84.56
482.28	89.56
482.498	82.56
482.717	83.56
482.935	93.56
483.153	89.56
483.372	89.56
483.59	77.56
483.808	81.56
484.027	86.56
484.245	75.56
484.463	81.56
484.681	92.56
484.9	93.56
485.118	80.56
485.336	94.56
485.554	75.56
485.772	100.56
485.99	89.56
486.209	89.56
486.427	111.56
486.645	105.56
486.863	103.56
487.081	101.56
487.299	100.56
487.517	90.56
487.735	94.56
487.953	104.56
488.171	96.56
488.389	90.56
488.607	95.56
488.825	74.56
489.043	97.56
489.261	82.56
489.479	97.56
489.696	80.56
489.914	79.56
490.132	93.56
490.35	91.56
490.568	81.56
490.786	92.56
491.003	78.56
491.221	86.56
491.439	93.56
491.657	96.56
491.874	93.56
492.092	80.56
492.31	84.56
492.527	82.56
492.745	91.56
492.963	93.56
493.18	82.56
493.398	93.56
493.615	79.56
493.833	87.56
494.05	101.56
494.268	92.56
494.485	78.56
494.703	76.56
494.92	93.56
495.138	84.56
495.355	78.56
495.573	87.56
495.79	81.56
496.008	100.56
496.225	90.56
496.442	83.56
496.66	88.56
496.877	91.56
497.094	91.56
497.312	99.56
497.529	77.56
497.746	83.56
497.963	89.56
498.181	98.56
498.398	85.56
498.615	116.56
498.832	92.56
499.049	90.56
499.267	78.56
499.484	84.56
499.701	76.56
499.918	92.56
500.135	89.56
500.352	82.56
500.569	71.56
500.786	84.56
501.003	81.56
501.22	85.56
501.437	97.56
501.654	91.56
501.871	96.56
502.088	98.56
502.305	78.56
502.522	91.56
502.739	69.56
502.956	82.56
503.172	78.56
503.389	107.56
503.606	95.56
503.823	85.56
504.04	101.56
504.256	102.56
504.473	95.56
504.69	102.56
504.907	95.56
505.123	87.56
505.34	70.56
505.557	80.56
505.773	95.56
505.99	75.56
506.207	81.56
506.423	90.56
506.64	91.56
506.856	81.56
507.073	87.56
507.289	82.56
507.506	96.56
507.722	105.56
507.939	111.56
508.155	85.56
508.372	88.56
508.588	80.56
508.805	93.56
509.021	92.56
509.238	94.56
509.454	92.56
509.67	116.56
509.887	93.56
510.103	131.56
510.319	211.56
510.536	796.56
510.752	2473.56
510.968	685.56
511.184	156.56
511.401	108.56
511.617	99.56
511.833	97.56
512.049	97.56
512.265	90.56
512.481	102.56
512.698	86.56
512.914	93.56
513.13	86.56
513.346	92.56
513.562	88.56
513.778	81.56
513.994	76.56
514.21	95.56
514.426	116.56
514.642	136.56
514.858	123.56
515.074	160.56
515.29	443.56
515.506	1497.56
515.721	517.56
515.937	156.56
516.153	104.56
516.369	78.56
516.585	85.56
516.801	77.56
517.016	103.56
