Data from Uncirc_2003_H10_HRD10591_00075.txt Node
Date: Wed Jan 03 10:36:02 EST 2024
User: Yrep
Spectrometer: HR+D1059
Trigger mode: 1
Integration Time (sec): 1.000000E-1
Scans to average: 1
Electric dark correction enabled: true
Nonlinearity correction enabled: false
Boxcar width: 0
XAxis mode: Wavelengths
Number of Pixels in Spectrum: 2048
>>>>>Begin Spectral Data<<<<<
223.165	-19.5
223.4	-19.5
223.635	-19.5
223.869	-27.5
224.104	-22.5
224.338	-1.5
224.573	-24.5
224.808	-15.5
225.042	-8.5
225.277	-1.5
225.511	-0.5
225.746	4.5
225.98	8.5
226.215	19.5
226.449	13.5
226.683	10.5
226.918	28.5
227.152	36.5
227.387	34.5
227.621	29.5
227.856	48.5
228.09	45.5
228.324	42.5
228.559	52.5
228.793	58.5
229.027	49.5
229.262	76.5
229.496	73.5
229.73	78.5
229.964	67.5
230.199	66.5
230.433	76.5
230.667	66.5
230.901	70.5
231.136	81.5
231.37	76.5
231.604	88.5
231.838	70.5
232.072	85.5
232.306	76.5
232.541	76.5
232.775	78.5
233.009	85.5
233.243	87.5
233.477	83.5
233.711	85.5
233.945	74.5
234.179	80.5
234.413	66.5
234.647	88.5
234.881	77.5
235.115	82.5
235.349	87.5
235.583	89.5
235.817	80.5
236.051	89.5
236.285	79.5
236.519	78.5
236.753	70.5
236.987	74.5
237.221	87.5
237.455	74.5
237.689	85.5
237.922	87.5
238.156	75.5
238.39	79.5
238.624	72.5
238.858	70.5
239.091	74.5
239.325	95.5
239.559	74.5
239.793	88.5
240.027	86.5
240.26	86.5
240.494	71.5
240.728	77.5
240.961	82.5
241.195	75.5
241.429	69.5
241.662	77.5
241.896	74.5
242.13	67.5
242.363	85.5
242.597	76.5
242.83	84.5
243.064	83.5
243.298	94.5
243.531	83.5
243.765	67.5
243.998	72.5
244.232	85.5
244.465	88.5
244.699	80.5
244.932	79.5
245.166	72.5
245.399	79.5
245.633	84.5
245.866	77.5
246.099	80.5
246.333	85.5
246.566	82.5
246.8	83.5
247.033	76.5
247.266	82.5
247.5	65.5
247.733	83.5
247.966	82.5
248.2	72.5
248.433	78.5
248.666	79.5
248.899	83.5
249.133	85.5
249.366	95.5
249.599	94.5
249.832	71.5
250.066	82.5
250.299	81.5
250.532	79.5
250.765	84.5
250.998	77.5
251.231	67.5
251.465	80.5
251.698	57.5
251.931	83.5
252.164	82.5
252.397	69.5
252.63	91.5
252.863	68.5
253.096	78.5
253.329	71.5
253.562	84.5
253.795	74.5
254.028	66.5
254.261	67.5
254.494	67.5
254.727	81.5
254.96	73.5
255.193	71.5
255.426	89.5
255.659	77.5
255.892	93.5
256.124	71.5
256.357	85.5
256.59	86.5
256.823	66.5
257.056	68.5
257.289	77.5
257.521	76.5
257.754	83.5
257.987	80.5
258.22	70.5
258.452	74.5
258.685	96.5
258.918	77.5
259.151	86.5
259.383	94.5
259.616	75.5
259.849	84.5
260.081	97.5
260.314	87.5
260.547	85.5
260.779	79.5
261.012	65.5
261.244	81.5
261.477	105.5
261.71	94.5
261.942	94.5
262.175	120.5
262.407	83.5
262.64	82.5
262.872	71.5
263.105	87.5
263.337	73.5
263.57	75.5
263.802	78.5
264.035	72.5
264.267	78.5
264.499	84.5
264.732	68.5
264.964	89.5
265.197	81.5
265.429	93.5
265.661	88.5
265.894	89.5
266.126	84.5
266.358	76.5
266.591	75.5
266.823	82.5
267.055	89.5
267.287	85.5
267.52	80.5
267.752	79.5
267.984	73.5
268.216	73.5
268.448	80.5
268.681	82.5
268.913	85.5
269.145	88.5
269.377	83.5
269.609	91.5
269.841	94.5
270.073	95.5
270.306	90.5
270.538	85.5
270.77	88.5
271.002	71.5
271.234	93.5
271.466	89.5
271.698	85.5
271.93	82.5
272.162	90.5
272.394	86.5
272.626	95.5
272.858	89.5
273.09	82.5
273.322	69.5
273.553	89.5
273.785	94.5
274.017	96.5
274.249	84.5
274.481	80.5
274.713	88.5
274.945	83.5
275.176	88.5
275.408	87.5
275.64	86.5
275.872	88.5
276.104	89.5
276.335	111.5
276.567	89.5
276.799	107.5
277.031	94.5
277.262	86.5
277.494	83.5
277.726	83.5
277.957	73.5
278.189	75.5
278.421	90.5
278.652	80.5
278.884	86.5
279.115	78.5
279.347	80.5
279.579	87.5
279.81	91.5
280.042	91.5
280.273	77.5
280.505	103.5
280.736	95.5
280.968	97.5
281.199	88.5
281.431	80.5
281.662	100.5
281.894	98.5
282.125	104.5
282.356	111.5
282.588	146.5
282.819	116.5
283.051	82.5
283.282	82.5
283.513	78.5
283.745	96.5
283.976	91.5
284.207	85.5
284.439	103.5
284.67	84.5
284.901	85.5
285.132	95.5
285.364	85.5
285.595	83.5
285.826	90.5
286.057	76.5
286.288	70.5
286.52	90.5
286.751	85.5
286.982	86.5
287.213	86.5
287.444	98.5
287.675	93.5
287.906	82.5
288.138	85.5
288.369	100.5
288.6	93.5
288.831	88.5
289.062	103.5
289.293	89.5
289.524	85.5
289.755	94.5
289.986	88.5
290.217	93.5
290.448	88.5
290.679	93.5
290.91	97.5
291.141	75.5
291.371	97.5
291.602	85.5
291.833	82.5
292.064	98.5
292.295	86.5
292.526	90.5
292.757	90.5
292.987	88.5
293.218	100.5
293.449	78.5
293.68	90.5
293.91	85.5
294.141	97.5
294.372	86.5
294.603	91.5
294.833	99.5
295.064	91.5
295.295	93.5
295.525	97.5
295.756	90.5
295.987	115.5
296.217	145.5
296.448	138.5
296.679	92.5
296.909	87.5
297.14	90.5
297.37	87.5
297.601	94.5
297.831	103.5
298.062	95.5
298.292	85.5
298.523	81.5
298.753	83.5
298.984	86.5
299.214	86.5
299.445	94.5
299.675	96.5
299.905	90.5
300.136	73.5
300.366	97.5
300.597	93.5
300.827	91.5
301.057	98.5
301.288	106.5
301.518	98.5
301.748	88.5
301.979	102.5
302.209	101.5
302.439	93.5
302.669	79.5
302.9	90.5
303.13	99.5
303.36	91.5
303.59	113.5
303.82	86.5
304.051	82.5
304.281	88.5
304.511	99.5
304.741	83.5
304.971	82.5
305.201	104.5
305.431	70.5
305.661	87.5
305.891	93.5
306.121	119.5
306.352	98.5
306.582	108.5
306.812	101.5
307.042	96.5
307.272	98.5
307.502	93.5
307.731	97.5
307.961	79.5
308.191	77.5
308.421	94.5
308.651	97.5
308.881	88.5
309.111	109.5
309.341	100.5
309.571	99.5
309.8	90.5
310.03	84.5
310.26	98.5
310.49	109.5
310.72	101.5
310.949	96.5
311.179	91.5
311.409	87.5
311.639	97.5
311.868	106.5
312.098	83.5
312.328	100.5
312.557	101.5
312.787	96.5
313.017	106.5
313.246	101.5
313.476	87.5
313.706	98.5
313.935	100.5
314.165	90.5
314.394	101.5
314.624	100.5
314.853	102.5
315.083	99.5
315.312	87.5
315.542	87.5
315.771	88.5
316.001	95.5
316.23	88.5
316.46	89.5
316.689	88.5
316.919	91.5
317.148	103.5
317.377	99.5
317.607	93.5
317.836	91.5
318.065	101.5
318.295	102.5
318.524	80.5
318.753	79.5
318.983	107.5
319.212	97.5
319.441	117.5
319.67	100.5
319.9	97.5
320.129	104.5
320.358	88.5
320.587	90.5
320.816	97.5
321.046	95.5
321.275	112.5
321.504	114.5
321.733	105.5
321.962	83.5
322.191	101.5
322.42	110.5
322.649	107.5
322.878	111.5
323.108	121.5
323.337	118.5
323.566	145.5
323.795	149.5
324.024	220.5
324.253	425.5
324.482	921.5
324.71	1899.5
324.939	2551.5
325.168	907.5
325.397	271.5
325.626	153.5
325.855	141.5
326.084	146.5
326.313	126.5
326.542	155.5
326.77	226.5
326.999	506.5
327.228	1066.5
327.457	1943.5
327.686	1596.5
327.914	426.5
328.143	191.5
328.372	149.5
328.6	137.5
328.829	126.5
329.058	127.5
329.287	122.5
329.515	101.5
329.744	104.5
329.972	107.5
330.201	98.5
330.43	109.5
330.658	133.5
330.887	137.5
331.115	123.5
331.344	97.5
331.572	107.5
331.801	80.5
332.03	103.5
332.258	81.5
332.486	99.5
332.715	91.5
332.943	90.5
333.172	80.5
333.4	90.5
333.629	93.5
333.857	100.5
334.085	102.5
334.314	97.5
334.542	97.5
334.771	99.5
334.999	99.5
335.227	91.5
335.455	88.5
335.684	99.5
335.912	84.5
336.14	96.5
336.369	100.5
336.597	103.5
336.825	94.5
337.053	97.5
337.281	96.5
337.51	90.5
337.738	98.5
337.966	85.5
338.194	82.5
338.422	102.5
338.65	104.5
338.878	94.5
339.106	98.5
339.334	89.5
339.562	95.5
339.79	85.5
340.018	84.5
340.246	102.5
340.474	96.5
340.702	93.5
340.93	99.5
341.158	98.5
341.386	94.5
341.614	91.5
341.842	94.5
342.07	89.5
342.298	91.5
342.526	94.5
342.754	80.5
342.981	90.5
343.209	86.5
343.437	104.5
343.665	92.5
343.893	99.5
344.12	88.5
344.348	86.5
344.576	94.5
344.804	102.5
345.031	97.5
345.259	89.5
345.487	87.5
345.714	87.5
345.942	92.5
346.17	97.5
346.397	93.5
346.625	94.5
346.853	97.5
347.08	95.5
347.308	110.5
347.535	102.5
347.763	87.5
347.99	96.5
348.218	95.5
348.445	108.5
348.673	89.5
348.9	98.5
349.128	100.5
349.355	88.5
349.583	94.5
349.81	101.5
350.037	99.5
350.265	98.5
350.492	95.5
350.72	101.5
350.947	104.5
351.174	101.5
351.402	107.5
351.629	104.5
351.856	82.5
352.083	104.5
352.311	107.5
352.538	115.5
352.765	110.5
352.992	112.5
353.22	102.5
353.447	93.5
353.674	85.5
353.901	89.5
354.128	100.5
354.355	86.5
354.583	107.5
354.81	104.5
355.037	104.5
355.264	92.5
355.491	99.5
355.718	90.5
355.945	97.5
356.172	92.5
356.399	97.5
356.626	98.5
356.853	97.5
357.08	95.5
357.307	89.5
357.534	90.5
357.761	91.5
357.988	106.5
358.215	101.5
358.441	92.5
358.668	88.5
358.895	89.5
359.122	89.5
359.349	85.5
359.576	86.5
359.802	94.5
360.029	109.5
360.256	111.5
360.483	104.5
360.709	95.5
360.936	88.5
361.163	102.5
361.39	93.5
361.616	87.5
361.843	85.5
362.07	91.5
362.296	98.5
362.523	81.5
362.749	103.5
362.976	101.5
363.203	83.5
363.429	94.5
363.656	101.5
363.882	102.5
364.109	86.5
364.335	91.5
364.562	83.5
364.788	92.5
365.015	81.5
365.241	111.5
365.468	112.5
365.694	106.5
365.92	95.5
366.147	98.5
366.373	90.5
366.599	96.5
366.826	94.5
367.052	81.5
367.278	96.5
367.505	95.5
367.731	107.5
367.957	92.5
368.184	104.5
368.41	101.5
368.636	115.5
368.862	123.5
369.089	97.5
369.315	89.5
369.541	97.5
369.767	103.5
369.993	97.5
370.219	92.5
370.445	83.5
370.672	90.5
370.898	95.5
371.124	88.5
371.35	78.5
371.576	74.5
371.802	69.5
372.028	82.5
372.254	90.5
372.48	104.5
372.706	91.5
372.932	86.5
373.158	82.5
373.384	90.5
373.61	83.5
373.835	91.5
374.061	92.5
374.287	103.5
374.513	97.5
374.739	97.5
374.965	88.5
375.191	91.5
375.416	81.5
375.642	88.5
375.868	86.5
376.094	80.5
376.319	103.5
376.545	88.5
376.771	82.5
376.997	85.5
377.222	74.5
377.448	88.5
377.674	82.5
377.899	95.5
378.125	86.5
378.35	89.5
378.576	90.5
378.802	99.5
379.027	90.5
379.253	94.5
379.478	86.5
379.704	101.5
379.929	97.5
380.155	94.5
380.38	99.5
380.606	97.5
380.831	106.5
381.057	92.5
381.282	74.5
381.507	87.5
381.733	91.5
381.958	95.5
382.184	98.5
382.409	90.5
382.634	97.5
382.86	98.5
383.085	100.5
383.31	93.5
383.535	102.5
383.761	89.5
383.986	96.5
384.211	90.5
384.436	80.5
384.662	100.5
384.887	114.5
385.112	104.5
385.337	106.5
385.562	103.5
385.787	102.5
386.013	105.5
386.238	116.5
386.463	96.5
386.688	108.5
386.913	117.5
387.138	91.5
387.363	104.5
387.588	104.5
387.813	104.5
388.038	103.5
388.263	112.5
388.488	109.5
388.713	89.5
388.938	96.5
389.163	97.5
389.387	98.5
389.612	90.5
389.837	91.5
390.062	93.5
390.287	91.5
390.512	95.5
390.736	100.5
390.961	79.5
391.186	92.5
391.411	95.5
391.636	91.5
391.86	87.5
392.085	91.5
392.31	84.5
392.534	89.5
392.759	77.5
392.984	85.5
393.208	85.5
393.433	89.5
393.658	96.5
393.882	79.5
394.107	85.5
394.331	90.5
394.556	90.5
394.78	74.5
395.005	94.5
395.229	88.5
395.454	83.5
395.678	84.5
395.903	89.5
396.127	84.5
396.352	90.5
396.576	84.5
396.801	73.5
397.025	86.5
397.249	89.5
397.474	85.5
397.698	83.5
397.922	93.5
398.147	88.5
398.371	74.5
398.595	94.5
398.82	74.5
399.044	88.5
399.268	98.5
399.492	92.5
399.717	91.5
399.941	97.5
400.165	96.5
400.389	92.5
400.613	88.5
400.837	84.5
401.062	95.5
401.286	91.5
401.51	68.5
401.734	86.5
401.958	100.5
402.182	131.5
402.406	154.5
402.63	104.5
402.854	92.5
403.078	82.5
403.302	87.5
403.526	100.5
403.75	88.5
403.974	80.5
404.198	94.5
404.422	75.5
404.645	96.5
404.869	91.5
405.093	85.5
405.317	93.5
405.541	86.5
405.765	101.5
405.988	108.5
406.212	156.5
406.436	223.5
406.66	149.5
406.883	90.5
407.107	105.5
407.331	91.5
407.555	97.5
407.778	98.5
408.002	72.5
408.226	85.5
408.449	74.5
408.673	90.5
408.896	86.5
409.12	90.5
409.344	90.5
409.567	77.5
409.791	91.5
410.014	106.5
410.238	92.5
410.461	85.5
410.685	99.5
410.908	104.5
411.132	96.5
411.355	103.5
411.578	100.5
411.802	97.5
412.025	89.5
412.249	89.5
412.472	101.5
412.695	90.5
412.919	94.5
413.142	91.5
413.365	81.5
413.589	89.5
413.812	83.5
414.035	98.5
414.258	91.5
414.482	100.5
414.705	108.5
414.928	112.5
415.151	91.5
415.374	91.5
415.597	86.5
415.821	82.5
416.044	80.5
416.267	87.5
416.49	97.5
416.713	72.5
416.936	82.5
417.159	91.5
417.382	91.5
417.605	83.5
417.828	99.5
418.051	85.5
418.274	82.5
418.497	85.5
418.72	78.5
418.943	97.5
419.166	92.5
419.389	84.5
419.611	101.5
419.834	98.5
420.057	96.5
420.28	102.5
420.503	89.5
420.726	85.5
420.948	91.5
421.171	102.5
421.394	91.5
421.617	94.5
421.839	91.5
422.062	79.5
422.285	97.5
422.507	99.5
422.73	100.5
422.953	93.5
423.175	90.5
423.398	90.5
423.621	81.5
423.843	86.5
424.066	78.5
424.288	90.5
424.511	81.5
424.733	95.5
424.956	110.5
425.178	89.5
425.401	98.5
425.623	109.5
425.846	95.5
426.068	88.5
426.291	87.5
426.513	105.5
426.735	85.5
426.958	89.5
427.18	105.5
427.402	140.5
427.625	157.5
427.847	108.5
428.069	101.5
428.292	84.5
428.514	85.5
428.736	83.5
428.958	79.5
429.181	91.5
429.403	74.5
429.625	89.5
429.847	86.5
430.069	100.5
430.292	101.5
430.514	90.5
430.736	86.5
430.958	95.5
431.18	88.5
431.402	77.5
431.624	78.5
431.846	86.5
432.068	63.5
432.29	76.5
432.512	84.5
432.734	96.5
432.956	90.5
433.178	95.5
433.4	105.5
433.622	86.5
433.844	83.5
434.066	94.5
434.287	92.5
434.509	89.5
434.731	87.5
434.953	89.5
435.175	89.5
435.397	89.5
435.618	98.5
435.84	118.5
436.062	109.5
436.284	102.5
436.505	119.5
436.727	109.5
436.949	84.5
437.17	82.5
437.392	80.5
437.614	96.5
437.835	106.5
438.057	114.5
438.278	102.5
438.5	101.5
438.721	113.5
438.943	105.5
439.165	80.5
439.386	83.5
439.608	99.5
439.829	99.5
440.05	137.5
440.272	135.5
440.493	106.5
440.715	86.5
440.936	97.5
441.158	84.5
441.379	91.5
441.6	81.5
441.822	101.5
442.043	89.5
442.264	102.5
442.486	100.5
442.707	84.5
442.928	109.5
443.149	128.5
443.371	140.5
443.592	95.5
443.813	107.5
444.034	101.5
444.255	93.5
444.476	96.5
444.698	87.5
444.919	88.5
445.14	122.5
445.361	118.5
445.582	113.5
445.803	132.5
446.024	144.5
446.245	147.5
446.466	114.5
446.687	87.5
446.908	86.5
447.129	78.5
447.35	84.5
447.571	91.5
447.792	96.5
448.013	99.5
448.234	113.5
448.455	93.5
448.675	108.5
448.896	120.5
449.117	101.5
449.338	112.5
449.559	129.5
449.779	137.5
450	95.5
450.221	84.5
450.442	79.5
450.662	88.5
450.883	75.5
451.104	109.5
451.324	105.5
451.545	83.5
451.766	98.5
451.986	104.5
452.207	81.5
452.428	94.5
452.648	93.5
452.869	103.5
453.089	126.5
453.31	112.5
453.53	93.5
453.751	85.5
453.971	85.5
454.192	112.5
454.412	99.5
454.633	87.5
454.853	91.5
455.073	94.5
455.294	97.5
455.514	105.5
455.734	86.5
455.955	90.5
456.175	75.5
456.395	89.5
456.616	84.5
456.836	88.5
457.056	77.5
457.276	74.5
457.497	84.5
457.717	82.5
457.937	78.5
458.157	80.5
458.377	98.5
458.598	111.5
458.818	133.5
459.038	142.5
459.258	120.5
459.478	91.5
459.698	90.5
459.918	78.5
460.138	76.5
460.358	79.5
460.578	79.5
460.798	95.5
461.018	76.5
461.238	93.5
461.458	85.5
461.678	97.5
461.898	84.5
462.118	86.5
462.338	79.5
462.558	82.5
462.777	94.5
462.997	85.5
463.217	90.5
463.437	90.5
463.657	102.5
463.876	84.5
464.096	83.5
464.316	91.5
464.536	87.5
464.755	81.5
464.975	104.5
465.195	193.5
465.414	156.5
465.634	112.5
465.854	93.5
466.073	84.5
466.293	83.5
466.512	97.5
466.732	89.5
466.951	91.5
467.171	89.5
467.391	72.5
467.61	100.5
467.829	99.5
468.049	75.5
468.268	91.5
468.488	91.5
468.707	93.5
468.927	71.5
469.146	88.5
469.365	89.5
469.585	77.5
469.804	84.5
470.023	95.5
470.243	94.5
470.462	94.5
470.681	91.5
470.901	69.5
471.12	88.5
471.339	72.5
471.558	83.5
471.777	78.5
471.997	83.5
472.216	82.5
472.435	91.5
472.654	84.5
472.873	91.5
473.092	84.5
473.311	86.5
473.53	79.5
473.749	82.5
473.968	74.5
474.187	97.5
474.406	85.5
474.625	98.5
474.844	93.5
475.063	88.5
475.282	88.5
475.501	92.5
475.72	99.5
475.939	94.5
476.158	72.5
476.377	87.5
476.596	78.5
476.814	85.5
477.033	86.5
477.252	95.5
477.471	77.5
477.69	95.5
477.908	87.5
478.127	82.5
478.346	89.5
478.564	98.5
478.783	95.5
479.002	98.5
479.22	85.5
479.439	102.5
479.658	96.5
479.876	91.5
480.095	95.5
480.313	86.5
480.532	80.5
480.751	81.5
480.969	94.5
481.188	109.5
481.406	97.5
481.624	87.5
481.843	87.5
482.061	90.5
482.28	98.5
482.498	79.5
482.717	82.5
482.935	93.5
483.153	86.5
483.372	95.5
483.59	93.5
483.808	87.5
484.027	83.5
484.245	83.5
484.463	96.5
484.681	83.5
484.9	97.5
485.118	87.5
485.336	93.5
485.554	74.5
485.772	94.5
485.99	117.5
486.209	115.5
486.427	106.5
486.645	99.5
486.863	123.5
487.081	113.5
487.299	103.5
487.517	96.5
487.735	83.5
487.953	94.5
488.171	95.5
488.389	104.5
488.607	104.5
488.825	95.5
489.043	83.5
489.261	100.5
489.479	81.5
489.696	81.5
489.914	114.5
490.132	103.5
490.35	84.5
490.568	87.5
490.786	77.5
491.003	97.5
491.221	86.5
491.439	91.5
491.657	101.5
491.874	94.5
492.092	85.5
492.31	98.5
492.527	90.5
492.745	102.5
492.963	96.5
493.18	100.5
493.398	91.5
493.615	94.5
493.833	92.5
494.05	82.5
494.268	94.5
494.485	94.5
494.703	84.5
494.92	90.5
495.138	102.5
495.355	105.5
495.573	111.5
495.79	93.5
496.008	99.5
496.225	99.5
496.442	95.5
496.66	99.5
496.877	102.5
497.094	87.5
497.312	93.5
497.529	69.5
497.746	77.5
497.963	94.5
498.181	97.5
498.398	96.5
498.615	109.5
498.832	100.5
499.049	97.5
499.267	94.5
499.484	92.5
499.701	89.5
499.918	87.5
500.135	77.5
500.352	93.5
500.569	86.5
500.786	77.5
501.003	83.5
501.22	79.5
501.437	97.5
501.654	101.5
501.871	110.5
502.088	110.5
502.305	79.5
502.522	81.5
502.739	85.5
502.956	104.5
503.172	103.5
503.389	103.5
503.606	96.5
503.823	105.5
504.04	86.5
504.256	88.5
504.473	97.5
504.69	91.5
504.907	85.5
505.123	82.5
505.34	83.5
505.557	85.5
505.773	83.5
505.99	91.5
506.207	80.5
506.423	99.5
506.64	91.5
506.856	81.5
507.073	95.5
507.289	88.5
507.506	95.5
507.722	95.5
507.939	110.5
508.155	85.5
508.372	106.5
508.588	95.5
508.805	99.5
509.021	97.5
509.238	99.5
509.454	105.5
509.67	88.5
509.887	111.5
510.103	145.5
510.319	210.5
510.536	856.5
510.752	2634.5
510.968	722.5
511.184	169.5
511.401	125.5
511.617	90.5
511.833	74.5
512.049	81.5
512.265	102.5
512.481	90.5
512.698	93.5
512.914	96.5
513.13	86.5
513.346	85.5
513.562	91.5
513.778	104.5
513.994	101.5
514.21	113.5
514.426	128.5
514.642	137.5
514.858	133.5
515.074	171.5
515.29	470.5
515.506	1597.5
515.721	583.5
515.937	161.5
516.153	112.5
516.369	80.5
516.585	98.5
516.801	96.5
517.016	99.5
517.232	95.5
517.448	89.5
517.664	88.5
517.879	87.5
518.095	98.5
518.311	81.5
518.527	98.5
518.742	89.5
518.958	113.5
519.173	91.5
519.389	89.5
519.605	101.5
519.82	99.5
520.036	114.5
520.251	112.5
520.467	125.5
520.682	109.5
520.898	117.5
521.113	112.5
521.329	149.5
521.544	211.5
521.76	619.5
521.975	2644.5
522.19	1563.5
522.406	336.5
522.621	129.5
522.836	105.5
523.052	101.5
523.267	106.5
523.482	103.5
523.698	102.5
523.913	117.5
524.128	94.5
524.343	117.5
524.559	88.5
524.774	96.5
524.989	97.5
525.204	109.5
525.419	100.5
525.634	94.5
525.849	98.5
526.064	106.5
526.28	90.5
526.495	85.5
526.71	96.5
526.925	97.5
527.14	90.5
527.355	84.5
527.57	96.5
527.785	88.5
527.999	88.5
528.214	103.5
528.429	95.5
528.644	100.5
528.859	88.5
529.074	120.5
529.289	125.5
529.503	165.5
529.718	101.5
529.933	85.5
530.148	85.5
530.363	91.5
530.577	89.5
530.792	105.5
531.007	87.5
531.221	93.5
531.436	85.5
531.651	91.5
531.865	94.5
532.08	68.5
532.295	86.5
532.509	83.5
532.724	91.5
532.938	101.5
533.153	97.5
533.367	96.5
533.582	89.5
533.796	88.5
534.011	90.5
534.225	84.5
534.44	92.5
534.654	78.5
534.868	110.5
535.083	95.5
535.297	92.5
