Data from Uncirc_2003_H10_HRD10591_00001.txt Node
Date: Wed Jan 03 10:35:48 EST 2024
User: Yrep
Spectrometer: HR+D1059
Trigger mode: 1
Integration Time (sec): 1.000000E-1
Scans to average: 1
Electric dark correction enabled: true
Nonlinearity correction enabled: false
Boxcar width: 0
XAxis mode: Wavelengths
Number of Pixels in Spectrum: 2048
>>>>>Begin Spectral Data<<<<<
223.165	-18.75
223.4	-18.75
223.635	-18.75
223.869	-4.75
224.104	-17.75
224.338	-15.75
224.573	-22.75
224.808	-11.75
225.042	-15.75
225.277	-3.75
225.511	0.25
225.746	-4.75
225.98	9.25
226.215	20.25
226.449	16.25
226.683	18.25
226.918	26.25
227.152	25.25
227.387	41.25
227.621	44.25
227.856	58.25
228.09	55.25
228.324	53.25
228.559	59.25
228.793	66.25
229.027	64.25
229.262	53.25
229.496	80.25
229.73	68.25
229.964	83.25
230.199	81.25
230.433	86.25
230.667	80.25
230.901	77.25
231.136	78.25
231.37	70.25
231.604	86.25
231.838	72.25
232.072	96.25
232.306	81.25
232.541	81.25
232.775	85.25
233.009	84.25
233.243	102.25
233.477	88.25
233.711	92.25
233.945	90.25
234.179	72.25
234.413	82.25
234.647	86.25
234.881	71.25
235.115	82.25
235.349	90.25
235.583	88.25
235.817	89.25
236.051	97.25
236.285	81.25
236.519	87.25
236.753	74.25
236.987	84.25
237.221	84.25
237.455	85.25
237.689	81.25
237.922	90.25
238.156	78.25
238.39	63.25
238.624	82.25
238.858	81.25
239.091	93.25
239.325	75.25
239.559	80.25
239.793	82.25
240.027	68.25
240.26	55.25
240.494	85.25
240.728	89.25
240.961	72.25
241.195	71.25
241.429	74.25
241.662	97.25
241.896	82.25
242.13	86.25
242.363	83.25
242.597	74.25
242.83	72.25
243.064	76.25
243.298	91.25
243.531	81.25
243.765	75.25
243.998	86.25
244.232	90.25
244.465	82.25
244.699	84.25
244.932	84.25
245.166	86.25
245.399	75.25
245.633	79.25
245.866	77.25
246.099	87.25
246.333	89.25
246.566	75.25
246.8	85.25
247.033	75.25
247.266	87.25
247.5	87.25
247.733	84.25
247.966	90.25
248.2	87.25
248.433	79.25
248.666	78.25
248.899	92.25
249.133	85.25
249.366	92.25
249.599	87.25
249.832	75.25
250.066	99.25
250.299	85.25
250.532	93.25
250.765	92.25
250.998	77.25
251.231	77.25
251.465	88.25
251.698	74.25
251.931	83.25
252.164	76.25
252.397	93.25
252.63	85.25
252.863	90.25
253.096	89.25
253.329	75.25
253.562	93.25
253.795	74.25
254.028	79.25
254.261	97.25
254.494	92.25
254.727	88.25
254.96	93.25
255.193	98.25
255.426	78.25
255.659	82.25
255.892	89.25
256.124	90.25
256.357	96.25
256.59	76.25
256.823	78.25
257.056	80.25
257.289	85.25
257.521	89.25
257.754	84.25
257.987	94.25
258.22	94.25
258.452	93.25
258.685	89.25
258.918	90.25
259.151	77.25
259.383	92.25
259.616	81.25
259.849	82.25
260.081	88.25
260.314	88.25
260.547	86.25
260.779	87.25
261.012	92.25
261.244	78.25
261.477	84.25
261.71	83.25
261.942	105.25
262.175	103.25
262.407	86.25
262.64	86.25
262.872	93.25
263.105	93.25
263.337	91.25
263.57	99.25
263.802	101.25
264.035	102.25
264.267	94.25
264.499	78.25
264.732	93.25
264.964	80.25
265.197	73.25
265.429	90.25
265.661	74.25
265.894	77.25
266.126	78.25
266.358	87.25
266.591	85.25
266.823	87.25
267.055	83.25
267.287	95.25
267.52	89.25
267.752	82.25
267.984	89.25
268.216	83.25
268.448	84.25
268.681	83.25
268.913	86.25
269.145	84.25
269.377	92.25
269.609	79.25
269.841	94.25
270.073	82.25
270.306	83.25
270.538	82.25
270.77	80.25
271.002	82.25
271.234	85.25
271.466	75.25
271.698	78.25
271.93	82.25
272.162	93.25
272.394	75.25
272.626	90.25
272.858	91.25
273.09	90.25
273.322	91.25
273.553	92.25
273.785	88.25
274.017	92.25
274.249	89.25
274.481	81.25
274.713	84.25
274.945	85.25
275.176	93.25
275.408	88.25
275.64	90.25
275.872	86.25
276.104	82.25
276.335	93.25
276.567	107.25
276.799	112.25
277.031	106.25
277.262	101.25
277.494	97.25
277.726	85.25
277.957	98.25
278.189	89.25
278.421	73.25
278.652	86.25
278.884	84.25
279.115	68.25
279.347	84.25
279.579	71.25
279.81	74.25
280.042	80.25
280.273	82.25
280.505	80.25
280.736	83.25
280.968	86.25
281.199	86.25
281.431	88.25
281.662	99.25
281.894	97.25
282.125	114.25
282.356	131.25
282.588	142.25
282.819	117.25
283.051	89.25
283.282	88.25
283.513	90.25
283.745	91.25
283.976	93.25
284.207	90.25
284.439	96.25
284.67	81.25
284.901	102.25
285.132	98.25
285.364	90.25
285.595	76.25
285.826	93.25
286.057	80.25
286.288	82.25
286.52	78.25
286.751	87.25
286.982	96.25
287.213	94.25
287.444	84.25
287.675	80.25
287.906	90.25
288.138	85.25
288.369	91.25
288.6	81.25
288.831	78.25
289.062	91.25
289.293	86.25
289.524	64.25
289.755	84.25
289.986	77.25
290.217	91.25
290.448	84.25
290.679	85.25
290.91	78.25
291.141	90.25
291.371	93.25
291.602	88.25
291.833	88.25
292.064	100.25
292.295	103.25
292.526	104.25
292.757	97.25
292.987	89.25
293.218	109.25
293.449	87.25
293.68	94.25
293.91	94.25
294.141	96.25
294.372	90.25
294.603	83.25
294.833	94.25
295.064	107.25
295.295	84.25
295.525	91.25
295.756	100.25
295.987	97.25
296.217	131.25
296.448	130.25
296.679	114.25
296.909	91.25
297.14	92.25
297.37	102.25
297.601	90.25
297.831	98.25
298.062	100.25
298.292	88.25
298.523	78.25
298.753	93.25
298.984	97.25
299.214	101.25
299.445	92.25
299.675	92.25
299.905	91.25
300.136	89.25
300.366	99.25
300.597	88.25
300.827	82.25
301.057	104.25
301.288	95.25
301.518	90.25
301.748	84.25
301.979	93.25
302.209	81.25
302.439	80.25
302.669	83.25
302.9	92.25
303.13	96.25
303.36	86.25
303.59	102.25
303.82	106.25
304.051	98.25
304.281	96.25
304.511	103.25
304.741	103.25
304.971	97.25
305.201	84.25
305.431	94.25
305.661	93.25
305.891	92.25
306.121	106.25
306.352	87.25
306.582	102.25
306.812	108.25
307.042	94.25
307.272	96.25
307.502	84.25
307.731	97.25
307.961	95.25
308.191	84.25
308.421	87.25
308.651	101.25
308.881	98.25
309.111	89.25
309.341	89.25
309.571	107.25
309.8	114.25
310.03	100.25
310.26	100.25
310.49	97.25
310.72	105.25
310.949	105.25
311.179	115.25
311.409	99.25
311.639	111.25
311.868	102.25
312.098	85.25
312.328	106.25
312.557	98.25
312.787	110.25
313.017	103.25
313.246	103.25
313.476	88.25
313.706	90.25
313.935	114.25
314.165	113.25
314.394	94.25
314.624	93.25
314.853	93.25
315.083	82.25
315.312	102.25
315.542	106.25
315.771	96.25
316.001	94.25
316.23	87.25
316.46	86.25
316.689	103.25
316.919	98.25
317.148	94.25
317.377	88.25
317.607	95.25
317.836	92.25
318.065	88.25
318.295	95.25
318.524	85.25
318.753	102.25
318.983	98.25
319.212	101.25
319.441	98.25
319.67	109.25
319.9	100.25
320.129	107.25
320.358	93.25
320.587	112.25
320.816	104.25
321.046	109.25
321.275	103.25
321.504	104.25
321.733	95.25
321.962	104.25
322.191	108.25
322.42	112.25
322.649	108.25
322.878	113.25
323.108	118.25
323.337	128.25
323.566	146.25
323.795	167.25
324.024	200.25
324.253	425.25
324.482	906.25
324.71	1823.25
324.939	2392.25
325.168	875.25
325.397	257.25
325.626	163.25
325.855	140.25
326.084	128.25
326.313	143.25
326.542	160.25
326.77	238.25
326.999	484.25
327.228	1015.25
327.457	1828.25
327.686	1488.25
327.914	388.25
328.143	197.25
328.372	137.25
328.6	128.25
328.829	122.25
329.058	139.25
329.287	125.25
329.515	116.25
329.744	98.25
329.972	103.25
330.201	119.25
330.43	107.25
330.658	134.25
330.887	126.25
331.115	117.25
331.344	101.25
331.572	101.25
331.801	93.25
332.03	93.25
332.258	98.25
332.486	100.25
332.715	105.25
332.943	105.25
333.172	110.25
333.4	101.25
333.629	104.25
333.857	108.25
334.085	105.25
334.314	105.25
334.542	97.25
334.771	106.25
334.999	110.25
335.227	96.25
335.455	101.25
335.684	118.25
335.912	100.25
336.14	105.25
336.369	101.25
336.597	115.25
336.825	111.25
337.053	93.25
337.281	99.25
337.51	103.25
337.738	104.25
337.966	96.25
338.194	86.25
338.422	102.25
338.65	95.25
338.878	90.25
339.106	83.25
339.334	93.25
339.562	94.25
339.79	91.25
340.018	102.25
340.246	90.25
340.474	93.25
340.702	93.25
340.93	109.25
341.158	89.25
341.386	92.25
341.614	111.25
341.842	92.25
342.07	91.25
342.298	108.25
342.526	107.25
342.754	98.25
342.981	87.25
343.209	103.25
343.437	104.25
343.665	106.25
343.893	92.25
344.12	83.25
344.348	90.25
344.576	99.25
344.804	103.25
345.031	115.25
345.259	92.25
345.487	110.25
345.714	88.25
345.942	103.25
346.17	87.25
346.397	92.25
346.625	105.25
346.853	101.25
347.08	94.25
347.308	98.25
347.535	102.25
347.763	100.25
347.99	115.25
348.218	115.25
348.445	93.25
348.673	99.25
348.9	109.25
349.128	105.25
349.355	96.25
349.583	88.25
349.81	88.25
350.037	92.25
350.265	99.25
350.492	109.25
350.72	107.25
350.947	113.25
351.174	118.25
351.402	108.25
351.629	119.25
351.856	99.25
352.083	115.25
352.311	103.25
352.538	119.25
352.765	109.25
352.992	122.25
353.22	109.25
353.447	117.25
353.674	105.25
353.901	102.25
354.128	111.25
354.355	99.25
354.583	111.25
354.81	112.25
355.037	109.25
355.264	101.25
355.491	104.25
355.718	104.25
355.945	102.25
356.172	106.25
356.399	84.25
356.626	103.25
356.853	93.25
357.08	85.25
357.307	99.25
357.534	88.25
357.761	97.25
357.988	89.25
358.215	92.25
358.441	104.25
358.668	91.25
358.895	92.25
359.122	100.25
359.349	95.25
359.576	80.25
359.802	100.25
360.029	102.25
360.256	112.25
360.483	104.25
360.709	86.25
360.936	87.25
361.163	93.25
361.39	88.25
361.616	99.25
361.843	94.25
362.07	89.25
362.296	100.25
362.523	96.25
362.749	101.25
362.976	88.25
363.203	107.25
363.429	83.25
363.656	105.25
363.882	108.25
364.109	75.25
364.335	98.25
364.562	104.25
364.788	100.25
365.015	87.25
365.241	95.25
365.468	100.25
365.694	107.25
365.92	97.25
366.147	94.25
366.373	103.25
366.599	81.25
366.826	87.25
367.052	93.25
367.278	103.25
367.505	106.25
367.731	99.25
367.957	106.25
368.184	103.25
368.41	101.25
368.636	118.25
368.862	113.25
369.089	114.25
369.315	95.25
369.541	97.25
369.767	88.25
369.993	104.25
370.219	90.25
370.445	93.25
370.672	100.25
370.898	98.25
371.124	96.25
371.35	110.25
371.576	93.25
371.802	91.25
372.028	79.25
372.254	92.25
372.48	100.25
372.706	104.25
372.932	105.25
373.158	85.25
373.384	99.25
373.61	81.25
373.835	95.25
374.061	92.25
374.287	94.25
374.513	100.25
374.739	102.25
374.965	102.25
375.191	104.25
375.416	86.25
375.642	89.25
375.868	110.25
376.094	89.25
376.319	92.25
376.545	105.25
376.771	96.25
376.997	92.25
377.222	99.25
377.448	101.25
377.674	85.25
377.899	86.25
378.125	92.25
378.35	93.25
378.576	85.25
378.802	97.25
379.027	88.25
379.253	93.25
379.478	99.25
379.704	105.25
379.929	83.25
380.155	99.25
380.38	99.25
380.606	102.25
380.831	98.25
381.057	92.25
381.282	105.25
381.507	94.25
381.733	110.25
381.958	99.25
382.184	108.25
382.409	99.25
382.634	116.25
382.86	103.25
383.085	94.25
383.31	118.25
383.535	122.25
383.761	92.25
383.986	103.25
384.211	124.25
384.436	97.25
384.662	97.25
384.887	98.25
385.112	107.25
385.337	108.25
385.562	115.25
385.787	109.25
386.013	103.25
386.238	126.25
386.463	111.25
386.688	107.25
386.913	111.25
387.138	106.25
387.363	123.25
387.588	109.25
387.813	109.25
388.038	109.25
388.263	121.25
388.488	113.25
388.713	100.25
388.938	93.25
389.163	111.25
389.387	103.25
389.612	99.25
389.837	90.25
390.062	101.25
390.287	103.25
390.512	101.25
390.736	84.25
390.961	101.25
391.186	97.25
391.411	90.25
391.636	98.25
391.86	97.25
392.085	102.25
392.31	88.25
392.534	94.25
392.759	76.25
392.984	94.25
393.208	84.25
393.433	89.25
393.658	99.25
393.882	92.25
394.107	89.25
394.331	86.25
394.556	87.25
394.78	108.25
395.005	80.25
395.229	89.25
395.454	94.25
395.678	100.25
395.903	111.25
396.127	84.25
396.352	90.25
396.576	94.25
396.801	90.25
397.025	92.25
397.249	98.25
397.474	80.25
397.698	88.25
397.922	94.25
398.147	82.25
398.371	94.25
398.595	93.25
398.82	84.25
399.044	92.25
399.268	90.25
399.492	93.25
399.717	92.25
399.941	86.25
400.165	83.25
400.389	108.25
400.613	98.25
400.837	83.25
401.062	91.25
401.286	84.25
401.51	89.25
401.734	98.25
401.958	116.25
402.182	131.25
402.406	155.25
402.63	118.25
402.854	99.25
403.078	89.25
403.302	84.25
403.526	75.25
403.75	94.25
403.974	101.25
404.198	93.25
404.422	90.25
404.645	70.25
404.869	88.25
405.093	93.25
405.317	99.25
405.541	96.25
405.765	103.25
405.988	118.25
406.212	172.25
406.436	219.25
406.66	148.25
406.883	105.25
407.107	93.25
407.331	92.25
407.555	96.25
407.778	91.25
408.002	86.25
408.226	91.25
408.449	77.25
408.673	86.25
408.896	99.25
409.12	94.25
409.344	93.25
409.567	94.25
409.791	108.25
410.014	101.25
410.238	84.25
410.461	80.25
410.685	108.25
410.908	99.25
411.132	95.25
411.355	105.25
411.578	86.25
411.802	92.25
412.025	82.25
412.249	84.25
412.472	97.25
412.695	95.25
412.919	88.25
413.142	93.25
413.365	75.25
413.589	104.25
413.812	94.25
414.035	108.25
414.258	89.25
414.482	92.25
414.705	96.25
414.928	104.25
415.151	101.25
415.374	97.25
415.597	104.25
415.821	105.25
416.044	90.25
416.267	94.25
416.49	86.25
416.713	93.25
416.936	101.25
417.159	105.25
417.382	81.25
417.605	92.25
417.828	89.25
418.051	83.25
418.274	89.25
418.497	98.25
418.72	78.25
418.943	95.25
419.166	97.25
419.389	85.25
419.611	93.25
419.834	94.25
420.057	91.25
420.28	87.25
420.503	97.25
420.726	87.25
420.948	85.25
421.171	108.25
421.394	90.25
421.617	90.25
421.839	94.25
422.062	83.25
422.285	91.25
422.507	91.25
422.73	85.25
422.953	84.25
423.175	104.25
423.398	98.25
423.621	94.25
423.843	88.25
424.066	89.25
424.288	83.25
424.511	99.25
424.733	102.25
424.956	104.25
425.178	99.25
425.401	100.25
425.623	107.25
425.846	90.25
426.068	99.25
426.291	82.25
426.513	90.25
426.735	93.25
426.958	98.25
427.18	109.25
427.402	125.25
427.625	151.25
427.847	117.25
428.069	100.25
428.292	94.25
428.514	88.25
428.736	95.25
428.958	83.25
429.181	97.25
429.403	83.25
429.625	84.25
429.847	95.25
430.069	92.25
430.292	98.25
430.514	88.25
430.736	89.25
430.958	83.25
431.18	91.25
431.402	82.25
431.624	89.25
431.846	90.25
432.068	86.25
432.29	87.25
432.512	75.25
432.734	85.25
432.956	97.25
433.178	99.25
433.4	93.25
433.622	106.25
433.844	91.25
434.066	87.25
434.287	89.25
434.509	81.25
434.731	86.25
434.953	93.25
435.175	90.25
435.397	93.25
435.618	94.25
435.84	103.25
436.062	119.25
436.284	109.25
436.505	100.25
436.727	112.25
436.949	94.25
437.17	94.25
437.392	98.25
437.614	106.25
437.835	110.25
438.057	113.25
438.278	105.25
438.5	105.25
438.721	126.25
438.943	111.25
439.165	101.25
439.386	101.25
439.608	96.25
439.829	109.25
440.05	113.25
440.272	136.25
440.493	102.25
440.715	102.25
440.936	87.25
441.158	90.25
441.379	81.25
441.6	99.25
441.822	93.25
442.043	90.25
442.264	106.25
442.486	91.25
442.707	92.25
442.928	100.25
443.149	126.25
443.371	124.25
443.592	105.25
443.813	115.25
444.034	111.25
444.255	106.25
444.476	79.25
444.698	87.25
444.919	85.25
445.14	119.25
445.361	122.25
445.582	103.25
445.803	142.25
446.024	130.25
446.245	132.25
446.466	119.25
446.687	104.25
446.908	97.25
447.129	81.25
447.35	94.25
447.571	102.25
447.792	102.25
448.013	93.25
448.234	97.25
448.455	102.25
448.675	109.25
448.896	113.25
449.117	98.25
449.338	99.25
449.559	147.25
449.779	133.25
450	73.25
450.221	76.25
450.442	92.25
450.662	91.25
450.883	104.25
451.104	106.25
451.324	99.25
451.545	84.25
451.766	82.25
451.986	97.25
452.207	82.25
452.428	93.25
452.648	82.25
452.869	114.25
453.089	118.25
453.31	123.25
453.53	105.25
453.751	109.25
453.971	104.25
454.192	111.25
454.412	102.25
454.633	86.25
454.853	85.25
455.073	99.25
455.294	93.25
455.514	94.25
455.734	93.25
455.955	85.25
456.175	84.25
456.395	91.25
456.616	94.25
456.836	76.25
457.056	88.25
457.276	84.25
457.497	85.25
457.717	72.25
457.937	84.25
458.157	92.25
458.377	92.25
458.598	105.25
458.818	142.25
459.038	152.25
459.258	136.25
459.478	92.25
459.698	89.25
459.918	91.25
460.138	88.25
460.358	76.25
460.578	88.25
460.798	83.25
461.018	97.25
461.238	83.25
461.458	88.25
461.678	93.25
461.898	90.25
462.118	86.25
462.338	94.25
462.558	88.25
462.777	75.25
462.997	78.25
463.217	91.25
463.437	94.25
463.657	71.25
463.876	85.25
464.096	90.25
464.316	105.25
464.536	85.25
464.755	79.25
464.975	113.25
465.195	161.25
465.414	160.25
465.634	104.25
465.854	93.25
466.073	68.25
466.293	77.25
466.512	98.25
466.732	90.25
466.951	99.25
467.171	104.25
467.391	98.25
467.61	114.25
467.829	107.25
468.049	77.25
468.268	87.25
468.488	85.25
468.707	77.25
468.927	91.25
469.146	94.25
469.365	106.25
469.585	103.25
469.804	114.25
470.023	96.25
470.243	90.25
470.462	100.25
470.681	111.25
470.901	93.25
471.12	94.25
471.339	78.25
471.558	93.25
471.777	97.25
471.997	80.25
472.216	85.25
472.435	97.25
472.654	84.25
472.873	96.25
473.092	88.25
473.311	87.25
473.53	80.25
473.749	88.25
473.968	99.25
474.187	113.25
474.406	105.25
474.625	83.25
474.844	88.25
475.063	103.25
475.282	82.25
475.501	86.25
475.72	88.25
475.939	76.25
476.158	75.25
476.377	93.25
476.596	93.25
476.814	88.25
477.033	77.25
477.252	91.25
477.471	98.25
477.69	92.25
477.908	93.25
478.127	101.25
478.346	74.25
478.564	100.25
478.783	103.25
479.002	94.25
479.22	82.25
479.439	99.25
479.658	97.25
479.876	95.25
480.095	94.25
480.313	91.25
480.532	105.25
480.751	90.25
480.969	84.25
481.188	85.25
481.406	70.25
481.624	102.25
481.843	101.25
482.061	100.25
482.28	85.25
482.498	92.25
482.717	88.25
482.935	79.25
483.153	99.25
483.372	87.25
483.59	85.25
483.808	93.25
484.027	105.25
484.245	102.25
484.463	95.25
484.681	75.25
484.9	88.25
485.118	100.25
485.336	99.25
485.554	105.25
485.772	105.25
485.99	105.25
486.209	100.25
486.427	94.25
486.645	107.25
486.863	125.25
487.081	93.25
487.299	97.25
487.517	95.25
487.735	92.25
487.953	89.25
488.171	105.25
488.389	88.25
488.607	98.25
488.825	92.25
489.043	91.25
489.261	97.25
489.479	86.25
489.696	93.25
489.914	110.25
490.132	101.25
490.35	87.25
490.568	80.25
490.786	92.25
491.003	83.25
491.221	98.25
491.439	92.25
491.657	113.25
491.874	100.25
492.092	85.25
492.31	94.25
492.527	91.25
492.745	88.25
492.963	98.25
493.18	94.25
493.398	87.25
493.615	105.25
493.833	97.25
494.05	87.25
494.268	89.25
494.485	85.25
494.703	96.25
494.92	94.25
495.138	100.25
495.355	96.25
495.573	93.25
495.79	93.25
496.008	98.25
496.225	77.25
496.442	94.25
496.66	100.25
496.877	108.25
497.094	85.25
497.312	92.25
497.529	93.25
497.746	103.25
497.963	88.25
498.181	84.25
498.398	104.25
498.615	111.25
498.832	134.25
499.049	86.25
499.267	91.25
499.484	89.25
499.701	98.25
499.918	92.25
500.135	88.25
500.352	92.25
500.569	92.25
500.786	91.25
501.003	77.25
501.22	97.25
501.437	85.25
501.654	99.25
501.871	92.25
502.088	98.25
502.305	86.25
502.522	99.25
502.739	94.25
502.956	100.25
503.172	87.25
503.389	82.25
503.606	101.25
503.823	92.25
504.04	102.25
504.256	94.25
504.473	83.25
504.69	95.25
504.907	93.25
505.123	82.25
505.34	92.25
505.557	85.25
505.773	92.25
505.99	102.25
506.207	92.25
506.423	101.25
506.64	88.25
506.856	91.25
507.073	94.25
507.289	89.25
507.506	91.25
507.722	112.25
507.939	109.25
508.155	106.25
508.372	94.25
508.588	91.25
508.805	85.25
509.021	99.25
509.238	109.25
509.454	94.25
509.67	88.25
509.887	108.25
510.103	142.25
510.319	211.25
510.536	769.25
510.752	2378.25
510.968	686.25
511.184	154.25
511.401	102.25
511.617	105.25
511.833	105.25
512.049	99.25
512.265	91.25
512.481	103.25
512.698	91.25
512.914	104.25
513.13	91.25
513.346	90.25
513.562	105.25
513.778	109.25
513.994	89.25
514.21	93.25
