Data from Uncirc_2003_H10_HRD10591_00056.txt Node
Date: Wed Jan 03 10:35:59 EST 2024
User: Yrep
Spectrometer: HR+D1059
Trigger mode: 1
Integration Time (sec): 1.000000E-1
Scans to average: 1
Electric dark correction enabled: true
Nonlinearity correction enabled: false
Boxcar width: 0
XAxis mode: Wavelengths
Number of Pixels in Spectrum: 2048
>>>>>Begin Spectral Data<<<<<
223.165	-12.19
223.4	-12.19
223.635	-12.19
223.869	-16.19
224.104	-23.19
224.338	-6.19
224.573	-11.19
224.808	-17.19
225.042	-0.19
225.277	-3.19
225.511	1.81
225.746	3.81
225.98	3.81
226.215	11.81
226.449	15.81
226.683	20.81
226.918	11.81
227.152	19.81
227.387	36.81
227.621	44.81
227.856	47.81
228.09	47.81
228.324	59.81
228.559	54.81
228.793	61.81
229.027	52.81
229.262	73.81
229.496	73.81
229.73	93.81
229.964	78.81
230.199	74.81
230.433	76.81
230.667	76.81
230.901	64.81
231.136	72.81
231.37	91.81
231.604	73.81
231.838	88.81
232.072	78.81
232.306	88.81
232.541	82.81
232.775	88.81
233.009	65.81
233.243	83.81
233.477	80.81
233.711	79.81
233.945	73.81
234.179	90.81
234.413	80.81
234.647	86.81
234.881	79.81
235.115	86.81
235.349	65.81
235.583	88.81
235.817	71.81
236.051	70.81
236.285	70.81
236.519	76.81
236.753	96.81
236.987	73.81
237.221	76.81
237.455	79.81
237.689	86.81
237.922	70.81
238.156	75.81
238.39	85.81
238.624	98.81
238.858	92.81
239.091	80.81
239.325	83.81
239.559	90.81
239.793	60.81
240.027	85.81
240.26	60.81
240.494	71.81
240.728	80.81
240.961	71.81
241.195	89.81
241.429	78.81
241.662	72.81
241.896	86.81
242.13	89.81
242.363	75.81
242.597	79.81
242.83	87.81
243.064	63.81
243.298	68.81
243.531	54.81
243.765	83.81
243.998	71.81
244.232	80.81
244.465	81.81
244.699	85.81
244.932	76.81
245.166	73.81
245.399	70.81
245.633	76.81
245.866	74.81
246.099	71.81
246.333	67.81
246.566	75.81
246.8	67.81
247.033	70.81
247.266	80.81
247.5	89.81
247.733	93.81
247.966	99.81
248.2	68.81
248.433	76.81
248.666	71.81
248.899	91.81
249.133	95.81
249.366	96.81
249.599	101.81
249.832	84.81
250.066	92.81
250.299	80.81
250.532	95.81
250.765	72.81
250.998	75.81
251.231	71.81
251.465	75.81
251.698	70.81
251.931	85.81
252.164	80.81
252.397	74.81
252.63	80.81
252.863	88.81
253.096	83.81
253.329	80.81
253.562	85.81
253.795	81.81
254.028	70.81
254.261	87.81
254.494	88.81
254.727	85.81
254.96	78.81
255.193	79.81
255.426	70.81
255.659	77.81
255.892	92.81
256.124	82.81
256.357	81.81
256.59	76.81
256.823	78.81
257.056	80.81
257.289	92.81
257.521	86.81
257.754	80.81
257.987	95.81
258.22	93.81
258.452	89.81
258.685	87.81
258.918	78.81
259.151	86.81
259.383	87.81
259.616	75.81
259.849	68.81
260.081	83.81
260.314	78.81
260.547	80.81
260.779	84.81
261.012	93.81
261.244	89.81
261.477	105.81
261.71	98.81
261.942	93.81
262.175	102.81
262.407	98.81
262.64	102.81
262.872	83.81
263.105	85.81
263.337	79.81
263.57	94.81
263.802	87.81
264.035	84.81
264.267	79.81
264.499	64.81
264.732	67.81
264.964	79.81
265.197	81.81
265.429	90.81
265.661	75.81
265.894	85.81
266.126	87.81
266.358	80.81
266.591	78.81
266.823	95.81
267.055	96.81
267.287	87.81
267.52	84.81
267.752	79.81
267.984	76.81
268.216	92.81
268.448	81.81
268.681	89.81
268.913	93.81
269.145	72.81
269.377	87.81
269.609	81.81
269.841	89.81
270.073	92.81
270.306	84.81
270.538	90.81
270.77	80.81
271.002	94.81
271.234	97.81
271.466	92.81
271.698	87.81
271.93	80.81
272.162	96.81
272.394	86.81
272.626	80.81
272.858	82.81
273.09	83.81
273.322	96.81
273.553	95.81
273.785	76.81
274.017	91.81
274.249	81.81
274.481	87.81
274.713	89.81
274.945	83.81
275.176	77.81
275.408	89.81
275.64	86.81
275.872	84.81
276.104	79.81
276.335	92.81
276.567	109.81
276.799	108.81
277.031	99.81
277.262	96.81
277.494	88.81
277.726	93.81
277.957	81.81
278.189	86.81
278.421	83.81
278.652	79.81
278.884	84.81
279.115	76.81
279.347	84.81
279.579	83.81
279.81	82.81
280.042	95.81
280.273	86.81
280.505	97.81
280.736	80.81
280.968	80.81
281.199	93.81
281.431	92.81
281.662	89.81
281.894	85.81
282.125	121.81
282.356	110.81
282.588	118.81
282.819	111.81
283.051	81.81
283.282	91.81
283.513	95.81
283.745	92.81
283.976	96.81
284.207	89.81
284.439	67.81
284.67	93.81
284.901	86.81
285.132	98.81
285.364	73.81
285.595	88.81
285.826	79.81
286.057	96.81
286.288	84.81
286.52	89.81
286.751	87.81
286.982	93.81
287.213	76.81
287.444	93.81
287.675	85.81
287.906	92.81
288.138	89.81
288.369	91.81
288.6	76.81
288.831	78.81
289.062	87.81
289.293	91.81
289.524	76.81
289.755	90.81
289.986	71.81
290.217	86.81
290.448	99.81
290.679	78.81
290.91	98.81
291.141	86.81
291.371	95.81
291.602	100.81
291.833	92.81
292.064	88.81
292.295	84.81
292.526	95.81
292.757	84.81
292.987	94.81
293.218	88.81
293.449	85.81
293.68	90.81
293.91	75.81
294.141	91.81
294.372	82.81
294.603	91.81
294.833	94.81
295.064	82.81
295.295	91.81
295.525	94.81
295.756	104.81
295.987	119.81
296.217	128.81
296.448	129.81
296.679	88.81
296.909	80.81
297.14	87.81
297.37	101.81
297.601	83.81
297.831	79.81
298.062	87.81
298.292	89.81
298.523	90.81
298.753	89.81
298.984	101.81
299.214	86.81
299.445	99.81
299.675	102.81
299.905	78.81
300.136	93.81
300.366	88.81
300.597	75.81
300.827	93.81
301.057	101.81
301.288	99.81
301.518	100.81
301.748	83.81
301.979	104.81
302.209	84.81
302.439	68.81
302.669	90.81
302.9	83.81
303.13	86.81
303.36	92.81
303.59	94.81
303.82	101.81
304.051	105.81
304.281	93.81
304.511	102.81
304.741	84.81
304.971	83.81
305.201	89.81
305.431	84.81
305.661	90.81
305.891	104.81
306.121	94.81
306.352	93.81
306.582	99.81
306.812	92.81
307.042	87.81
307.272	83.81
307.502	97.81
307.731	92.81
307.961	85.81
308.191	96.81
308.421	78.81
308.651	85.81
308.881	89.81
309.111	91.81
309.341	93.81
309.571	95.81
309.8	78.81
310.03	94.81
310.26	116.81
310.49	85.81
310.72	93.81
310.949	96.81
311.179	82.81
311.409	88.81
311.639	96.81
311.868	93.81
312.098	96.81
312.328	98.81
312.557	107.81
312.787	109.81
313.017	92.81
313.246	100.81
313.476	89.81
313.706	89.81
313.935	92.81
314.165	90.81
314.394	101.81
314.624	101.81
314.853	91.81
315.083	84.81
315.312	91.81
315.542	87.81
315.771	82.81
316.001	87.81
316.23	83.81
316.46	102.81
316.689	89.81
316.919	96.81
317.148	104.81
317.377	77.81
317.607	93.81
317.836	73.81
318.065	87.81
318.295	89.81
318.524	80.81
318.753	94.81
318.983	97.81
319.212	113.81
319.441	112.81
319.67	102.81
319.9	90.81
320.129	96.81
320.358	76.81
320.587	101.81
320.816	92.81
321.046	91.81
321.275	103.81
321.504	104.81
321.733	104.81
321.962	98.81
322.191	103.81
322.42	108.81
322.649	106.81
322.878	109.81
323.108	110.81
323.337	125.81
323.566	131.81
323.795	160.81
324.024	226.81
324.253	426.81
324.482	898.81
324.71	1827.81
324.939	2358.81
325.168	864.81
325.397	255.81
325.626	165.81
325.855	141.81
326.084	135.81
326.313	126.81
326.542	138.81
326.77	246.81
326.999	495.81
327.228	1012.81
327.457	1828.81
327.686	1454.81
327.914	372.81
328.143	186.81
328.372	132.81
328.6	112.81
328.829	126.81
329.058	108.81
329.287	116.81
329.515	101.81
329.744	116.81
329.972	103.81
330.201	97.81
330.43	106.81
330.658	99.81
330.887	124.81
331.115	117.81
331.344	101.81
331.572	110.81
331.801	100.81
332.03	101.81
332.258	79.81
332.486	84.81
332.715	82.81
332.943	102.81
333.172	97.81
333.4	105.81
333.629	97.81
333.857	108.81
334.085	103.81
334.314	79.81
334.542	85.81
334.771	103.81
334.999	88.81
335.227	104.81
335.455	104.81
335.684	96.81
335.912	87.81
336.14	97.81
336.369	82.81
336.597	82.81
336.825	100.81
337.053	108.81
337.281	85.81
337.51	88.81
337.738	97.81
337.966	96.81
338.194	98.81
338.422	93.81
338.65	92.81
338.878	104.81
339.106	79.81
339.334	85.81
339.562	106.81
339.79	92.81
340.018	93.81
340.246	100.81
340.474	97.81
340.702	97.81
340.93	91.81
341.158	92.81
341.386	89.81
341.614	102.81
341.842	97.81
342.07	104.81
342.298	88.81
342.526	86.81
342.754	94.81
342.981	78.81
343.209	87.81
343.437	82.81
343.665	89.81
343.893	99.81
344.12	96.81
344.348	90.81
344.576	85.81
344.804	88.81
345.031	96.81
345.259	114.81
345.487	90.81
345.714	93.81
345.942	83.81
346.17	84.81
346.397	100.81
346.625	97.81
346.853	95.81
347.08	90.81
347.308	92.81
347.535	86.81
347.763	97.81
347.99	98.81
348.218	97.81
348.445	96.81
348.673	101.81
348.9	87.81
349.128	95.81
349.355	85.81
349.583	80.81
349.81	84.81
350.037	95.81
350.265	89.81
350.492	103.81
350.72	104.81
350.947	97.81
351.174	109.81
351.402	96.81
351.629	104.81
351.856	92.81
352.083	94.81
352.311	96.81
352.538	112.81
352.765	107.81
352.992	97.81
353.22	96.81
353.447	110.81
353.674	114.81
353.901	96.81
354.128	90.81
354.355	107.81
354.583	97.81
354.81	100.81
355.037	100.81
355.264	89.81
355.491	107.81
355.718	92.81
355.945	89.81
356.172	85.81
356.399	95.81
356.626	99.81
356.853	96.81
357.08	93.81
357.307	92.81
357.534	94.81
357.761	105.81
357.988	97.81
358.215	101.81
358.441	118.81
358.668	94.81
358.895	86.81
359.122	90.81
359.349	94.81
359.576	74.81
359.802	100.81
360.029	112.81
360.256	93.81
360.483	101.81
360.709	95.81
360.936	101.81
361.163	99.81
361.39	87.81
361.616	104.81
361.843	95.81
362.07	94.81
362.296	86.81
362.523	96.81
362.749	88.81
362.976	85.81
363.203	82.81
363.429	88.81
363.656	84.81
363.882	78.81
364.109	89.81
364.335	77.81
364.562	83.81
364.788	87.81
365.015	103.81
365.241	95.81
365.468	118.81
365.694	98.81
365.92	89.81
366.147	95.81
366.373	75.81
366.599	85.81
366.826	94.81
367.052	104.81
367.278	103.81
367.505	86.81
367.731	87.81
367.957	86.81
368.184	85.81
368.41	97.81
368.636	110.81
368.862	128.81
369.089	88.81
369.315	96.81
369.541	96.81
369.767	88.81
369.993	87.81
370.219	75.81
370.445	78.81
370.672	75.81
370.898	76.81
371.124	76.81
371.35	91.81
371.576	102.81
371.802	83.81
372.028	93.81
372.254	84.81
372.48	79.81
372.706	82.81
372.932	87.81
373.158	94.81
373.384	81.81
373.61	84.81
373.835	94.81
374.061	87.81
374.287	97.81
374.513	88.81
374.739	87.81
374.965	97.81
375.191	72.81
375.416	81.81
375.642	92.81
375.868	97.81
376.094	83.81
376.319	89.81
376.545	88.81
376.771	96.81
376.997	97.81
377.222	95.81
377.448	83.81
377.674	87.81
377.899	92.81
378.125	89.81
378.35	103.81
378.576	84.81
378.802	93.81
379.027	95.81
379.253	100.81
379.478	85.81
379.704	95.81
379.929	96.81
380.155	91.81
380.38	94.81
380.606	99.81
380.831	80.81
381.057	101.81
381.282	94.81
381.507	106.81
381.733	93.81
381.958	102.81
382.184	102.81
382.409	104.81
382.634	91.81
382.86	101.81
383.085	98.81
383.31	106.81
383.535	89.81
383.761	99.81
383.986	108.81
384.211	91.81
384.436	83.81
384.662	94.81
384.887	96.81
385.112	107.81
385.337	112.81
385.562	95.81
385.787	110.81
386.013	116.81
386.238	110.81
386.463	115.81
386.688	111.81
386.913	95.81
387.138	117.81
387.363	114.81
387.588	93.81
387.813	89.81
388.038	96.81
388.263	112.81
388.488	111.81
388.713	97.81
388.938	90.81
389.163	91.81
389.387	96.81
389.612	93.81
389.837	99.81
390.062	91.81
390.287	84.81
390.512	96.81
390.736	78.81
390.961	92.81
391.186	98.81
391.411	92.81
391.636	87.81
391.86	78.81
392.085	84.81
392.31	88.81
392.534	83.81
392.759	100.81
392.984	99.81
393.208	85.81
393.433	79.81
393.658	84.81
393.882	94.81
394.107	92.81
394.331	86.81
394.556	81.81
394.78	87.81
395.005	95.81
395.229	83.81
395.454	86.81
395.678	104.81
395.903	94.81
396.127	82.81
396.352	90.81
396.576	86.81
396.801	76.81
397.025	82.81
397.249	82.81
397.474	76.81
397.698	83.81
397.922	87.81
398.147	80.81
398.371	87.81
398.595	100.81
398.82	78.81
399.044	108.81
399.268	92.81
399.492	81.81
399.717	83.81
399.941	85.81
400.165	98.81
400.389	80.81
400.613	89.81
400.837	79.81
401.062	92.81
401.286	93.81
401.51	103.81
401.734	73.81
401.958	94.81
402.182	113.81
402.406	147.81
402.63	106.81
402.854	95.81
403.078	86.81
403.302	81.81
403.526	82.81
403.75	90.81
403.974	91.81
404.198	98.81
404.422	83.81
404.645	81.81
404.869	83.81
405.093	91.81
405.317	87.81
405.541	99.81
405.765	102.81
405.988	109.81
406.212	161.81
406.436	207.81
406.66	134.81
406.883	79.81
407.107	83.81
407.331	105.81
407.555	96.81
407.778	116.81
408.002	92.81
408.226	76.81
408.449	71.81
408.673	75.81
408.896	83.81
409.12	96.81
409.344	92.81
409.567	83.81
409.791	88.81
410.014	104.81
410.238	93.81
410.461	94.81
410.685	81.81
410.908	90.81
411.132	101.81
411.355	94.81
411.578	94.81
411.802	94.81
412.025	96.81
412.249	92.81
412.472	86.81
412.695	85.81
412.919	83.81
413.142	80.81
413.365	80.81
413.589	92.81
413.812	87.81
414.035	81.81
414.258	96.81
414.482	97.81
414.705	93.81
414.928	87.81
415.151	84.81
415.374	93.81
415.597	93.81
415.821	94.81
416.044	88.81
416.267	89.81
416.49	90.81
416.713	81.81
416.936	87.81
417.159	87.81
417.382	87.81
417.605	104.81
417.828	90.81
418.051	84.81
418.274	96.81
418.497	79.81
418.72	92.81
418.943	95.81
419.166	78.81
419.389	83.81
419.611	89.81
419.834	93.81
420.057	103.81
420.28	86.81
420.503	87.81
420.726	89.81
420.948	81.81
421.171	91.81
421.394	94.81
421.617	87.81
421.839	85.81
422.062	94.81
422.285	93.81
422.507	96.81
422.73	95.81
422.953	89.81
423.175	92.81
423.398	103.81
423.621	92.81
423.843	79.81
424.066	79.81
424.288	96.81
424.511	91.81
424.733	89.81
424.956	103.81
425.178	82.81
425.401	107.81
425.623	105.81
425.846	97.81
426.068	83.81
426.291	82.81
426.513	79.81
426.735	85.81
426.958	91.81
427.18	102.81
427.402	128.81
427.625	150.81
427.847	121.81
428.069	96.81
428.292	84.81
428.514	84.81
428.736	75.81
428.958	90.81
429.181	88.81
429.403	86.81
429.625	89.81
429.847	89.81
430.069	89.81
430.292	88.81
430.514	82.81
430.736	81.81
430.958	71.81
431.18	85.81
431.402	89.81
431.624	95.81
431.846	80.81
432.068	89.81
432.29	80.81
432.512	92.81
432.734	89.81
432.956	82.81
433.178	96.81
433.4	104.81
433.622	83.81
433.844	83.81
434.066	91.81
434.287	90.81
434.509	86.81
434.731	93.81
434.953	85.81
435.175	80.81
435.397	87.81
435.618	100.81
435.84	105.81
436.062	113.81
436.284	106.81
436.505	95.81
436.727	107.81
436.949	86.81
437.17	82.81
437.392	89.81
437.614	92.81
437.835	96.81
438.057	115.81
438.278	102.81
438.5	95.81
438.721	117.81
438.943	96.81
439.165	81.81
439.386	72.81
439.608	87.81
439.829	101.81
440.05	111.81
440.272	123.81
440.493	103.81
440.715	87.81
440.936	83.81
441.158	97.81
441.379	89.81
441.6	80.81
441.822	63.81
442.043	90.81
442.264	85.81
442.486	97.81
442.707	101.81
442.928	95.81
443.149	120.81
443.371	136.81
443.592	88.81
443.813	92.81
444.034	95.81
444.255	79.81
444.476	85.81
444.698	83.81
444.919	84.81
445.14	142.81
445.361	139.81
445.582	102.81
445.803	128.81
446.024	119.81
446.245	149.81
446.466	112.81
446.687	102.81
446.908	93.81
447.129	88.81
447.35	85.81
447.571	86.81
447.792	86.81
448.013	105.81
448.234	107.81
448.455	101.81
448.675	134.81
448.896	115.81
449.117	76.81
449.338	95.81
449.559	109.81
449.779	121.81
450	94.81
450.221	84.81
450.442	83.81
450.662	104.81
450.883	108.81
451.104	93.81
451.324	96.81
451.545	87.81
451.766	87.81
451.986	92.81
452.207	97.81
452.428	92.81
452.648	104.81
452.869	109.81
453.089	96.81
453.31	107.81
453.53	96.81
453.751	82.81
453.971	101.81
454.192	113.81
454.412	97.81
454.633	75.81
454.853	94.81
455.073	83.81
455.294	98.81
455.514	99.81
455.734	87.81
455.955	87.81
456.175	96.81
456.395	79.81
456.616	86.81
456.836	89.81
457.056	89.81
457.276	86.81
457.497	79.81
457.717	84.81
457.937	77.81
458.157	96.81
458.377	75.81
458.598	99.81
458.818	117.81
459.038	151.81
459.258	107.81
459.478	95.81
459.698	80.81
459.918	91.81
460.138	92.81
460.358	75.81
460.578	73.81
460.798	93.81
461.018	89.81
461.238	77.81
461.458	85.81
461.678	85.81
461.898	90.81
462.118	83.81
462.338	94.81
462.558	89.81
462.777	89.81
462.997	81.81
463.217	87.81
463.437	87.81
463.657	85.81
463.876	89.81
464.096	92.81
464.316	91.81
464.536	92.81
464.755	95.81
464.975	112.81
465.195	158.81
465.414	153.81
465.634	103.81
465.854	110.81
466.073	100.81
466.293	85.81
466.512	87.81
466.732	87.81
466.951	80.81
467.171	73.81
467.391	79.81
467.61	96.81
467.829	96.81
468.049	88.81
468.268	79.81
468.488	83.81
468.707	85.81
468.927	79.81
469.146	94.81
469.365	79.81
469.585	87.81
469.804	104.81
470.023	88.81
470.243	97.81
470.462	89.81
470.681	102.81
470.901	101.81
471.12	86.81
471.339	92.81
471.558	94.81
471.777	89.81
471.997	93.81
472.216	89.81
472.435	98.81
472.654	93.81
472.873	100.81
473.092	86.81
473.311	86.81
473.53	83.81
473.749	96.81
473.968	88.81
474.187	81.81
474.406	95.81
474.625	99.81
474.844	86.81
475.063	85.81
475.282	99.81
475.501	75.81
475.72	84.81
475.939	72.81
476.158	94.81
476.377	83.81
476.596	82.81
476.814	92.81
477.033	85.81
477.252	86.81
477.471	80.81
477.69	89.81
477.908	75.81
478.127	80.81
478.346	90.81
478.564	89.81
478.783	93.81
479.002	65.81
479.22	85.81
479.439	92.81
479.658	105.81
479.876	100.81
480.095	93.81
480.313	92.81
480.532	94.81
480.751	87.81
480.969	96.81
481.188	104.81
481.406	84.81
481.624	92.81
481.843	75.81
482.061	92.81
482.28	87.81
482.498	100.81
482.717	86.81
482.935	88.81
483.153	89.81
483.372	102.81
483.59	88.81
483.808	89.81
484.027	74.81
484.245	100.81
484.463	91.81
484.681	103.81
484.9	98.81
485.118	79.81
485.336	89.81
485.554	95.81
485.772	93.81
485.99	95.81
486.209	102.81
486.427	102.81
486.645	109.81
486.863	106.81
487.081	83.81
487.299	92.81
487.517	117.81
487.735	97.81
487.953	105.81
488.171	73.81
488.389	94.81
488.607	104.81
488.825	83.81
489.043	100.81
489.261	103.81
489.479	87.81
489.696	81.81
489.914	89.81
490.132	102.81
490.35	93.81
490.568	86.81
490.786	77.81
491.003	87.81
491.221	91.81
491.439	100.81
491.657	95.81
491.874	109.81
492.092	92.81
492.31	89.81
492.527	89.81
492.745	78.81
492.963	83.81
493.18	84.81
493.398	97.81
493.615	97.81
493.833	86.81
494.05	85.81
494.268	88.81
494.485	91.81
494.703	85.81
494.92	66.81
495.138	101.81
495.355	88.81
495.573	99.81
495.79	79.81
496.008	94.81
496.225	91.81
496.442	94.81
496.66	87.81
496.877	81.81
497.094	97.81
497.312	85.81
497.529	84.81
497.746	90.81
497.963	83.81
498.181	91.81
498.398	94.81
498.615	106.81
498.832	99.81
499.049	83.81
499.267	91.81
499.484	85.81
499.701	80.81
499.918	92.81
500.135	92.81
500.352	80.81
500.569	74.81
500.786	92.81
501.003	90.81
501.22	103.81
501.437	86.81
501.654	85.81
501.871	101.81
502.088	87.81
502.305	87.81
502.522	85.81
502.739	92.81
502.956	99.81
503.172	85.81
503.389	100.81
503.606	126.81
503.823	102.81
504.04	84.81
504.256	98.81
504.473	99.81
504.69	76.81
504.907	93.81
505.123	87.81
505.34	96.81
505.557	76.81
505.773	97.81
505.99	94.81
506.207	84.81
506.423	90.81
506.64	100.81
506.856	92.81
507.073	82.81
507.289	94.81
507.506	92.81
507.722	105.81
507.939	82.81
508.155	85.81
508.372	91.81
508.588	88.81
508.805	98.81
509.021	96.81
509.238	91.81
509.454	107.81
509.67	97.81
509.887	106.81
510.103	118.81
510.319	193.81
510.536	741.81
510.752	2453.81
510.968	672.81
511.184	157.81
511.401	121.81
511.617	103.81
511.833	94.81
512.049	96.81
512.265	87.81
512.481	97.81
512.698	86.81
512.914	91.81
513.13	91.81
513.346	87.81
513.562	102.81
513.778	90.81
513.994	91.81
514.21	100.81
514.426	111.81
514.642	133.81
514.858	115.81
515.074	159.81
515.29	433.81
515.506	1439.81
515.721	526.81
515.937	143.81
516.153	116.81
