Data from Uncirc_2003_H10_HRD10591_00045.txt Node
Date: Wed Jan 03 10:35:56 EST 2024
User: Yrep
Spectrometer: HR+D1059
Trigger mode: 1
Integration Time (sec): 1.000000E-1
Scans to average: 1
Electric dark correction enabled: true
Nonlinearity correction enabled: false
Boxcar width: 0
XAxis mode: Wavelengths
Number of Pixels in Spectrum: 2048
>>>>>Begin Spectral Data<<<<<
223.165	-12.25
223.4	-12.25
223.635	-12.25
223.869	-15.25
224.104	-18.25
224.338	-19.25
224.573	-33.25
224.808	-7.25
225.042	-10.25
225.277	-4.25
225.511	6.75
225.746	4.75
225.98	-2.25
226.215	15.75
226.449	8.75
226.683	31.75
226.918	12.75
227.152	41.75
227.387	22.75
227.621	31.75
227.856	50.75
228.09	45.75
228.324	47.75
228.559	48.75
228.793	58.75
229.027	63.75
229.262	68.75
229.496	55.75
229.73	77.75
229.964	82.75
230.199	86.75
230.433	78.75
230.667	79.75
230.901	71.75
231.136	87.75
231.37	71.75
231.604	69.75
231.838	84.75
232.072	85.75
232.306	90.75
232.541	81.75
232.775	89.75
233.009	89.75
233.243	60.75
233.477	80.75
233.711	88.75
233.945	71.75
234.179	79.75
234.413	89.75
234.647	79.75
234.881	70.75
235.115	81.75
235.349	84.75
235.583	85.75
235.817	80.75
236.051	67.75
236.285	92.75
236.519	89.75
236.753	69.75
236.987	80.75
237.221	76.75
237.455	82.75
237.689	73.75
237.922	75.75
238.156	82.75
238.39	78.75
238.624	72.75
238.858	66.75
239.091	88.75
239.325	84.75
239.559	85.75
239.793	80.75
240.027	72.75
240.26	78.75
240.494	71.75
240.728	74.75
240.961	73.75
241.195	78.75
241.429	66.75
241.662	55.75
241.896	76.75
242.13	67.75
242.363	70.75
242.597	79.75
242.83	73.75
243.064	77.75
243.298	76.75
243.531	77.75
243.765	80.75
243.998	77.75
244.232	88.75
244.465	85.75
244.699	81.75
244.932	98.75
245.166	93.75
245.399	81.75
245.633	79.75
245.866	54.75
246.099	65.75
246.333	77.75
246.566	77.75
246.8	79.75
247.033	78.75
247.266	62.75
247.5	61.75
247.733	72.75
247.966	92.75
248.2	80.75
248.433	72.75
248.666	85.75
248.899	79.75
249.133	97.75
249.366	94.75
249.599	87.75
249.832	90.75
250.066	85.75
250.299	81.75
250.532	78.75
250.765	78.75
250.998	77.75
251.231	85.75
251.465	72.75
251.698	70.75
251.931	88.75
252.164	74.75
252.397	92.75
252.63	79.75
252.863	79.75
253.096	73.75
253.329	71.75
253.562	87.75
253.795	74.75
254.028	76.75
254.261	82.75
254.494	87.75
254.727	85.75
254.96	80.75
255.193	83.75
255.426	74.75
255.659	78.75
255.892	72.75
256.124	88.75
256.357	86.75
256.59	69.75
256.823	71.75
257.056	77.75
257.289	78.75
257.521	78.75
257.754	73.75
257.987	70.75
258.22	87.75
258.452	65.75
258.685	92.75
258.918	73.75
259.151	85.75
259.383	81.75
259.616	80.75
259.849	103.75
260.081	74.75
260.314	78.75
260.547	81.75
260.779	83.75
261.012	78.75
261.244	76.75
261.477	81.75
261.71	84.75
261.942	117.75
262.175	117.75
262.407	91.75
262.64	91.75
262.872	85.75
263.105	80.75
263.337	103.75
263.57	81.75
263.802	92.75
264.035	76.75
264.267	86.75
264.499	75.75
264.732	73.75
264.964	92.75
265.197	86.75
265.429	77.75
265.661	85.75
265.894	95.75
266.126	81.75
266.358	82.75
266.591	74.75
266.823	74.75
267.055	79.75
267.287	74.75
267.52	92.75
267.752	69.75
267.984	93.75
268.216	91.75
268.448	70.75
268.681	87.75
268.913	92.75
269.145	90.75
269.377	79.75
269.609	82.75
269.841	79.75
270.073	76.75
270.306	81.75
270.538	82.75
270.77	88.75
271.002	83.75
271.234	81.75
271.466	88.75
271.698	84.75
271.93	82.75
272.162	92.75
272.394	90.75
272.626	91.75
272.858	79.75
273.09	81.75
273.322	87.75
273.553	76.75
273.785	82.75
274.017	80.75
274.249	89.75
274.481	90.75
274.713	70.75
274.945	93.75
275.176	93.75
275.408	93.75
275.64	81.75
275.872	72.75
276.104	91.75
276.335	78.75
276.567	81.75
276.799	97.75
277.031	100.75
277.262	93.75
277.494	88.75
277.726	81.75
277.957	84.75
278.189	79.75
278.421	70.75
278.652	86.75
278.884	97.75
279.115	84.75
279.347	80.75
279.579	81.75
279.81	92.75
280.042	72.75
280.273	89.75
280.505	85.75
280.736	90.75
280.968	83.75
281.199	87.75
281.431	72.75
281.662	90.75
281.894	89.75
282.125	105.75
282.356	114.75
282.588	135.75
282.819	104.75
283.051	90.75
283.282	86.75
283.513	95.75
283.745	90.75
283.976	89.75
284.207	97.75
284.439	82.75
284.67	80.75
284.901	89.75
285.132	86.75
285.364	81.75
285.595	94.75
285.826	85.75
286.057	92.75
286.288	86.75
286.52	75.75
286.751	99.75
286.982	86.75
287.213	74.75
287.444	83.75
287.675	107.75
287.906	89.75
288.138	85.75
288.369	78.75
288.6	95.75
288.831	83.75
289.062	88.75
289.293	94.75
289.524	95.75
289.755	77.75
289.986	79.75
290.217	79.75
290.448	86.75
290.679	88.75
290.91	95.75
291.141	75.75
291.371	84.75
291.602	83.75
291.833	82.75
292.064	86.75
292.295	75.75
292.526	84.75
292.757	97.75
292.987	83.75
293.218	81.75
293.449	90.75
293.68	78.75
293.91	90.75
294.141	82.75
294.372	92.75
294.603	85.75
294.833	86.75
295.064	82.75
295.295	83.75
295.525	100.75
295.756	99.75
295.987	106.75
296.217	128.75
296.448	112.75
296.679	88.75
296.909	83.75
297.14	93.75
297.37	100.75
297.601	83.75
297.831	89.75
298.062	85.75
298.292	105.75
298.523	86.75
298.753	78.75
298.984	78.75
299.214	94.75
299.445	81.75
299.675	90.75
299.905	85.75
300.136	95.75
300.366	82.75
300.597	82.75
300.827	94.75
301.057	97.75
301.288	96.75
301.518	115.75
301.748	78.75
301.979	87.75
302.209	92.75
302.439	68.75
302.669	90.75
302.9	97.75
303.13	87.75
303.36	94.75
303.59	98.75
303.82	97.75
304.051	98.75
304.281	88.75
304.511	96.75
304.741	92.75
304.971	72.75
305.201	97.75
305.431	89.75
305.661	81.75
305.891	74.75
306.121	88.75
306.352	105.75
306.582	96.75
306.812	91.75
307.042	84.75
307.272	96.75
307.502	88.75
307.731	82.75
307.961	84.75
308.191	76.75
308.421	92.75
308.651	72.75
308.881	91.75
309.111	81.75
309.341	95.75
309.571	81.75
309.8	86.75
310.03	97.75
310.26	103.75
310.49	84.75
310.72	105.75
310.949	98.75
311.179	106.75
311.409	99.75
311.639	81.75
311.868	101.75
312.098	116.75
312.328	93.75
312.557	106.75
312.787	99.75
313.017	95.75
313.246	95.75
313.476	99.75
313.706	101.75
313.935	95.75
314.165	94.75
314.394	88.75
314.624	92.75
314.853	93.75
315.083	87.75
315.312	96.75
315.542	104.75
315.771	95.75
316.001	90.75
316.23	88.75
316.46	85.75
316.689	93.75
316.919	96.75
317.148	85.75
317.377	104.75
317.607	102.75
317.836	98.75
318.065	82.75
318.295	85.75
318.524	80.75
318.753	102.75
318.983	85.75
319.212	98.75
319.441	91.75
319.67	105.75
319.9	89.75
320.129	99.75
320.358	100.75
320.587	77.75
320.816	94.75
321.046	100.75
321.275	97.75
321.504	101.75
321.733	97.75
321.962	106.75
322.191	112.75
322.42	107.75
322.649	108.75
322.878	104.75
323.108	112.75
323.337	119.75
323.566	107.75
323.795	172.75
324.024	218.75
324.253	412.75
324.482	874.75
324.71	1861.75
324.939	2426.75
325.168	853.75
325.397	242.75
325.626	148.75
325.855	146.75
326.084	128.75
326.313	130.75
326.542	161.75
326.77	240.75
326.999	489.75
327.228	1043.75
327.457	1888.75
327.686	1478.75
327.914	381.75
328.143	184.75
328.372	155.75
328.6	134.75
328.829	102.75
329.058	119.75
329.287	115.75
329.515	108.75
329.744	109.75
329.972	112.75
330.201	114.75
330.43	110.75
330.658	130.75
330.887	137.75
331.115	124.75
331.344	95.75
331.572	83.75
331.801	104.75
332.03	88.75
332.258	93.75
332.486	94.75
332.715	90.75
332.943	99.75
333.172	92.75
333.4	108.75
333.629	107.75
333.857	102.75
334.085	96.75
334.314	80.75
334.542	94.75
334.771	103.75
334.999	92.75
335.227	87.75
335.455	97.75
335.684	85.75
335.912	98.75
336.14	104.75
336.369	98.75
336.597	114.75
336.825	100.75
337.053	96.75
337.281	88.75
337.51	78.75
337.738	79.75
337.966	86.75
338.194	72.75
338.422	86.75
338.65	96.75
338.878	93.75
339.106	76.75
339.334	89.75
339.562	83.75
339.79	90.75
340.018	98.75
340.246	96.75
340.474	97.75
340.702	98.75
340.93	84.75
341.158	89.75
341.386	93.75
341.614	103.75
341.842	97.75
342.07	88.75
342.298	97.75
342.526	96.75
342.754	81.75
342.981	80.75
343.209	97.75
343.437	107.75
343.665	97.75
343.893	82.75
344.12	94.75
344.348	103.75
344.576	86.75
344.804	98.75
345.031	106.75
345.259	116.75
345.487	88.75
345.714	108.75
345.942	100.75
346.17	82.75
346.397	92.75
346.625	101.75
346.853	103.75
347.08	93.75
347.308	96.75
347.535	95.75
347.763	97.75
347.99	91.75
348.218	101.75
348.445	96.75
348.673	108.75
348.9	90.75
349.128	98.75
349.355	90.75
349.583	108.75
349.81	87.75
350.037	88.75
350.265	90.75
350.492	99.75
350.72	89.75
350.947	117.75
351.174	100.75
351.402	111.75
351.629	94.75
351.856	88.75
352.083	108.75
352.311	108.75
352.538	97.75
352.765	99.75
352.992	102.75
353.22	114.75
353.447	105.75
353.674	97.75
353.901	100.75
354.128	89.75
354.355	103.75
354.583	104.75
354.81	102.75
355.037	112.75
355.264	95.75
355.491	85.75
355.718	81.75
355.945	86.75
356.172	89.75
356.399	98.75
356.626	95.75
356.853	93.75
357.08	100.75
357.307	89.75
357.534	97.75
357.761	94.75
357.988	84.75
358.215	102.75
358.441	92.75
358.668	102.75
358.895	87.75
359.122	94.75
359.349	86.75
359.576	105.75
359.802	86.75
360.029	90.75
360.256	103.75
360.483	93.75
360.709	92.75
360.936	92.75
361.163	86.75
361.39	97.75
361.616	84.75
361.843	79.75
362.07	95.75
362.296	94.75
362.523	100.75
362.749	100.75
362.976	78.75
363.203	89.75
363.429	89.75
363.656	98.75
363.882	97.75
364.109	100.75
364.335	106.75
364.562	97.75
364.788	90.75
365.015	98.75
365.241	89.75
365.468	109.75
365.694	97.75
365.92	86.75
366.147	88.75
366.373	95.75
366.599	88.75
366.826	90.75
367.052	91.75
367.278	100.75
367.505	88.75
367.731	87.75
367.957	86.75
368.184	90.75
368.41	101.75
368.636	112.75
368.862	110.75
369.089	112.75
369.315	89.75
369.541	101.75
369.767	85.75
369.993	81.75
370.219	93.75
370.445	90.75
370.672	88.75
370.898	89.75
371.124	85.75
371.35	98.75
371.576	85.75
371.802	80.75
372.028	84.75
372.254	78.75
372.48	84.75
372.706	89.75
372.932	94.75
373.158	90.75
373.384	90.75
373.61	93.75
373.835	82.75
374.061	96.75
374.287	95.75
374.513	92.75
374.739	102.75
374.965	78.75
375.191	77.75
375.416	89.75
375.642	91.75
375.868	89.75
376.094	67.75
376.319	87.75
376.545	81.75
376.771	86.75
376.997	98.75
377.222	92.75
377.448	93.75
377.674	80.75
377.899	92.75
378.125	91.75
378.35	93.75
378.576	90.75
378.802	100.75
379.027	103.75
379.253	95.75
379.478	98.75
379.704	99.75
379.929	91.75
380.155	93.75
380.38	83.75
380.606	92.75
380.831	105.75
381.057	94.75
381.282	94.75
381.507	87.75
381.733	94.75
381.958	100.75
382.184	96.75
382.409	106.75
382.634	91.75
382.86	90.75
383.085	96.75
383.31	102.75
383.535	97.75
383.761	93.75
383.986	105.75
384.211	96.75
384.436	101.75
384.662	96.75
384.887	99.75
385.112	97.75
385.337	111.75
385.562	98.75
385.787	112.75
386.013	116.75
386.238	122.75
386.463	101.75
386.688	95.75
386.913	87.75
387.138	106.75
387.363	99.75
387.588	96.75
387.813	93.75
388.038	101.75
388.263	107.75
388.488	115.75
388.713	103.75
388.938	86.75
389.163	86.75
389.387	84.75
389.612	86.75
389.837	85.75
390.062	84.75
390.287	95.75
390.512	96.75
390.736	92.75
390.961	92.75
391.186	96.75
391.411	89.75
391.636	86.75
391.86	84.75
392.085	87.75
392.31	94.75
392.534	87.75
392.759	85.75
392.984	81.75
393.208	94.75
393.433	70.75
393.658	99.75
393.882	85.75
394.107	77.75
394.331	91.75
394.556	79.75
394.78	88.75
395.005	73.75
395.229	78.75
395.454	92.75
395.678	84.75
395.903	88.75
396.127	101.75
396.352	81.75
396.576	81.75
396.801	85.75
397.025	86.75
397.249	92.75
397.474	95.75
397.698	81.75
397.922	92.75
398.147	94.75
398.371	88.75
398.595	86.75
398.82	68.75
399.044	67.75
399.268	93.75
399.492	87.75
399.717	93.75
399.941	98.75
400.165	88.75
400.389	98.75
400.613	87.75
400.837	73.75
401.062	79.75
401.286	95.75
401.51	93.75
401.734	80.75
401.958	94.75
402.182	123.75
402.406	161.75
402.63	111.75
402.854	80.75
403.078	74.75
403.302	87.75
403.526	91.75
403.75	78.75
403.974	89.75
404.198	97.75
404.422	87.75
404.645	84.75
404.869	86.75
405.093	96.75
405.317	78.75
405.541	92.75
405.765	90.75
405.988	108.75
406.212	156.75
406.436	202.75
406.66	143.75
406.883	105.75
407.107	97.75
407.331	93.75
407.555	90.75
407.778	89.75
408.002	89.75
408.226	95.75
408.449	94.75
408.673	87.75
408.896	100.75
409.12	87.75
409.344	84.75
409.567	90.75
409.791	90.75
410.014	94.75
410.238	96.75
410.461	92.75
410.685	94.75
410.908	90.75
411.132	103.75
411.355	94.75
411.578	93.75
411.802	97.75
412.025	85.75
412.249	78.75
412.472	89.75
412.695	78.75
412.919	87.75
413.142	84.75
413.365	78.75
413.589	100.75
413.812	92.75
414.035	74.75
414.258	94.75
414.482	104.75
414.705	85.75
414.928	87.75
415.151	84.75
415.374	95.75
415.597	76.75
415.821	101.75
416.044	80.75
416.267	88.75
416.49	95.75
416.713	86.75
416.936	94.75
417.159	106.75
417.382	87.75
417.605	82.75
417.828	100.75
418.051	83.75
418.274	81.75
418.497	85.75
418.72	80.75
418.943	102.75
419.166	85.75
419.389	98.75
419.611	105.75
419.834	85.75
420.057	83.75
420.28	87.75
420.503	84.75
420.726	85.75
420.948	92.75
421.171	69.75
421.394	86.75
421.617	74.75
421.839	76.75
422.062	87.75
422.285	94.75
422.507	100.75
422.73	99.75
422.953	105.75
423.175	65.75
423.398	85.75
423.621	74.75
423.843	82.75
424.066	85.75
424.288	93.75
424.511	83.75
424.733	104.75
424.956	88.75
425.178	90.75
425.401	87.75
425.623	105.75
425.846	80.75
426.068	104.75
426.291	87.75
426.513	99.75
426.735	87.75
426.958	92.75
427.18	92.75
427.402	143.75
427.625	165.75
427.847	116.75
428.069	99.75
428.292	93.75
428.514	92.75
428.736	84.75
428.958	80.75
429.181	92.75
429.403	79.75
429.625	97.75
429.847	94.75
430.069	97.75
430.292	87.75
430.514	78.75
430.736	89.75
430.958	82.75
431.18	83.75
431.402	80.75
431.624	78.75
431.846	78.75
432.068	98.75
432.29	87.75
432.512	92.75
432.734	99.75
432.956	96.75
433.178	116.75
433.4	89.75
433.622	88.75
433.844	105.75
434.066	95.75
434.287	89.75
434.509	101.75
434.731	89.75
434.953	96.75
435.175	70.75
435.397	83.75
435.618	88.75
435.84	90.75
436.062	131.75
436.284	117.75
436.505	92.75
436.727	99.75
436.949	107.75
437.17	89.75
437.392	94.75
437.614	88.75
437.835	97.75
438.057	106.75
438.278	108.75
438.5	95.75
438.721	116.75
438.943	90.75
439.165	89.75
439.386	70.75
439.608	81.75
439.829	87.75
440.05	117.75
440.272	139.75
440.493	104.75
440.715	73.75
440.936	83.75
441.158	85.75
441.379	80.75
441.6	86.75
441.822	107.75
442.043	96.75
442.264	106.75
442.486	101.75
442.707	103.75
442.928	89.75
443.149	112.75
443.371	116.75
443.592	110.75
443.813	112.75
444.034	101.75
444.255	90.75
444.476	82.75
444.698	76.75
444.919	100.75
445.14	113.75
445.361	110.75
445.582	87.75
445.803	152.75
446.024	125.75
446.245	128.75
446.466	105.75
446.687	87.75
446.908	97.75
447.129	85.75
447.35	92.75
447.571	95.75
447.792	86.75
448.013	88.75
448.234	103.75
448.455	91.75
448.675	117.75
448.896	105.75
449.117	101.75
449.338	98.75
449.559	118.75
449.779	125.75
450	97.75
450.221	87.75
450.442	89.75
450.662	89.75
450.883	89.75
451.104	93.75
451.324	86.75
451.545	77.75
451.766	72.75
451.986	78.75
452.207	84.75
452.428	80.75
452.648	111.75
452.869	116.75
453.089	97.75
453.31	113.75
453.53	93.75
453.751	103.75
453.971	121.75
454.192	116.75
454.412	89.75
454.633	85.75
454.853	84.75
455.073	83.75
455.294	92.75
455.514	78.75
455.734	99.75
455.955	97.75
456.175	86.75
456.395	89.75
456.616	96.75
456.836	85.75
457.056	87.75
457.276	95.75
457.497	78.75
457.717	86.75
457.937	79.75
458.157	85.75
458.377	86.75
458.598	102.75
458.818	158.75
459.038	145.75
459.258	113.75
459.478	112.75
459.698	90.75
459.918	73.75
460.138	88.75
460.358	92.75
460.578	101.75
460.798	93.75
461.018	104.75
461.238	74.75
461.458	82.75
461.678	84.75
461.898	92.75
462.118	95.75
462.338	80.75
462.558	85.75
462.777	96.75
462.997	83.75
463.217	89.75
463.437	80.75
463.657	84.75
463.876	95.75
464.096	92.75
464.316	82.75
464.536	81.75
464.755	89.75
464.975	118.75
465.195	159.75
465.414	154.75
465.634	98.75
465.854	94.75
466.073	83.75
466.293	83.75
466.512	82.75
466.732	97.75
466.951	81.75
467.171	90.75
467.391	88.75
467.61	98.75
467.829	105.75
468.049	92.75
468.268	80.75
468.488	76.75
468.707	80.75
468.927	84.75
469.146	90.75
469.365	91.75
469.585	77.75
469.804	89.75
470.023	89.75
470.243	93.75
470.462	97.75
470.681	103.75
470.901	88.75
471.12	81.75
471.339	90.75
471.558	89.75
471.777	68.75
471.997	86.75
472.216	97.75
472.435	80.75
472.654	82.75
472.873	97.75
473.092	87.75
473.311	87.75
473.53	80.75
473.749	77.75
473.968	111.75
474.187	98.75
474.406	94.75
474.625	79.75
474.844	85.75
475.063	85.75
475.282	101.75
475.501	101.75
475.72	85.75
475.939	90.75
476.158	88.75
476.377	92.75
476.596	81.75
476.814	93.75
477.033	90.75
477.252	86.75
477.471	83.75
477.69	97.75
477.908	98.75
478.127	79.75
478.346	89.75
478.564	81.75
478.783	96.75
479.002	84.75
479.22	89.75
479.439	90.75
479.658	101.75
479.876	96.75
480.095	77.75
480.313	100.75
480.532	82.75
480.751	96.75
480.969	81.75
481.188	97.75
481.406	92.75
481.624	100.75
481.843	88.75
482.061	102.75
482.28	86.75
482.498	79.75
482.717	83.75
482.935	87.75
483.153	85.75
483.372	81.75
483.59	87.75
483.808	86.75
484.027	91.75
484.245	96.75
484.463	91.75
484.681	105.75
484.9	90.75
485.118	94.75
485.336	95.75
485.554	87.75
485.772	93.75
485.99	100.75
486.209	96.75
486.427	105.75
486.645	108.75
486.863	109.75
487.081	104.75
487.299	101.75
487.517	79.75
487.735	89.75
487.953	93.75
488.171	90.75
488.389	94.75
488.607	90.75
488.825	84.75
489.043	92.75
489.261	83.75
489.479	84.75
489.696	102.75
489.914	99.75
490.132	97.75
490.35	103.75
490.568	80.75
490.786	85.75
491.003	84.75
491.221	79.75
491.439	91.75
491.657	101.75
491.874	96.75
492.092	94.75
492.31	85.75
492.527	92.75
492.745	90.75
492.963	88.75
493.18	88.75
493.398	100.75
493.615	110.75
493.833	109.75
494.05	105.75
494.268	89.75
494.485	82.75
494.703	90.75
494.92	70.75
495.138	99.75
495.355	95.75
495.573	100.75
495.79	110.75
496.008	99.75
496.225	86.75
496.442	85.75
496.66	80.75
496.877	95.75
497.094	100.75
497.312	83.75
497.529	96.75
497.746	78.75
497.963	96.75
498.181	100.75
498.398	96.75
498.615	106.75
498.832	115.75
499.049	87.75
499.267	82.75
499.484	85.75
499.701	88.75
499.918	78.75
500.135	99.75
500.352	89.75
500.569	90.75
500.786	90.75
501.003	108.75
501.22	83.75
501.437	93.75
501.654	85.75
501.871	106.75
502.088	90.75
502.305	100.75
502.522	84.75
502.739	85.75
502.956	96.75
503.172	78.75
503.389	90.75
503.606	91.75
503.823	74.75
504.04	95.75
504.256	85.75
504.473	82.75
504.69	89.75
504.907	86.75
505.123	85.75
505.34	85.75
505.557	96.75
505.773	91.75
505.99	87.75
506.207	97.75
506.423	80.75
506.64	102.75
506.856	93.75
507.073	93.75
507.289	97.75
507.506	106.75
507.722	128.75
507.939	107.75
508.155	80.75
508.372	91.75
508.588	98.75
508.805	100.75
509.021	73.75
509.238	100.75
509.454	96.75
509.67	107.75
509.887	119.75
510.103	133.75
510.319	200.75
510.536	794.75
510.752	2418.75
510.968	679.75
511.184	152.75
511.401	99.75
511.617	95.75
511.833	105.75
512.049	97.75
512.265	95.75
512.481	89.75
512.698	104.75
512.914	80.75
513.13	117.75
513.346	93.75
513.562	92.75
513.778	94.75
513.994	108.75
514.21	116.75
514.426	119.75
514.642	122.75
514.858	125.75
515.074	160.75
515.29	451.75
515.506	1446.75
515.721	534.75
515.937	149.75
516.153	108.75
