Data from Uncirc_2003_H10_HRD10591_00016.txt Node
Date: Wed Jan 03 10:35:51 EST 2024
User: Yrep
Spectrometer: HR+D1059
Trigger mode: 1
Integration Time (sec): 1.000000E-1
Scans to average: 1
Electric dark correction enabled: true
Nonlinearity correction enabled: false
Boxcar width: 0
XAxis mode: Wavelengths
Number of Pixels in Spectrum: 2048
>>>>>Begin Spectral Data<<<<<
223.165	-18.56
223.4	-18.56
223.635	-18.56
223.869	-23.56
224.104	-15.56
224.338	-9.56
224.573	-15.56
224.808	-14.56
225.042	-11.56
225.277	12.44
225.511	-1.56
225.746	3.44
225.98	3.44
226.215	13.44
226.449	14.44
226.683	12.44
226.918	27.44
227.152	23.44
227.387	49.44
227.621	48.44
227.856	38.44
228.09	48.44
228.324	43.44
228.559	68.44
228.793	71.44
229.027	54.44
229.262	55.44
229.496	59.44
229.73	78.44
229.964	82.44
230.199	91.44
230.433	88.44
230.667	74.44
230.901	82.44
231.136	82.44
231.37	98.44
231.604	76.44
231.838	69.44
232.072	88.44
232.306	87.44
232.541	75.44
232.775	82.44
233.009	88.44
233.243	73.44
233.477	89.44
233.711	80.44
233.945	88.44
234.179	81.44
234.413	94.44
234.647	85.44
234.881	75.44
235.115	66.44
235.349	88.44
235.583	83.44
235.817	90.44
236.051	86.44
236.285	82.44
236.519	76.44
236.753	70.44
236.987	97.44
237.221	81.44
237.455	71.44
237.689	76.44
237.922	82.44
238.156	82.44
238.39	71.44
238.624	86.44
238.858	72.44
239.091	78.44
239.325	86.44
239.559	72.44
239.793	87.44
240.027	79.44
240.26	81.44
240.494	87.44
240.728	88.44
240.961	91.44
241.195	83.44
241.429	84.44
241.662	69.44
241.896	56.44
242.13	68.44
242.363	82.44
242.597	82.44
242.83	90.44
243.064	97.44
243.298	80.44
243.531	77.44
243.765	76.44
243.998	82.44
244.232	85.44
244.465	97.44
244.699	97.44
244.932	75.44
245.166	89.44
245.399	89.44
245.633	85.44
245.866	90.44
246.099	84.44
246.333	87.44
246.566	65.44
246.8	78.44
247.033	76.44
247.266	81.44
247.5	84.44
247.733	75.44
247.966	82.44
248.2	80.44
248.433	97.44
248.666	81.44
248.899	76.44
249.133	82.44
249.366	100.44
249.599	94.44
249.832	98.44
250.066	76.44
250.299	71.44
250.532	85.44
250.765	84.44
250.998	90.44
251.231	82.44
251.465	76.44
251.698	82.44
251.931	68.44
252.164	84.44
252.397	97.44
252.63	77.44
252.863	80.44
253.096	89.44
253.329	89.44
253.562	81.44
253.795	81.44
254.028	85.44
254.261	75.44
254.494	81.44
254.727	92.44
254.96	85.44
255.193	82.44
255.426	87.44
255.659	86.44
255.892	89.44
256.124	84.44
256.357	75.44
256.59	75.44
256.823	85.44
257.056	80.44
257.289	92.44
257.521	90.44
257.754	88.44
257.987	79.44
258.22	84.44
258.452	80.44
258.685	83.44
258.918	88.44
259.151	100.44
259.383	85.44
259.616	85.44
259.849	90.44
260.081	77.44
260.314	93.44
260.547	92.44
260.779	75.44
261.012	100.44
261.244	93.44
261.477	93.44
261.71	108.44
261.942	114.44
262.175	106.44
262.407	96.44
262.64	100.44
262.872	99.44
263.105	88.44
263.337	97.44
263.57	63.44
263.802	88.44
264.035	86.44
264.267	88.44
264.499	97.44
264.732	96.44
264.964	83.44
265.197	90.44
265.429	83.44
265.661	82.44
265.894	75.44
266.126	83.44
266.358	86.44
266.591	94.44
266.823	87.44
267.055	85.44
267.287	81.44
267.52	74.44
267.752	84.44
267.984	74.44
268.216	82.44
268.448	90.44
268.681	89.44
268.913	102.44
269.145	85.44
269.377	83.44
269.609	99.44
269.841	86.44
270.073	72.44
270.306	75.44
270.538	102.44
270.77	81.44
271.002	80.44
271.234	76.44
271.466	89.44
271.698	86.44
271.93	84.44
272.162	87.44
272.394	84.44
272.626	97.44
272.858	83.44
273.09	107.44
273.322	98.44
273.553	91.44
273.785	81.44
274.017	93.44
274.249	97.44
274.481	88.44
274.713	84.44
274.945	94.44
275.176	83.44
275.408	93.44
275.64	94.44
275.872	81.44
276.104	88.44
276.335	94.44
276.567	86.44
276.799	107.44
277.031	108.44
277.262	81.44
277.494	88.44
277.726	74.44
277.957	93.44
278.189	98.44
278.421	84.44
278.652	94.44
278.884	99.44
279.115	99.44
279.347	99.44
279.579	76.44
279.81	98.44
280.042	99.44
280.273	89.44
280.505	69.44
280.736	84.44
280.968	89.44
281.199	89.44
281.431	79.44
281.662	91.44
281.894	91.44
282.125	101.44
282.356	123.44
282.588	135.44
282.819	99.44
283.051	93.44
283.282	91.44
283.513	82.44
283.745	92.44
283.976	77.44
284.207	93.44
284.439	91.44
284.67	95.44
284.901	84.44
285.132	101.44
285.364	102.44
285.595	94.44
285.826	83.44
286.057	94.44
286.288	92.44
286.52	93.44
286.751	90.44
286.982	93.44
287.213	90.44
287.444	89.44
287.675	78.44
287.906	100.44
288.138	94.44
288.369	84.44
288.6	91.44
288.831	88.44
289.062	80.44
289.293	95.44
289.524	84.44
289.755	93.44
289.986	89.44
290.217	88.44
290.448	105.44
290.679	74.44
290.91	90.44
291.141	84.44
291.371	82.44
291.602	96.44
291.833	76.44
292.064	87.44
292.295	91.44
292.526	96.44
292.757	91.44
292.987	80.44
293.218	104.44
293.449	84.44
293.68	79.44
293.91	104.44
294.141	96.44
294.372	95.44
294.603	93.44
294.833	96.44
295.064	85.44
295.295	84.44
295.525	96.44
295.756	92.44
295.987	126.44
296.217	142.44
296.448	131.44
296.679	91.44
296.909	89.44
297.14	84.44
297.37	103.44
297.601	66.44
297.831	104.44
298.062	92.44
298.292	75.44
298.523	96.44
298.753	93.44
298.984	91.44
299.214	104.44
299.445	90.44
299.675	93.44
299.905	95.44
300.136	107.44
300.366	100.44
300.597	88.44
300.827	99.44
301.057	111.44
301.288	104.44
301.518	103.44
301.748	83.44
301.979	101.44
302.209	100.44
302.439	88.44
302.669	101.44
302.9	104.44
303.13	88.44
303.36	90.44
303.59	103.44
303.82	98.44
304.051	93.44
304.281	102.44
304.511	86.44
304.741	88.44
304.971	106.44
305.201	88.44
305.431	87.44
305.661	103.44
305.891	101.44
306.121	101.44
306.352	91.44
306.582	106.44
306.812	94.44
307.042	92.44
307.272	102.44
307.502	91.44
307.731	102.44
307.961	89.44
308.191	104.44
308.421	95.44
308.651	89.44
308.881	102.44
309.111	100.44
309.341	94.44
309.571	103.44
309.8	112.44
310.03	105.44
310.26	94.44
310.49	80.44
310.72	98.44
310.949	103.44
311.179	102.44
311.409	92.44
311.639	99.44
311.868	99.44
312.098	99.44
312.328	116.44
312.557	95.44
312.787	103.44
313.017	101.44
313.246	100.44
313.476	101.44
313.706	105.44
313.935	104.44
314.165	116.44
314.394	101.44
314.624	96.44
314.853	97.44
315.083	89.44
315.312	96.44
315.542	92.44
315.771	105.44
316.001	108.44
316.23	90.44
316.46	95.44
316.689	85.44
316.919	93.44
317.148	89.44
317.377	102.44
317.607	94.44
317.836	94.44
318.065	92.44
318.295	103.44
318.524	102.44
318.753	99.44
318.983	100.44
319.212	98.44
319.441	113.44
319.67	97.44
319.9	97.44
320.129	97.44
320.358	97.44
320.587	98.44
320.816	101.44
321.046	105.44
321.275	83.44
321.504	93.44
321.733	100.44
321.962	98.44
322.191	106.44
322.42	111.44
322.649	111.44
322.878	123.44
323.108	117.44
323.337	133.44
323.566	125.44
323.795	151.44
324.024	198.44
324.253	392.44
324.482	814.44
324.71	1710.44
324.939	2224.44
325.168	798.44
325.397	247.44
325.626	146.44
325.855	132.44
326.084	121.44
326.313	134.44
326.542	161.44
326.77	236.44
326.999	452.44
327.228	948.44
327.457	1762.44
327.686	1360.44
327.914	358.44
328.143	183.44
328.372	147.44
328.6	128.44
328.829	112.44
329.058	108.44
329.287	119.44
329.515	108.44
329.744	116.44
329.972	102.44
330.201	97.44
330.43	113.44
330.658	118.44
330.887	131.44
331.115	109.44
331.344	93.44
331.572	91.44
331.801	87.44
332.03	106.44
332.258	94.44
332.486	110.44
332.715	117.44
332.943	98.44
333.172	101.44
333.4	101.44
333.629	110.44
333.857	112.44
334.085	109.44
334.314	107.44
334.542	88.44
334.771	99.44
334.999	96.44
335.227	100.44
335.455	108.44
335.684	81.44
335.912	98.44
336.14	109.44
336.369	97.44
336.597	100.44
336.825	113.44
337.053	94.44
337.281	86.44
337.51	109.44
337.738	108.44
337.966	103.44
338.194	91.44
338.422	98.44
338.65	95.44
338.878	96.44
339.106	101.44
339.334	99.44
339.562	107.44
339.79	95.44
340.018	104.44
340.246	87.44
340.474	98.44
340.702	93.44
340.93	96.44
341.158	100.44
341.386	98.44
341.614	103.44
341.842	97.44
342.07	97.44
342.298	98.44
342.526	92.44
342.754	98.44
342.981	108.44
343.209	94.44
343.437	111.44
343.665	105.44
343.893	104.44
344.12	102.44
344.348	92.44
344.576	92.44
344.804	101.44
345.031	96.44
345.259	90.44
345.487	95.44
345.714	114.44
345.942	97.44
346.17	104.44
346.397	91.44
346.625	80.44
346.853	96.44
347.08	79.44
347.308	102.44
347.535	105.44
347.763	96.44
347.99	103.44
348.218	116.44
348.445	107.44
348.673	109.44
348.9	85.44
349.128	99.44
349.355	94.44
349.583	104.44
349.81	96.44
350.037	109.44
350.265	101.44
350.492	114.44
350.72	93.44
350.947	94.44
351.174	123.44
351.402	119.44
351.629	96.44
351.856	115.44
352.083	108.44
352.311	94.44
352.538	112.44
352.765	112.44
352.992	116.44
353.22	120.44
353.447	111.44
353.674	105.44
353.901	102.44
354.128	107.44
354.355	100.44
354.583	97.44
354.81	99.44
355.037	92.44
355.264	113.44
355.491	90.44
355.718	108.44
355.945	93.44
356.172	109.44
356.399	110.44
356.626	94.44
356.853	90.44
357.08	96.44
357.307	99.44
357.534	106.44
357.761	93.44
357.988	100.44
358.215	112.44
358.441	102.44
358.668	95.44
358.895	91.44
359.122	92.44
359.349	97.44
359.576	102.44
359.802	98.44
360.029	110.44
360.256	100.44
360.483	96.44
360.709	93.44
360.936	102.44
361.163	112.44
361.39	89.44
361.616	102.44
361.843	109.44
362.07	99.44
362.296	93.44
362.523	81.44
362.749	83.44
362.976	100.44
363.203	102.44
363.429	102.44
363.656	97.44
363.882	91.44
364.109	89.44
364.335	104.44
364.562	94.44
364.788	101.44
365.015	107.44
365.241	104.44
365.468	114.44
365.694	98.44
365.92	100.44
366.147	101.44
366.373	86.44
366.599	93.44
366.826	74.44
367.052	98.44
367.278	81.44
367.505	95.44
367.731	91.44
367.957	92.44
368.184	91.44
368.41	116.44
368.636	106.44
368.862	106.44
369.089	105.44
369.315	86.44
369.541	85.44
369.767	109.44
369.993	87.44
370.219	106.44
370.445	77.44
370.672	98.44
370.898	94.44
371.124	96.44
371.35	91.44
371.576	106.44
371.802	81.44
372.028	101.44
372.254	94.44
372.48	80.44
372.706	94.44
372.932	89.44
373.158	90.44
373.384	94.44
373.61	109.44
373.835	103.44
374.061	86.44
374.287	102.44
374.513	103.44
374.739	95.44
374.965	93.44
375.191	95.44
375.416	81.44
375.642	104.44
375.868	90.44
376.094	105.44
376.319	94.44
376.545	77.44
376.771	105.44
376.997	110.44
377.222	98.44
377.448	84.44
377.674	104.44
377.899	103.44
378.125	96.44
378.35	85.44
378.576	98.44
378.802	94.44
379.027	84.44
379.253	105.44
379.478	95.44
379.704	88.44
379.929	98.44
380.155	91.44
380.38	96.44
380.606	100.44
380.831	99.44
381.057	108.44
381.282	98.44
381.507	111.44
381.733	85.44
381.958	99.44
382.184	120.44
382.409	116.44
382.634	98.44
382.86	109.44
383.085	91.44
383.31	104.44
383.535	107.44
383.761	110.44
383.986	94.44
384.211	94.44
384.436	108.44
384.662	101.44
384.887	110.44
385.112	105.44
385.337	116.44
385.562	96.44
385.787	111.44
386.013	111.44
386.238	121.44
386.463	113.44
386.688	120.44
386.913	112.44
387.138	105.44
387.363	109.44
387.588	114.44
387.813	113.44
388.038	114.44
388.263	113.44
388.488	124.44
388.713	112.44
388.938	97.44
389.163	98.44
389.387	108.44
389.612	105.44
389.837	100.44
390.062	90.44
390.287	92.44
390.512	109.44
390.736	107.44
390.961	96.44
391.186	104.44
391.411	104.44
391.636	94.44
391.86	97.44
392.085	90.44
392.31	90.44
392.534	102.44
392.759	97.44
392.984	91.44
393.208	89.44
393.433	109.44
393.658	81.44
393.882	80.44
394.107	97.44
394.331	105.44
394.556	97.44
394.78	90.44
395.005	88.44
395.229	84.44
395.454	79.44
395.678	88.44
395.903	93.44
396.127	105.44
396.352	67.44
396.576	91.44
396.801	89.44
397.025	86.44
397.249	91.44
397.474	88.44
397.698	82.44
397.922	91.44
398.147	92.44
398.371	86.44
398.595	85.44
398.82	99.44
399.044	96.44
399.268	95.44
399.492	86.44
399.717	80.44
399.941	82.44
400.165	87.44
400.389	86.44
400.613	96.44
400.837	96.44
401.062	91.44
401.286	99.44
401.51	114.44
401.734	102.44
401.958	94.44
402.182	121.44
402.406	148.44
402.63	113.44
402.854	93.44
403.078	94.44
403.302	79.44
403.526	75.44
403.75	106.44
403.974	97.44
404.198	95.44
404.422	89.44
404.645	109.44
404.869	86.44
405.093	88.44
405.317	87.44
405.541	94.44
405.765	95.44
405.988	80.44
406.212	156.44
406.436	202.44
406.66	134.44
406.883	96.44
407.107	95.44
407.331	97.44
407.555	115.44
407.778	103.44
408.002	96.44
408.226	83.44
408.449	81.44
408.673	80.44
408.896	85.44
409.12	110.44
409.344	92.44
409.567	92.44
409.791	101.44
410.014	117.44
410.238	97.44
410.461	94.44
410.685	94.44
410.908	99.44
411.132	101.44
411.355	107.44
411.578	98.44
411.802	104.44
412.025	85.44
412.249	90.44
412.472	84.44
412.695	87.44
412.919	80.44
413.142	97.44
413.365	92.44
413.589	98.44
413.812	104.44
414.035	100.44
414.258	90.44
414.482	106.44
414.705	106.44
414.928	98.44
415.151	101.44
415.374	101.44
415.597	83.44
415.821	96.44
416.044	94.44
416.267	89.44
416.49	85.44
416.713	94.44
416.936	92.44
417.159	85.44
417.382	89.44
417.605	95.44
417.828	92.44
418.051	86.44
418.274	91.44
418.497	97.44
418.72	96.44
418.943	81.44
419.166	100.44
419.389	103.44
419.611	97.44
419.834	91.44
420.057	83.44
420.28	99.44
420.503	104.44
420.726	91.44
420.948	100.44
421.171	92.44
421.394	88.44
421.617	88.44
421.839	103.44
422.062	93.44
422.285	99.44
422.507	102.44
422.73	106.44
422.953	91.44
423.175	84.44
423.398	98.44
423.621	76.44
423.843	92.44
424.066	88.44
424.288	107.44
424.511	98.44
424.733	96.44
424.956	105.44
425.178	94.44
425.401	98.44
425.623	102.44
425.846	100.44
426.068	94.44
426.291	90.44
426.513	100.44
426.735	77.44
426.958	89.44
427.18	112.44
427.402	127.44
427.625	145.44
427.847	109.44
428.069	118.44
428.292	97.44
428.514	94.44
428.736	96.44
428.958	94.44
429.181	64.44
429.403	102.44
429.625	95.44
429.847	87.44
430.069	100.44
430.292	106.44
430.514	103.44
430.736	102.44
430.958	80.44
431.18	86.44
431.402	89.44
431.624	97.44
431.846	101.44
432.068	98.44
432.29	81.44
432.512	93.44
432.734	80.44
432.956	94.44
433.178	102.44
433.4	99.44
433.622	83.44
433.844	90.44
434.066	86.44
434.287	98.44
434.509	100.44
434.731	87.44
434.953	91.44
435.175	90.44
435.397	89.44
435.618	92.44
435.84	93.44
436.062	123.44
436.284	116.44
436.505	113.44
436.727	109.44
436.949	95.44
437.17	92.44
437.392	89.44
437.614	98.44
437.835	102.44
438.057	109.44
438.278	114.44
438.5	103.44
438.721	116.44
438.943	116.44
439.165	100.44
439.386	85.44
439.608	99.44
439.829	97.44
440.05	110.44
440.272	122.44
440.493	106.44
440.715	93.44
440.936	77.44
441.158	84.44
441.379	110.44
441.6	105.44
441.822	85.44
442.043	90.44
442.264	92.44
442.486	109.44
442.707	93.44
442.928	116.44
443.149	130.44
443.371	123.44
443.592	118.44
443.813	117.44
444.034	102.44
444.255	83.44
444.476	85.44
444.698	86.44
444.919	88.44
445.14	149.44
445.361	122.44
445.582	114.44
445.803	144.44
446.024	128.44
446.245	129.44
446.466	115.44
446.687	96.44
446.908	88.44
447.129	88.44
447.35	101.44
447.571	100.44
447.792	100.44
448.013	96.44
448.234	98.44
448.455	97.44
448.675	107.44
448.896	124.44
449.117	99.44
449.338	111.44
449.559	136.44
449.779	141.44
450	97.44
450.221	100.44
450.442	81.44
450.662	100.44
450.883	98.44
451.104	117.44
451.324	101.44
451.545	94.44
451.766	91.44
451.986	80.44
452.207	77.44
452.428	97.44
452.648	99.44
452.869	96.44
453.089	110.44
453.31	117.44
453.53	91.44
453.751	86.44
453.971	94.44
454.192	107.44
454.412	100.44
454.633	85.44
454.853	82.44
455.073	90.44
455.294	97.44
455.514	110.44
455.734	93.44
455.955	91.44
456.175	99.44
456.395	92.44
456.616	84.44
456.836	90.44
457.056	110.44
457.276	94.44
457.497	81.44
457.717	87.44
457.937	93.44
458.157	91.44
458.377	100.44
458.598	104.44
458.818	150.44
459.038	150.44
459.258	118.44
459.478	93.44
459.698	92.44
459.918	99.44
460.138	94.44
460.358	92.44
460.578	92.44
460.798	90.44
461.018	104.44
461.238	86.44
461.458	77.44
461.678	86.44
461.898	81.44
462.118	91.44
462.338	85.44
462.558	97.44
462.777	91.44
462.997	76.44
463.217	93.44
463.437	91.44
463.657	88.44
463.876	75.44
464.096	88.44
464.316	105.44
464.536	89.44
464.755	103.44
464.975	123.44
465.195	154.44
465.414	147.44
465.634	103.44
465.854	97.44
466.073	77.44
466.293	90.44
466.512	93.44
466.732	97.44
466.951	90.44
467.171	104.44
467.391	109.44
467.61	94.44
467.829	106.44
468.049	81.44
468.268	88.44
468.488	92.44
468.707	97.44
468.927	101.44
469.146	84.44
469.365	81.44
469.585	89.44
469.804	99.44
470.023	114.44
470.243	105.44
470.462	104.44
470.681	100.44
470.901	94.44
471.12	91.44
471.339	75.44
471.558	93.44
471.777	87.44
471.997	85.44
472.216	101.44
472.435	94.44
472.654	99.44
472.873	86.44
473.092	104.44
473.311	98.44
473.53	77.44
473.749	93.44
473.968	99.44
474.187	92.44
474.406	98.44
474.625	101.44
474.844	94.44
475.063	83.44
475.282	97.44
475.501	83.44
475.72	96.44
475.939	86.44
476.158	87.44
476.377	96.44
476.596	106.44
476.814	108.44
477.033	95.44
477.252	97.44
477.471	96.44
477.69	92.44
477.908	97.44
478.127	104.44
478.346	94.44
478.564	98.44
478.783	99.44
479.002	101.44
479.22	96.44
479.439	94.44
479.658	106.44
479.876	97.44
480.095	98.44
480.313	86.44
480.532	92.44
480.751	85.44
480.969	91.44
481.188	101.44
481.406	87.44
481.624	91.44
481.843	75.44
482.061	89.44
482.28	105.44
482.498	101.44
482.717	101.44
482.935	91.44
483.153	96.44
483.372	97.44
483.59	90.44
483.808	104.44
484.027	102.44
484.245	98.44
484.463	81.44
484.681	112.44
484.9	102.44
485.118	102.44
485.336	97.44
485.554	102.44
485.772	108.44
485.99	113.44
486.209	88.44
486.427	108.44
486.645	101.44
486.863	120.44
487.081	93.44
487.299	91.44
487.517	98.44
487.735	98.44
487.953	103.44
488.171	102.44
488.389	92.44
488.607	109.44
488.825	92.44
489.043	88.44
489.261	96.44
489.479	86.44
489.696	95.44
489.914	74.44
490.132	93.44
490.35	94.44
490.568	90.44
490.786	89.44
491.003	103.44
491.221	89.44
491.439	99.44
491.657	113.44
491.874	92.44
492.092	86.44
492.31	110.44
492.527	83.44
492.745	76.44
492.963	97.44
493.18	87.44
493.398	101.44
493.615	100.44
493.833	99.44
494.05	101.44
494.268	100.44
494.485	104.44
494.703	96.44
494.92	94.44
495.138	102.44
495.355	94.44
495.573	104.44
495.79	101.44
496.008	97.44
496.225	92.44
496.442	94.44
496.66	97.44
496.877	99.44
497.094	90.44
497.312	90.44
497.529	92.44
497.746	90.44
497.963	84.44
498.181	93.44
498.398	99.44
498.615	118.44
498.832	103.44
499.049	80.44
499.267	119.44
499.484	104.44
499.701	91.44
499.918	88.44
500.135	99.44
500.352	92.44
500.569	104.44
500.786	101.44
501.003	100.44
501.22	79.44
501.437	94.44
501.654	84.44
501.871	107.44
502.088	99.44
502.305	92.44
502.522	86.44
502.739	92.44
502.956	103.44
503.172	99.44
503.389	91.44
503.606	96.44
503.823	82.44
504.04	93.44
504.256	107.44
504.473	83.44
504.69	87.44
504.907	101.44
505.123	88.44
505.34	84.44
505.557	82.44
505.773	100.44
505.99	90.44
506.207	91.44
506.423	95.44
506.64	93.44
506.856	97.44
507.073	92.44
507.289	96.44
507.506	89.44
507.722	122.44
507.939	108.44
508.155	93.44
508.372	92.44
508.588	98.44
508.805	99.44
509.021	99.44
509.238	115.44
509.454	98.44
509.67	95.44
509.887	113.44
510.103	143.44
510.319	215.44
510.536	732.44
510.752	2276.44
510.968	647.44
511.184	128.44
511.401	114.44
511.617	82.44
511.833	91.44
512.049	96.44
512.265	83.44
512.481	86.44
512.698	93.44
512.914	93.44
513.13	91.44
513.346	85.44
513.562	99.44
513.778	113.44
513.994	104.44
