Data from Uncirc_2003_H10_HRD10591_00012.txt Node
Date: Wed Jan 03 10:35:50 EST 2024
User: Yrep
Spectrometer: HR+D1059
Trigger mode: 1
Integration Time (sec): 1.000000E-1
Scans to average: 1
Electric dark correction enabled: true
Nonlinearity correction enabled: false
Boxcar width: 0
XAxis mode: Wavelengths
Number of Pixels in Spectrum: 2048
>>>>>Begin Spectral Data<<<<<
223.165	-14.06
223.4	-14.06
223.635	-14.06
223.869	-10.06
224.104	-20.06
224.338	-3.06
224.573	-10.06
224.808	-19.06
225.042	-19.06
225.277	-8.06
225.511	-9.06
225.746	-3.06
225.98	17.94
226.215	21.94
226.449	9.94
226.683	23.94
226.918	16.94
227.152	24.94
227.387	44.94
227.621	39.94
227.856	43.94
228.09	62.94
228.324	54.94
228.559	48.94
228.793	55.94
229.027	68.94
229.262	59.94
229.496	79.94
229.73	73.94
229.964	72.94
230.199	65.94
230.433	67.94
230.667	71.94
230.901	73.94
231.136	79.94
231.37	72.94
231.604	75.94
231.838	78.94
232.072	79.94
232.306	65.94
232.541	78.94
232.775	68.94
233.009	83.94
233.243	83.94
233.477	73.94
233.711	93.94
233.945	69.94
234.179	73.94
234.413	81.94
234.647	66.94
234.881	88.94
235.115	65.94
235.349	84.94
235.583	76.94
235.817	85.94
236.051	82.94
236.285	83.94
236.519	83.94
236.753	73.94
236.987	74.94
237.221	86.94
237.455	64.94
237.689	83.94
237.922	94.94
238.156	82.94
238.39	75.94
238.624	75.94
238.858	83.94
239.091	77.94
239.325	72.94
239.559	74.94
239.793	77.94
240.027	86.94
240.26	85.94
240.494	71.94
240.728	78.94
240.961	75.94
241.195	84.94
241.429	75.94
241.662	80.94
241.896	55.94
242.13	74.94
242.363	83.94
242.597	72.94
242.83	71.94
243.064	75.94
243.298	75.94
243.531	67.94
243.765	102.94
243.998	88.94
244.232	91.94
244.465	94.94
244.699	71.94
244.932	79.94
245.166	82.94
245.399	84.94
245.633	78.94
245.866	82.94
246.099	76.94
246.333	64.94
246.566	76.94
246.8	69.94
247.033	76.94
247.266	71.94
247.5	88.94
247.733	72.94
247.966	78.94
248.2	80.94
248.433	76.94
248.666	87.94
248.899	78.94
249.133	78.94
249.366	91.94
249.599	82.94
249.832	78.94
250.066	74.94
250.299	64.94
250.532	88.94
250.765	71.94
250.998	76.94
251.231	83.94
251.465	76.94
251.698	84.94
251.931	72.94
252.164	71.94
252.397	76.94
252.63	79.94
252.863	61.94
253.096	71.94
253.329	75.94
253.562	72.94
253.795	70.94
254.028	87.94
254.261	81.94
254.494	79.94
254.727	94.94
254.96	74.94
255.193	90.94
255.426	83.94
255.659	82.94
255.892	72.94
256.124	73.94
256.357	84.94
256.59	80.94
256.823	82.94
257.056	74.94
257.289	81.94
257.521	75.94
257.754	73.94
257.987	88.94
258.22	82.94
258.452	82.94
258.685	68.94
258.918	91.94
259.151	83.94
259.383	93.94
259.616	89.94
259.849	89.94
260.081	92.94
260.314	93.94
260.547	75.94
260.779	69.94
261.012	69.94
261.244	75.94
261.477	82.94
261.71	109.94
261.942	115.94
262.175	108.94
262.407	78.94
262.64	87.94
262.872	84.94
263.105	91.94
263.337	84.94
263.57	89.94
263.802	86.94
264.035	87.94
264.267	89.94
264.499	80.94
264.732	87.94
264.964	71.94
265.197	93.94
265.429	86.94
265.661	88.94
265.894	79.94
266.126	91.94
266.358	69.94
266.591	85.94
266.823	76.94
267.055	80.94
267.287	85.94
267.52	79.94
267.752	94.94
267.984	85.94
268.216	75.94
268.448	82.94
268.681	80.94
268.913	84.94
269.145	86.94
269.377	71.94
269.609	83.94
269.841	86.94
270.073	70.94
270.306	66.94
270.538	79.94
270.77	87.94
271.002	81.94
271.234	84.94
271.466	84.94
271.698	89.94
271.93	76.94
272.162	88.94
272.394	89.94
272.626	84.94
272.858	73.94
273.09	73.94
273.322	64.94
273.553	80.94
273.785	72.94
274.017	90.94
274.249	88.94
274.481	92.94
274.713	82.94
274.945	85.94
275.176	93.94
275.408	88.94
275.64	73.94
275.872	75.94
276.104	89.94
276.335	93.94
276.567	102.94
276.799	88.94
277.031	94.94
277.262	71.94
277.494	74.94
277.726	85.94
277.957	82.94
278.189	79.94
278.421	78.94
278.652	84.94
278.884	86.94
279.115	75.94
279.347	77.94
279.579	79.94
279.81	82.94
280.042	81.94
280.273	78.94
280.505	79.94
280.736	72.94
280.968	72.94
281.199	88.94
281.431	84.94
281.662	76.94
281.894	83.94
282.125	95.94
282.356	115.94
282.588	135.94
282.819	112.94
283.051	81.94
283.282	69.94
283.513	83.94
283.745	83.94
283.976	81.94
284.207	81.94
284.439	79.94
284.67	83.94
284.901	82.94
285.132	83.94
285.364	97.94
285.595	80.94
285.826	76.94
286.057	84.94
286.288	77.94
286.52	80.94
286.751	83.94
286.982	71.94
287.213	84.94
287.444	97.94
287.675	98.94
287.906	98.94
288.138	95.94
288.369	107.94
288.6	100.94
288.831	82.94
289.062	89.94
289.293	94.94
289.524	89.94
289.755	97.94
289.986	91.94
290.217	85.94
290.448	94.94
290.679	88.94
290.91	88.94
291.141	93.94
291.371	84.94
291.602	97.94
291.833	89.94
292.064	84.94
292.295	83.94
292.526	81.94
292.757	84.94
292.987	83.94
293.218	83.94
293.449	88.94
293.68	91.94
293.91	80.94
294.141	84.94
294.372	92.94
294.603	87.94
294.833	82.94
295.064	79.94
295.295	86.94
295.525	85.94
295.756	111.94
295.987	104.94
296.217	129.94
296.448	116.94
296.679	83.94
296.909	77.94
297.14	95.94
297.37	83.94
297.601	98.94
297.831	100.94
298.062	76.94
298.292	91.94
298.523	95.94
298.753	80.94
298.984	79.94
299.214	79.94
299.445	90.94
299.675	82.94
299.905	96.94
300.136	94.94
300.366	85.94
300.597	86.94
300.827	89.94
301.057	94.94
301.288	105.94
301.518	87.94
301.748	89.94
301.979	83.94
302.209	97.94
302.439	82.94
302.669	94.94
302.9	73.94
303.13	77.94
303.36	92.94
303.59	105.94
303.82	99.94
304.051	95.94
304.281	80.94
304.511	84.94
304.741	99.94
304.971	87.94
305.201	89.94
305.431	79.94
305.661	79.94
305.891	83.94
306.121	94.94
306.352	103.94
306.582	87.94
306.812	87.94
307.042	96.94
307.272	90.94
307.502	89.94
307.731	110.94
307.961	103.94
308.191	82.94
308.421	95.94
308.651	95.94
308.881	87.94
309.111	97.94
309.341	97.94
309.571	92.94
309.8	83.94
310.03	102.94
310.26	96.94
310.49	96.94
310.72	92.94
310.949	105.94
311.179	93.94
311.409	97.94
311.639	89.94
311.868	78.94
312.098	86.94
312.328	87.94
312.557	104.94
312.787	96.94
313.017	93.94
313.246	90.94
313.476	103.94
313.706	95.94
313.935	97.94
314.165	104.94
314.394	83.94
314.624	99.94
314.853	108.94
315.083	93.94
315.312	90.94
315.542	76.94
315.771	77.94
316.001	90.94
316.23	82.94
316.46	87.94
316.689	95.94
316.919	87.94
317.148	80.94
317.377	97.94
317.607	99.94
317.836	88.94
318.065	91.94
318.295	84.94
318.524	98.94
318.753	102.94
318.983	96.94
319.212	96.94
319.441	106.94
319.67	105.94
319.9	94.94
320.129	104.94
320.358	89.94
320.587	99.94
320.816	101.94
321.046	98.94
321.275	98.94
321.504	84.94
321.733	95.94
321.962	89.94
322.191	89.94
322.42	91.94
322.649	99.94
322.878	115.94
323.108	108.94
323.337	128.94
323.566	139.94
323.795	144.94
324.024	210.94
324.253	414.94
324.482	919.94
324.71	1846.94
324.939	2419.94
325.168	877.94
325.397	262.94
325.626	151.94
325.855	110.94
326.084	128.94
326.313	131.94
326.542	179.94
326.77	233.94
326.999	500.94
327.228	1025.94
327.457	1901.94
327.686	1459.94
327.914	371.94
328.143	179.94
328.372	149.94
328.6	125.94
328.829	116.94
329.058	124.94
329.287	125.94
329.515	117.94
329.744	96.94
329.972	91.94
330.201	87.94
330.43	111.94
330.658	120.94
330.887	128.94
331.115	125.94
331.344	93.94
331.572	98.94
331.801	87.94
332.03	105.94
332.258	91.94
332.486	75.94
332.715	99.94
332.943	82.94
333.172	110.94
333.4	101.94
333.629	99.94
333.857	95.94
334.085	108.94
334.314	99.94
334.542	95.94
334.771	93.94
334.999	94.94
335.227	87.94
335.455	82.94
335.684	87.94
335.912	83.94
336.14	91.94
336.369	87.94
336.597	98.94
336.825	92.94
337.053	85.94
337.281	90.94
337.51	100.94
337.738	99.94
337.966	103.94
338.194	86.94
338.422	104.94
338.65	98.94
338.878	89.94
339.106	93.94
339.334	97.94
339.562	94.94
339.79	82.94
340.018	89.94
340.246	98.94
340.474	79.94
340.702	85.94
340.93	90.94
341.158	94.94
341.386	95.94
341.614	93.94
341.842	98.94
342.07	92.94
342.298	93.94
342.526	93.94
342.754	84.94
342.981	87.94
343.209	100.94
343.437	90.94
343.665	88.94
343.893	89.94
344.12	84.94
344.348	76.94
344.576	96.94
344.804	91.94
345.031	99.94
345.259	90.94
345.487	91.94
345.714	102.94
345.942	81.94
346.17	95.94
346.397	87.94
346.625	95.94
346.853	99.94
347.08	105.94
347.308	88.94
347.535	105.94
347.763	88.94
347.99	108.94
348.218	96.94
348.445	98.94
348.673	103.94
348.9	94.94
349.128	94.94
349.355	97.94
349.583	73.94
349.81	92.94
350.037	93.94
350.265	100.94
350.492	87.94
350.72	88.94
350.947	89.94
351.174	90.94
351.402	115.94
351.629	104.94
351.856	107.94
352.083	103.94
352.311	87.94
352.538	126.94
352.765	108.94
352.992	105.94
353.22	101.94
353.447	94.94
353.674	106.94
353.901	85.94
354.128	88.94
354.355	87.94
354.583	103.94
354.81	103.94
355.037	99.94
355.264	86.94
355.491	87.94
355.718	87.94
355.945	112.94
356.172	101.94
356.399	93.94
356.626	89.94
356.853	81.94
357.08	96.94
357.307	92.94
357.534	92.94
357.761	84.94
357.988	87.94
358.215	94.94
358.441	93.94
358.668	89.94
358.895	83.94
359.122	87.94
359.349	92.94
359.576	85.94
359.802	105.94
360.029	104.94
360.256	103.94
360.483	78.94
360.709	78.94
360.936	91.94
361.163	87.94
361.39	92.94
361.616	105.94
361.843	92.94
362.07	87.94
362.296	99.94
362.523	86.94
362.749	90.94
362.976	91.94
363.203	81.94
363.429	77.94
363.656	83.94
363.882	80.94
364.109	83.94
364.335	101.94
364.562	90.94
364.788	87.94
365.015	84.94
365.241	106.94
365.468	107.94
365.694	105.94
365.92	96.94
366.147	85.94
366.373	88.94
366.599	86.94
366.826	88.94
367.052	95.94
367.278	83.94
367.505	83.94
367.731	86.94
367.957	103.94
368.184	102.94
368.41	88.94
368.636	115.94
368.862	111.94
369.089	89.94
369.315	86.94
369.541	80.94
369.767	88.94
369.993	78.94
370.219	95.94
370.445	100.94
370.672	83.94
370.898	96.94
371.124	89.94
371.35	84.94
371.576	87.94
371.802	79.94
372.028	95.94
372.254	83.94
372.48	86.94
372.706	80.94
372.932	85.94
373.158	87.94
373.384	91.94
373.61	89.94
373.835	89.94
374.061	81.94
374.287	99.94
374.513	92.94
374.739	82.94
374.965	91.94
375.191	102.94
375.416	71.94
375.642	75.94
375.868	88.94
376.094	71.94
376.319	83.94
376.545	90.94
376.771	89.94
376.997	95.94
377.222	92.94
377.448	85.94
377.674	88.94
377.899	97.94
378.125	97.94
378.35	80.94
378.576	97.94
378.802	87.94
379.027	95.94
379.253	88.94
379.478	93.94
379.704	75.94
379.929	97.94
380.155	80.94
380.38	95.94
380.606	98.94
380.831	90.94
381.057	112.94
381.282	85.94
381.507	98.94
381.733	97.94
381.958	109.94
382.184	84.94
382.409	92.94
382.634	89.94
382.86	101.94
383.085	91.94
383.31	106.94
383.535	102.94
383.761	97.94
383.986	96.94
384.211	95.94
384.436	101.94
384.662	100.94
384.887	103.94
385.112	100.94
385.337	95.94
385.562	100.94
385.787	103.94
386.013	113.94
386.238	116.94
386.463	98.94
386.688	107.94
386.913	92.94
387.138	112.94
387.363	110.94
387.588	100.94
387.813	112.94
388.038	105.94
388.263	121.94
388.488	103.94
388.713	97.94
388.938	92.94
389.163	98.94
389.387	87.94
389.612	89.94
389.837	78.94
390.062	77.94
390.287	93.94
390.512	85.94
390.736	89.94
390.961	96.94
391.186	86.94
391.411	86.94
391.636	91.94
391.86	89.94
392.085	85.94
392.31	88.94
392.534	82.94
392.759	76.94
392.984	92.94
393.208	83.94
393.433	85.94
393.658	96.94
393.882	91.94
394.107	86.94
394.331	85.94
394.556	82.94
394.78	103.94
395.005	80.94
395.229	93.94
395.454	86.94
395.678	75.94
395.903	85.94
396.127	77.94
396.352	99.94
396.576	94.94
396.801	94.94
397.025	94.94
397.249	98.94
397.474	82.94
397.698	78.94
397.922	88.94
398.147	65.94
398.371	84.94
398.595	72.94
398.82	75.94
399.044	79.94
399.268	97.94
399.492	91.94
399.717	92.94
399.941	96.94
400.165	81.94
400.389	73.94
400.613	92.94
400.837	72.94
401.062	89.94
401.286	90.94
401.51	94.94
401.734	85.94
401.958	97.94
402.182	115.94
402.406	149.94
402.63	111.94
402.854	87.94
403.078	91.94
403.302	92.94
403.526	82.94
403.75	86.94
403.974	86.94
404.198	73.94
404.422	83.94
404.645	88.94
404.869	81.94
405.093	93.94
405.317	77.94
405.541	89.94
405.765	91.94
405.988	109.94
406.212	188.94
406.436	221.94
406.66	148.94
406.883	91.94
407.107	83.94
407.331	71.94
407.555	89.94
407.778	91.94
408.002	95.94
408.226	95.94
408.449	79.94
408.673	93.94
408.896	81.94
409.12	93.94
409.344	86.94
409.567	87.94
409.791	88.94
410.014	86.94
410.238	84.94
410.461	101.94
410.685	93.94
410.908	104.94
411.132	107.94
411.355	90.94
411.578	96.94
411.802	93.94
412.025	85.94
412.249	94.94
412.472	81.94
412.695	92.94
412.919	82.94
413.142	86.94
413.365	91.94
413.589	89.94
413.812	83.94
414.035	80.94
414.258	94.94
414.482	81.94
414.705	92.94
414.928	99.94
415.151	93.94
415.374	87.94
415.597	73.94
415.821	91.94
416.044	76.94
416.267	87.94
416.49	82.94
416.713	87.94
416.936	86.94
417.159	100.94
417.382	85.94
417.605	98.94
417.828	95.94
418.051	99.94
418.274	89.94
418.497	88.94
418.72	88.94
418.943	80.94
419.166	94.94
419.389	82.94
419.611	99.94
419.834	95.94
420.057	88.94
420.28	80.94
420.503	94.94
420.726	76.94
420.948	77.94
421.171	84.94
421.394	92.94
421.617	96.94
421.839	88.94
422.062	87.94
422.285	81.94
422.507	92.94
422.73	97.94
422.953	85.94
423.175	95.94
423.398	94.94
423.621	83.94
423.843	80.94
424.066	84.94
424.288	110.94
424.511	89.94
424.733	85.94
424.956	90.94
425.178	87.94
425.401	101.94
425.623	101.94
425.846	77.94
426.068	81.94
426.291	100.94
426.513	83.94
426.735	86.94
426.958	94.94
427.18	102.94
427.402	117.94
427.625	140.94
427.847	116.94
428.069	93.94
428.292	89.94
428.514	84.94
428.736	87.94
428.958	61.94
429.181	72.94
429.403	86.94
429.625	82.94
429.847	94.94
430.069	109.94
430.292	86.94
430.514	84.94
430.736	85.94
430.958	77.94
431.18	78.94
431.402	93.94
431.624	86.94
431.846	80.94
432.068	87.94
432.29	84.94
432.512	80.94
432.734	87.94
432.956	92.94
433.178	86.94
433.4	83.94
433.622	98.94
433.844	90.94
434.066	97.94
434.287	78.94
434.509	80.94
434.731	93.94
434.953	80.94
435.175	92.94
435.397	100.94
435.618	99.94
435.84	96.94
436.062	115.94
436.284	105.94
436.505	104.94
436.727	98.94
436.949	84.94
437.17	96.94
437.392	96.94
437.614	88.94
437.835	107.94
438.057	114.94
438.278	94.94
438.5	93.94
438.721	115.94
438.943	116.94
439.165	84.94
439.386	86.94
439.608	93.94
439.829	88.94
440.05	105.94
440.272	146.94
440.493	83.94
440.715	85.94
440.936	76.94
441.158	84.94
441.379	82.94
441.6	87.94
441.822	81.94
442.043	89.94
442.264	100.94
442.486	96.94
442.707	84.94
442.928	86.94
443.149	125.94
443.371	121.94
443.592	123.94
443.813	95.94
444.034	107.94
444.255	75.94
444.476	89.94
444.698	84.94
444.919	87.94
445.14	138.94
445.361	115.94
445.582	111.94
445.803	129.94
446.024	132.94
446.245	135.94
446.466	108.94
446.687	95.94
446.908	88.94
447.129	93.94
447.35	89.94
447.571	95.94
447.792	93.94
448.013	88.94
448.234	104.94
448.455	101.94
448.675	99.94
448.896	121.94
449.117	112.94
449.338	97.94
449.559	127.94
449.779	134.94
450	95.94
450.221	93.94
450.442	93.94
450.662	78.94
450.883	114.94
451.104	103.94
451.324	109.94
451.545	90.94
451.766	87.94
451.986	67.94
452.207	80.94
452.428	88.94
452.648	108.94
452.869	101.94
453.089	97.94
453.31	115.94
453.53	91.94
453.751	92.94
453.971	110.94
454.192	109.94
454.412	90.94
454.633	100.94
454.853	86.94
455.073	76.94
455.294	76.94
455.514	106.94
455.734	96.94
455.955	93.94
456.175	97.94
456.395	86.94
456.616	80.94
456.836	104.94
457.056	100.94
457.276	84.94
457.497	83.94
457.717	87.94
457.937	82.94
458.157	96.94
458.377	91.94
458.598	109.94
458.818	151.94
459.038	165.94
459.258	104.94
459.478	75.94
459.698	105.94
459.918	87.94
460.138	94.94
460.358	91.94
460.578	93.94
460.798	92.94
461.018	88.94
461.238	107.94
461.458	83.94
461.678	76.94
461.898	78.94
462.118	79.94
462.338	76.94
462.558	84.94
462.777	85.94
462.997	85.94
463.217	97.94
463.437	86.94
463.657	95.94
463.876	89.94
464.096	83.94
464.316	88.94
464.536	91.94
464.755	97.94
464.975	95.94
465.195	179.94
465.414	149.94
465.634	82.94
465.854	95.94
466.073	96.94
466.293	107.94
466.512	93.94
466.732	80.94
466.951	94.94
467.171	91.94
467.391	95.94
467.61	94.94
467.829	93.94
468.049	89.94
468.268	94.94
468.488	87.94
468.707	82.94
468.927	88.94
469.146	97.94
469.365	89.94
469.585	83.94
469.804	96.94
470.023	89.94
470.243	77.94
470.462	93.94
470.681	94.94
470.901	88.94
471.12	78.94
471.339	76.94
471.558	77.94
471.777	79.94
471.997	84.94
472.216	84.94
472.435	93.94
472.654	89.94
472.873	94.94
473.092	67.94
473.311	95.94
473.53	85.94
473.749	76.94
473.968	101.94
474.187	124.94
474.406	83.94
474.625	98.94
474.844	99.94
475.063	72.94
475.282	80.94
475.501	79.94
475.72	99.94
475.939	97.94
476.158	72.94
476.377	82.94
476.596	83.94
476.814	81.94
477.033	93.94
477.252	97.94
477.471	94.94
477.69	87.94
477.908	98.94
478.127	81.94
478.346	89.94
478.564	88.94
478.783	82.94
479.002	96.94
479.22	88.94
479.439	91.94
479.658	94.94
479.876	86.94
480.095	85.94
480.313	82.94
480.532	71.94
480.751	84.94
480.969	94.94
481.188	102.94
481.406	98.94
481.624	96.94
481.843	84.94
482.061	89.94
482.28	92.94
482.498	89.94
482.717	99.94
482.935	105.94
483.153	84.94
483.372	101.94
483.59	90.94
483.808	77.94
484.027	89.94
484.245	87.94
484.463	96.94
484.681	91.94
484.9	103.94
485.118	98.94
485.336	92.94
485.554	93.94
485.772	97.94
485.99	124.94
486.209	105.94
486.427	98.94
486.645	120.94
486.863	115.94
487.081	107.94
487.299	100.94
487.517	93.94
487.735	93.94
487.953	99.94
488.171	93.94
488.389	98.94
488.607	106.94
488.825	86.94
489.043	91.94
489.261	100.94
489.479	88.94
489.696	86.94
489.914	88.94
490.132	91.94
490.35	99.94
490.568	91.94
490.786	85.94
491.003	73.94
491.221	82.94
491.439	85.94
491.657	100.94
491.874	92.94
492.092	93.94
492.31	75.94
492.527	100.94
492.745	97.94
492.963	86.94
493.18	93.94
493.398	94.94
493.615	93.94
493.833	84.94
494.05	87.94
494.268	86.94
494.485	95.94
494.703	93.94
494.92	89.94
495.138	84.94
495.355	95.94
495.573	76.94
495.79	86.94
496.008	94.94
496.225	85.94
496.442	86.94
496.66	91.94
496.877	86.94
497.094	84.94
497.312	94.94
497.529	88.94
497.746	98.94
497.963	101.94
498.181	89.94
498.398	101.94
498.615	111.94
498.832	93.94
499.049	83.94
499.267	100.94
499.484	86.94
499.701	83.94
499.918	76.94
500.135	91.94
500.352	93.94
500.569	105.94
500.786	100.94
501.003	84.94
501.22	91.94
501.437	98.94
501.654	101.94
501.871	96.94
502.088	92.94
502.305	90.94
502.522	89.94
502.739	88.94
502.956	80.94
503.172	92.94
503.389	88.94
503.606	105.94
503.823	93.94
504.04	89.94
504.256	81.94
504.473	94.94
504.69	90.94
504.907	83.94
505.123	92.94
505.34	96.94
505.557	101.94
505.773	96.94
505.99	100.94
506.207	93.94
506.423	88.94
506.64	86.94
506.856	80.94
507.073	83.94
507.289	84.94
507.506	99.94
507.722	97.94
507.939	111.94
508.155	104.94
508.372	83.94
508.588	109.94
508.805	97.94
509.021	106.94
509.238	103.94
509.454	85.94
509.67	105.94
509.887	110.94
510.103	131.94
510.319	224.94
510.536	843.94
510.752	2563.94
510.968	689.94
511.184	149.94
511.401	115.94
511.617	100.94
511.833	116.94
512.049	99.94
512.265	88.94
512.481	87.94
512.698	94.94
512.914	95.94
513.13	95.94
513.346	83.94
513.562	85.94
513.778	95.94
513.994	98.94
514.21	105.94
514.426	110.94
514.642	141.94
514.858	118.94
515.074	179.94
515.29	468.94
515.506	1531.94
515.721	551.94
515.937	152.94
516.153	112.94
516.369	101.94
