Data from Uncirc_2003_H10_HRD10591_00015.txt Node
Date: Wed Jan 03 10:35:50 EST 2024
User: Yrep
Spectrometer: HR+D1059
Trigger mode: 1
Integration Time (sec): 1.000000E-1
Scans to average: 1
Electric dark correction enabled: true
Nonlinearity correction enabled: false
Boxcar width: 0
XAxis mode: Wavelengths
Number of Pixels in Spectrum: 2048
>>>>>Begin Spectral Data<<<<<
223.165	-17.44
223.4	-17.44
223.635	-17.44
223.869	-27.44
224.104	-30.44
224.338	-14.44
224.573	-22.44
224.808	-19.44
225.042	-14.44
225.277	-4.44
225.511	2.56
225.746	-1.44
225.98	22.56
226.215	25.56
226.449	13.56
226.683	17.56
226.918	27.56
227.152	42.56
227.387	31.56
227.621	42.56
227.856	46.56
228.09	40.56
228.324	44.56
228.559	47.56
228.793	66.56
229.027	64.56
229.262	64.56
229.496	76.56
229.73	73.56
229.964	76.56
230.199	70.56
230.433	69.56
230.667	79.56
230.901	80.56
231.136	74.56
231.37	85.56
231.604	82.56
231.838	81.56
232.072	84.56
232.306	81.56
232.541	83.56
232.775	87.56
233.009	82.56
233.243	70.56
233.477	80.56
233.711	71.56
233.945	82.56
234.179	96.56
234.413	70.56
234.647	87.56
234.881	73.56
235.115	84.56
235.349	78.56
235.583	74.56
235.817	87.56
236.051	70.56
236.285	61.56
236.519	78.56
236.753	73.56
236.987	90.56
237.221	93.56
237.455	76.56
237.689	85.56
237.922	87.56
238.156	72.56
238.39	62.56
238.624	75.56
238.858	72.56
239.091	73.56
239.325	74.56
239.559	69.56
239.793	75.56
240.027	86.56
240.26	87.56
240.494	81.56
240.728	91.56
240.961	85.56
241.195	72.56
241.429	85.56
241.662	71.56
241.896	62.56
242.13	84.56
242.363	78.56
242.597	73.56
242.83	77.56
243.064	68.56
243.298	73.56
243.531	79.56
243.765	60.56
243.998	74.56
244.232	85.56
244.465	85.56
244.699	81.56
244.932	70.56
245.166	78.56
245.399	63.56
245.633	75.56
245.866	76.56
246.099	69.56
246.333	69.56
246.566	65.56
246.8	68.56
247.033	73.56
247.266	70.56
247.5	67.56
247.733	83.56
247.966	73.56
248.2	80.56
248.433	64.56
248.666	81.56
248.899	94.56
249.133	95.56
249.366	103.56
249.599	88.56
249.832	72.56
250.066	85.56
250.299	79.56
250.532	87.56
250.765	80.56
250.998	79.56
251.231	81.56
251.465	77.56
251.698	76.56
251.931	83.56
252.164	87.56
252.397	72.56
252.63	80.56
252.863	83.56
253.096	71.56
253.329	84.56
253.562	93.56
253.795	84.56
254.028	85.56
254.261	90.56
254.494	77.56
254.727	85.56
254.96	91.56
255.193	84.56
255.426	89.56
255.659	93.56
255.892	76.56
256.124	70.56
256.357	72.56
256.59	77.56
256.823	87.56
257.056	70.56
257.289	85.56
257.521	76.56
257.754	66.56
257.987	72.56
258.22	94.56
258.452	75.56
258.685	78.56
258.918	73.56
259.151	88.56
259.383	94.56
259.616	71.56
259.849	76.56
260.081	93.56
260.314	75.56
260.547	90.56
260.779	84.56
261.012	101.56
261.244	76.56
261.477	78.56
261.71	107.56
261.942	109.56
262.175	106.56
262.407	77.56
262.64	70.56
262.872	87.56
263.105	85.56
263.337	84.56
263.57	89.56
263.802	83.56
264.035	77.56
264.267	85.56
264.499	83.56
264.732	85.56
264.964	87.56
265.197	77.56
265.429	74.56
265.661	80.56
265.894	76.56
266.126	73.56
266.358	88.56
266.591	85.56
266.823	71.56
267.055	66.56
267.287	77.56
267.52	88.56
267.752	73.56
267.984	70.56
268.216	83.56
268.448	88.56
268.681	81.56
268.913	83.56
269.145	83.56
269.377	88.56
269.609	89.56
269.841	79.56
270.073	72.56
270.306	88.56
270.538	73.56
270.77	76.56
271.002	86.56
271.234	71.56
271.466	86.56
271.698	77.56
271.93	82.56
272.162	97.56
272.394	94.56
272.626	83.56
272.858	94.56
273.09	102.56
273.322	77.56
273.553	93.56
273.785	82.56
274.017	86.56
274.249	73.56
274.481	80.56
274.713	75.56
274.945	97.56
275.176	88.56
275.408	101.56
275.64	79.56
275.872	75.56
276.104	78.56
276.335	82.56
276.567	90.56
276.799	95.56
277.031	98.56
277.262	96.56
277.494	93.56
277.726	81.56
277.957	72.56
278.189	85.56
278.421	85.56
278.652	100.56
278.884	80.56
279.115	89.56
279.347	91.56
279.579	100.56
279.81	102.56
280.042	94.56
280.273	89.56
280.505	94.56
280.736	88.56
280.968	92.56
281.199	92.56
281.431	80.56
281.662	72.56
281.894	80.56
282.125	96.56
282.356	126.56
282.588	120.56
282.819	118.56
283.051	89.56
283.282	94.56
283.513	97.56
283.745	90.56
283.976	96.56
284.207	68.56
284.439	80.56
284.67	90.56
284.901	94.56
285.132	81.56
285.364	100.56
285.595	94.56
285.826	76.56
286.057	100.56
286.288	97.56
286.52	87.56
286.751	84.56
286.982	83.56
287.213	87.56
287.444	85.56
287.675	89.56
287.906	89.56
288.138	85.56
288.369	96.56
288.6	91.56
288.831	76.56
289.062	88.56
289.293	89.56
289.524	89.56
289.755	83.56
289.986	80.56
290.217	94.56
290.448	93.56
290.679	79.56
290.91	78.56
291.141	89.56
291.371	86.56
291.602	95.56
291.833	79.56
292.064	87.56
292.295	81.56
292.526	88.56
292.757	88.56
292.987	80.56
293.218	75.56
293.449	87.56
293.68	96.56
293.91	75.56
294.141	85.56
294.372	87.56
294.603	87.56
294.833	88.56
295.064	87.56
295.295	101.56
295.525	96.56
295.756	86.56
295.987	108.56
296.217	144.56
296.448	126.56
296.679	85.56
296.909	97.56
297.14	89.56
297.37	94.56
297.601	87.56
297.831	101.56
298.062	94.56
298.292	95.56
298.523	85.56
298.753	68.56
298.984	84.56
299.214	82.56
299.445	82.56
299.675	94.56
299.905	81.56
300.136	86.56
300.366	95.56
300.597	116.56
300.827	96.56
301.057	105.56
301.288	101.56
301.518	92.56
301.748	77.56
301.979	84.56
302.209	87.56
302.439	77.56
302.669	81.56
302.9	73.56
303.13	89.56
303.36	98.56
303.59	105.56
303.82	113.56
304.051	84.56
304.281	85.56
304.511	76.56
304.741	97.56
304.971	92.56
305.201	87.56
305.431	84.56
305.661	90.56
305.891	98.56
306.121	97.56
306.352	96.56
306.582	96.56
306.812	89.56
307.042	93.56
307.272	88.56
307.502	95.56
307.731	96.56
307.961	93.56
308.191	94.56
308.421	97.56
308.651	93.56
308.881	97.56
309.111	89.56
309.341	97.56
309.571	94.56
309.8	88.56
310.03	89.56
310.26	98.56
310.49	100.56
310.72	100.56
310.949	103.56
311.179	87.56
311.409	90.56
311.639	96.56
311.868	102.56
312.098	104.56
312.328	95.56
312.557	101.56
312.787	94.56
313.017	106.56
313.246	89.56
313.476	83.56
313.706	93.56
313.935	87.56
314.165	97.56
314.394	95.56
314.624	102.56
314.853	98.56
315.083	94.56
315.312	97.56
315.542	79.56
315.771	94.56
316.001	92.56
316.23	96.56
316.46	85.56
316.689	90.56
316.919	87.56
317.148	85.56
317.377	94.56
317.607	93.56
317.836	90.56
318.065	88.56
318.295	92.56
318.524	92.56
318.753	80.56
318.983	88.56
319.212	114.56
319.441	96.56
319.67	107.56
319.9	97.56
320.129	85.56
320.358	86.56
320.587	97.56
320.816	100.56
321.046	96.56
321.275	103.56
321.504	92.56
321.733	96.56
321.962	90.56
322.191	104.56
322.42	110.56
322.649	94.56
322.878	112.56
323.108	116.56
323.337	115.56
323.566	130.56
323.795	144.56
324.024	204.56
324.253	425.56
324.482	894.56
324.71	1810.56
324.939	2338.56
325.168	852.56
325.397	246.56
325.626	152.56
325.855	138.56
326.084	124.56
326.313	125.56
326.542	162.56
326.77	245.56
326.999	488.56
327.228	988.56
327.457	1822.56
327.686	1440.56
327.914	372.56
328.143	174.56
328.372	143.56
328.6	115.56
328.829	114.56
329.058	120.56
329.287	112.56
329.515	100.56
329.744	94.56
329.972	84.56
330.201	94.56
330.43	108.56
330.658	102.56
330.887	132.56
331.115	111.56
331.344	98.56
331.572	101.56
331.801	92.56
332.03	105.56
332.258	94.56
332.486	113.56
332.715	96.56
332.943	89.56
333.172	99.56
333.4	97.56
333.629	70.56
333.857	108.56
334.085	113.56
334.314	103.56
334.542	101.56
334.771	86.56
334.999	96.56
335.227	93.56
335.455	114.56
335.684	118.56
335.912	97.56
336.14	101.56
336.369	101.56
336.597	84.56
336.825	110.56
337.053	86.56
337.281	91.56
337.51	106.56
337.738	85.56
337.966	84.56
338.194	83.56
338.422	102.56
338.65	92.56
338.878	93.56
339.106	80.56
339.334	99.56
339.562	80.56
339.79	93.56
340.018	84.56
340.246	88.56
340.474	86.56
340.702	96.56
340.93	107.56
341.158	88.56
341.386	97.56
341.614	102.56
341.842	102.56
342.07	92.56
342.298	102.56
342.526	104.56
342.754	95.56
342.981	100.56
343.209	89.56
343.437	91.56
343.665	89.56
343.893	94.56
344.12	105.56
344.348	101.56
344.576	78.56
344.804	101.56
345.031	110.56
345.259	89.56
345.487	94.56
345.714	94.56
345.942	93.56
346.17	93.56
346.397	88.56
346.625	89.56
346.853	93.56
347.08	102.56
347.308	103.56
347.535	94.56
347.763	97.56
347.99	90.56
348.218	113.56
348.445	93.56
348.673	84.56
348.9	94.56
349.128	102.56
349.355	90.56
349.583	82.56
349.81	104.56
350.037	97.56
350.265	95.56
350.492	96.56
350.72	106.56
350.947	95.56
351.174	109.56
351.402	113.56
351.629	104.56
351.856	95.56
352.083	103.56
352.311	113.56
352.538	92.56
352.765	111.56
352.992	107.56
353.22	114.56
353.447	110.56
353.674	97.56
353.901	89.56
354.128	91.56
354.355	93.56
354.583	94.56
354.81	92.56
355.037	90.56
355.264	106.56
355.491	106.56
355.718	88.56
355.945	98.56
356.172	106.56
356.399	110.56
356.626	101.56
356.853	98.56
357.08	93.56
357.307	93.56
357.534	86.56
357.761	98.56
357.988	93.56
358.215	94.56
358.441	97.56
358.668	109.56
358.895	100.56
359.122	95.56
359.349	87.56
359.576	97.56
359.802	94.56
360.029	102.56
360.256	104.56
360.483	99.56
360.709	83.56
360.936	93.56
361.163	104.56
361.39	90.56
361.616	96.56
361.843	96.56
362.07	86.56
362.296	95.56
362.523	92.56
362.749	84.56
362.976	73.56
363.203	88.56
363.429	86.56
363.656	87.56
363.882	68.56
364.109	92.56
364.335	86.56
364.562	98.56
364.788	94.56
365.015	90.56
365.241	93.56
365.468	108.56
365.694	96.56
365.92	84.56
366.147	90.56
366.373	87.56
366.599	90.56
366.826	94.56
367.052	88.56
367.278	88.56
367.505	100.56
367.731	89.56
367.957	93.56
368.184	85.56
368.41	104.56
368.636	116.56
368.862	109.56
369.089	93.56
369.315	106.56
369.541	88.56
369.767	88.56
369.993	103.56
370.219	98.56
370.445	98.56
370.672	82.56
370.898	79.56
371.124	84.56
371.35	95.56
371.576	84.56
371.802	87.56
372.028	94.56
372.254	83.56
372.48	72.56
372.706	99.56
372.932	88.56
373.158	89.56
373.384	83.56
373.61	93.56
373.835	96.56
374.061	88.56
374.287	85.56
374.513	90.56
374.739	98.56
374.965	95.56
375.191	84.56
375.416	98.56
375.642	83.56
375.868	86.56
376.094	82.56
376.319	105.56
376.545	88.56
376.771	77.56
376.997	79.56
377.222	81.56
377.448	98.56
377.674	78.56
377.899	99.56
378.125	86.56
378.35	85.56
378.576	91.56
378.802	82.56
379.027	92.56
379.253	87.56
379.478	100.56
379.704	110.56
379.929	88.56
380.155	90.56
380.38	87.56
380.606	103.56
380.831	81.56
381.057	100.56
381.282	90.56
381.507	97.56
381.733	80.56
381.958	96.56
382.184	94.56
382.409	98.56
382.634	104.56
382.86	113.56
383.085	98.56
383.31	98.56
383.535	100.56
383.761	97.56
383.986	103.56
384.211	93.56
384.436	100.56
384.662	97.56
384.887	108.56
385.112	99.56
385.337	113.56
385.562	103.56
385.787	120.56
386.013	101.56
386.238	120.56
386.463	115.56
386.688	108.56
386.913	100.56
387.138	110.56
387.363	100.56
387.588	105.56
387.813	97.56
388.038	106.56
388.263	112.56
388.488	98.56
388.713	110.56
388.938	101.56
389.163	101.56
389.387	102.56
389.612	92.56
389.837	102.56
390.062	102.56
390.287	101.56
390.512	86.56
390.736	98.56
390.961	94.56
391.186	74.56
391.411	95.56
391.636	97.56
391.86	86.56
392.085	84.56
392.31	99.56
392.534	96.56
392.759	87.56
392.984	79.56
393.208	87.56
393.433	89.56
393.658	87.56
393.882	91.56
394.107	69.56
394.331	94.56
394.556	84.56
394.78	94.56
395.005	87.56
395.229	85.56
395.454	88.56
395.678	83.56
395.903	94.56
396.127	90.56
396.352	83.56
396.576	86.56
396.801	75.56
397.025	84.56
397.249	85.56
397.474	96.56
397.698	76.56
397.922	76.56
398.147	92.56
398.371	87.56
398.595	86.56
398.82	83.56
399.044	92.56
399.268	84.56
399.492	98.56
399.717	92.56
399.941	90.56
400.165	86.56
400.389	98.56
400.613	82.56
400.837	81.56
401.062	85.56
401.286	85.56
401.51	82.56
401.734	94.56
401.958	90.56
402.182	116.56
402.406	158.56
402.63	106.56
402.854	96.56
403.078	101.56
403.302	75.56
403.526	90.56
403.75	76.56
403.974	89.56
404.198	72.56
404.422	82.56
404.645	79.56
404.869	105.56
405.093	94.56
405.317	83.56
405.541	96.56
405.765	86.56
405.988	109.56
406.212	169.56
406.436	214.56
406.66	133.56
406.883	88.56
407.107	88.56
407.331	113.56
407.555	82.56
407.778	84.56
408.002	101.56
408.226	93.56
408.449	91.56
408.673	92.56
408.896	105.56
409.12	109.56
409.344	90.56
409.567	88.56
409.791	86.56
410.014	96.56
410.238	98.56
410.461	101.56
410.685	88.56
410.908	105.56
411.132	98.56
411.355	108.56
411.578	99.56
411.802	82.56
412.025	94.56
412.249	90.56
412.472	78.56
412.695	81.56
412.919	93.56
413.142	76.56
413.365	96.56
413.589	85.56
413.812	75.56
414.035	78.56
414.258	97.56
414.482	102.56
414.705	89.56
414.928	97.56
415.151	97.56
415.374	103.56
415.597	87.56
415.821	75.56
416.044	87.56
416.267	84.56
416.49	77.56
416.713	89.56
416.936	78.56
417.159	93.56
417.382	78.56
417.605	93.56
417.828	70.56
418.051	84.56
418.274	89.56
418.497	101.56
418.72	86.56
418.943	85.56
419.166	96.56
419.389	82.56
419.611	89.56
419.834	70.56
420.057	90.56
420.28	95.56
420.503	76.56
420.726	74.56
420.948	81.56
421.171	98.56
421.394	89.56
421.617	102.56
421.839	94.56
422.062	85.56
422.285	89.56
422.507	94.56
422.73	85.56
422.953	93.56
423.175	84.56
423.398	84.56
423.621	88.56
423.843	102.56
424.066	101.56
424.288	74.56
424.511	86.56
424.733	94.56
424.956	105.56
425.178	87.56
425.401	97.56
425.623	99.56
425.846	94.56
426.068	96.56
426.291	90.56
426.513	91.56
426.735	86.56
426.958	92.56
427.18	98.56
427.402	124.56
427.625	145.56
427.847	119.56
428.069	107.56
428.292	84.56
428.514	98.56
428.736	81.56
428.958	88.56
429.181	79.56
429.403	92.56
429.625	78.56
429.847	95.56
430.069	105.56
430.292	92.56
430.514	88.56
430.736	103.56
430.958	87.56
431.18	78.56
431.402	88.56
431.624	85.56
431.846	90.56
432.068	84.56
432.29	89.56
432.512	85.56
432.734	79.56
432.956	93.56
433.178	107.56
433.4	101.56
433.622	87.56
433.844	85.56
434.066	104.56
434.287	94.56
434.509	94.56
434.731	95.56
434.953	97.56
435.175	83.56
435.397	86.56
435.618	85.56
435.84	109.56
436.062	112.56
436.284	108.56
436.505	97.56
436.727	108.56
436.949	86.56
437.17	93.56
437.392	89.56
437.614	96.56
437.835	98.56
438.057	103.56
438.278	97.56
438.5	91.56
438.721	116.56
438.943	99.56
439.165	93.56
439.386	97.56
439.608	100.56
439.829	98.56
440.05	116.56
440.272	142.56
440.493	103.56
440.715	87.56
440.936	79.56
441.158	92.56
441.379	98.56
441.6	80.56
441.822	90.56
442.043	99.56
442.264	98.56
442.486	91.56
442.707	102.56
442.928	97.56
443.149	111.56
443.371	124.56
443.592	98.56
443.813	105.56
444.034	82.56
444.255	96.56
444.476	86.56
444.698	90.56
444.919	93.56
445.14	128.56
445.361	113.56
445.582	102.56
445.803	121.56
446.024	119.56
446.245	131.56
446.466	100.56
446.687	92.56
446.908	76.56
447.129	91.56
447.35	78.56
447.571	78.56
447.792	98.56
448.013	97.56
448.234	112.56
448.455	99.56
448.675	105.56
448.896	110.56
449.117	87.56
449.338	109.56
449.559	124.56
449.779	125.56
450	98.56
450.221	95.56
450.442	87.56
450.662	97.56
450.883	94.56
451.104	111.56
451.324	89.56
451.545	89.56
451.766	73.56
451.986	81.56
452.207	89.56
452.428	83.56
452.648	96.56
452.869	97.56
453.089	103.56
453.31	91.56
453.53	90.56
453.751	85.56
453.971	101.56
454.192	96.56
454.412	81.56
454.633	91.56
454.853	85.56
455.073	87.56
455.294	80.56
455.514	94.56
455.734	84.56
455.955	79.56
456.175	84.56
456.395	89.56
456.616	91.56
456.836	89.56
457.056	89.56
457.276	89.56
457.497	73.56
457.717	71.56
457.937	85.56
458.157	82.56
458.377	83.56
458.598	103.56
458.818	146.56
459.038	144.56
459.258	94.56
459.478	89.56
459.698	78.56
459.918	87.56
460.138	72.56
460.358	81.56
460.578	88.56
460.798	87.56
461.018	81.56
461.238	89.56
461.458	89.56
461.678	91.56
461.898	94.56
462.118	95.56
462.338	91.56
462.558	81.56
462.777	88.56
462.997	74.56
463.217	105.56
463.437	90.56
463.657	84.56
463.876	93.56
464.096	74.56
464.316	77.56
464.536	89.56
464.755	85.56
464.975	100.56
465.195	146.56
465.414	132.56
465.634	88.56
465.854	86.56
466.073	96.56
466.293	88.56
466.512	101.56
466.732	82.56
466.951	94.56
467.171	89.56
467.391	98.56
467.61	102.56
467.829	101.56
468.049	88.56
468.268	88.56
468.488	82.56
468.707	86.56
468.927	99.56
469.146	94.56
469.365	97.56
469.585	91.56
469.804	83.56
470.023	98.56
470.243	93.56
470.462	92.56
470.681	97.56
470.901	95.56
471.12	87.56
471.339	82.56
471.558	83.56
471.777	80.56
471.997	74.56
472.216	92.56
472.435	94.56
472.654	94.56
472.873	97.56
473.092	80.56
473.311	90.56
473.53	74.56
473.749	93.56
473.968	97.56
474.187	96.56
474.406	91.56
474.625	78.56
474.844	87.56
475.063	81.56
475.282	85.56
475.501	91.56
475.72	93.56
475.939	84.56
476.158	93.56
476.377	100.56
476.596	82.56
476.814	88.56
477.033	94.56
477.252	98.56
477.471	101.56
477.69	89.56
477.908	103.56
478.127	102.56
478.346	95.56
478.564	94.56
478.783	90.56
479.002	96.56
479.22	85.56
479.439	97.56
479.658	100.56
479.876	112.56
480.095	77.56
480.313	111.56
480.532	80.56
480.751	90.56
480.969	95.56
481.188	94.56
481.406	96.56
481.624	86.56
481.843	87.56
482.061	78.56
482.28	96.56
482.498	86.56
482.717	82.56
482.935	85.56
483.153	84.56
483.372	96.56
483.59	85.56
483.808	87.56
484.027	95.56
484.245	101.56
484.463	86.56
484.681	103.56
484.9	82.56
485.118	94.56
485.336	96.56
485.554	107.56
485.772	108.56
485.99	100.56
486.209	111.56
486.427	96.56
486.645	88.56
486.863	96.56
487.081	100.56
487.299	91.56
487.517	91.56
487.735	97.56
487.953	81.56
488.171	86.56
488.389	88.56
488.607	94.56
488.825	92.56
489.043	105.56
489.261	98.56
489.479	87.56
489.696	94.56
489.914	85.56
490.132	95.56
490.35	96.56
490.568	94.56
490.786	97.56
491.003	86.56
491.221	90.56
491.439	96.56
491.657	96.56
491.874	84.56
492.092	90.56
492.31	93.56
492.527	94.56
492.745	95.56
492.963	93.56
493.18	73.56
493.398	71.56
493.615	80.56
493.833	95.56
494.05	80.56
494.268	90.56
494.485	89.56
494.703	100.56
494.92	84.56
495.138	96.56
495.355	99.56
495.573	85.56
495.79	91.56
496.008	91.56
496.225	86.56
496.442	86.56
496.66	92.56
496.877	100.56
497.094	99.56
497.312	100.56
497.529	101.56
497.746	106.56
497.963	86.56
498.181	84.56
498.398	97.56
498.615	108.56
498.832	95.56
499.049	86.56
499.267	81.56
499.484	87.56
499.701	94.56
499.918	72.56
500.135	100.56
500.352	97.56
500.569	102.56
500.786	93.56
501.003	92.56
501.22	84.56
501.437	74.56
501.654	96.56
501.871	101.56
502.088	89.56
502.305	84.56
502.522	82.56
502.739	88.56
502.956	91.56
503.172	93.56
503.389	95.56
503.606	105.56
503.823	85.56
504.04	87.56
504.256	82.56
504.473	90.56
504.69	97.56
504.907	103.56
505.123	72.56
505.34	90.56
505.557	107.56
505.773	82.56
505.99	98.56
506.207	95.56
506.423	80.56
506.64	92.56
506.856	99.56
507.073	89.56
507.289	88.56
507.506	105.56
507.722	105.56
507.939	98.56
508.155	103.56
508.372	95.56
508.588	108.56
508.805	96.56
509.021	84.56
509.238	94.56
509.454	86.56
509.67	96.56
509.887	102.56
510.103	128.56
510.319	212.56
510.536	762.56
510.752	2330.56
510.968	652.56
511.184	133.56
511.401	98.56
511.617	78.56
511.833	105.56
512.049	101.56
512.265	83.56
512.481	105.56
512.698	102.56
512.914	92.56
513.13	97.56
513.346	100.56
513.562	92.56
513.778	99.56
513.994	101.56
514.21	97.56
514.426	125.56
514.642	128.56
514.858	124.56
515.074	166.56
515.29	426.56
515.506	1354.56
515.721	528.56
515.937	160.56
