Data from Uncirc_2003_H10_HRD10591_00021.txt Node
Date: Wed Jan 03 10:35:52 EST 2024
User: Yrep
Spectrometer: HR+D1059
Trigger mode: 1
Integration Time (sec): 1.000000E-1
Scans to average: 1
Electric dark correction enabled: true
Nonlinearity correction enabled: false
Boxcar width: 0
XAxis mode: Wavelengths
Number of Pixels in Spectrum: 2048
>>>>>Begin Spectral Data<<<<<
223.165	-1.19
223.4	-1.19
223.635	-1.19
223.869	-27.19
224.104	-29.19
224.338	-21.19
224.573	-8.19
224.808	-21.19
225.042	-14.19
225.277	-2.19
225.511	5.81
225.746	13.81
225.98	8.81
226.215	9.81
226.449	15.81
226.683	31.81
226.918	21.81
227.152	16.81
227.387	30.81
227.621	52.81
227.856	39.81
228.09	48.81
228.324	49.81
228.559	56.81
228.793	59.81
229.027	62.81
229.262	60.81
229.496	69.81
229.73	84.81
229.964	78.81
230.199	61.81
230.433	85.81
230.667	75.81
230.901	75.81
231.136	64.81
231.37	84.81
231.604	73.81
231.838	79.81
232.072	76.81
232.306	87.81
232.541	70.81
232.775	72.81
233.009	75.81
233.243	81.81
233.477	83.81
233.711	86.81
233.945	83.81
234.179	87.81
234.413	84.81
234.647	71.81
234.881	88.81
235.115	83.81
235.349	76.81
235.583	85.81
235.817	88.81
236.051	82.81
236.285	71.81
236.519	77.81
236.753	70.81
236.987	72.81
237.221	64.81
237.455	85.81
237.689	71.81
237.922	74.81
238.156	74.81
238.39	68.81
238.624	86.81
238.858	73.81
239.091	72.81
239.325	79.81
239.559	65.81
239.793	81.81
240.027	85.81
240.26	75.81
240.494	79.81
240.728	79.81
240.961	68.81
241.195	86.81
241.429	71.81
241.662	71.81
241.896	70.81
242.13	72.81
242.363	82.81
242.597	71.81
242.83	91.81
243.064	76.81
243.298	80.81
243.531	81.81
243.765	78.81
243.998	81.81
244.232	84.81
244.465	80.81
244.699	82.81
244.932	85.81
245.166	79.81
245.399	71.81
245.633	92.81
245.866	96.81
246.099	79.81
246.333	74.81
246.566	87.81
246.8	68.81
247.033	77.81
247.266	70.81
247.5	75.81
247.733	78.81
247.966	69.81
248.2	84.81
248.433	76.81
248.666	83.81
248.899	73.81
249.133	86.81
249.366	96.81
249.599	82.81
249.832	77.81
250.066	77.81
250.299	71.81
250.532	76.81
250.765	79.81
250.998	78.81
251.231	82.81
251.465	74.81
251.698	76.81
251.931	78.81
252.164	84.81
252.397	71.81
252.63	89.81
252.863	91.81
253.096	82.81
253.329	83.81
253.562	98.81
253.795	83.81
254.028	85.81
254.261	97.81
254.494	80.81
254.727	77.81
254.96	75.81
255.193	94.81
255.426	70.81
255.659	75.81
255.892	73.81
256.124	100.81
256.357	84.81
256.59	78.81
256.823	84.81
257.056	79.81
257.289	83.81
257.521	87.81
257.754	76.81
257.987	92.81
258.22	104.81
258.452	79.81
258.685	73.81
258.918	73.81
259.151	82.81
259.383	74.81
259.616	71.81
259.849	74.81
260.081	93.81
260.314	79.81
260.547	82.81
260.779	92.81
261.012	79.81
261.244	78.81
261.477	76.81
261.71	86.81
261.942	90.81
262.175	118.81
262.407	88.81
262.64	73.81
262.872	92.81
263.105	79.81
263.337	69.81
263.57	89.81
263.802	94.81
264.035	83.81
264.267	71.81
264.499	82.81
264.732	84.81
264.964	68.81
265.197	73.81
265.429	75.81
265.661	87.81
265.894	77.81
266.126	70.81
266.358	90.81
266.591	79.81
266.823	76.81
267.055	80.81
267.287	93.81
267.52	83.81
267.752	72.81
267.984	71.81
268.216	82.81
268.448	78.81
268.681	91.81
268.913	78.81
269.145	79.81
269.377	88.81
269.609	92.81
269.841	94.81
270.073	78.81
270.306	82.81
270.538	79.81
270.77	73.81
271.002	78.81
271.234	95.81
271.466	69.81
271.698	71.81
271.93	82.81
272.162	82.81
272.394	83.81
272.626	79.81
272.858	77.81
273.09	79.81
273.322	79.81
273.553	71.81
273.785	81.81
274.017	80.81
274.249	97.81
274.481	82.81
274.713	80.81
274.945	96.81
275.176	83.81
275.408	93.81
275.64	88.81
275.872	95.81
276.104	82.81
276.335	75.81
276.567	103.81
276.799	78.81
277.031	89.81
277.262	80.81
277.494	83.81
277.726	81.81
277.957	87.81
278.189	89.81
278.421	87.81
278.652	77.81
278.884	84.81
279.115	91.81
279.347	88.81
279.579	87.81
279.81	77.81
280.042	78.81
280.273	98.81
280.505	93.81
280.736	87.81
280.968	70.81
281.199	91.81
281.431	88.81
281.662	81.81
281.894	96.81
282.125	98.81
282.356	105.81
282.588	119.81
282.819	100.81
283.051	79.81
283.282	73.81
283.513	70.81
283.745	93.81
283.976	89.81
284.207	89.81
284.439	71.81
284.67	83.81
284.901	82.81
285.132	81.81
285.364	84.81
285.595	85.81
285.826	82.81
286.057	91.81
286.288	88.81
286.52	87.81
286.751	94.81
286.982	79.81
287.213	94.81
287.444	88.81
287.675	80.81
287.906	85.81
288.138	87.81
288.369	76.81
288.6	95.81
288.831	96.81
289.062	100.81
289.293	100.81
289.524	87.81
289.755	80.81
289.986	91.81
290.217	88.81
290.448	73.81
290.679	98.81
290.91	94.81
291.141	77.81
291.371	80.81
291.602	93.81
291.833	74.81
292.064	74.81
292.295	83.81
292.526	84.81
292.757	86.81
292.987	88.81
293.218	94.81
293.449	94.81
293.68	88.81
293.91	89.81
294.141	80.81
294.372	86.81
294.603	104.81
294.833	107.81
295.064	97.81
295.295	92.81
295.525	78.81
295.756	104.81
295.987	102.81
296.217	133.81
296.448	114.81
296.679	85.81
296.909	99.81
297.14	95.81
297.37	90.81
297.601	91.81
297.831	80.81
298.062	87.81
298.292	89.81
298.523	87.81
298.753	87.81
298.984	98.81
299.214	81.81
299.445	91.81
299.675	90.81
299.905	95.81
300.136	100.81
300.366	88.81
300.597	81.81
300.827	94.81
301.057	95.81
301.288	99.81
301.518	90.81
301.748	87.81
301.979	93.81
302.209	79.81
302.439	87.81
302.669	80.81
302.9	99.81
303.13	81.81
303.36	100.81
303.59	99.81
303.82	104.81
304.051	95.81
304.281	95.81
304.511	87.81
304.741	86.81
304.971	76.81
305.201	76.81
305.431	76.81
305.661	89.81
305.891	85.81
306.121	89.81
306.352	101.81
306.582	100.81
306.812	92.81
307.042	76.81
307.272	91.81
307.502	91.81
307.731	98.81
307.961	93.81
308.191	107.81
308.421	96.81
308.651	94.81
308.881	93.81
309.111	101.81
309.341	85.81
309.571	76.81
309.8	106.81
310.03	96.81
310.26	88.81
310.49	92.81
310.72	113.81
310.949	111.81
311.179	99.81
311.409	95.81
311.639	89.81
311.868	113.81
312.098	98.81
312.328	97.81
312.557	110.81
312.787	94.81
313.017	99.81
313.246	103.81
313.476	80.81
313.706	87.81
313.935	83.81
314.165	81.81
314.394	91.81
314.624	96.81
314.853	104.81
315.083	89.81
315.312	85.81
315.542	71.81
315.771	90.81
316.001	101.81
316.23	95.81
316.46	103.81
316.689	72.81
316.919	103.81
317.148	94.81
317.377	92.81
317.607	95.81
317.836	95.81
318.065	84.81
318.295	115.81
318.524	86.81
318.753	93.81
318.983	87.81
319.212	95.81
319.441	82.81
319.67	98.81
319.9	88.81
320.129	98.81
320.358	102.81
320.587	88.81
320.816	99.81
321.046	89.81
321.275	112.81
321.504	99.81
321.733	84.81
321.962	102.81
322.191	95.81
322.42	101.81
322.649	89.81
322.878	93.81
323.108	110.81
323.337	112.81
323.566	125.81
323.795	150.81
324.024	205.81
324.253	389.81
324.482	815.81
324.71	1680.81
324.939	2165.81
325.168	791.81
325.397	226.81
325.626	149.81
325.855	117.81
326.084	118.81
326.313	139.81
326.542	157.81
326.77	234.81
326.999	463.81
327.228	934.81
327.457	1707.81
327.686	1334.81
327.914	347.81
328.143	173.81
328.372	148.81
328.6	127.81
328.829	115.81
329.058	121.81
329.287	107.81
329.515	101.81
329.744	100.81
329.972	102.81
330.201	111.81
330.43	102.81
330.658	115.81
330.887	120.81
331.115	112.81
331.344	112.81
331.572	100.81
331.801	88.81
332.03	108.81
332.258	103.81
332.486	96.81
332.715	87.81
332.943	97.81
333.172	103.81
333.4	77.81
333.629	95.81
333.857	111.81
334.085	85.81
334.314	87.81
334.542	87.81
334.771	105.81
334.999	99.81
335.227	91.81
335.455	100.81
335.684	98.81
335.912	78.81
336.14	100.81
336.369	91.81
336.597	95.81
336.825	100.81
337.053	76.81
337.281	91.81
337.51	91.81
337.738	85.81
337.966	83.81
338.194	84.81
338.422	91.81
338.65	111.81
338.878	93.81
339.106	87.81
339.334	83.81
339.562	86.81
339.79	88.81
340.018	92.81
340.246	82.81
340.474	93.81
340.702	98.81
340.93	83.81
341.158	101.81
341.386	100.81
341.614	79.81
341.842	77.81
342.07	86.81
342.298	95.81
342.526	95.81
342.754	89.81
342.981	80.81
343.209	76.81
343.437	88.81
343.665	84.81
343.893	96.81
344.12	87.81
344.348	86.81
344.576	97.81
344.804	99.81
345.031	94.81
345.259	102.81
345.487	88.81
345.714	96.81
345.942	93.81
346.17	87.81
346.397	99.81
346.625	96.81
346.853	86.81
347.08	86.81
347.308	84.81
347.535	103.81
347.763	93.81
347.99	82.81
348.218	97.81
348.445	93.81
348.673	110.81
348.9	86.81
349.128	97.81
349.355	95.81
349.583	88.81
349.81	105.81
350.037	98.81
350.265	92.81
350.492	96.81
350.72	93.81
350.947	88.81
351.174	99.81
351.402	111.81
351.629	103.81
351.856	103.81
352.083	98.81
352.311	116.81
352.538	107.81
352.765	115.81
352.992	105.81
353.22	110.81
353.447	94.81
353.674	121.81
353.901	89.81
354.128	86.81
354.355	90.81
354.583	91.81
354.81	96.81
355.037	107.81
355.264	100.81
355.491	84.81
355.718	99.81
355.945	86.81
356.172	96.81
356.399	99.81
356.626	99.81
356.853	90.81
357.08	93.81
357.307	87.81
357.534	81.81
357.761	107.81
357.988	93.81
358.215	95.81
358.441	105.81
358.668	94.81
358.895	91.81
359.122	93.81
359.349	100.81
359.576	93.81
359.802	96.81
360.029	88.81
360.256	93.81
360.483	89.81
360.709	91.81
360.936	84.81
361.163	83.81
361.39	93.81
361.616	86.81
361.843	93.81
362.07	98.81
362.296	97.81
362.523	86.81
362.749	100.81
362.976	95.81
363.203	103.81
363.429	89.81
363.656	94.81
363.882	89.81
364.109	79.81
364.335	90.81
364.562	88.81
364.788	91.81
365.015	81.81
365.241	107.81
365.468	101.81
365.694	86.81
365.92	95.81
366.147	89.81
366.373	84.81
366.599	90.81
366.826	83.81
367.052	86.81
367.278	86.81
367.505	87.81
367.731	82.81
367.957	88.81
368.184	80.81
368.41	95.81
368.636	90.81
368.862	107.81
369.089	103.81
369.315	84.81
369.541	91.81
369.767	75.81
369.993	102.81
370.219	89.81
370.445	80.81
370.672	85.81
370.898	72.81
371.124	82.81
371.35	89.81
371.576	95.81
371.802	75.81
372.028	93.81
372.254	89.81
372.48	96.81
372.706	91.81
372.932	86.81
373.158	93.81
373.384	88.81
373.61	93.81
373.835	86.81
374.061	92.81
374.287	83.81
374.513	87.81
374.739	82.81
374.965	94.81
375.191	101.81
375.416	114.81
375.642	99.81
375.868	80.81
376.094	81.81
376.319	75.81
376.545	89.81
376.771	88.81
376.997	79.81
377.222	93.81
377.448	91.81
377.674	103.81
377.899	96.81
378.125	77.81
378.35	84.81
378.576	95.81
378.802	83.81
379.027	101.81
379.253	97.81
379.478	93.81
379.704	100.81
379.929	97.81
380.155	91.81
380.38	76.81
380.606	98.81
380.831	93.81
381.057	100.81
381.282	83.81
381.507	94.81
381.733	99.81
381.958	97.81
382.184	105.81
382.409	94.81
382.634	88.81
382.86	103.81
383.085	105.81
383.31	104.81
383.535	97.81
383.761	108.81
383.986	99.81
384.211	95.81
384.436	108.81
384.662	90.81
384.887	107.81
385.112	105.81
385.337	90.81
385.562	114.81
385.787	127.81
386.013	103.81
386.238	104.81
386.463	123.81
386.688	104.81
386.913	113.81
387.138	100.81
387.363	110.81
387.588	108.81
387.813	103.81
388.038	84.81
388.263	89.81
388.488	111.81
388.713	109.81
388.938	98.81
389.163	107.81
389.387	79.81
389.612	101.81
389.837	95.81
390.062	84.81
390.287	83.81
390.512	88.81
390.736	79.81
390.961	91.81
391.186	94.81
391.411	89.81
391.636	89.81
391.86	87.81
392.085	102.81
392.31	92.81
392.534	78.81
392.759	88.81
392.984	101.81
393.208	81.81
393.433	88.81
393.658	82.81
393.882	81.81
394.107	83.81
394.331	81.81
394.556	77.81
394.78	93.81
395.005	90.81
395.229	93.81
395.454	77.81
395.678	82.81
395.903	79.81
396.127	99.81
396.352	79.81
396.576	74.81
396.801	103.81
397.025	94.81
397.249	94.81
397.474	98.81
397.698	89.81
397.922	85.81
398.147	77.81
398.371	78.81
398.595	87.81
398.82	92.81
399.044	81.81
399.268	86.81
399.492	87.81
399.717	82.81
399.941	65.81
400.165	85.81
400.389	84.81
400.613	84.81
400.837	94.81
401.062	81.81
401.286	83.81
401.51	80.81
401.734	97.81
401.958	97.81
402.182	128.81
402.406	150.81
402.63	106.81
402.854	85.81
403.078	93.81
403.302	83.81
403.526	80.81
403.75	73.81
403.974	84.81
404.198	88.81
404.422	80.81
404.645	83.81
404.869	101.81
405.093	85.81
405.317	86.81
405.541	96.81
405.765	94.81
405.988	115.81
406.212	151.81
406.436	192.81
406.66	129.81
406.883	83.81
407.107	91.81
407.331	85.81
407.555	101.81
407.778	98.81
408.002	101.81
408.226	93.81
408.449	93.81
408.673	78.81
408.896	81.81
409.12	92.81
409.344	85.81
409.567	78.81
409.791	91.81
410.014	82.81
410.238	93.81
410.461	95.81
410.685	105.81
410.908	90.81
411.132	101.81
411.355	103.81
411.578	91.81
411.802	86.81
412.025	95.81
412.249	100.81
412.472	82.81
412.695	86.81
412.919	85.81
413.142	89.81
413.365	70.81
413.589	79.81
413.812	86.81
414.035	98.81
414.258	90.81
414.482	94.81
414.705	88.81
414.928	84.81
415.151	87.81
415.374	92.81
415.597	95.81
415.821	80.81
416.044	101.81
416.267	93.81
416.49	103.81
416.713	92.81
416.936	82.81
417.159	90.81
417.382	91.81
417.605	75.81
417.828	92.81
418.051	84.81
418.274	88.81
418.497	86.81
418.72	89.81
418.943	77.81
419.166	83.81
419.389	86.81
419.611	86.81
419.834	88.81
420.057	80.81
420.28	90.81
420.503	84.81
420.726	79.81
420.948	74.81
421.171	74.81
421.394	97.81
421.617	88.81
421.839	86.81
422.062	77.81
422.285	84.81
422.507	95.81
422.73	94.81
422.953	104.81
423.175	90.81
423.398	99.81
423.621	87.81
423.843	90.81
424.066	95.81
424.288	77.81
424.511	90.81
424.733	89.81
424.956	93.81
425.178	109.81
425.401	104.81
425.623	104.81
425.846	85.81
426.068	94.81
426.291	86.81
426.513	86.81
426.735	92.81
426.958	97.81
427.18	99.81
427.402	132.81
427.625	145.81
427.847	118.81
428.069	95.81
428.292	101.81
428.514	79.81
428.736	83.81
428.958	77.81
429.181	81.81
429.403	92.81
429.625	89.81
429.847	91.81
430.069	83.81
430.292	88.81
430.514	87.81
430.736	83.81
430.958	86.81
431.18	87.81
431.402	84.81
431.624	79.81
431.846	77.81
432.068	88.81
432.29	79.81
432.512	84.81
432.734	79.81
432.956	77.81
433.178	102.81
433.4	87.81
433.622	91.81
433.844	88.81
434.066	83.81
434.287	115.81
434.509	91.81
434.731	80.81
434.953	75.81
435.175	83.81
435.397	97.81
435.618	97.81
435.84	96.81
436.062	121.81
436.284	105.81
436.505	102.81
436.727	85.81
436.949	91.81
437.17	90.81
437.392	100.81
437.614	110.81
437.835	105.81
438.057	109.81
438.278	89.81
438.5	90.81
438.721	122.81
438.943	104.81
439.165	88.81
439.386	84.81
439.608	100.81
439.829	102.81
440.05	115.81
440.272	124.81
440.493	84.81
440.715	77.81
440.936	73.81
441.158	90.81
441.379	87.81
441.6	75.81
441.822	96.81
442.043	93.81
442.264	89.81
442.486	87.81
442.707	92.81
442.928	104.81
443.149	120.81
443.371	118.81
443.592	110.81
443.813	106.81
444.034	104.81
444.255	97.81
444.476	83.81
444.698	83.81
444.919	84.81
445.14	142.81
445.361	109.81
445.582	107.81
445.803	135.81
446.024	125.81
446.245	113.81
446.466	100.81
446.687	72.81
446.908	85.81
447.129	82.81
447.35	76.81
447.571	87.81
447.792	104.81
448.013	95.81
448.234	102.81
448.455	89.81
448.675	94.81
448.896	105.81
449.117	86.81
449.338	92.81
449.559	116.81
449.779	118.81
450	80.81
450.221	91.81
450.442	82.81
450.662	86.81
450.883	103.81
451.104	95.81
451.324	93.81
451.545	84.81
451.766	86.81
451.986	78.81
452.207	91.81
452.428	88.81
452.648	101.81
452.869	93.81
453.089	101.81
453.31	112.81
453.53	83.81
453.751	94.81
453.971	108.81
454.192	100.81
454.412	92.81
454.633	89.81
454.853	88.81
455.073	100.81
455.294	89.81
455.514	87.81
455.734	87.81
455.955	108.81
456.175	66.81
456.395	79.81
456.616	91.81
456.836	90.81
457.056	83.81
457.276	76.81
457.497	89.81
457.717	89.81
457.937	77.81
458.157	91.81
458.377	86.81
458.598	109.81
458.818	143.81
459.038	134.81
459.258	104.81
459.478	98.81
459.698	79.81
459.918	78.81
460.138	75.81
460.358	83.81
460.578	80.81
460.798	90.81
461.018	88.81
461.238	91.81
461.458	82.81
461.678	88.81
461.898	88.81
462.118	83.81
462.338	81.81
462.558	98.81
462.777	82.81
462.997	78.81
463.217	83.81
463.437	87.81
463.657	79.81
463.876	73.81
464.096	88.81
464.316	79.81
464.536	95.81
464.755	81.81
464.975	92.81
465.195	145.81
465.414	130.81
465.634	98.81
465.854	91.81
466.073	89.81
466.293	77.81
466.512	93.81
466.732	82.81
466.951	79.81
467.171	78.81
467.391	84.81
467.61	86.81
467.829	89.81
468.049	76.81
468.268	98.81
468.488	79.81
468.707	93.81
468.927	79.81
469.146	79.81
469.365	85.81
469.585	92.81
469.804	91.81
470.023	81.81
470.243	96.81
470.462	83.81
470.681	104.81
470.901	91.81
471.12	78.81
471.339	87.81
471.558	102.81
471.777	89.81
471.997	85.81
472.216	86.81
472.435	81.81
472.654	81.81
472.873	98.81
473.092	79.81
473.311	66.81
473.53	78.81
473.749	80.81
473.968	94.81
474.187	98.81
474.406	86.81
474.625	79.81
474.844	99.81
475.063	73.81
475.282	70.81
475.501	78.81
475.72	94.81
475.939	85.81
476.158	99.81
476.377	86.81
476.596	80.81
476.814	110.81
477.033	82.81
477.252	75.81
477.471	84.81
477.69	96.81
477.908	89.81
478.127	101.81
478.346	79.81
478.564	86.81
478.783	93.81
479.002	103.81
479.22	88.81
479.439	108.81
479.658	95.81
479.876	98.81
480.095	99.81
480.313	87.81
480.532	77.81
480.751	89.81
480.969	98.81
481.188	83.81
481.406	88.81
481.624	82.81
481.843	94.81
482.061	89.81
482.28	71.81
482.498	77.81
482.717	94.81
482.935	77.81
483.153	91.81
483.372	97.81
483.59	91.81
483.808	93.81
484.027	93.81
484.245	95.81
484.463	93.81
484.681	108.81
484.9	73.81
485.118	93.81
485.336	99.81
485.554	91.81
485.772	104.81
485.99	89.81
486.209	93.81
486.427	103.81
486.645	110.81
486.863	100.81
487.081	102.81
487.299	96.81
487.517	88.81
487.735	89.81
487.953	76.81
488.171	85.81
488.389	85.81
488.607	102.81
488.825	92.81
489.043	95.81
489.261	94.81
489.479	89.81
489.696	82.81
489.914	87.81
490.132	86.81
490.35	95.81
490.568	87.81
490.786	94.81
491.003	78.81
491.221	80.81
491.439	97.81
491.657	99.81
491.874	96.81
492.092	88.81
492.31	108.81
492.527	87.81
492.745	91.81
492.963	84.81
493.18	100.81
493.398	94.81
493.615	91.81
493.833	108.81
494.05	85.81
494.268	99.81
494.485	96.81
494.703	93.81
494.92	95.81
495.138	84.81
495.355	86.81
495.573	94.81
495.79	91.81
496.008	94.81
496.225	96.81
496.442	86.81
496.66	105.81
496.877	108.81
497.094	84.81
497.312	82.81
497.529	88.81
497.746	83.81
497.963	67.81
498.181	70.81
498.398	89.81
498.615	94.81
498.832	108.81
499.049	89.81
499.267	90.81
499.484	88.81
499.701	81.81
499.918	100.81
500.135	76.81
500.352	87.81
500.569	98.81
500.786	93.81
501.003	96.81
501.22	100.81
501.437	93.81
501.654	89.81
501.871	89.81
502.088	89.81
502.305	88.81
502.522	75.81
502.739	77.81
502.956	88.81
503.172	85.81
503.389	86.81
503.606	102.81
503.823	96.81
504.04	88.81
504.256	81.81
504.473	84.81
504.69	92.81
504.907	94.81
505.123	92.81
505.34	99.81
505.557	83.81
505.773	91.81
505.99	81.81
506.207	94.81
506.423	86.81
506.64	85.81
506.856	88.81
507.073	96.81
507.289	97.81
507.506	96.81
507.722	88.81
507.939	99.81
508.155	86.81
508.372	92.81
508.588	88.81
508.805	90.81
509.021	88.81
509.238	100.81
509.454	104.81
509.67	104.81
509.887	104.81
510.103	126.81
510.319	200.81
510.536	696.81
510.752	2171.81
510.968	597.81
511.184	149.81
511.401	105.81
511.617	84.81
511.833	94.81
512.049	84.81
512.265	87.81
512.481	89.81
512.698	84.81
512.914	102.81
513.13	102.81
513.346	85.81
513.562	87.81
513.778	104.81
513.994	94.81
514.21	91.81
514.426	115.81
514.642	116.81
514.858	98.81
515.074	147.81
515.29	391.81
515.506	1239.81
515.721	478.81
515.937	154.81
516.153	99.81
516.369	99.81
