Data from Uncirc_2003_H10_HRD10591_00078.txt Node
Date: Wed Jan 03 10:36:03 EST 2024
User: Yrep
Spectrometer: HR+D1059
Trigger mode: 1
Integration Time (sec): 1.000000E-1
Scans to average: 1
Electric dark correction enabled: true
Nonlinearity correction enabled: false
Boxcar width: 0
XAxis mode: Wavelengths
Number of Pixels in Spectrum: 2048
>>>>>Begin Spectral Data<<<<<
223.165	-25.56
223.4	-25.56
223.635	-25.56
223.869	-18.56
224.104	-21.56
224.338	-23.56
224.573	-13.56
224.808	-15.56
225.042	-12.56
225.277	2.44
225.511	8.44
225.746	13.44
225.98	1.44
226.215	19.44
226.449	11.44
226.683	15.44
226.918	26.44
227.152	32.44
227.387	36.44
227.621	32.44
227.856	54.44
228.09	52.44
228.324	55.44
228.559	56.44
228.793	63.44
229.027	67.44
229.262	73.44
229.496	72.44
229.73	77.44
229.964	70.44
230.199	68.44
230.433	74.44
230.667	78.44
230.901	84.44
231.136	80.44
231.37	79.44
231.604	89.44
231.838	77.44
232.072	77.44
232.306	86.44
232.541	88.44
232.775	70.44
233.009	78.44
233.243	91.44
233.477	84.44
233.711	74.44
233.945	76.44
234.179	97.44
234.413	79.44
234.647	78.44
234.881	84.44
235.115	83.44
235.349	82.44
235.583	77.44
235.817	100.44
236.051	82.44
236.285	72.44
236.519	89.44
236.753	83.44
236.987	74.44
237.221	73.44
237.455	81.44
237.689	81.44
237.922	72.44
238.156	86.44
238.39	68.44
238.624	91.44
238.858	90.44
239.091	68.44
239.325	91.44
239.559	87.44
239.793	89.44
240.027	98.44
240.26	87.44
240.494	86.44
240.728	94.44
240.961	93.44
241.195	79.44
241.429	76.44
241.662	82.44
241.896	65.44
242.13	77.44
242.363	81.44
242.597	95.44
242.83	84.44
243.064	87.44
243.298	81.44
243.531	78.44
243.765	71.44
243.998	71.44
244.232	92.44
244.465	78.44
244.699	68.44
244.932	69.44
245.166	72.44
245.399	80.44
245.633	88.44
245.866	92.44
246.099	84.44
246.333	90.44
246.566	98.44
246.8	69.44
247.033	75.44
247.266	70.44
247.5	72.44
247.733	75.44
247.966	92.44
248.2	74.44
248.433	88.44
248.666	79.44
248.899	92.44
249.133	69.44
249.366	82.44
249.599	103.44
249.832	99.44
250.066	84.44
250.299	95.44
250.532	80.44
250.765	74.44
250.998	72.44
251.231	81.44
251.465	84.44
251.698	82.44
251.931	84.44
252.164	79.44
252.397	79.44
252.63	87.44
252.863	75.44
253.096	63.44
253.329	75.44
253.562	80.44
253.795	78.44
254.028	74.44
254.261	82.44
254.494	76.44
254.727	70.44
254.96	80.44
255.193	81.44
255.426	95.44
255.659	84.44
255.892	81.44
256.124	83.44
256.357	90.44
256.59	86.44
256.823	68.44
257.056	78.44
257.289	74.44
257.521	89.44
257.754	81.44
257.987	77.44
258.22	81.44
258.452	78.44
258.685	102.44
258.918	76.44
259.151	72.44
259.383	89.44
259.616	86.44
259.849	82.44
260.081	94.44
260.314	91.44
260.547	84.44
260.779	83.44
261.012	98.44
261.244	98.44
261.477	86.44
261.71	83.44
261.942	102.44
262.175	119.44
262.407	84.44
262.64	92.44
262.872	96.44
263.105	91.44
263.337	75.44
263.57	92.44
263.802	86.44
264.035	74.44
264.267	94.44
264.499	87.44
264.732	96.44
264.964	82.44
265.197	81.44
265.429	76.44
265.661	87.44
265.894	93.44
266.126	85.44
266.358	77.44
266.591	89.44
266.823	73.44
267.055	86.44
267.287	90.44
267.52	95.44
267.752	91.44
267.984	81.44
268.216	78.44
268.448	92.44
268.681	100.44
268.913	71.44
269.145	74.44
269.377	88.44
269.609	92.44
269.841	82.44
270.073	81.44
270.306	81.44
270.538	93.44
270.77	78.44
271.002	68.44
271.234	90.44
271.466	69.44
271.698	87.44
271.93	72.44
272.162	89.44
272.394	90.44
272.626	79.44
272.858	91.44
273.09	88.44
273.322	83.44
273.553	82.44
273.785	92.44
274.017	83.44
274.249	95.44
274.481	84.44
274.713	86.44
274.945	85.44
275.176	83.44
275.408	98.44
275.64	89.44
275.872	90.44
276.104	84.44
276.335	74.44
276.567	91.44
276.799	101.44
277.031	78.44
277.262	97.44
277.494	87.44
277.726	98.44
277.957	83.44
278.189	85.44
278.421	83.44
278.652	92.44
278.884	80.44
279.115	89.44
279.347	76.44
279.579	99.44
279.81	82.44
280.042	87.44
280.273	96.44
280.505	84.44
280.736	76.44
280.968	92.44
281.199	99.44
281.431	82.44
281.662	85.44
281.894	93.44
282.125	87.44
282.356	110.44
282.588	121.44
282.819	115.44
283.051	85.44
283.282	96.44
283.513	80.44
283.745	85.44
283.976	93.44
284.207	85.44
284.439	76.44
284.67	85.44
284.901	97.44
285.132	106.44
285.364	71.44
285.595	79.44
285.826	81.44
286.057	90.44
286.288	76.44
286.52	95.44
286.751	90.44
286.982	92.44
287.213	90.44
287.444	91.44
287.675	94.44
287.906	72.44
288.138	102.44
288.369	86.44
288.6	93.44
288.831	97.44
289.062	90.44
289.293	86.44
289.524	99.44
289.755	96.44
289.986	96.44
290.217	93.44
290.448	95.44
290.679	76.44
290.91	85.44
291.141	87.44
291.371	83.44
291.602	86.44
291.833	83.44
292.064	86.44
292.295	82.44
292.526	80.44
292.757	86.44
292.987	83.44
293.218	88.44
293.449	93.44
293.68	100.44
293.91	86.44
294.141	96.44
294.372	87.44
294.603	73.44
294.833	84.44
295.064	89.44
295.295	69.44
295.525	81.44
295.756	99.44
295.987	118.44
296.217	143.44
296.448	126.44
296.679	88.44
296.909	96.44
297.14	96.44
297.37	88.44
297.601	79.44
297.831	88.44
298.062	90.44
298.292	95.44
298.523	84.44
298.753	85.44
298.984	114.44
299.214	89.44
299.445	89.44
299.675	111.44
299.905	96.44
300.136	80.44
300.366	105.44
300.597	102.44
300.827	93.44
301.057	101.44
301.288	107.44
301.518	88.44
301.748	97.44
301.979	111.44
302.209	83.44
302.439	78.44
302.669	102.44
302.9	98.44
303.13	92.44
303.36	88.44
303.59	103.44
303.82	110.44
304.051	90.44
304.281	87.44
304.511	91.44
304.741	90.44
304.971	90.44
305.201	92.44
305.431	90.44
305.661	90.44
305.891	107.44
306.121	92.44
306.352	98.44
306.582	101.44
306.812	100.44
307.042	100.44
307.272	87.44
307.502	94.44
307.731	99.44
307.961	103.44
308.191	94.44
308.421	82.44
308.651	90.44
308.881	90.44
309.111	83.44
309.341	88.44
309.571	102.44
309.8	81.44
310.03	89.44
310.26	101.44
310.49	88.44
310.72	94.44
310.949	101.44
311.179	86.44
311.409	74.44
311.639	82.44
311.868	90.44
312.098	89.44
312.328	96.44
312.557	91.44
312.787	99.44
313.017	81.44
313.246	92.44
313.476	98.44
313.706	105.44
313.935	85.44
314.165	103.44
314.394	96.44
314.624	103.44
314.853	94.44
315.083	97.44
315.312	91.44
315.542	102.44
315.771	100.44
316.001	104.44
316.23	100.44
316.46	100.44
316.689	81.44
316.919	81.44
317.148	103.44
317.377	98.44
317.607	89.44
317.836	92.44
318.065	96.44
318.295	92.44
318.524	106.44
318.753	89.44
318.983	106.44
319.212	97.44
319.441	98.44
319.67	105.44
319.9	92.44
320.129	100.44
320.358	92.44
320.587	90.44
320.816	93.44
321.046	84.44
321.275	103.44
321.504	95.44
321.733	107.44
321.962	93.44
322.191	116.44
322.42	107.44
322.649	114.44
322.878	104.44
323.108	114.44
323.337	120.44
323.566	140.44
323.795	148.44
324.024	219.44
324.253	420.44
324.482	912.44
324.71	1840.44
324.939	2481.44
325.168	892.44
325.397	257.44
325.626	155.44
325.855	144.44
326.084	127.44
326.313	136.44
326.542	171.44
326.77	234.44
326.999	486.44
327.228	1003.44
327.457	1846.44
327.686	1450.44
327.914	400.44
328.143	179.44
328.372	146.44
328.6	118.44
328.829	112.44
329.058	125.44
329.287	132.44
329.515	116.44
329.744	104.44
329.972	104.44
330.201	106.44
330.43	105.44
330.658	124.44
330.887	137.44
331.115	126.44
331.344	108.44
331.572	105.44
331.801	102.44
332.03	106.44
332.258	92.44
332.486	97.44
332.715	86.44
332.943	94.44
333.172	92.44
333.4	100.44
333.629	110.44
333.857	106.44
334.085	116.44
334.314	99.44
334.542	90.44
334.771	96.44
334.999	90.44
335.227	92.44
335.455	88.44
335.684	101.44
335.912	110.44
336.14	110.44
336.369	86.44
336.597	93.44
336.825	95.44
337.053	83.44
337.281	90.44
337.51	98.44
337.738	108.44
337.966	99.44
338.194	97.44
338.422	77.44
338.65	89.44
338.878	103.44
339.106	91.44
339.334	85.44
339.562	91.44
339.79	103.44
340.018	92.44
340.246	107.44
340.474	107.44
340.702	87.44
340.93	105.44
341.158	92.44
341.386	109.44
341.614	96.44
341.842	101.44
342.07	90.44
342.298	104.44
342.526	83.44
342.754	83.44
342.981	97.44
343.209	90.44
343.437	107.44
343.665	95.44
343.893	83.44
344.12	92.44
344.348	85.44
344.576	88.44
344.804	98.44
345.031	89.44
345.259	104.44
345.487	95.44
345.714	88.44
345.942	86.44
346.17	83.44
346.397	72.44
346.625	91.44
346.853	96.44
347.08	96.44
347.308	102.44
347.535	92.44
347.763	101.44
347.99	109.44
348.218	102.44
348.445	97.44
348.673	91.44
348.9	99.44
349.128	94.44
349.355	98.44
349.583	97.44
349.81	105.44
350.037	107.44
350.265	106.44
350.492	106.44
350.72	111.44
350.947	106.44
351.174	102.44
351.402	106.44
351.629	98.44
351.856	96.44
352.083	98.44
352.311	112.44
352.538	111.44
352.765	102.44
352.992	105.44
353.22	101.44
353.447	107.44
353.674	109.44
353.901	84.44
354.128	102.44
354.355	103.44
354.583	92.44
354.81	121.44
355.037	100.44
355.264	98.44
355.491	102.44
355.718	95.44
355.945	95.44
356.172	97.44
356.399	100.44
356.626	88.44
356.853	103.44
357.08	106.44
357.307	96.44
357.534	93.44
357.761	105.44
357.988	99.44
358.215	97.44
358.441	83.44
358.668	86.44
358.895	85.44
359.122	87.44
359.349	99.44
359.576	110.44
359.802	89.44
360.029	121.44
360.256	87.44
360.483	105.44
360.709	94.44
360.936	84.44
361.163	96.44
361.39	99.44
361.616	105.44
361.843	85.44
362.07	104.44
362.296	88.44
362.523	95.44
362.749	83.44
362.976	85.44
363.203	96.44
363.429	86.44
363.656	96.44
363.882	107.44
364.109	91.44
364.335	78.44
364.562	85.44
364.788	102.44
365.015	100.44
365.241	109.44
365.468	112.44
365.694	104.44
365.92	93.44
366.147	100.44
366.373	81.44
366.599	90.44
366.826	96.44
367.052	82.44
367.278	93.44
367.505	91.44
367.731	85.44
367.957	90.44
368.184	97.44
368.41	92.44
368.636	106.44
368.862	120.44
369.089	123.44
369.315	100.44
369.541	99.44
369.767	88.44
369.993	94.44
370.219	83.44
370.445	87.44
370.672	78.44
370.898	99.44
371.124	92.44
371.35	85.44
371.576	90.44
371.802	92.44
372.028	71.44
372.254	82.44
372.48	100.44
372.706	91.44
372.932	86.44
373.158	88.44
373.384	88.44
373.61	97.44
373.835	101.44
374.061	86.44
374.287	86.44
374.513	90.44
374.739	90.44
374.965	92.44
375.191	107.44
375.416	95.44
375.642	82.44
375.868	90.44
376.094	83.44
376.319	98.44
376.545	88.44
376.771	90.44
376.997	97.44
377.222	99.44
377.448	86.44
377.674	86.44
377.899	98.44
378.125	91.44
378.35	106.44
378.576	89.44
378.802	93.44
379.027	100.44
379.253	92.44
379.478	84.44
379.704	86.44
379.929	90.44
380.155	84.44
380.38	90.44
380.606	91.44
380.831	88.44
381.057	100.44
381.282	96.44
381.507	83.44
381.733	91.44
381.958	102.44
382.184	81.44
382.409	86.44
382.634	100.44
382.86	91.44
383.085	96.44
383.31	98.44
383.535	96.44
383.761	87.44
383.986	108.44
384.211	100.44
384.436	104.44
384.662	103.44
384.887	114.44
385.112	97.44
385.337	110.44
385.562	102.44
385.787	112.44
386.013	107.44
386.238	113.44
386.463	104.44
386.688	106.44
386.913	116.44
387.138	104.44
387.363	91.44
387.588	100.44
387.813	85.44
388.038	97.44
388.263	100.44
388.488	125.44
388.713	88.44
388.938	99.44
389.163	90.44
389.387	102.44
389.612	109.44
389.837	81.44
390.062	92.44
390.287	91.44
390.512	93.44
390.736	91.44
390.961	94.44
391.186	79.44
391.411	104.44
391.636	93.44
391.86	96.44
392.085	96.44
392.31	82.44
392.534	85.44
392.759	79.44
392.984	100.44
393.208	88.44
393.433	87.44
393.658	96.44
393.882	86.44
394.107	90.44
394.331	79.44
394.556	83.44
394.78	75.44
395.005	91.44
395.229	82.44
395.454	83.44
395.678	82.44
395.903	82.44
396.127	89.44
396.352	100.44
396.576	80.44
396.801	91.44
397.025	92.44
397.249	92.44
397.474	95.44
397.698	89.44
397.922	83.44
398.147	92.44
398.371	84.44
398.595	82.44
398.82	84.44
399.044	90.44
399.268	74.44
399.492	83.44
399.717	79.44
399.941	83.44
400.165	96.44
400.389	96.44
400.613	95.44
400.837	94.44
401.062	78.44
401.286	83.44
401.51	93.44
401.734	87.44
401.958	92.44
402.182	114.44
402.406	149.44
402.63	122.44
402.854	92.44
403.078	85.44
403.302	83.44
403.526	85.44
403.75	76.44
403.974	88.44
404.198	97.44
404.422	98.44
404.645	87.44
404.869	94.44
405.093	104.44
405.317	99.44
405.541	87.44
405.765	92.44
405.988	127.44
406.212	168.44
406.436	243.44
406.66	154.44
406.883	87.44
407.107	93.44
407.331	103.44
407.555	89.44
407.778	101.44
408.002	87.44
408.226	83.44
408.449	81.44
408.673	87.44
408.896	90.44
409.12	98.44
409.344	97.44
409.567	89.44
409.791	97.44
410.014	92.44
410.238	86.44
410.461	92.44
410.685	89.44
410.908	101.44
411.132	103.44
411.355	97.44
411.578	94.44
411.802	78.44
412.025	91.44
412.249	91.44
412.472	95.44
412.695	95.44
412.919	77.44
413.142	89.44
413.365	82.44
413.589	98.44
413.812	78.44
414.035	89.44
414.258	106.44
414.482	104.44
414.705	89.44
414.928	94.44
415.151	69.44
415.374	108.44
415.597	91.44
415.821	101.44
416.044	89.44
416.267	100.44
416.49	86.44
416.713	87.44
416.936	75.44
417.159	88.44
417.382	79.44
417.605	98.44
417.828	92.44
418.051	92.44
418.274	91.44
418.497	83.44
418.72	84.44
418.943	88.44
419.166	93.44
419.389	86.44
419.611	96.44
419.834	82.44
420.057	94.44
420.28	96.44
420.503	89.44
420.726	87.44
420.948	93.44
421.171	85.44
421.394	97.44
421.617	92.44
421.839	93.44
422.062	95.44
422.285	106.44
422.507	105.44
422.73	104.44
422.953	100.44
423.175	106.44
423.398	96.44
423.621	95.44
423.843	88.44
424.066	91.44
424.288	92.44
424.511	98.44
424.733	86.44
424.956	96.44
425.178	101.44
425.401	95.44
425.623	107.44
425.846	102.44
426.068	105.44
426.291	102.44
426.513	110.44
426.735	98.44
426.958	106.44
427.18	98.44
427.402	127.44
427.625	169.44
427.847	128.44
428.069	107.44
428.292	88.44
428.514	91.44
428.736	74.44
428.958	77.44
429.181	77.44
429.403	89.44
429.625	91.44
429.847	96.44
430.069	102.44
430.292	70.44
430.514	81.44
430.736	85.44
430.958	80.44
431.18	85.44
431.402	85.44
431.624	89.44
431.846	99.44
432.068	80.44
432.29	85.44
432.512	105.44
432.734	87.44
432.956	89.44
433.178	104.44
433.4	97.44
433.622	97.44
433.844	87.44
434.066	88.44
434.287	85.44
434.509	91.44
434.731	93.44
434.953	98.44
435.175	105.44
435.397	98.44
435.618	94.44
435.84	103.44
436.062	115.44
436.284	110.44
436.505	97.44
436.727	92.44
436.949	113.44
437.17	89.44
437.392	74.44
437.614	87.44
437.835	100.44
438.057	101.44
438.278	101.44
438.5	107.44
438.721	109.44
438.943	106.44
439.165	83.44
439.386	80.44
439.608	72.44
439.829	95.44
440.05	121.44
440.272	131.44
440.493	99.44
440.715	93.44
440.936	93.44
441.158	80.44
441.379	91.44
441.6	94.44
441.822	81.44
442.043	86.44
442.264	99.44
442.486	99.44
442.707	100.44
442.928	93.44
443.149	124.44
443.371	140.44
443.592	110.44
443.813	100.44
444.034	106.44
444.255	91.44
444.476	81.44
444.698	86.44
444.919	79.44
445.14	128.44
445.361	112.44
445.582	109.44
445.803	131.44
446.024	130.44
446.245	132.44
446.466	113.44
446.687	89.44
446.908	100.44
447.129	99.44
447.35	94.44
447.571	87.44
447.792	84.44
448.013	90.44
448.234	102.44
448.455	96.44
448.675	131.44
448.896	104.44
449.117	107.44
449.338	106.44
449.559	136.44
449.779	120.44
450	105.44
450.221	91.44
450.442	74.44
450.662	107.44
450.883	110.44
451.104	119.44
451.324	99.44
451.545	71.44
451.766	83.44
451.986	94.44
452.207	96.44
452.428	95.44
452.648	114.44
452.869	111.44
453.089	113.44
453.31	119.44
453.53	90.44
453.751	80.44
453.971	93.44
454.192	100.44
454.412	83.44
454.633	91.44
454.853	78.44
455.073	89.44
455.294	78.44
455.514	103.44
455.734	107.44
455.955	89.44
456.175	79.44
456.395	94.44
456.616	84.44
456.836	73.44
457.056	86.44
457.276	80.44
457.497	87.44
457.717	82.44
457.937	83.44
458.157	96.44
458.377	83.44
458.598	101.44
458.818	141.44
459.038	149.44
459.258	110.44
459.478	90.44
459.698	75.44
459.918	90.44
460.138	96.44
460.358	88.44
460.578	80.44
460.798	94.44
461.018	85.44
461.238	97.44
461.458	86.44
461.678	87.44
461.898	75.44
462.118	83.44
462.338	85.44
462.558	81.44
462.777	94.44
462.997	83.44
463.217	79.44
463.437	92.44
463.657	74.44
463.876	88.44
464.096	88.44
464.316	87.44
464.536	90.44
464.755	82.44
464.975	117.44
465.195	170.44
465.414	158.44
465.634	108.44
465.854	90.44
466.073	104.44
466.293	81.44
466.512	99.44
466.732	90.44
466.951	104.44
467.171	89.44
467.391	98.44
467.61	106.44
467.829	108.44
468.049	83.44
468.268	96.44
468.488	76.44
468.707	84.44
468.927	90.44
469.146	96.44
469.365	83.44
469.585	81.44
469.804	93.44
470.023	92.44
470.243	90.44
470.462	95.44
470.681	95.44
470.901	102.44
471.12	83.44
471.339	97.44
471.558	72.44
471.777	83.44
471.997	92.44
472.216	103.44
472.435	108.44
472.654	82.44
472.873	91.44
473.092	92.44
473.311	92.44
473.53	103.44
473.749	82.44
473.968	103.44
474.187	98.44
474.406	86.44
474.625	97.44
474.844	90.44
475.063	96.44
475.282	92.44
475.501	92.44
475.72	100.44
475.939	78.44
476.158	88.44
476.377	86.44
476.596	82.44
476.814	98.44
477.033	112.44
477.252	85.44
477.471	84.44
477.69	70.44
477.908	73.44
478.127	95.44
478.346	88.44
478.564	90.44
478.783	102.44
479.002	85.44
479.22	80.44
479.439	93.44
479.658	104.44
479.876	76.44
480.095	87.44
480.313	96.44
480.532	91.44
480.751	90.44
480.969	89.44
481.188	102.44
481.406	112.44
481.624	83.44
481.843	82.44
482.061	94.44
482.28	87.44
482.498	99.44
482.717	78.44
482.935	96.44
483.153	94.44
483.372	92.44
483.59	88.44
483.808	102.44
484.027	106.44
484.245	84.44
484.463	80.44
484.681	92.44
484.9	97.44
485.118	99.44
485.336	102.44
485.554	94.44
485.772	100.44
485.99	107.44
486.209	113.44
486.427	109.44
486.645	86.44
486.863	108.44
487.081	103.44
487.299	87.44
487.517	97.44
487.735	95.44
487.953	90.44
488.171	102.44
488.389	96.44
488.607	107.44
488.825	86.44
489.043	105.44
489.261	90.44
489.479	85.44
489.696	91.44
489.914	96.44
490.132	96.44
490.35	108.44
490.568	100.44
490.786	82.44
491.003	98.44
491.221	111.44
491.439	100.44
491.657	91.44
491.874	88.44
492.092	90.44
492.31	99.44
492.527	99.44
492.745	94.44
492.963	97.44
493.18	93.44
493.398	100.44
493.615	91.44
493.833	96.44
494.05	82.44
494.268	85.44
494.485	97.44
494.703	92.44
494.92	90.44
495.138	84.44
495.355	97.44
495.573	104.44
495.79	91.44
496.008	106.44
496.225	96.44
496.442	90.44
496.66	91.44
496.877	95.44
497.094	101.44
497.312	95.44
497.529	99.44
497.746	98.44
497.963	89.44
498.181	102.44
498.398	86.44
498.615	124.44
498.832	100.44
499.049	92.44
499.267	91.44
499.484	84.44
499.701	90.44
499.918	79.44
500.135	83.44
500.352	98.44
500.569	76.44
500.786	70.44
501.003	91.44
501.22	89.44
501.437	89.44
501.654	102.44
501.871	113.44
502.088	102.44
502.305	97.44
502.522	92.44
502.739	84.44
502.956	97.44
503.172	105.44
503.389	88.44
503.606	92.44
503.823	104.44
504.04	95.44
504.256	103.44
504.473	88.44
504.69	94.44
504.907	80.44
505.123	85.44
505.34	95.44
505.557	80.44
505.773	92.44
505.99	89.44
506.207	80.44
506.423	83.44
506.64	80.44
506.856	96.44
507.073	77.44
507.289	107.44
507.506	97.44
507.722	97.44
507.939	113.44
508.155	92.44
508.372	94.44
508.588	103.44
508.805	109.44
509.021	100.44
509.238	112.44
509.454	100.44
509.67	105.44
509.887	103.44
510.103	132.44
510.319	215.44
510.536	814.44
510.752	2580.44
510.968	729.44
511.184	172.44
511.401	118.44
511.617	107.44
511.833	99.44
512.049	99.44
512.265	98.44
512.481	89.44
512.698	90.44
512.914	106.44
513.13	87.44
513.346	93.44
513.562	101.44
513.778	113.44
513.994	101.44
514.21	88.44
514.426	120.44
514.642	135.44
514.858	138.44
515.074	171.44
