Data from Uncirc_2003_H10_HRD10591_00017.txt Node
Date: Wed Jan 03 10:35:51 EST 2024
User: Yrep
Spectrometer: HR+D1059
Trigger mode: 1
Integration Time (sec): 1.000000E-1
Scans to average: 1
Electric dark correction enabled: true
Nonlinearity correction enabled: false
Boxcar width: 0
XAxis mode: Wavelengths
Number of Pixels in Spectrum: 2048
>>>>>Begin Spectral Data<<<<<
223.165	-12.31
223.4	-12.31
223.635	-12.31
223.869	-20.31
224.104	-19.31
224.338	-16.31
224.573	-15.31
224.808	-10.31
225.042	-13.31
225.277	3.69
225.511	-11.31
225.746	6.69
225.98	0.69
226.215	4.69
226.449	27.69
226.683	21.69
226.918	24.69
227.152	28.69
227.387	38.69
227.621	23.69
227.856	43.69
228.09	36.69
228.324	50.69
228.559	51.69
228.793	55.69
229.027	76.69
229.262	62.69
229.496	75.69
229.73	80.69
229.964	80.69
230.199	66.69
230.433	72.69
230.667	74.69
230.901	53.69
231.136	71.69
231.37	86.69
231.604	71.69
231.838	74.69
232.072	90.69
232.306	85.69
232.541	94.69
232.775	74.69
233.009	73.69
233.243	72.69
233.477	83.69
233.711	86.69
233.945	82.69
234.179	69.69
234.413	76.69
234.647	73.69
234.881	82.69
235.115	79.69
235.349	80.69
235.583	77.69
235.817	88.69
236.051	76.69
236.285	64.69
236.519	80.69
236.753	74.69
236.987	66.69
237.221	76.69
237.455	82.69
237.689	90.69
237.922	77.69
238.156	73.69
238.39	67.69
238.624	81.69
238.858	64.69
239.091	65.69
239.325	71.69
239.559	83.69
239.793	77.69
240.027	75.69
240.26	70.69
240.494	71.69
240.728	73.69
240.961	70.69
241.195	77.69
241.429	76.69
241.662	67.69
241.896	84.69
242.13	71.69
242.363	78.69
242.597	77.69
242.83	78.69
243.064	60.69
243.298	74.69
243.531	62.69
243.765	72.69
243.998	75.69
244.232	74.69
244.465	82.69
244.699	79.69
244.932	61.69
245.166	72.69
245.399	71.69
245.633	70.69
245.866	63.69
246.099	76.69
246.333	85.69
246.566	71.69
246.8	77.69
247.033	78.69
247.266	62.69
247.5	70.69
247.733	83.69
247.966	83.69
248.2	82.69
248.433	87.69
248.666	98.69
248.899	79.69
249.133	81.69
249.366	83.69
249.599	90.69
249.832	79.69
250.066	76.69
250.299	86.69
250.532	79.69
250.765	85.69
250.998	68.69
251.231	79.69
251.465	82.69
251.698	72.69
251.931	85.69
252.164	86.69
252.397	84.69
252.63	64.69
252.863	64.69
253.096	74.69
253.329	70.69
253.562	77.69
253.795	77.69
254.028	74.69
254.261	91.69
254.494	66.69
254.727	79.69
254.96	73.69
255.193	75.69
255.426	81.69
255.659	78.69
255.892	86.69
256.124	88.69
256.357	77.69
256.59	68.69
256.823	84.69
257.056	72.69
257.289	65.69
257.521	78.69
257.754	75.69
257.987	74.69
258.22	81.69
258.452	69.69
258.685	84.69
258.918	92.69
259.151	88.69
259.383	86.69
259.616	72.69
259.849	84.69
260.081	83.69
260.314	88.69
260.547	91.69
260.779	81.69
261.012	72.69
261.244	74.69
261.477	88.69
261.71	94.69
261.942	108.69
262.175	123.69
262.407	94.69
262.64	87.69
262.872	94.69
263.105	71.69
263.337	70.69
263.57	78.69
263.802	76.69
264.035	79.69
264.267	87.69
264.499	72.69
264.732	91.69
264.964	83.69
265.197	78.69
265.429	85.69
265.661	91.69
265.894	78.69
266.126	79.69
266.358	92.69
266.591	86.69
266.823	94.69
267.055	84.69
267.287	74.69
267.52	88.69
267.752	78.69
267.984	72.69
268.216	94.69
268.448	83.69
268.681	70.69
268.913	79.69
269.145	73.69
269.377	82.69
269.609	94.69
269.841	73.69
270.073	82.69
270.306	80.69
270.538	71.69
270.77	84.69
271.002	78.69
271.234	71.69
271.466	61.69
271.698	85.69
271.93	98.69
272.162	83.69
272.394	91.69
272.626	80.69
272.858	73.69
273.09	91.69
273.322	90.69
273.553	70.69
273.785	95.69
274.017	83.69
274.249	94.69
274.481	74.69
274.713	82.69
274.945	82.69
275.176	79.69
275.408	87.69
275.64	80.69
275.872	69.69
276.104	82.69
276.335	84.69
276.567	93.69
276.799	86.69
277.031	87.69
277.262	86.69
277.494	79.69
277.726	82.69
277.957	85.69
278.189	93.69
278.421	85.69
278.652	75.69
278.884	84.69
279.115	87.69
279.347	93.69
279.579	98.69
279.81	91.69
280.042	84.69
280.273	78.69
280.505	86.69
280.736	94.69
280.968	84.69
281.199	95.69
281.431	78.69
281.662	64.69
281.894	76.69
282.125	82.69
282.356	105.69
282.588	123.69
282.819	104.69
283.051	87.69
283.282	96.69
283.513	90.69
283.745	77.69
283.976	92.69
284.207	88.69
284.439	90.69
284.67	106.69
284.901	80.69
285.132	76.69
285.364	78.69
285.595	96.69
285.826	85.69
286.057	82.69
286.288	76.69
286.52	87.69
286.751	77.69
286.982	70.69
287.213	79.69
287.444	89.69
287.675	94.69
287.906	85.69
288.138	98.69
288.369	85.69
288.6	81.69
288.831	82.69
289.062	87.69
289.293	79.69
289.524	90.69
289.755	92.69
289.986	87.69
290.217	90.69
290.448	82.69
290.679	67.69
290.91	81.69
291.141	86.69
291.371	89.69
291.602	72.69
291.833	85.69
292.064	84.69
292.295	95.69
292.526	87.69
292.757	87.69
292.987	98.69
293.218	82.69
293.449	88.69
293.68	79.69
293.91	81.69
294.141	79.69
294.372	91.69
294.603	76.69
294.833	88.69
295.064	79.69
295.295	83.69
295.525	90.69
295.756	82.69
295.987	106.69
296.217	116.69
296.448	115.69
296.679	93.69
296.909	90.69
297.14	85.69
297.37	77.69
297.601	83.69
297.831	79.69
298.062	86.69
298.292	69.69
298.523	83.69
298.753	86.69
298.984	88.69
299.214	90.69
299.445	102.69
299.675	98.69
299.905	87.69
300.136	83.69
300.366	74.69
300.597	82.69
300.827	82.69
301.057	103.69
301.288	90.69
301.518	98.69
301.748	84.69
301.979	112.69
302.209	75.69
302.439	88.69
302.669	90.69
302.9	83.69
303.13	83.69
303.36	93.69
303.59	98.69
303.82	105.69
304.051	98.69
304.281	81.69
304.511	93.69
304.741	96.69
304.971	82.69
305.201	94.69
305.431	81.69
305.661	85.69
305.891	90.69
306.121	85.69
306.352	84.69
306.582	103.69
306.812	80.69
307.042	88.69
307.272	93.69
307.502	85.69
307.731	91.69
307.961	78.69
308.191	80.69
308.421	90.69
308.651	76.69
308.881	84.69
309.111	87.69
309.341	91.69
309.571	100.69
309.8	76.69
310.03	101.69
310.26	85.69
310.49	82.69
310.72	95.69
310.949	101.69
311.179	97.69
311.409	94.69
311.639	87.69
311.868	87.69
312.098	96.69
312.328	86.69
312.557	95.69
312.787	97.69
313.017	95.69
313.246	95.69
313.476	78.69
313.706	92.69
313.935	93.69
314.165	93.69
314.394	93.69
314.624	88.69
314.853	107.69
315.083	83.69
315.312	88.69
315.542	90.69
315.771	93.69
316.001	92.69
316.23	85.69
316.46	87.69
316.689	76.69
316.919	82.69
317.148	101.69
317.377	92.69
317.607	88.69
317.836	99.69
318.065	99.69
318.295	88.69
318.524	101.69
318.753	83.69
318.983	94.69
319.212	107.69
319.441	99.69
319.67	105.69
319.9	96.69
320.129	107.69
320.358	90.69
320.587	96.69
320.816	94.69
321.046	99.69
321.275	83.69
321.504	94.69
321.733	88.69
321.962	98.69
322.191	107.69
322.42	111.69
322.649	106.69
322.878	109.69
323.108	108.69
323.337	111.69
323.566	117.69
323.795	145.69
324.024	202.69
324.253	400.69
324.482	850.69
324.71	1742.69
324.939	2286.69
325.168	819.69
325.397	232.69
325.626	151.69
325.855	128.69
326.084	126.69
326.313	126.69
326.542	147.69
326.77	237.69
326.999	468.69
327.228	999.69
327.457	1768.69
327.686	1422.69
327.914	373.69
328.143	186.69
328.372	150.69
328.6	126.69
328.829	115.69
329.058	121.69
329.287	112.69
329.515	109.69
329.744	110.69
329.972	92.69
330.201	108.69
330.43	98.69
330.658	110.69
330.887	129.69
331.115	111.69
331.344	97.69
331.572	96.69
331.801	100.69
332.03	99.69
332.258	94.69
332.486	87.69
332.715	83.69
332.943	76.69
333.172	90.69
333.4	83.69
333.629	94.69
333.857	106.69
334.085	104.69
334.314	98.69
334.542	81.69
334.771	105.69
334.999	91.69
335.227	95.69
335.455	93.69
335.684	93.69
335.912	88.69
336.14	101.69
336.369	85.69
336.597	94.69
336.825	102.69
337.053	78.69
337.281	89.69
337.51	102.69
337.738	102.69
337.966	100.69
338.194	88.69
338.422	95.69
338.65	87.69
338.878	86.69
339.106	76.69
339.334	92.69
339.562	86.69
339.79	87.69
340.018	88.69
340.246	90.69
340.474	93.69
340.702	77.69
340.93	87.69
341.158	82.69
341.386	102.69
341.614	108.69
341.842	85.69
342.07	76.69
342.298	92.69
342.526	86.69
342.754	79.69
342.981	86.69
343.209	99.69
343.437	91.69
343.665	88.69
343.893	79.69
344.12	86.69
344.348	91.69
344.576	78.69
344.804	84.69
345.031	92.69
345.259	102.69
345.487	89.69
345.714	92.69
345.942	97.69
346.17	85.69
346.397	88.69
346.625	95.69
346.853	88.69
347.08	93.69
347.308	100.69
347.535	94.69
347.763	91.69
347.99	97.69
348.218	108.69
348.445	103.69
348.673	101.69
348.9	76.69
349.128	100.69
349.355	107.69
349.583	95.69
349.81	85.69
350.037	99.69
350.265	97.69
350.492	108.69
350.72	83.69
350.947	92.69
351.174	101.69
351.402	112.69
351.629	73.69
351.856	96.69
352.083	88.69
352.311	102.69
352.538	104.69
352.765	104.69
352.992	112.69
353.22	109.69
353.447	105.69
353.674	103.69
353.901	101.69
354.128	106.69
354.355	99.69
354.583	105.69
354.81	107.69
355.037	97.69
355.264	101.69
355.491	91.69
355.718	89.69
355.945	91.69
356.172	83.69
356.399	109.69
356.626	95.69
356.853	93.69
357.08	95.69
357.307	98.69
357.534	108.69
357.761	97.69
357.988	92.69
358.215	92.69
358.441	94.69
358.668	86.69
358.895	84.69
359.122	79.69
359.349	96.69
359.576	97.69
359.802	108.69
360.029	97.69
360.256	96.69
360.483	89.69
360.709	78.69
360.936	82.69
361.163	82.69
361.39	97.69
361.616	83.69
361.843	90.69
362.07	84.69
362.296	95.69
362.523	76.69
362.749	95.69
362.976	90.69
363.203	88.69
363.429	82.69
363.656	79.69
363.882	93.69
364.109	84.69
364.335	82.69
364.562	98.69
364.788	74.69
365.015	102.69
365.241	95.69
365.468	98.69
365.694	90.69
365.92	92.69
366.147	86.69
366.373	76.69
366.599	86.69
366.826	88.69
367.052	75.69
367.278	79.69
367.505	87.69
367.731	105.69
367.957	90.69
368.184	85.69
368.41	99.69
368.636	99.69
368.862	103.69
369.089	94.69
369.315	88.69
369.541	85.69
369.767	86.69
369.993	95.69
370.219	92.69
370.445	72.69
370.672	92.69
370.898	99.69
371.124	86.69
371.35	76.69
371.576	88.69
371.802	79.69
372.028	90.69
372.254	77.69
372.48	71.69
372.706	82.69
372.932	78.69
373.158	78.69
373.384	104.69
373.61	99.69
373.835	78.69
374.061	96.69
374.287	87.69
374.513	90.69
374.739	96.69
374.965	80.69
375.191	76.69
375.416	93.69
375.642	90.69
375.868	92.69
376.094	81.69
376.319	79.69
376.545	69.69
376.771	76.69
376.997	85.69
377.222	89.69
377.448	83.69
377.674	85.69
377.899	96.69
378.125	91.69
378.35	100.69
378.576	79.69
378.802	87.69
379.027	94.69
379.253	103.69
379.478	86.69
379.704	87.69
379.929	81.69
380.155	98.69
380.38	88.69
380.606	98.69
380.831	80.69
381.057	103.69
381.282	98.69
381.507	94.69
381.733	91.69
381.958	83.69
382.184	86.69
382.409	107.69
382.634	97.69
382.86	93.69
383.085	106.69
383.31	87.69
383.535	90.69
383.761	98.69
383.986	110.69
384.211	114.69
384.436	103.69
384.662	101.69
384.887	104.69
385.112	95.69
385.337	105.69
385.562	88.69
385.787	96.69
386.013	107.69
386.238	111.69
386.463	100.69
386.688	95.69
386.913	99.69
387.138	108.69
387.363	95.69
387.588	92.69
387.813	118.69
388.038	108.69
388.263	98.69
388.488	116.69
388.713	98.69
388.938	79.69
389.163	89.69
389.387	85.69
389.612	87.69
389.837	96.69
390.062	103.69
390.287	98.69
390.512	93.69
390.736	95.69
390.961	93.69
391.186	100.69
391.411	98.69
391.636	92.69
391.86	87.69
392.085	85.69
392.31	66.69
392.534	88.69
392.759	82.69
392.984	96.69
393.208	87.69
393.433	87.69
393.658	81.69
393.882	73.69
394.107	98.69
394.331	83.69
394.556	88.69
394.78	82.69
395.005	80.69
395.229	86.69
395.454	80.69
395.678	87.69
395.903	79.69
396.127	88.69
396.352	90.69
396.576	78.69
396.801	76.69
397.025	79.69
397.249	80.69
397.474	76.69
397.698	93.69
397.922	78.69
398.147	88.69
398.371	75.69
398.595	87.69
398.82	80.69
399.044	86.69
399.268	86.69
399.492	77.69
399.717	98.69
399.941	69.69
400.165	84.69
400.389	90.69
400.613	80.69
400.837	78.69
401.062	78.69
401.286	90.69
401.51	88.69
401.734	86.69
401.958	92.69
402.182	117.69
402.406	149.69
402.63	125.69
402.854	99.69
403.078	91.69
403.302	80.69
403.526	84.69
403.75	84.69
403.974	87.69
404.198	84.69
404.422	86.69
404.645	93.69
404.869	105.69
405.093	88.69
405.317	91.69
405.541	104.69
405.765	96.69
405.988	114.69
406.212	155.69
406.436	210.69
406.66	133.69
406.883	85.69
407.107	93.69
407.331	94.69
407.555	114.69
407.778	89.69
408.002	96.69
408.226	86.69
408.449	85.69
408.673	96.69
408.896	90.69
409.12	95.69
409.344	94.69
409.567	85.69
409.791	87.69
410.014	98.69
410.238	91.69
410.461	93.69
410.685	93.69
410.908	84.69
411.132	104.69
411.355	91.69
411.578	92.69
411.802	80.69
412.025	79.69
412.249	87.69
412.472	95.69
412.695	87.69
412.919	86.69
413.142	88.69
413.365	77.69
413.589	84.69
413.812	89.69
414.035	94.69
414.258	100.69
414.482	86.69
414.705	80.69
414.928	82.69
415.151	88.69
415.374	90.69
415.597	85.69
415.821	84.69
416.044	72.69
416.267	98.69
416.49	87.69
416.713	84.69
416.936	80.69
417.159	83.69
417.382	79.69
417.605	83.69
417.828	83.69
418.051	80.69
418.274	85.69
418.497	89.69
418.72	84.69
418.943	75.69
419.166	72.69
419.389	87.69
419.611	82.69
419.834	88.69
420.057	97.69
420.28	99.69
420.503	92.69
420.726	99.69
420.948	87.69
421.171	92.69
421.394	86.69
421.617	88.69
421.839	81.69
422.062	73.69
422.285	90.69
422.507	85.69
422.73	98.69
422.953	80.69
423.175	80.69
423.398	85.69
423.621	88.69
423.843	89.69
424.066	80.69
424.288	96.69
424.511	92.69
424.733	91.69
424.956	93.69
425.178	97.69
425.401	97.69
425.623	87.69
425.846	102.69
426.068	73.69
426.291	102.69
426.513	81.69
426.735	87.69
426.958	88.69
427.18	97.69
427.402	136.69
427.625	160.69
427.847	125.69
428.069	91.69
428.292	96.69
428.514	80.69
428.736	69.69
428.958	99.69
429.181	84.69
429.403	81.69
429.625	88.69
429.847	94.69
430.069	89.69
430.292	93.69
430.514	80.69
430.736	91.69
430.958	70.69
431.18	93.69
431.402	98.69
431.624	82.69
431.846	80.69
432.068	91.69
432.29	82.69
432.512	90.69
432.734	89.69
432.956	99.69
433.178	95.69
433.4	108.69
433.622	94.69
433.844	85.69
434.066	92.69
434.287	98.69
434.509	87.69
434.731	87.69
434.953	76.69
435.175	71.69
435.397	93.69
435.618	92.69
435.84	98.69
436.062	111.69
436.284	100.69
436.505	116.69
436.727	102.69
436.949	95.69
437.17	102.69
437.392	97.69
437.614	94.69
437.835	89.69
438.057	123.69
438.278	95.69
438.5	103.69
438.721	118.69
438.943	92.69
439.165	83.69
439.386	79.69
439.608	86.69
439.829	98.69
440.05	108.69
440.272	132.69
440.493	102.69
440.715	100.69
440.936	83.69
441.158	100.69
441.379	81.69
441.6	85.69
441.822	92.69
442.043	86.69
442.264	103.69
442.486	95.69
442.707	102.69
442.928	92.69
443.149	124.69
443.371	124.69
443.592	103.69
443.813	115.69
444.034	116.69
444.255	94.69
444.476	88.69
444.698	83.69
444.919	76.69
445.14	122.69
445.361	116.69
445.582	118.69
445.803	132.69
446.024	122.69
446.245	102.69
446.466	117.69
446.687	92.69
446.908	87.69
447.129	75.69
447.35	85.69
447.571	86.69
447.792	99.69
448.013	85.69
448.234	94.69
448.455	94.69
448.675	111.69
448.896	124.69
449.117	100.69
449.338	105.69
449.559	138.69
449.779	121.69
450	94.69
450.221	86.69
450.442	84.69
450.662	89.69
450.883	96.69
451.104	112.69
451.324	94.69
451.545	88.69
451.766	80.69
451.986	81.69
452.207	86.69
452.428	91.69
452.648	93.69
452.869	105.69
453.089	116.69
453.31	112.69
453.53	87.69
453.751	99.69
453.971	100.69
454.192	95.69
454.412	106.69
454.633	82.69
454.853	85.69
455.073	87.69
455.294	101.69
455.514	106.69
455.734	93.69
455.955	84.69
456.175	82.69
456.395	95.69
456.616	84.69
456.836	83.69
457.056	85.69
457.276	78.69
457.497	83.69
457.717	94.69
457.937	74.69
458.157	82.69
458.377	87.69
458.598	100.69
458.818	134.69
459.038	148.69
459.258	107.69
459.478	86.69
459.698	85.69
459.918	71.69
460.138	80.69
460.358	87.69
460.578	74.69
460.798	98.69
461.018	79.69
461.238	94.69
461.458	85.69
461.678	87.69
461.898	93.69
462.118	94.69
462.338	80.69
462.558	76.69
462.777	79.69
462.997	76.69
463.217	87.69
463.437	74.69
463.657	87.69
463.876	82.69
464.096	82.69
464.316	96.69
464.536	100.69
464.755	97.69
464.975	103.69
465.195	152.69
465.414	151.69
465.634	88.69
465.854	83.69
466.073	80.69
466.293	89.69
466.512	86.69
466.732	100.69
466.951	92.69
467.171	90.69
467.391	92.69
467.61	94.69
467.829	98.69
468.049	107.69
468.268	98.69
468.488	86.69
468.707	93.69
468.927	86.69
469.146	79.69
469.365	85.69
469.585	96.69
469.804	97.69
470.023	98.69
470.243	99.69
470.462	84.69
470.681	93.69
470.901	91.69
471.12	85.69
471.339	83.69
471.558	89.69
471.777	75.69
471.997	91.69
472.216	91.69
472.435	96.69
472.654	80.69
472.873	79.69
473.092	68.69
473.311	80.69
473.53	100.69
473.749	78.69
473.968	109.69
474.187	98.69
474.406	93.69
474.625	89.69
474.844	88.69
475.063	61.69
475.282	76.69
475.501	91.69
475.72	106.69
475.939	83.69
476.158	66.69
476.377	81.69
476.596	72.69
476.814	84.69
477.033	94.69
477.252	76.69
477.471	95.69
477.69	102.69
477.908	90.69
478.127	84.69
478.346	91.69
478.564	89.69
478.783	106.69
479.002	85.69
479.22	93.69
479.439	96.69
479.658	102.69
479.876	102.69
480.095	72.69
480.313	84.69
480.532	87.69
480.751	93.69
480.969	87.69
481.188	103.69
481.406	94.69
481.624	89.69
481.843	84.69
482.061	79.69
482.28	83.69
482.498	85.69
482.717	68.69
482.935	90.69
483.153	88.69
483.372	88.69
483.59	78.69
483.808	92.69
484.027	77.69
484.245	80.69
484.463	82.69
484.681	98.69
484.9	99.69
485.118	93.69
485.336	95.69
485.554	83.69
485.772	107.69
485.99	102.69
486.209	100.69
486.427	98.69
486.645	111.69
486.863	100.69
487.081	86.69
487.299	86.69
487.517	99.69
487.735	84.69
487.953	70.69
488.171	91.69
488.389	84.69
488.607	93.69
488.825	93.69
489.043	93.69
489.261	84.69
489.479	80.69
489.696	85.69
489.914	87.69
490.132	96.69
490.35	95.69
490.568	82.69
490.786	69.69
491.003	86.69
491.221	80.69
491.439	73.69
491.657	89.69
491.874	103.69
492.092	82.69
492.31	101.69
492.527	83.69
492.745	89.69
492.963	81.69
493.18	81.69
493.398	86.69
493.615	74.69
493.833	92.69
494.05	98.69
494.268	77.69
494.485	79.69
494.703	77.69
494.92	89.69
495.138	96.69
495.355	91.69
495.573	93.69
495.79	92.69
496.008	99.69
496.225	99.69
496.442	88.69
496.66	96.69
496.877	88.69
497.094	94.69
497.312	71.69
497.529	87.69
497.746	87.69
497.963	83.69
498.181	106.69
498.398	89.69
498.615	95.69
498.832	97.69
499.049	84.69
499.267	104.69
499.484	89.69
499.701	99.69
499.918	85.69
500.135	78.69
500.352	84.69
500.569	91.69
500.786	84.69
501.003	78.69
501.22	83.69
501.437	87.69
501.654	86.69
501.871	94.69
502.088	97.69
502.305	87.69
502.522	89.69
502.739	96.69
502.956	88.69
503.172	88.69
503.389	99.69
503.606	92.69
503.823	104.69
504.04	87.69
504.256	92.69
504.473	83.69
504.69	78.69
504.907	86.69
505.123	98.69
505.34	83.69
505.557	82.69
505.773	99.69
505.99	87.69
506.207	86.69
506.423	94.69
506.64	85.69
506.856	103.69
507.073	96.69
507.289	101.69
507.506	92.69
507.722	98.69
507.939	112.69
508.155	95.69
508.372	99.69
508.588	85.69
508.805	98.69
509.021	87.69
509.238	91.69
509.454	81.69
509.67	99.69
509.887	95.69
510.103	123.69
510.319	212.69
510.536	768.69
510.752	2307.69
510.968	652.69
511.184	147.69
511.401	119.69
511.617	101.69
511.833	77.69
512.049	82.69
512.265	84.69
512.481	94.69
512.698	87.69
512.914	84.69
513.13	94.69
513.346	88.69
513.562	99.69
513.778	92.69
513.994	99.69
514.21	85.69
514.426	117.69
514.642	135.69
514.858	142.69
515.074	160.69
515.29	442.69
515.506	1400.69
515.721	526.69
515.937	126.69
516.153	103.69
516.369	101.69
516.585	96.69
516.801	96.69
