Data from Uncirc_2003_H10_HRD10591_00099.txt Node
Date: Wed Jan 03 10:36:07 EST 2024
User: Yrep
Spectrometer: HR+D1059
Trigger mode: 1
Integration Time (sec): 1.000000E-1
Scans to average: 1
Electric dark correction enabled: true
Nonlinearity correction enabled: false
Boxcar width: 0
XAxis mode: Wavelengths
Number of Pixels in Spectrum: 2048
>>>>>Begin Spectral Data<<<<<
223.165	-18.56
223.4	-18.56
223.635	-18.56
223.869	-29.56
224.104	-19.56
224.338	-0.56
224.573	-4.56
224.808	-6.56
225.042	-5.56
225.277	-5.56
225.511	-12.56
225.746	0.44
225.98	5.44
226.215	10.44
226.449	0.44
226.683	31.44
226.918	32.44
227.152	22.44
227.387	28.44
227.621	49.44
227.856	40.44
228.09	42.44
228.324	62.44
228.559	65.44
228.793	55.44
229.027	70.44
229.262	66.44
229.496	79.44
229.73	85.44
229.964	86.44
230.199	75.44
230.433	76.44
230.667	71.44
230.901	68.44
231.136	84.44
231.37	76.44
231.604	82.44
231.838	83.44
232.072	86.44
232.306	90.44
232.541	84.44
232.775	85.44
233.009	54.44
233.243	83.44
233.477	81.44
233.711	81.44
233.945	80.44
234.179	86.44
234.413	88.44
234.647	76.44
234.881	66.44
235.115	80.44
235.349	83.44
235.583	88.44
235.817	89.44
236.051	80.44
236.285	69.44
236.519	70.44
236.753	79.44
236.987	77.44
237.221	85.44
237.455	78.44
237.689	84.44
237.922	80.44
238.156	73.44
238.39	78.44
238.624	81.44
238.858	88.44
239.091	91.44
239.325	74.44
239.559	85.44
239.793	92.44
240.027	89.44
240.26	75.44
240.494	80.44
240.728	78.44
240.961	78.44
241.195	74.44
241.429	81.44
241.662	75.44
241.896	72.44
242.13	81.44
242.363	79.44
242.597	73.44
242.83	87.44
243.064	80.44
243.298	73.44
243.531	71.44
243.765	73.44
243.998	56.44
244.232	91.44
244.465	94.44
244.699	78.44
244.932	69.44
245.166	83.44
245.399	96.44
245.633	75.44
245.866	87.44
246.099	75.44
246.333	69.44
246.566	74.44
246.8	62.44
247.033	70.44
247.266	99.44
247.5	75.44
247.733	82.44
247.966	78.44
248.2	78.44
248.433	84.44
248.666	72.44
248.899	87.44
249.133	86.44
249.366	109.44
249.599	89.44
249.832	88.44
250.066	97.44
250.299	85.44
250.532	85.44
250.765	73.44
250.998	72.44
251.231	72.44
251.465	75.44
251.698	68.44
251.931	85.44
252.164	81.44
252.397	76.44
252.63	75.44
252.863	89.44
253.096	85.44
253.329	82.44
253.562	72.44
253.795	88.44
254.028	87.44
254.261	86.44
254.494	82.44
254.727	75.44
254.96	68.44
255.193	90.44
255.426	76.44
255.659	64.44
255.892	71.44
256.124	88.44
256.357	73.44
256.59	88.44
256.823	80.44
257.056	83.44
257.289	77.44
257.521	92.44
257.754	99.44
257.987	74.44
258.22	87.44
258.452	77.44
258.685	89.44
258.918	90.44
259.151	72.44
259.383	90.44
259.616	90.44
259.849	88.44
260.081	79.44
260.314	87.44
260.547	84.44
260.779	88.44
261.012	78.44
261.244	74.44
261.477	100.44
261.71	89.44
261.942	119.44
262.175	109.44
262.407	96.44
262.64	96.44
262.872	95.44
263.105	86.44
263.337	74.44
263.57	89.44
263.802	94.44
264.035	69.44
264.267	71.44
264.499	74.44
264.732	78.44
264.964	88.44
265.197	78.44
265.429	75.44
265.661	88.44
265.894	83.44
266.126	93.44
266.358	82.44
266.591	94.44
266.823	87.44
267.055	77.44
267.287	88.44
267.52	88.44
267.752	95.44
267.984	86.44
268.216	78.44
268.448	87.44
268.681	77.44
268.913	85.44
269.145	80.44
269.377	86.44
269.609	101.44
269.841	82.44
270.073	75.44
270.306	84.44
270.538	78.44
270.77	85.44
271.002	81.44
271.234	84.44
271.466	85.44
271.698	80.44
271.93	81.44
272.162	86.44
272.394	90.44
272.626	89.44
272.858	93.44
273.09	75.44
273.322	86.44
273.553	98.44
273.785	97.44
274.017	81.44
274.249	74.44
274.481	89.44
274.713	99.44
274.945	76.44
275.176	91.44
275.408	91.44
275.64	85.44
275.872	80.44
276.104	87.44
276.335	77.44
276.567	104.44
276.799	100.44
277.031	98.44
277.262	86.44
277.494	89.44
277.726	80.44
277.957	79.44
278.189	81.44
278.421	94.44
278.652	90.44
278.884	93.44
279.115	92.44
279.347	87.44
279.579	88.44
279.81	83.44
280.042	83.44
280.273	79.44
280.505	97.44
280.736	98.44
280.968	84.44
281.199	94.44
281.431	89.44
281.662	98.44
281.894	75.44
282.125	99.44
282.356	119.44
282.588	129.44
282.819	118.44
283.051	84.44
283.282	81.44
283.513	105.44
283.745	85.44
283.976	84.44
284.207	82.44
284.439	76.44
284.67	87.44
284.901	88.44
285.132	87.44
285.364	84.44
285.595	88.44
285.826	87.44
286.057	80.44
286.288	83.44
286.52	86.44
286.751	91.44
286.982	85.44
287.213	95.44
287.444	86.44
287.675	77.44
287.906	89.44
288.138	90.44
288.369	89.44
288.6	78.44
288.831	92.44
289.062	82.44
289.293	90.44
289.524	83.44
289.755	70.44
289.986	78.44
290.217	78.44
290.448	85.44
290.679	98.44
290.91	87.44
291.141	90.44
291.371	90.44
291.602	76.44
291.833	83.44
292.064	80.44
292.295	70.44
292.526	101.44
292.757	87.44
292.987	89.44
293.218	87.44
293.449	92.44
293.68	78.44
293.91	87.44
294.141	90.44
294.372	63.44
294.603	80.44
294.833	83.44
295.064	91.44
295.295	95.44
295.525	99.44
295.756	109.44
295.987	117.44
296.217	149.44
296.448	137.44
296.679	89.44
296.909	89.44
297.14	94.44
297.37	91.44
297.601	98.44
297.831	86.44
298.062	75.44
298.292	96.44
298.523	99.44
298.753	86.44
298.984	91.44
299.214	97.44
299.445	99.44
299.675	83.44
299.905	90.44
300.136	104.44
300.366	78.44
300.597	84.44
300.827	98.44
301.057	101.44
301.288	99.44
301.518	100.44
301.748	80.44
301.979	97.44
302.209	86.44
302.439	86.44
302.669	89.44
302.9	87.44
303.13	91.44
303.36	91.44
303.59	95.44
303.82	109.44
304.051	99.44
304.281	89.44
304.511	90.44
304.741	92.44
304.971	88.44
305.201	91.44
305.431	95.44
305.661	87.44
305.891	89.44
306.121	90.44
306.352	103.44
306.582	109.44
306.812	106.44
307.042	83.44
307.272	84.44
307.502	96.44
307.731	94.44
307.961	90.44
308.191	81.44
308.421	85.44
308.651	94.44
308.881	102.44
309.111	108.44
309.341	91.44
309.571	94.44
309.8	99.44
310.03	83.44
310.26	91.44
310.49	75.44
310.72	91.44
310.949	97.44
311.179	103.44
311.409	94.44
311.639	111.44
311.868	100.44
312.098	97.44
312.328	91.44
312.557	94.44
312.787	104.44
313.017	105.44
313.246	90.44
313.476	81.44
313.706	87.44
313.935	101.44
314.165	91.44
314.394	79.44
314.624	98.44
314.853	93.44
315.083	102.44
315.312	91.44
315.542	91.44
315.771	93.44
316.001	92.44
316.23	81.44
316.46	97.44
316.689	96.44
316.919	95.44
317.148	94.44
317.377	97.44
317.607	88.44
317.836	91.44
318.065	91.44
318.295	85.44
318.524	94.44
318.753	97.44
318.983	85.44
319.212	103.44
319.441	107.44
319.67	108.44
319.9	103.44
320.129	94.44
320.358	86.44
320.587	101.44
320.816	88.44
321.046	92.44
321.275	102.44
321.504	106.44
321.733	99.44
321.962	102.44
322.191	111.44
322.42	108.44
322.649	118.44
322.878	108.44
323.108	124.44
323.337	114.44
323.566	162.44
323.795	163.44
324.024	212.44
324.253	444.44
324.482	953.44
324.71	2020.44
324.939	2661.44
325.168	958.44
325.397	268.44
325.626	164.44
325.855	128.44
326.084	146.44
326.313	146.44
326.542	172.44
326.77	238.44
326.999	531.44
327.228	1077.44
327.457	2008.44
327.686	1586.44
327.914	410.44
328.143	199.44
328.372	147.44
328.6	129.44
328.829	117.44
329.058	127.44
329.287	117.44
329.515	108.44
329.744	111.44
329.972	105.44
330.201	96.44
330.43	114.44
330.658	114.44
330.887	139.44
331.115	133.44
331.344	111.44
331.572	105.44
331.801	116.44
332.03	98.44
332.258	99.44
332.486	90.44
332.715	97.44
332.943	100.44
333.172	97.44
333.4	103.44
333.629	111.44
333.857	116.44
334.085	110.44
334.314	115.44
334.542	101.44
334.771	110.44
334.999	92.44
335.227	96.44
335.455	99.44
335.684	103.44
335.912	111.44
336.14	100.44
336.369	111.44
336.597	98.44
336.825	94.44
337.053	96.44
337.281	95.44
337.51	99.44
337.738	98.44
337.966	95.44
338.194	103.44
338.422	100.44
338.65	86.44
338.878	89.44
339.106	85.44
339.334	92.44
339.562	86.44
339.79	98.44
340.018	93.44
340.246	91.44
340.474	100.44
340.702	77.44
340.93	95.44
341.158	96.44
341.386	86.44
341.614	110.44
341.842	103.44
342.07	89.44
342.298	85.44
342.526	92.44
342.754	94.44
342.981	84.44
343.209	82.44
343.437	105.44
343.665	89.44
343.893	99.44
344.12	93.44
344.348	91.44
344.576	101.44
344.804	92.44
345.031	99.44
345.259	96.44
345.487	88.44
345.714	87.44
345.942	78.44
346.17	76.44
346.397	89.44
346.625	100.44
346.853	112.44
347.08	94.44
347.308	110.44
347.535	109.44
347.763	96.44
347.99	94.44
348.218	92.44
348.445	96.44
348.673	95.44
348.9	97.44
349.128	87.44
349.355	101.44
349.583	83.44
349.81	87.44
350.037	105.44
350.265	90.44
350.492	105.44
350.72	98.44
350.947	96.44
351.174	107.44
351.402	104.44
351.629	102.44
351.856	95.44
352.083	107.44
352.311	108.44
352.538	97.44
352.765	109.44
352.992	110.44
353.22	113.44
353.447	101.44
353.674	100.44
353.901	100.44
354.128	92.44
354.355	92.44
354.583	107.44
354.81	117.44
355.037	107.44
355.264	85.44
355.491	94.44
355.718	92.44
355.945	107.44
356.172	97.44
356.399	99.44
356.626	88.44
356.853	94.44
357.08	99.44
357.307	92.44
357.534	87.44
357.761	91.44
357.988	99.44
358.215	87.44
358.441	93.44
358.668	86.44
358.895	96.44
359.122	86.44
359.349	95.44
359.576	92.44
359.802	110.44
360.029	108.44
360.256	99.44
360.483	86.44
360.709	91.44
360.936	89.44
361.163	88.44
361.39	104.44
361.616	106.44
361.843	92.44
362.07	108.44
362.296	94.44
362.523	91.44
362.749	98.44
362.976	100.44
363.203	104.44
363.429	85.44
363.656	82.44
363.882	79.44
364.109	89.44
364.335	90.44
364.562	79.44
364.788	96.44
365.015	78.44
365.241	91.44
365.468	114.44
365.694	95.44
365.92	93.44
366.147	102.44
366.373	90.44
366.599	84.44
366.826	89.44
367.052	82.44
367.278	108.44
367.505	83.44
367.731	100.44
367.957	92.44
368.184	86.44
368.41	102.44
368.636	107.44
368.862	123.44
369.089	105.44
369.315	92.44
369.541	107.44
369.767	86.44
369.993	85.44
370.219	97.44
370.445	90.44
370.672	88.44
370.898	98.44
371.124	94.44
371.35	90.44
371.576	107.44
371.802	77.44
372.028	93.44
372.254	87.44
372.48	104.44
372.706	80.44
372.932	88.44
373.158	83.44
373.384	96.44
373.61	95.44
373.835	95.44
374.061	84.44
374.287	90.44
374.513	87.44
374.739	92.44
374.965	99.44
375.191	81.44
375.416	84.44
375.642	101.44
375.868	96.44
376.094	91.44
376.319	97.44
376.545	92.44
376.771	77.44
376.997	102.44
377.222	91.44
377.448	78.44
377.674	81.44
377.899	101.44
378.125	92.44
378.35	96.44
378.576	97.44
378.802	98.44
379.027	94.44
379.253	93.44
379.478	96.44
379.704	100.44
379.929	89.44
380.155	81.44
380.38	99.44
380.606	94.44
380.831	95.44
381.057	103.44
381.282	84.44
381.507	107.44
381.733	99.44
381.958	106.44
382.184	97.44
382.409	100.44
382.634	106.44
382.86	108.44
383.085	104.44
383.31	112.44
383.535	105.44
383.761	94.44
383.986	94.44
384.211	105.44
384.436	100.44
384.662	102.44
384.887	96.44
385.112	107.44
385.337	107.44
385.562	112.44
385.787	115.44
386.013	116.44
386.238	110.44
386.463	105.44
386.688	108.44
386.913	105.44
387.138	97.44
387.363	99.44
387.588	116.44
387.813	107.44
388.038	104.44
388.263	103.44
388.488	115.44
388.713	97.44
388.938	93.44
389.163	93.44
389.387	95.44
389.612	101.44
389.837	92.44
390.062	87.44
390.287	87.44
390.512	103.44
390.736	99.44
390.961	99.44
391.186	102.44
391.411	104.44
391.636	90.44
391.86	97.44
392.085	99.44
392.31	111.44
392.534	78.44
392.759	90.44
392.984	98.44
393.208	92.44
393.433	89.44
393.658	100.44
393.882	91.44
394.107	80.44
394.331	97.44
394.556	80.44
394.78	83.44
395.005	95.44
395.229	82.44
395.454	82.44
395.678	91.44
395.903	87.44
396.127	98.44
396.352	86.44
396.576	74.44
396.801	86.44
397.025	84.44
397.249	86.44
397.474	83.44
397.698	93.44
397.922	89.44
398.147	87.44
398.371	96.44
398.595	95.44
398.82	93.44
399.044	95.44
399.268	101.44
399.492	98.44
399.717	99.44
399.941	102.44
400.165	102.44
400.389	84.44
400.613	86.44
400.837	78.44
401.062	91.44
401.286	94.44
401.51	102.44
401.734	103.44
401.958	107.44
402.182	143.44
402.406	146.44
402.63	121.44
402.854	78.44
403.078	90.44
403.302	92.44
403.526	91.44
403.75	99.44
403.974	99.44
404.198	88.44
404.422	104.44
404.645	97.44
404.869	95.44
405.093	97.44
405.317	99.44
405.541	98.44
405.765	113.44
405.988	113.44
406.212	197.44
406.436	239.44
406.66	162.44
406.883	106.44
407.107	94.44
407.331	104.44
407.555	103.44
407.778	95.44
408.002	94.44
408.226	91.44
408.449	85.44
408.673	91.44
408.896	99.44
409.12	102.44
409.344	99.44
409.567	96.44
409.791	92.44
410.014	106.44
410.238	100.44
410.461	101.44
410.685	99.44
410.908	87.44
411.132	104.44
411.355	99.44
411.578	105.44
411.802	97.44
412.025	90.44
412.249	103.44
412.472	79.44
412.695	96.44
412.919	93.44
413.142	78.44
413.365	95.44
413.589	96.44
413.812	84.44
414.035	92.44
414.258	91.44
414.482	94.44
414.705	88.44
414.928	85.44
415.151	92.44
415.374	100.44
415.597	95.44
415.821	97.44
416.044	87.44
416.267	92.44
416.49	89.44
416.713	83.44
416.936	90.44
417.159	92.44
417.382	85.44
417.605	97.44
417.828	93.44
418.051	91.44
418.274	82.44
418.497	90.44
418.72	89.44
418.943	94.44
419.166	87.44
419.389	90.44
419.611	97.44
419.834	97.44
420.057	104.44
420.28	98.44
420.503	91.44
420.726	95.44
420.948	86.44
421.171	99.44
421.394	105.44
421.617	100.44
421.839	82.44
422.062	92.44
422.285	108.44
422.507	110.44
422.73	104.44
422.953	95.44
423.175	104.44
423.398	102.44
423.621	91.44
423.843	91.44
424.066	83.44
424.288	79.44
424.511	104.44
424.733	103.44
424.956	122.44
425.178	110.44
425.401	102.44
425.623	108.44
425.846	98.44
426.068	89.44
426.291	95.44
426.513	99.44
426.735	94.44
426.958	93.44
427.18	111.44
427.402	143.44
427.625	167.44
427.847	118.44
428.069	107.44
428.292	84.44
428.514	83.44
428.736	83.44
428.958	98.44
429.181	79.44
429.403	75.44
429.625	100.44
429.847	98.44
430.069	91.44
430.292	99.44
430.514	99.44
430.736	97.44
430.958	82.44
431.18	91.44
431.402	84.44
431.624	85.44
431.846	85.44
432.068	92.44
432.29	90.44
432.512	83.44
432.734	91.44
432.956	97.44
433.178	80.44
433.4	95.44
433.622	89.44
433.844	85.44
434.066	89.44
434.287	93.44
434.509	93.44
434.731	93.44
434.953	88.44
435.175	99.44
435.397	106.44
435.618	101.44
435.84	90.44
436.062	120.44
436.284	126.44
436.505	114.44
436.727	114.44
436.949	87.44
437.17	94.44
437.392	86.44
437.614	85.44
437.835	114.44
438.057	126.44
438.278	116.44
438.5	104.44
438.721	123.44
438.943	103.44
439.165	91.44
439.386	101.44
439.608	91.44
439.829	110.44
440.05	125.44
440.272	139.44
440.493	89.44
440.715	88.44
440.936	72.44
441.158	82.44
441.379	94.44
441.6	91.44
441.822	97.44
442.043	88.44
442.264	92.44
442.486	94.44
442.707	95.44
442.928	112.44
443.149	110.44
443.371	121.44
443.592	101.44
443.813	111.44
444.034	118.44
444.255	102.44
444.476	90.44
444.698	100.44
444.919	92.44
445.14	127.44
445.361	140.44
445.582	120.44
445.803	120.44
446.024	145.44
446.245	136.44
446.466	115.44
446.687	92.44
446.908	90.44
447.129	89.44
447.35	84.44
447.571	89.44
447.792	96.44
448.013	110.44
448.234	98.44
448.455	95.44
448.675	106.44
448.896	115.44
449.117	102.44
449.338	107.44
449.559	132.44
449.779	124.44
450	84.44
450.221	97.44
450.442	77.44
450.662	92.44
450.883	114.44
451.104	94.44
451.324	102.44
451.545	95.44
451.766	91.44
451.986	83.44
452.207	92.44
452.428	97.44
452.648	106.44
452.869	119.44
453.089	99.44
453.31	124.44
453.53	101.44
453.751	89.44
453.971	107.44
454.192	119.44
454.412	95.44
454.633	90.44
454.853	90.44
455.073	82.44
455.294	82.44
455.514	101.44
455.734	99.44
455.955	87.44
456.175	86.44
456.395	97.44
456.616	85.44
456.836	81.44
457.056	87.44
457.276	92.44
457.497	82.44
457.717	106.44
457.937	92.44
458.157	88.44
458.377	92.44
458.598	111.44
458.818	156.44
459.038	162.44
459.258	121.44
459.478	92.44
459.698	91.44
459.918	91.44
460.138	78.44
460.358	95.44
460.578	87.44
460.798	95.44
461.018	86.44
461.238	86.44
461.458	83.44
461.678	78.44
461.898	73.44
462.118	92.44
462.338	82.44
462.558	86.44
462.777	66.44
462.997	88.44
463.217	91.44
463.437	76.44
463.657	94.44
463.876	90.44
464.096	101.44
464.316	71.44
464.536	96.44
464.755	96.44
464.975	101.44
465.195	170.44
465.414	155.44
465.634	105.44
465.854	86.44
466.073	97.44
466.293	88.44
466.512	86.44
466.732	93.44
466.951	75.44
467.171	90.44
467.391	88.44
467.61	92.44
467.829	97.44
468.049	70.44
468.268	97.44
468.488	94.44
468.707	83.44
468.927	87.44
469.146	89.44
469.365	96.44
469.585	111.44
469.804	86.44
470.023	95.44
470.243	96.44
470.462	108.44
470.681	114.44
470.901	89.44
471.12	91.44
471.339	88.44
471.558	90.44
471.777	94.44
471.997	91.44
472.216	91.44
472.435	107.44
472.654	91.44
472.873	93.44
473.092	92.44
473.311	87.44
473.53	79.44
473.749	84.44
473.968	105.44
474.187	108.44
474.406	101.44
474.625	97.44
474.844	96.44
475.063	90.44
475.282	79.44
475.501	68.44
475.72	91.44
475.939	85.44
476.158	72.44
476.377	79.44
476.596	84.44
476.814	86.44
477.033	113.44
477.252	89.44
477.471	94.44
477.69	102.44
477.908	94.44
478.127	97.44
478.346	96.44
478.564	97.44
478.783	98.44
479.002	92.44
479.22	98.44
479.439	100.44
479.658	121.44
479.876	102.44
480.095	87.44
480.313	94.44
480.532	96.44
480.751	91.44
480.969	112.44
481.188	139.44
481.406	108.44
481.624	91.44
481.843	93.44
482.061	89.44
482.28	90.44
482.498	92.44
482.717	86.44
482.935	75.44
483.153	92.44
483.372	95.44
483.59	95.44
483.808	85.44
484.027	101.44
484.245	90.44
484.463	88.44
484.681	87.44
484.9	84.44
485.118	102.44
485.336	106.44
485.554	89.44
485.772	104.44
485.99	105.44
486.209	110.44
486.427	115.44
486.645	107.44
486.863	125.44
487.081	97.44
487.299	110.44
487.517	98.44
487.735	94.44
487.953	94.44
488.171	86.44
488.389	96.44
488.607	89.44
488.825	94.44
489.043	80.44
489.261	81.44
489.479	89.44
489.696	101.44
489.914	101.44
490.132	82.44
490.35	78.44
490.568	95.44
490.786	95.44
491.003	92.44
491.221	81.44
491.439	100.44
491.657	96.44
491.874	100.44
492.092	90.44
492.31	90.44
492.527	74.44
492.745	94.44
492.963	98.44
493.18	95.44
493.398	102.44
493.615	99.44
493.833	96.44
494.05	92.44
494.268	88.44
494.485	83.44
494.703	89.44
494.92	98.44
495.138	104.44
495.355	91.44
495.573	95.44
495.79	90.44
496.008	93.44
496.225	98.44
496.442	87.44
496.66	97.44
496.877	100.44
497.094	92.44
497.312	82.44
497.529	97.44
497.746	86.44
497.963	73.44
498.181	79.44
498.398	89.44
498.615	105.44
498.832	118.44
499.049	87.44
499.267	109.44
499.484	91.44
499.701	101.44
499.918	104.44
500.135	98.44
500.352	87.44
500.569	90.44
500.786	109.44
501.003	92.44
501.22	108.44
501.437	99.44
501.654	101.44
501.871	97.44
502.088	87.44
502.305	81.44
502.522	85.44
502.739	95.44
502.956	100.44
503.172	111.44
503.389	98.44
503.606	105.44
503.823	91.44
504.04	76.44
504.256	98.44
504.473	87.44
504.69	94.44
504.907	98.44
505.123	99.44
505.34	91.44
505.557	87.44
505.773	97.44
505.99	94.44
506.207	101.44
506.423	93.44
506.64	102.44
506.856	85.44
507.073	82.44
507.289	83.44
507.506	102.44
507.722	100.44
507.939	96.44
508.155	98.44
508.372	97.44
508.588	100.44
508.805	102.44
509.021	99.44
509.238	104.44
509.454	89.44
509.67	94.44
509.887	125.44
510.103	146.44
510.319	228.44
510.536	831.44
510.752	2678.44
510.968	737.44
511.184	176.44
511.401	111.44
511.617	104.44
511.833	95.44
512.049	89.44
512.265	94.44
512.481	102.44
512.698	84.44
512.914	103.44
513.13	93.44
513.346	86.44
513.562	76.44
513.778	89.44
513.994	91.44
514.21	100.44
514.426	113.44
514.642	144.44
514.858	129.44
515.074	168.44
