Data from Uncirc_2003_H10_HRD10591_00013.txt Node
Date: Wed Jan 03 10:35:50 EST 2024
User: Yrep
Spectrometer: HR+D1059
Trigger mode: 1
Integration Time (sec): 1.000000E-1
Scans to average: 1
Electric dark correction enabled: true
Nonlinearity correction enabled: false
Boxcar width: 0
XAxis mode: Wavelengths
Number of Pixels in Spectrum: 2048
>>>>>Begin Spectral Data<<<<<
223.165	-14.88
223.4	-14.88
223.635	-14.88
223.869	-12.88
224.104	-20.88
224.338	-5.88
224.573	-9.88
224.808	-20.88
225.042	-12.88
225.277	-8.88
225.511	-12.88
225.746	-6.88
225.98	19.12
226.215	6.12
226.449	16.12
226.683	21.12
226.918	29.12
227.152	35.12
227.387	37.12
227.621	32.12
227.856	30.12
228.09	56.12
228.324	44.12
228.559	68.12
228.793	53.12
229.027	63.12
229.262	62.12
229.496	65.12
229.73	82.12
229.964	87.12
230.199	80.12
230.433	77.12
230.667	92.12
230.901	71.12
231.136	70.12
231.37	78.12
231.604	80.12
231.838	71.12
232.072	79.12
232.306	90.12
232.541	79.12
232.775	85.12
233.009	77.12
233.243	105.12
233.477	83.12
233.711	84.12
233.945	101.12
234.179	71.12
234.413	88.12
234.647	83.12
234.881	71.12
235.115	81.12
235.349	85.12
235.583	84.12
235.817	87.12
236.051	83.12
236.285	80.12
236.519	77.12
236.753	70.12
236.987	88.12
237.221	82.12
237.455	75.12
237.689	88.12
237.922	78.12
238.156	75.12
238.39	54.12
238.624	80.12
238.858	83.12
239.091	73.12
239.325	96.12
239.559	92.12
239.793	87.12
240.027	80.12
240.26	89.12
240.494	72.12
240.728	90.12
240.961	63.12
241.195	84.12
241.429	84.12
241.662	80.12
241.896	83.12
242.13	85.12
242.363	81.12
242.597	82.12
242.83	86.12
243.064	76.12
243.298	89.12
243.531	75.12
243.765	80.12
243.998	84.12
244.232	79.12
244.465	91.12
244.699	80.12
244.932	79.12
245.166	74.12
245.399	76.12
245.633	89.12
245.866	80.12
246.099	83.12
246.333	77.12
246.566	82.12
246.8	71.12
247.033	71.12
247.266	76.12
247.5	81.12
247.733	82.12
247.966	88.12
248.2	85.12
248.433	74.12
248.666	92.12
248.899	81.12
249.133	97.12
249.366	103.12
249.599	95.12
249.832	87.12
250.066	84.12
250.299	70.12
250.532	84.12
250.765	78.12
250.998	86.12
251.231	74.12
251.465	91.12
251.698	65.12
251.931	77.12
252.164	84.12
252.397	89.12
252.63	74.12
252.863	57.12
253.096	85.12
253.329	93.12
253.562	81.12
253.795	86.12
254.028	85.12
254.261	85.12
254.494	97.12
254.727	85.12
254.96	73.12
255.193	75.12
255.426	69.12
255.659	87.12
255.892	86.12
256.124	80.12
256.357	89.12
256.59	86.12
256.823	89.12
257.056	91.12
257.289	77.12
257.521	93.12
257.754	92.12
257.987	73.12
258.22	72.12
258.452	87.12
258.685	74.12
258.918	90.12
259.151	93.12
259.383	90.12
259.616	85.12
259.849	79.12
260.081	75.12
260.314	87.12
260.547	92.12
260.779	79.12
261.012	85.12
261.244	67.12
261.477	88.12
261.71	89.12
261.942	106.12
262.175	121.12
262.407	97.12
262.64	92.12
262.872	85.12
263.105	81.12
263.337	83.12
263.57	89.12
263.802	87.12
264.035	77.12
264.267	87.12
264.499	82.12
264.732	79.12
264.964	84.12
265.197	87.12
265.429	93.12
265.661	79.12
265.894	79.12
266.126	88.12
266.358	80.12
266.591	91.12
266.823	82.12
267.055	76.12
267.287	72.12
267.52	79.12
267.752	75.12
267.984	91.12
268.216	80.12
268.448	89.12
268.681	76.12
268.913	90.12
269.145	83.12
269.377	85.12
269.609	103.12
269.841	86.12
270.073	93.12
270.306	86.12
270.538	107.12
270.77	84.12
271.002	92.12
271.234	73.12
271.466	90.12
271.698	84.12
271.93	96.12
272.162	69.12
272.394	103.12
272.626	91.12
272.858	92.12
273.09	86.12
273.322	88.12
273.553	84.12
273.785	91.12
274.017	90.12
274.249	86.12
274.481	74.12
274.713	89.12
274.945	110.12
275.176	96.12
275.408	83.12
275.64	84.12
275.872	93.12
276.104	92.12
276.335	92.12
276.567	96.12
276.799	124.12
277.031	102.12
277.262	103.12
277.494	93.12
277.726	93.12
277.957	84.12
278.189	99.12
278.421	103.12
278.652	91.12
278.884	84.12
279.115	89.12
279.347	92.12
279.579	97.12
279.81	95.12
280.042	93.12
280.273	90.12
280.505	86.12
280.736	78.12
280.968	83.12
281.199	94.12
281.431	92.12
281.662	83.12
281.894	80.12
282.125	90.12
282.356	109.12
282.588	127.12
282.819	114.12
283.051	99.12
283.282	79.12
283.513	103.12
283.745	91.12
283.976	78.12
284.207	93.12
284.439	92.12
284.67	97.12
284.901	99.12
285.132	101.12
285.364	93.12
285.595	81.12
285.826	94.12
286.057	91.12
286.288	75.12
286.52	90.12
286.751	84.12
286.982	90.12
287.213	100.12
287.444	82.12
287.675	97.12
287.906	87.12
288.138	95.12
288.369	84.12
288.6	94.12
288.831	92.12
289.062	96.12
289.293	97.12
289.524	80.12
289.755	96.12
289.986	105.12
290.217	97.12
290.448	85.12
290.679	103.12
290.91	91.12
291.141	87.12
291.371	92.12
291.602	81.12
291.833	95.12
292.064	81.12
292.295	97.12
292.526	115.12
292.757	92.12
292.987	80.12
293.218	95.12
293.449	76.12
293.68	85.12
293.91	89.12
294.141	92.12
294.372	97.12
294.603	97.12
294.833	96.12
295.064	85.12
295.295	86.12
295.525	96.12
295.756	100.12
295.987	107.12
296.217	135.12
296.448	121.12
296.679	92.12
296.909	89.12
297.14	81.12
297.37	92.12
297.601	82.12
297.831	97.12
298.062	97.12
298.292	93.12
298.523	86.12
298.753	100.12
298.984	92.12
299.214	94.12
299.445	99.12
299.675	86.12
299.905	92.12
300.136	100.12
300.366	104.12
300.597	95.12
300.827	97.12
301.057	114.12
301.288	93.12
301.518	98.12
301.748	101.12
301.979	93.12
302.209	96.12
302.439	90.12
302.669	88.12
302.9	103.12
303.13	98.12
303.36	108.12
303.59	104.12
303.82	85.12
304.051	105.12
304.281	83.12
304.511	96.12
304.741	87.12
304.971	95.12
305.201	95.12
305.431	100.12
305.661	96.12
305.891	91.12
306.121	82.12
306.352	100.12
306.582	103.12
306.812	102.12
307.042	92.12
307.272	97.12
307.502	95.12
307.731	89.12
307.961	88.12
308.191	104.12
308.421	92.12
308.651	90.12
308.881	92.12
309.111	92.12
309.341	98.12
309.571	105.12
309.8	87.12
310.03	106.12
310.26	96.12
310.49	96.12
310.72	96.12
310.949	102.12
311.179	106.12
311.409	99.12
311.639	96.12
311.868	102.12
312.098	91.12
312.328	92.12
312.557	100.12
312.787	90.12
313.017	98.12
313.246	89.12
313.476	104.12
313.706	93.12
313.935	92.12
314.165	92.12
314.394	100.12
314.624	105.12
314.853	103.12
315.083	84.12
315.312	100.12
315.542	89.12
315.771	84.12
316.001	91.12
316.23	100.12
316.46	93.12
316.689	104.12
316.919	100.12
317.148	77.12
317.377	84.12
317.607	96.12
317.836	96.12
318.065	92.12
318.295	100.12
318.524	93.12
318.753	112.12
318.983	87.12
319.212	99.12
319.441	111.12
319.67	97.12
319.9	100.12
320.129	105.12
320.358	85.12
320.587	98.12
320.816	85.12
321.046	96.12
321.275	90.12
321.504	96.12
321.733	105.12
321.962	112.12
322.191	105.12
322.42	107.12
322.649	108.12
322.878	112.12
323.108	112.12
323.337	138.12
323.566	136.12
323.795	163.12
324.024	237.12
324.253	429.12
324.482	947.12
324.71	1929.12
324.939	2578.12
325.168	899.12
325.397	262.12
325.626	165.12
325.855	127.12
326.084	132.12
326.313	141.12
326.542	155.12
326.77	255.12
326.999	507.12
327.228	1038.12
327.457	1976.12
327.686	1563.12
327.914	415.12
328.143	192.12
328.372	145.12
328.6	146.12
328.829	127.12
329.058	114.12
329.287	116.12
329.515	100.12
329.744	102.12
329.972	112.12
330.201	103.12
330.43	102.12
330.658	113.12
330.887	124.12
331.115	114.12
331.344	109.12
331.572	108.12
331.801	116.12
332.03	93.12
332.258	96.12
332.486	100.12
332.715	92.12
332.943	101.12
333.172	92.12
333.4	108.12
333.629	107.12
333.857	115.12
334.085	119.12
334.314	96.12
334.542	98.12
334.771	111.12
334.999	107.12
335.227	77.12
335.455	89.12
335.684	108.12
335.912	95.12
336.14	98.12
336.369	108.12
336.597	97.12
336.825	90.12
337.053	115.12
337.281	93.12
337.51	111.12
337.738	115.12
337.966	100.12
338.194	100.12
338.422	95.12
338.65	106.12
338.878	92.12
339.106	94.12
339.334	78.12
339.562	89.12
339.79	98.12
340.018	83.12
340.246	91.12
340.474	84.12
340.702	111.12
340.93	82.12
341.158	98.12
341.386	98.12
341.614	84.12
341.842	96.12
342.07	90.12
342.298	99.12
342.526	89.12
342.754	81.12
342.981	79.12
343.209	82.12
343.437	108.12
343.665	85.12
343.893	91.12
344.12	93.12
344.348	90.12
344.576	97.12
344.804	103.12
345.031	92.12
345.259	85.12
345.487	91.12
345.714	96.12
345.942	89.12
346.17	99.12
346.397	105.12
346.625	101.12
346.853	100.12
347.08	83.12
347.308	100.12
347.535	95.12
347.763	105.12
347.99	90.12
348.218	104.12
348.445	104.12
348.673	89.12
348.9	100.12
349.128	83.12
349.355	93.12
349.583	104.12
349.81	97.12
350.037	96.12
350.265	92.12
350.492	89.12
350.72	101.12
350.947	106.12
351.174	97.12
351.402	114.12
351.629	107.12
351.856	110.12
352.083	108.12
352.311	123.12
352.538	114.12
352.765	104.12
352.992	117.12
353.22	100.12
353.447	114.12
353.674	108.12
353.901	94.12
354.128	88.12
354.355	100.12
354.583	89.12
354.81	76.12
355.037	92.12
355.264	95.12
355.491	90.12
355.718	95.12
355.945	85.12
356.172	95.12
356.399	92.12
356.626	97.12
356.853	111.12
357.08	100.12
357.307	102.12
357.534	93.12
357.761	92.12
357.988	95.12
358.215	113.12
358.441	90.12
358.668	92.12
358.895	93.12
359.122	104.12
359.349	92.12
359.576	86.12
359.802	105.12
360.029	125.12
360.256	108.12
360.483	81.12
360.709	105.12
360.936	94.12
361.163	85.12
361.39	96.12
361.616	95.12
361.843	86.12
362.07	108.12
362.296	86.12
362.523	91.12
362.749	98.12
362.976	96.12
363.203	84.12
363.429	93.12
363.656	98.12
363.882	79.12
364.109	81.12
364.335	78.12
364.562	95.12
364.788	91.12
365.015	91.12
365.241	99.12
365.468	102.12
365.694	105.12
365.92	109.12
366.147	104.12
366.373	93.12
366.599	81.12
366.826	88.12
367.052	88.12
367.278	87.12
367.505	92.12
367.731	97.12
367.957	91.12
368.184	96.12
368.41	104.12
368.636	112.12
368.862	131.12
369.089	108.12
369.315	93.12
369.541	92.12
369.767	97.12
369.993	111.12
370.219	92.12
370.445	79.12
370.672	92.12
370.898	93.12
371.124	96.12
371.35	84.12
371.576	90.12
371.802	82.12
372.028	85.12
372.254	86.12
372.48	86.12
372.706	82.12
372.932	99.12
373.158	92.12
373.384	93.12
373.61	100.12
373.835	105.12
374.061	99.12
374.287	87.12
374.513	97.12
374.739	85.12
374.965	88.12
375.191	109.12
375.416	85.12
375.642	98.12
375.868	106.12
376.094	96.12
376.319	87.12
376.545	107.12
376.771	93.12
376.997	100.12
377.222	106.12
377.448	96.12
377.674	91.12
377.899	92.12
378.125	86.12
378.35	80.12
378.576	100.12
378.802	92.12
379.027	97.12
379.253	76.12
379.478	78.12
379.704	91.12
379.929	97.12
380.155	105.12
380.38	87.12
380.606	96.12
380.831	106.12
381.057	97.12
381.282	97.12
381.507	97.12
381.733	93.12
381.958	110.12
382.184	111.12
382.409	94.12
382.634	98.12
382.86	114.12
383.085	96.12
383.31	107.12
383.535	99.12
383.761	116.12
383.986	115.12
384.211	99.12
384.436	90.12
384.662	113.12
384.887	109.12
385.112	105.12
385.337	104.12
385.562	104.12
385.787	108.12
386.013	113.12
386.238	109.12
386.463	115.12
386.688	121.12
386.913	110.12
387.138	109.12
387.363	109.12
387.588	105.12
387.813	106.12
388.038	103.12
388.263	126.12
388.488	116.12
388.713	90.12
388.938	104.12
389.163	96.12
389.387	100.12
389.612	79.12
389.837	92.12
390.062	79.12
390.287	93.12
390.512	103.12
390.736	98.12
390.961	82.12
391.186	98.12
391.411	87.12
391.636	77.12
391.86	96.12
392.085	91.12
392.31	84.12
392.534	79.12
392.759	90.12
392.984	88.12
393.208	91.12
393.433	87.12
393.658	96.12
393.882	88.12
394.107	81.12
394.331	96.12
394.556	76.12
394.78	98.12
395.005	95.12
395.229	98.12
395.454	78.12
395.678	92.12
395.903	89.12
396.127	75.12
396.352	87.12
396.576	87.12
396.801	99.12
397.025	85.12
397.249	96.12
397.474	88.12
397.698	85.12
397.922	89.12
398.147	96.12
398.371	85.12
398.595	96.12
398.82	84.12
399.044	92.12
399.268	90.12
399.492	90.12
399.717	92.12
399.941	83.12
400.165	95.12
400.389	85.12
400.613	96.12
400.837	88.12
401.062	85.12
401.286	91.12
401.51	92.12
401.734	88.12
401.958	99.12
402.182	129.12
402.406	154.12
402.63	108.12
402.854	96.12
403.078	100.12
403.302	83.12
403.526	97.12
403.75	92.12
403.974	83.12
404.198	78.12
404.422	100.12
404.645	98.12
404.869	90.12
405.093	87.12
405.317	100.12
405.541	94.12
405.765	100.12
405.988	111.12
406.212	170.12
406.436	228.12
406.66	157.12
406.883	113.12
407.107	100.12
407.331	90.12
407.555	85.12
407.778	91.12
408.002	86.12
408.226	98.12
408.449	98.12
408.673	92.12
408.896	103.12
409.12	88.12
409.344	100.12
409.567	93.12
409.791	93.12
410.014	96.12
410.238	100.12
410.461	92.12
410.685	85.12
410.908	92.12
411.132	106.12
411.355	99.12
411.578	89.12
411.802	93.12
412.025	82.12
412.249	76.12
412.472	79.12
412.695	82.12
412.919	83.12
413.142	99.12
413.365	89.12
413.589	95.12
413.812	102.12
414.035	87.12
414.258	98.12
414.482	96.12
414.705	74.12
414.928	91.12
415.151	86.12
415.374	83.12
415.597	92.12
415.821	90.12
416.044	88.12
416.267	99.12
416.49	100.12
416.713	98.12
416.936	103.12
417.159	87.12
417.382	92.12
417.605	97.12
417.828	91.12
418.051	88.12
418.274	89.12
418.497	94.12
418.72	84.12
418.943	84.12
419.166	103.12
419.389	102.12
419.611	92.12
419.834	91.12
420.057	85.12
420.28	89.12
420.503	89.12
420.726	88.12
420.948	94.12
421.171	97.12
421.394	96.12
421.617	94.12
421.839	92.12
422.062	95.12
422.285	113.12
422.507	98.12
422.73	99.12
422.953	93.12
423.175	84.12
423.398	93.12
423.621	92.12
423.843	96.12
424.066	93.12
424.288	90.12
424.511	77.12
424.733	103.12
424.956	95.12
425.178	96.12
425.401	109.12
425.623	93.12
425.846	98.12
426.068	98.12
426.291	88.12
426.513	91.12
426.735	112.12
426.958	98.12
427.18	108.12
427.402	145.12
427.625	165.12
427.847	127.12
428.069	106.12
428.292	95.12
428.514	83.12
428.736	88.12
428.958	97.12
429.181	81.12
429.403	84.12
429.625	86.12
429.847	101.12
430.069	111.12
430.292	97.12
430.514	83.12
430.736	99.12
430.958	89.12
431.18	84.12
431.402	73.12
431.624	85.12
431.846	83.12
432.068	92.12
432.29	89.12
432.512	91.12
432.734	88.12
432.956	79.12
433.178	105.12
433.4	111.12
433.622	76.12
433.844	84.12
434.066	84.12
434.287	88.12
434.509	86.12
434.731	106.12
434.953	95.12
435.175	93.12
435.397	92.12
435.618	102.12
435.84	94.12
436.062	130.12
436.284	111.12
436.505	96.12
436.727	115.12
436.949	89.12
437.17	88.12
437.392	93.12
437.614	99.12
437.835	113.12
438.057	106.12
438.278	114.12
438.5	115.12
438.721	127.12
438.943	111.12
439.165	90.12
439.386	83.12
439.608	91.12
439.829	99.12
440.05	110.12
440.272	147.12
440.493	94.12
440.715	93.12
440.936	95.12
441.158	95.12
441.379	84.12
441.6	73.12
441.822	90.12
442.043	95.12
442.264	110.12
442.486	109.12
442.707	95.12
442.928	95.12
443.149	127.12
443.371	119.12
443.592	108.12
443.813	104.12
444.034	106.12
444.255	90.12
444.476	80.12
444.698	98.12
444.919	84.12
445.14	129.12
445.361	120.12
445.582	104.12
445.803	129.12
446.024	120.12
446.245	151.12
446.466	98.12
446.687	94.12
446.908	88.12
447.129	108.12
447.35	97.12
447.571	104.12
447.792	85.12
448.013	96.12
448.234	107.12
448.455	110.12
448.675	114.12
448.896	115.12
449.117	104.12
449.338	114.12
449.559	127.12
449.779	123.12
450	92.12
450.221	85.12
450.442	95.12
450.662	106.12
450.883	104.12
451.104	115.12
451.324	92.12
451.545	93.12
451.766	102.12
451.986	76.12
452.207	105.12
452.428	96.12
452.648	92.12
452.869	114.12
453.089	112.12
453.31	108.12
453.53	92.12
453.751	81.12
453.971	100.12
454.192	113.12
454.412	91.12
454.633	85.12
454.853	84.12
455.073	97.12
455.294	87.12
455.514	98.12
455.734	91.12
455.955	85.12
456.175	80.12
456.395	102.12
456.616	103.12
456.836	73.12
457.056	72.12
457.276	81.12
457.497	79.12
457.717	81.12
457.937	93.12
458.157	90.12
458.377	96.12
458.598	114.12
458.818	137.12
459.038	140.12
459.258	105.12
459.478	79.12
459.698	87.12
459.918	82.12
460.138	87.12
460.358	91.12
460.578	88.12
460.798	77.12
461.018	74.12
461.238	82.12
461.458	82.12
461.678	86.12
461.898	79.12
462.118	88.12
462.338	91.12
462.558	95.12
462.777	93.12
462.997	92.12
463.217	94.12
463.437	86.12
463.657	85.12
463.876	81.12
464.096	95.12
464.316	92.12
464.536	94.12
464.755	95.12
464.975	111.12
465.195	156.12
465.414	156.12
465.634	96.12
465.854	86.12
466.073	93.12
466.293	97.12
466.512	82.12
466.732	93.12
466.951	88.12
467.171	85.12
467.391	90.12
467.61	112.12
467.829	93.12
468.049	78.12
468.268	95.12
468.488	92.12
468.707	89.12
468.927	76.12
469.146	90.12
469.365	94.12
469.585	96.12
469.804	108.12
470.023	98.12
470.243	79.12
470.462	104.12
470.681	115.12
470.901	76.12
471.12	103.12
471.339	93.12
471.558	96.12
471.777	79.12
471.997	91.12
472.216	85.12
472.435	95.12
472.654	82.12
472.873	98.12
473.092	84.12
473.311	103.12
473.53	77.12
473.749	82.12
473.968	85.12
474.187	100.12
474.406	109.12
474.625	83.12
474.844	92.12
475.063	92.12
475.282	84.12
475.501	92.12
475.72	86.12
475.939	97.12
476.158	81.12
476.377	77.12
476.596	92.12
476.814	103.12
477.033	93.12
477.252	103.12
477.471	90.12
477.69	100.12
477.908	96.12
478.127	91.12
478.346	81.12
478.564	86.12
478.783	113.12
479.002	100.12
479.22	104.12
479.439	102.12
479.658	103.12
479.876	98.12
480.095	87.12
480.313	94.12
480.532	91.12
480.751	93.12
480.969	90.12
481.188	90.12
481.406	88.12
481.624	101.12
481.843	96.12
482.061	96.12
482.28	88.12
482.498	99.12
482.717	83.12
482.935	90.12
483.153	92.12
483.372	76.12
483.59	81.12
483.808	114.12
484.027	96.12
484.245	82.12
484.463	95.12
484.681	97.12
484.9	91.12
485.118	100.12
485.336	101.12
485.554	102.12
485.772	101.12
485.99	106.12
486.209	93.12
486.427	117.12
486.645	113.12
486.863	103.12
487.081	110.12
487.299	87.12
487.517	93.12
487.735	88.12
487.953	92.12
488.171	94.12
488.389	100.12
488.607	114.12
488.825	80.12
489.043	90.12
489.261	95.12
489.479	90.12
489.696	97.12
489.914	96.12
490.132	93.12
490.35	95.12
490.568	91.12
490.786	80.12
491.003	102.12
491.221	91.12
491.439	82.12
491.657	103.12
491.874	86.12
492.092	99.12
492.31	95.12
492.527	96.12
492.745	89.12
492.963	91.12
493.18	98.12
493.398	93.12
493.615	101.12
493.833	108.12
494.05	93.12
494.268	97.12
494.485	88.12
494.703	102.12
494.92	86.12
495.138	75.12
495.355	91.12
495.573	90.12
495.79	101.12
496.008	99.12
496.225	93.12
496.442	94.12
496.66	110.12
496.877	101.12
497.094	94.12
497.312	88.12
497.529	87.12
497.746	83.12
497.963	103.12
498.181	92.12
498.398	98.12
498.615	101.12
498.832	112.12
499.049	91.12
499.267	90.12
499.484	81.12
499.701	104.12
499.918	103.12
500.135	93.12
500.352	100.12
500.569	93.12
500.786	98.12
501.003	91.12
501.22	95.12
501.437	105.12
501.654	83.12
501.871	116.12
502.088	99.12
502.305	79.12
502.522	94.12
502.739	103.12
502.956	85.12
503.172	91.12
503.389	82.12
503.606	107.12
503.823	114.12
504.04	91.12
504.256	94.12
504.473	81.12
504.69	103.12
504.907	92.12
505.123	84.12
505.34	87.12
505.557	89.12
505.773	104.12
505.99	95.12
506.207	98.12
506.423	100.12
506.64	95.12
506.856	95.12
507.073	97.12
507.289	97.12
507.506	109.12
507.722	127.12
507.939	129.12
508.155	106.12
508.372	95.12
508.588	93.12
508.805	91.12
509.021	97.12
509.238	97.12
509.454	102.12
509.67	91.12
509.887	119.12
510.103	141.12
510.319	217.12
510.536	810.12
510.752	2513.12
510.968	691.12
511.184	161.12
511.401	123.12
511.617	93.12
511.833	97.12
512.049	99.12
512.265	95.12
512.481	99.12
512.698	101.12
512.914	96.12
513.13	99.12
513.346	100.12
513.562	101.12
513.778	92.12
513.994	89.12
514.21	81.12
514.426	115.12
514.642	132.12
514.858	139.12
