Data from Uncirc_2003_H10_HRD10591_00004.txt Node
Date: Wed Jan 03 10:35:48 EST 2024
User: Yrep
Spectrometer: HR+D1059
Trigger mode: 1
Integration Time (sec): 1.000000E-1
Scans to average: 1
Electric dark correction enabled: true
Nonlinearity correction enabled: false
Boxcar width: 0
XAxis mode: Wavelengths
Number of Pixels in Spectrum: 2048
>>>>>Begin Spectral Data<<<<<
223.165	-15.75
223.4	-15.75
223.635	-15.75
223.869	-16.75
224.104	-20.75
224.338	-11.75
224.573	-14.75
224.808	-6.75
225.042	4.25
225.277	-1.75
225.511	-1.75
225.746	-2.75
225.98	7.25
226.215	5.25
226.449	9.25
226.683	10.25
226.918	24.25
227.152	32.25
227.387	39.25
227.621	47.25
227.856	40.25
228.09	50.25
228.324	42.25
228.559	47.25
228.793	60.25
229.027	65.25
229.262	59.25
229.496	78.25
229.73	92.25
229.964	79.25
230.199	76.25
230.433	63.25
230.667	66.25
230.901	82.25
231.136	91.25
231.37	82.25
231.604	74.25
231.838	74.25
232.072	85.25
232.306	92.25
232.541	78.25
232.775	67.25
233.009	85.25
233.243	85.25
233.477	79.25
233.711	64.25
233.945	74.25
234.179	72.25
234.413	84.25
234.647	85.25
234.881	79.25
235.115	64.25
235.349	73.25
235.583	97.25
235.817	82.25
236.051	66.25
236.285	67.25
236.519	76.25
236.753	75.25
236.987	81.25
237.221	62.25
237.455	73.25
237.689	96.25
237.922	87.25
238.156	79.25
238.39	69.25
238.624	67.25
238.858	76.25
239.091	55.25
239.325	65.25
239.559	79.25
239.793	88.25
240.027	80.25
240.26	89.25
240.494	87.25
240.728	74.25
240.961	73.25
241.195	95.25
241.429	80.25
241.662	77.25
241.896	82.25
242.13	55.25
242.363	84.25
242.597	82.25
242.83	65.25
243.064	71.25
243.298	63.25
243.531	69.25
243.765	82.25
243.998	90.25
244.232	86.25
244.465	75.25
244.699	80.25
244.932	86.25
245.166	77.25
245.399	71.25
245.633	85.25
245.866	84.25
246.099	67.25
246.333	79.25
246.566	88.25
246.8	79.25
247.033	83.25
247.266	89.25
247.5	66.25
247.733	82.25
247.966	79.25
248.2	78.25
248.433	62.25
248.666	80.25
248.899	86.25
249.133	93.25
249.366	99.25
249.599	88.25
249.832	83.25
250.066	84.25
250.299	67.25
250.532	72.25
250.765	74.25
250.998	70.25
251.231	85.25
251.465	91.25
251.698	78.25
251.931	74.25
252.164	76.25
252.397	70.25
252.63	88.25
252.863	74.25
253.096	76.25
253.329	83.25
253.562	85.25
253.795	79.25
254.028	71.25
254.261	88.25
254.494	83.25
254.727	74.25
254.96	91.25
255.193	80.25
255.426	78.25
255.659	78.25
255.892	80.25
256.124	70.25
256.357	73.25
256.59	82.25
256.823	89.25
257.056	87.25
257.289	84.25
257.521	76.25
257.754	78.25
257.987	78.25
258.22	85.25
258.452	67.25
258.685	80.25
258.918	86.25
259.151	82.25
259.383	81.25
259.616	93.25
259.849	89.25
260.081	99.25
260.314	87.25
260.547	82.25
260.779	78.25
261.012	70.25
261.244	77.25
261.477	84.25
261.71	92.25
261.942	100.25
262.175	92.25
262.407	78.25
262.64	81.25
262.872	81.25
263.105	86.25
263.337	80.25
263.57	85.25
263.802	81.25
264.035	76.25
264.267	91.25
264.499	66.25
264.732	76.25
264.964	73.25
265.197	83.25
265.429	95.25
265.661	100.25
265.894	79.25
266.126	72.25
266.358	83.25
266.591	92.25
266.823	77.25
267.055	75.25
267.287	71.25
267.52	76.25
267.752	92.25
267.984	79.25
268.216	83.25
268.448	80.25
268.681	87.25
268.913	69.25
269.145	84.25
269.377	82.25
269.609	85.25
269.841	90.25
270.073	84.25
270.306	88.25
270.538	93.25
270.77	72.25
271.002	84.25
271.234	82.25
271.466	89.25
271.698	84.25
271.93	80.25
272.162	90.25
272.394	82.25
272.626	90.25
272.858	81.25
273.09	81.25
273.322	70.25
273.553	72.25
273.785	78.25
274.017	69.25
274.249	84.25
274.481	94.25
274.713	84.25
274.945	86.25
275.176	78.25
275.408	81.25
275.64	88.25
275.872	94.25
276.104	96.25
276.335	97.25
276.567	94.25
276.799	102.25
277.031	82.25
277.262	94.25
277.494	88.25
277.726	91.25
277.957	84.25
278.189	83.25
278.421	74.25
278.652	82.25
278.884	99.25
279.115	90.25
279.347	89.25
279.579	81.25
279.81	81.25
280.042	98.25
280.273	83.25
280.505	81.25
280.736	85.25
280.968	77.25
281.199	86.25
281.431	97.25
281.662	92.25
281.894	87.25
282.125	93.25
282.356	112.25
282.588	118.25
282.819	97.25
283.051	100.25
283.282	90.25
283.513	87.25
283.745	89.25
283.976	104.25
284.207	89.25
284.439	84.25
284.67	80.25
284.901	96.25
285.132	96.25
285.364	94.25
285.595	94.25
285.826	85.25
286.057	82.25
286.288	77.25
286.52	91.25
286.751	72.25
286.982	89.25
287.213	88.25
287.444	83.25
287.675	90.25
287.906	89.25
288.138	72.25
288.369	88.25
288.6	90.25
288.831	91.25
289.062	92.25
289.293	100.25
289.524	73.25
289.755	76.25
289.986	83.25
290.217	83.25
290.448	88.25
290.679	82.25
290.91	80.25
291.141	87.25
291.371	79.25
291.602	84.25
291.833	89.25
292.064	96.25
292.295	80.25
292.526	70.25
292.757	80.25
292.987	89.25
293.218	92.25
293.449	100.25
293.68	90.25
293.91	91.25
294.141	94.25
294.372	87.25
294.603	95.25
294.833	68.25
295.064	73.25
295.295	78.25
295.525	87.25
295.756	84.25
295.987	114.25
296.217	119.25
296.448	128.25
296.679	82.25
296.909	99.25
297.14	90.25
297.37	85.25
297.601	103.25
297.831	83.25
298.062	87.25
298.292	96.25
298.523	87.25
298.753	76.25
298.984	87.25
299.214	93.25
299.445	84.25
299.675	86.25
299.905	82.25
300.136	88.25
300.366	75.25
300.597	92.25
300.827	89.25
301.057	89.25
301.288	111.25
301.518	98.25
301.748	87.25
301.979	100.25
302.209	97.25
302.439	83.25
302.669	90.25
302.9	63.25
303.13	89.25
303.36	90.25
303.59	106.25
303.82	97.25
304.051	84.25
304.281	90.25
304.511	82.25
304.741	90.25
304.971	86.25
305.201	95.25
305.431	93.25
305.661	91.25
305.891	85.25
306.121	85.25
306.352	93.25
306.582	95.25
306.812	90.25
307.042	99.25
307.272	82.25
307.502	76.25
307.731	90.25
307.961	88.25
308.191	81.25
308.421	88.25
308.651	86.25
308.881	100.25
309.111	92.25
309.341	84.25
309.571	107.25
309.8	100.25
310.03	95.25
310.26	81.25
310.49	82.25
310.72	85.25
310.949	89.25
311.179	90.25
311.409	109.25
311.639	102.25
311.868	91.25
312.098	84.25
312.328	97.25
312.557	106.25
312.787	103.25
313.017	97.25
313.246	97.25
313.476	84.25
313.706	71.25
313.935	98.25
314.165	102.25
314.394	106.25
314.624	93.25
314.853	95.25
315.083	85.25
315.312	79.25
315.542	103.25
315.771	98.25
316.001	82.25
316.23	98.25
316.46	72.25
316.689	83.25
316.919	84.25
317.148	81.25
317.377	93.25
317.607	92.25
317.836	95.25
318.065	82.25
318.295	87.25
318.524	95.25
318.753	85.25
318.983	97.25
319.212	104.25
319.441	100.25
319.67	94.25
319.9	91.25
320.129	89.25
320.358	82.25
320.587	68.25
320.816	83.25
321.046	92.25
321.275	90.25
321.504	92.25
321.733	110.25
321.962	97.25
322.191	114.25
322.42	96.25
322.649	107.25
322.878	104.25
323.108	110.25
323.337	117.25
323.566	134.25
323.795	153.25
324.024	198.25
324.253	383.25
324.482	828.25
324.71	1698.25
324.939	2262.25
325.168	819.25
325.397	241.25
325.626	156.25
325.855	144.25
326.084	133.25
326.313	124.25
326.542	156.25
326.77	231.25
326.999	449.25
327.228	969.25
327.457	1743.25
327.686	1353.25
327.914	367.25
328.143	172.25
328.372	136.25
328.6	121.25
328.829	135.25
329.058	130.25
329.287	117.25
329.515	99.25
329.744	101.25
329.972	88.25
330.201	90.25
330.43	93.25
330.658	109.25
330.887	114.25
331.115	111.25
331.344	87.25
331.572	93.25
331.801	94.25
332.03	90.25
332.258	85.25
332.486	100.25
332.715	81.25
332.943	99.25
333.172	101.25
333.4	86.25
333.629	111.25
333.857	112.25
334.085	98.25
334.314	89.25
334.542	86.25
334.771	94.25
334.999	97.25
335.227	98.25
335.455	100.25
335.684	98.25
335.912	105.25
336.14	88.25
336.369	84.25
336.597	111.25
336.825	89.25
337.053	88.25
337.281	86.25
337.51	83.25
337.738	78.25
337.966	93.25
338.194	95.25
338.422	90.25
338.65	93.25
338.878	96.25
339.106	78.25
339.334	83.25
339.562	87.25
339.79	98.25
340.018	89.25
340.246	88.25
340.474	85.25
340.702	105.25
340.93	92.25
341.158	94.25
341.386	102.25
341.614	78.25
341.842	96.25
342.07	90.25
342.298	100.25
342.526	95.25
342.754	97.25
342.981	77.25
343.209	106.25
343.437	96.25
343.665	84.25
343.893	89.25
344.12	93.25
344.348	85.25
344.576	93.25
344.804	87.25
345.031	94.25
345.259	96.25
345.487	102.25
345.714	83.25
345.942	97.25
346.17	80.25
346.397	76.25
346.625	95.25
346.853	93.25
347.08	102.25
347.308	91.25
347.535	81.25
347.763	81.25
347.99	98.25
348.218	101.25
348.445	86.25
348.673	94.25
348.9	93.25
349.128	89.25
349.355	92.25
349.583	96.25
349.81	80.25
350.037	93.25
350.265	92.25
350.492	81.25
350.72	92.25
350.947	104.25
351.174	102.25
351.402	103.25
351.629	105.25
351.856	100.25
352.083	80.25
352.311	115.25
352.538	100.25
352.765	108.25
352.992	106.25
353.22	111.25
353.447	112.25
353.674	112.25
353.901	102.25
354.128	88.25
354.355	97.25
354.583	89.25
354.81	97.25
355.037	96.25
355.264	94.25
355.491	87.25
355.718	78.25
355.945	95.25
356.172	89.25
356.399	83.25
356.626	110.25
356.853	78.25
357.08	83.25
357.307	96.25
357.534	105.25
357.761	85.25
357.988	106.25
358.215	106.25
358.441	99.25
358.668	97.25
358.895	99.25
359.122	85.25
359.349	81.25
359.576	101.25
359.802	88.25
360.029	113.25
360.256	89.25
360.483	96.25
360.709	87.25
360.936	89.25
361.163	91.25
361.39	96.25
361.616	93.25
361.843	104.25
362.07	102.25
362.296	99.25
362.523	94.25
362.749	93.25
362.976	96.25
363.203	86.25
363.429	78.25
363.656	86.25
363.882	98.25
364.109	89.25
364.335	89.25
364.562	95.25
364.788	91.25
365.015	90.25
365.241	101.25
365.468	94.25
365.694	93.25
365.92	90.25
366.147	93.25
366.373	86.25
366.599	86.25
366.826	88.25
367.052	88.25
367.278	87.25
367.505	96.25
367.731	85.25
367.957	87.25
368.184	90.25
368.41	86.25
368.636	95.25
368.862	104.25
369.089	95.25
369.315	89.25
369.541	92.25
369.767	80.25
369.993	94.25
370.219	78.25
370.445	92.25
370.672	89.25
370.898	68.25
371.124	87.25
371.35	78.25
371.576	85.25
371.802	82.25
372.028	83.25
372.254	82.25
372.48	82.25
372.706	76.25
372.932	78.25
373.158	81.25
373.384	84.25
373.61	86.25
373.835	94.25
374.061	90.25
374.287	85.25
374.513	90.25
374.739	89.25
374.965	79.25
375.191	91.25
375.416	93.25
375.642	85.25
375.868	114.25
376.094	86.25
376.319	94.25
376.545	95.25
376.771	92.25
376.997	96.25
377.222	100.25
377.448	93.25
377.674	86.25
377.899	87.25
378.125	77.25
378.35	81.25
378.576	96.25
378.802	93.25
379.027	82.25
379.253	95.25
379.478	85.25
379.704	88.25
379.929	100.25
380.155	95.25
380.38	97.25
380.606	101.25
380.831	99.25
381.057	104.25
381.282	93.25
381.507	94.25
381.733	81.25
381.958	104.25
382.184	99.25
382.409	102.25
382.634	109.25
382.86	92.25
383.085	101.25
383.31	93.25
383.535	89.25
383.761	87.25
383.986	99.25
384.211	101.25
384.436	98.25
384.662	92.25
384.887	109.25
385.112	104.25
385.337	99.25
385.562	80.25
385.787	104.25
386.013	118.25
386.238	98.25
386.463	116.25
386.688	116.25
386.913	113.25
387.138	99.25
387.363	94.25
387.588	97.25
387.813	102.25
388.038	120.25
388.263	118.25
388.488	113.25
388.713	90.25
388.938	90.25
389.163	97.25
389.387	96.25
389.612	93.25
389.837	96.25
390.062	86.25
390.287	96.25
390.512	98.25
390.736	97.25
390.961	104.25
391.186	102.25
391.411	73.25
391.636	86.25
391.86	82.25
392.085	86.25
392.31	80.25
392.534	81.25
392.759	85.25
392.984	70.25
393.208	94.25
393.433	90.25
393.658	94.25
393.882	74.25
394.107	97.25
394.331	72.25
394.556	93.25
394.78	80.25
395.005	85.25
395.229	89.25
395.454	69.25
395.678	79.25
395.903	93.25
396.127	100.25
396.352	77.25
396.576	87.25
396.801	100.25
397.025	81.25
397.249	92.25
397.474	88.25
397.698	87.25
397.922	75.25
398.147	81.25
398.371	88.25
398.595	83.25
398.82	95.25
399.044	83.25
399.268	88.25
399.492	79.25
399.717	95.25
399.941	81.25
400.165	84.25
400.389	108.25
400.613	92.25
400.837	63.25
401.062	81.25
401.286	82.25
401.51	92.25
401.734	86.25
401.958	85.25
402.182	125.25
402.406	151.25
402.63	115.25
402.854	86.25
403.078	89.25
403.302	85.25
403.526	93.25
403.75	92.25
403.974	83.25
404.198	81.25
404.422	93.25
404.645	87.25
404.869	94.25
405.093	89.25
405.317	94.25
405.541	89.25
405.765	100.25
405.988	116.25
406.212	157.25
406.436	204.25
406.66	136.25
406.883	100.25
407.107	83.25
407.331	82.25
407.555	105.25
407.778	102.25
408.002	86.25
408.226	91.25
408.449	101.25
408.673	92.25
408.896	85.25
409.12	107.25
409.344	89.25
409.567	89.25
409.791	102.25
410.014	94.25
410.238	90.25
410.461	85.25
410.685	95.25
410.908	102.25
411.132	95.25
411.355	108.25
411.578	88.25
411.802	90.25
412.025	95.25
412.249	92.25
412.472	93.25
412.695	83.25
412.919	89.25
413.142	90.25
413.365	88.25
413.589	98.25
413.812	85.25
414.035	87.25
414.258	110.25
414.482	104.25
414.705	66.25
414.928	82.25
415.151	94.25
415.374	97.25
415.597	86.25
415.821	94.25
416.044	78.25
416.267	81.25
416.49	84.25
416.713	99.25
416.936	95.25
417.159	85.25
417.382	90.25
417.605	82.25
417.828	92.25
418.051	85.25
418.274	85.25
418.497	79.25
418.72	88.25
418.943	87.25
419.166	89.25
419.389	90.25
419.611	109.25
419.834	79.25
420.057	94.25
420.28	91.25
420.503	90.25
420.726	89.25
420.948	85.25
421.171	79.25
421.394	106.25
421.617	81.25
421.839	94.25
422.062	70.25
422.285	100.25
422.507	82.25
422.73	108.25
422.953	89.25
423.175	88.25
423.398	94.25
423.621	85.25
423.843	89.25
424.066	82.25
424.288	87.25
424.511	86.25
424.733	96.25
424.956	105.25
425.178	102.25
425.401	107.25
425.623	95.25
425.846	91.25
426.068	88.25
426.291	90.25
426.513	100.25
426.735	102.25
426.958	97.25
427.18	98.25
427.402	136.25
427.625	155.25
427.847	105.25
428.069	100.25
428.292	84.25
428.514	96.25
428.736	87.25
428.958	90.25
429.181	86.25
429.403	87.25
429.625	85.25
429.847	92.25
430.069	98.25
430.292	99.25
430.514	91.25
430.736	90.25
430.958	74.25
431.18	86.25
431.402	84.25
431.624	95.25
431.846	87.25
432.068	94.25
432.29	81.25
432.512	102.25
432.734	85.25
432.956	93.25
433.178	99.25
433.4	111.25
433.622	94.25
433.844	94.25
434.066	101.25
434.287	86.25
434.509	84.25
434.731	87.25
434.953	84.25
435.175	88.25
435.397	76.25
435.618	78.25
435.84	117.25
436.062	122.25
436.284	109.25
436.505	98.25
436.727	102.25
436.949	94.25
437.17	90.25
437.392	81.25
437.614	86.25
437.835	96.25
438.057	100.25
438.278	106.25
438.5	94.25
438.721	121.25
438.943	95.25
439.165	80.25
439.386	88.25
439.608	84.25
439.829	105.25
440.05	106.25
440.272	155.25
440.493	92.25
440.715	87.25
440.936	87.25
441.158	84.25
441.379	79.25
441.6	93.25
441.822	91.25
442.043	91.25
442.264	95.25
442.486	102.25
442.707	84.25
442.928	81.25
443.149	125.25
443.371	114.25
443.592	98.25
443.813	98.25
444.034	94.25
444.255	94.25
444.476	85.25
444.698	85.25
444.919	98.25
445.14	135.25
445.361	117.25
445.582	113.25
445.803	119.25
446.024	129.25
446.245	129.25
446.466	126.25
446.687	92.25
446.908	94.25
447.129	93.25
447.35	89.25
447.571	90.25
447.792	91.25
448.013	97.25
448.234	111.25
448.455	108.25
448.675	113.25
448.896	115.25
449.117	97.25
449.338	97.25
449.559	126.25
449.779	119.25
450	116.25
450.221	82.25
450.442	95.25
450.662	96.25
450.883	103.25
451.104	104.25
451.324	70.25
451.545	96.25
451.766	80.25
451.986	115.25
452.207	89.25
452.428	94.25
452.648	96.25
452.869	106.25
453.089	113.25
453.31	99.25
453.53	107.25
453.751	101.25
453.971	96.25
454.192	109.25
454.412	90.25
454.633	98.25
454.853	91.25
455.073	84.25
455.294	88.25
455.514	88.25
455.734	80.25
455.955	88.25
456.175	87.25
456.395	88.25
456.616	93.25
456.836	94.25
457.056	72.25
457.276	99.25
457.497	82.25
457.717	84.25
457.937	85.25
458.157	98.25
458.377	99.25
458.598	99.25
458.818	143.25
459.038	147.25
459.258	106.25
459.478	86.25
459.698	89.25
459.918	86.25
460.138	84.25
460.358	90.25
460.578	87.25
460.798	84.25
461.018	97.25
461.238	76.25
461.458	77.25
461.678	93.25
461.898	88.25
462.118	99.25
462.338	84.25
462.558	77.25
462.777	80.25
462.997	83.25
463.217	88.25
463.437	81.25
463.657	77.25
463.876	85.25
464.096	94.25
464.316	84.25
464.536	88.25
464.755	70.25
464.975	80.25
465.195	149.25
465.414	145.25
465.634	85.25
465.854	91.25
466.073	88.25
466.293	92.25
466.512	99.25
466.732	86.25
466.951	81.25
467.171	89.25
467.391	100.25
467.61	100.25
467.829	84.25
468.049	94.25
468.268	76.25
468.488	88.25
468.707	80.25
468.927	85.25
469.146	79.25
469.365	88.25
469.585	96.25
469.804	109.25
470.023	101.25
470.243	82.25
470.462	90.25
470.681	94.25
470.901	85.25
471.12	84.25
471.339	91.25
471.558	100.25
471.777	81.25
471.997	94.25
472.216	87.25
472.435	91.25
472.654	94.25
472.873	84.25
473.092	74.25
473.311	95.25
473.53	89.25
473.749	87.25
473.968	86.25
474.187	85.25
474.406	108.25
474.625	101.25
474.844	95.25
475.063	77.25
475.282	101.25
475.501	88.25
475.72	70.25
475.939	90.25
476.158	85.25
476.377	89.25
476.596	85.25
476.814	94.25
477.033	87.25
477.252	102.25
477.471	102.25
477.69	93.25
477.908	90.25
478.127	89.25
478.346	78.25
478.564	95.25
478.783	94.25
479.002	85.25
479.22	100.25
479.439	93.25
479.658	99.25
479.876	92.25
480.095	89.25
480.313	85.25
480.532	92.25
480.751	103.25
480.969	92.25
481.188	87.25
481.406	90.25
481.624	84.25
481.843	88.25
482.061	86.25
482.28	92.25
482.498	91.25
482.717	85.25
482.935	88.25
483.153	84.25
483.372	97.25
483.59	97.25
483.808	82.25
484.027	88.25
484.245	108.25
484.463	95.25
484.681	102.25
484.9	98.25
485.118	102.25
485.336	103.25
485.554	90.25
485.772	98.25
485.99	98.25
486.209	105.25
486.427	111.25
486.645	108.25
486.863	100.25
487.081	89.25
487.299	72.25
487.517	96.25
487.735	81.25
487.953	93.25
488.171	94.25
488.389	96.25
488.607	103.25
488.825	105.25
489.043	86.25
489.261	111.25
489.479	91.25
489.696	85.25
489.914	87.25
490.132	83.25
490.35	73.25
490.568	101.25
490.786	98.25
491.003	82.25
491.221	92.25
491.439	86.25
491.657	93.25
491.874	90.25
492.092	87.25
492.31	93.25
492.527	84.25
492.745	80.25
492.963	89.25
493.18	80.25
493.398	89.25
493.615	100.25
493.833	98.25
494.05	98.25
494.268	86.25
494.485	93.25
494.703	82.25
494.92	91.25
495.138	94.25
495.355	96.25
495.573	98.25
495.79	92.25
496.008	86.25
496.225	86.25
496.442	104.25
496.66	94.25
496.877	77.25
497.094	98.25
497.312	91.25
497.529	87.25
497.746	89.25
497.963	89.25
498.181	90.25
498.398	81.25
498.615	114.25
498.832	97.25
499.049	90.25
499.267	88.25
499.484	85.25
499.701	88.25
499.918	91.25
500.135	90.25
500.352	96.25
500.569	89.25
500.786	89.25
501.003	100.25
501.22	96.25
501.437	77.25
501.654	88.25
501.871	109.25
502.088	100.25
502.305	94.25
502.522	81.25
502.739	82.25
502.956	98.25
503.172	101.25
503.389	86.25
503.606	100.25
503.823	99.25
504.04	90.25
504.256	92.25
504.473	105.25
504.69	90.25
504.907	97.25
505.123	80.25
505.34	84.25
505.557	93.25
505.773	96.25
505.99	85.25
506.207	85.25
506.423	96.25
506.64	80.25
506.856	97.25
507.073	98.25
507.289	104.25
507.506	100.25
507.722	93.25
507.939	101.25
508.155	95.25
508.372	98.25
508.588	97.25
508.805	86.25
509.021	96.25
509.238	102.25
509.454	111.25
509.67	88.25
509.887	101.25
510.103	140.25
510.319	222.25
510.536	752.25
510.752	2272.25
510.968	651.25
511.184	158.25
511.401	111.25
511.617	98.25
511.833	93.25
512.049	92.25
512.265	94.25
512.481	99.25
512.698	100.25
512.914	97.25
513.13	100.25
513.346	70.25
513.562	97.25
513.778	113.25
513.994	90.25
514.21	95.25
514.426	112.25
514.642	124.25
514.858	112.25
515.074	159.25
515.29	420.25
515.506	1320.25
515.721	495.25
515.937	141.25
516.153	118.25
516.369	101.25
