Data from Uncirc_2003_H10_HRD10591_00052.txt Node
Date: Wed Jan 03 10:35:58 EST 2024
User: Yrep
Spectrometer: HR+D1059
Trigger mode: 1
Integration Time (sec): 1.000000E-1
Scans to average: 1
Electric dark correction enabled: true
Nonlinearity correction enabled: false
Boxcar width: 0
XAxis mode: Wavelengths
Number of Pixels in Spectrum: 2048
>>>>>Begin Spectral Data<<<<<
223.165	-12.94
223.4	-12.94
223.635	-12.94
223.869	-21.94
224.104	-24.94
224.338	-12.94
224.573	-11.94
224.808	-15.94
225.042	-17.94
225.277	-3.94
225.511	7.06
225.746	1.06
225.98	3.06
226.215	16.06
226.449	22.06
226.683	18.06
226.918	26.06
227.152	29.06
227.387	32.06
227.621	46.06
227.856	49.06
228.09	57.06
228.324	42.06
228.559	59.06
228.793	54.06
229.027	60.06
229.262	81.06
229.496	71.06
229.73	90.06
229.964	86.06
230.199	66.06
230.433	71.06
230.667	77.06
230.901	74.06
231.136	87.06
231.37	86.06
231.604	80.06
231.838	87.06
232.072	85.06
232.306	82.06
232.541	88.06
232.775	71.06
233.009	69.06
233.243	78.06
233.477	66.06
233.711	86.06
233.945	75.06
234.179	69.06
234.413	80.06
234.647	78.06
234.881	79.06
235.115	76.06
235.349	77.06
235.583	86.06
235.817	70.06
236.051	86.06
236.285	74.06
236.519	72.06
236.753	77.06
236.987	64.06
237.221	83.06
237.455	80.06
237.689	71.06
237.922	90.06
238.156	70.06
238.39	76.06
238.624	73.06
238.858	72.06
239.091	76.06
239.325	71.06
239.559	81.06
239.793	79.06
240.027	80.06
240.26	73.06
240.494	72.06
240.728	76.06
240.961	76.06
241.195	87.06
241.429	66.06
241.662	66.06
241.896	76.06
242.13	74.06
242.363	92.06
242.597	76.06
242.83	70.06
243.064	84.06
243.298	71.06
243.531	83.06
243.765	84.06
243.998	78.06
244.232	84.06
244.465	79.06
244.699	80.06
244.932	83.06
245.166	84.06
245.399	69.06
245.633	72.06
245.866	86.06
246.099	83.06
246.333	94.06
246.566	80.06
246.8	88.06
247.033	69.06
247.266	87.06
247.5	81.06
247.733	77.06
247.966	84.06
248.2	76.06
248.433	80.06
248.666	83.06
248.899	94.06
249.133	73.06
249.366	109.06
249.599	82.06
249.832	96.06
250.066	86.06
250.299	82.06
250.532	83.06
250.765	81.06
250.998	72.06
251.231	95.06
251.465	82.06
251.698	73.06
251.931	66.06
252.164	73.06
252.397	74.06
252.63	83.06
252.863	78.06
253.096	77.06
253.329	71.06
253.562	79.06
253.795	68.06
254.028	74.06
254.261	69.06
254.494	67.06
254.727	60.06
254.96	82.06
255.193	89.06
255.426	79.06
255.659	79.06
255.892	76.06
256.124	78.06
256.357	84.06
256.59	80.06
256.823	66.06
257.056	77.06
257.289	85.06
257.521	76.06
257.754	73.06
257.987	70.06
258.22	87.06
258.452	69.06
258.685	80.06
258.918	104.06
259.151	71.06
259.383	70.06
259.616	75.06
259.849	82.06
260.081	89.06
260.314	85.06
260.547	93.06
260.779	79.06
261.012	79.06
261.244	85.06
261.477	85.06
261.71	96.06
261.942	116.06
262.175	120.06
262.407	99.06
262.64	89.06
262.872	66.06
263.105	101.06
263.337	84.06
263.57	81.06
263.802	84.06
264.035	85.06
264.267	71.06
264.499	72.06
264.732	80.06
264.964	74.06
265.197	83.06
265.429	94.06
265.661	95.06
265.894	93.06
266.126	96.06
266.358	78.06
266.591	78.06
266.823	91.06
267.055	86.06
267.287	69.06
267.52	90.06
267.752	85.06
267.984	102.06
268.216	87.06
268.448	98.06
268.681	76.06
268.913	92.06
269.145	85.06
269.377	81.06
269.609	90.06
269.841	90.06
270.073	74.06
270.306	91.06
270.538	80.06
270.77	85.06
271.002	86.06
271.234	76.06
271.466	87.06
271.698	78.06
271.93	91.06
272.162	84.06
272.394	88.06
272.626	89.06
272.858	86.06
273.09	94.06
273.322	80.06
273.553	80.06
273.785	87.06
274.017	88.06
274.249	84.06
274.481	75.06
274.713	84.06
274.945	94.06
275.176	78.06
275.408	88.06
275.64	86.06
275.872	101.06
276.104	99.06
276.335	94.06
276.567	100.06
276.799	110.06
277.031	101.06
277.262	83.06
277.494	93.06
277.726	91.06
277.957	90.06
278.189	82.06
278.421	82.06
278.652	77.06
278.884	81.06
279.115	93.06
279.347	81.06
279.579	85.06
279.81	92.06
280.042	79.06
280.273	90.06
280.505	78.06
280.736	76.06
280.968	94.06
281.199	96.06
281.431	84.06
281.662	71.06
281.894	79.06
282.125	88.06
282.356	103.06
282.588	144.06
282.819	119.06
283.051	90.06
283.282	92.06
283.513	76.06
283.745	77.06
283.976	85.06
284.207	70.06
284.439	80.06
284.67	91.06
284.901	72.06
285.132	86.06
285.364	89.06
285.595	92.06
285.826	92.06
286.057	91.06
286.288	87.06
286.52	80.06
286.751	80.06
286.982	88.06
287.213	93.06
287.444	99.06
287.675	92.06
287.906	88.06
288.138	98.06
288.369	103.06
288.6	68.06
288.831	80.06
289.062	92.06
289.293	80.06
289.524	89.06
289.755	100.06
289.986	76.06
290.217	87.06
290.448	89.06
290.679	97.06
290.91	88.06
291.141	94.06
291.371	79.06
291.602	84.06
291.833	94.06
292.064	80.06
292.295	85.06
292.526	95.06
292.757	92.06
292.987	87.06
293.218	88.06
293.449	94.06
293.68	86.06
293.91	110.06
294.141	89.06
294.372	76.06
294.603	92.06
294.833	92.06
295.064	88.06
295.295	90.06
295.525	98.06
295.756	98.06
295.987	114.06
296.217	125.06
296.448	100.06
296.679	84.06
296.909	96.06
297.14	89.06
297.37	93.06
297.601	78.06
297.831	84.06
298.062	90.06
298.292	99.06
298.523	78.06
298.753	86.06
298.984	83.06
299.214	95.06
299.445	80.06
299.675	96.06
299.905	94.06
300.136	94.06
300.366	88.06
300.597	91.06
300.827	85.06
301.057	99.06
301.288	93.06
301.518	100.06
301.748	100.06
301.979	94.06
302.209	89.06
302.439	84.06
302.669	81.06
302.9	85.06
303.13	94.06
303.36	107.06
303.59	88.06
303.82	117.06
304.051	98.06
304.281	83.06
304.511	88.06
304.741	95.06
304.971	92.06
305.201	102.06
305.431	81.06
305.661	78.06
305.891	93.06
306.121	93.06
306.352	103.06
306.582	100.06
306.812	95.06
307.042	100.06
307.272	88.06
307.502	99.06
307.731	107.06
307.961	90.06
308.191	92.06
308.421	90.06
308.651	97.06
308.881	86.06
309.111	93.06
309.341	83.06
309.571	78.06
309.8	87.06
310.03	106.06
310.26	96.06
310.49	103.06
310.72	104.06
310.949	97.06
311.179	106.06
311.409	110.06
311.639	98.06
311.868	92.06
312.098	97.06
312.328	96.06
312.557	104.06
312.787	103.06
313.017	85.06
313.246	84.06
313.476	94.06
313.706	91.06
313.935	103.06
314.165	99.06
314.394	92.06
314.624	87.06
314.853	104.06
315.083	96.06
315.312	92.06
315.542	91.06
315.771	100.06
316.001	84.06
316.23	76.06
316.46	85.06
316.689	91.06
316.919	98.06
317.148	114.06
317.377	97.06
317.607	86.06
317.836	98.06
318.065	85.06
318.295	85.06
318.524	98.06
318.753	96.06
318.983	84.06
319.212	89.06
319.441	89.06
319.67	97.06
319.9	94.06
320.129	103.06
320.358	87.06
320.587	94.06
320.816	92.06
321.046	94.06
321.275	106.06
321.504	98.06
321.733	94.06
321.962	100.06
322.191	87.06
322.42	101.06
322.649	121.06
322.878	117.06
323.108	105.06
323.337	110.06
323.566	145.06
323.795	158.06
324.024	219.06
324.253	404.06
324.482	832.06
324.71	1718.06
324.939	2256.06
325.168	823.06
325.397	229.06
325.626	142.06
325.855	113.06
326.084	131.06
326.313	144.06
326.542	151.06
326.77	225.06
326.999	474.06
327.228	967.06
327.457	1753.06
327.686	1393.06
327.914	365.06
328.143	192.06
328.372	152.06
328.6	109.06
328.829	98.06
329.058	128.06
329.287	114.06
329.515	102.06
329.744	98.06
329.972	109.06
330.201	102.06
330.43	94.06
330.658	117.06
330.887	118.06
331.115	108.06
331.344	96.06
331.572	99.06
331.801	114.06
332.03	89.06
332.258	93.06
332.486	92.06
332.715	96.06
332.943	100.06
333.172	94.06
333.4	97.06
333.629	105.06
333.857	111.06
334.085	103.06
334.314	102.06
334.542	104.06
334.771	96.06
334.999	95.06
335.227	92.06
335.455	81.06
335.684	102.06
335.912	92.06
336.14	95.06
336.369	85.06
336.597	88.06
336.825	87.06
337.053	89.06
337.281	98.06
337.51	93.06
337.738	97.06
337.966	93.06
338.194	86.06
338.422	102.06
338.65	92.06
338.878	91.06
339.106	104.06
339.334	100.06
339.562	85.06
339.79	96.06
340.018	86.06
340.246	83.06
340.474	77.06
340.702	85.06
340.93	90.06
341.158	91.06
341.386	99.06
341.614	93.06
341.842	90.06
342.07	96.06
342.298	95.06
342.526	90.06
342.754	87.06
342.981	92.06
343.209	76.06
343.437	96.06
343.665	95.06
343.893	96.06
344.12	90.06
344.348	93.06
344.576	91.06
344.804	98.06
345.031	104.06
345.259	98.06
345.487	97.06
345.714	108.06
345.942	97.06
346.17	89.06
346.397	93.06
346.625	90.06
346.853	90.06
347.08	85.06
347.308	84.06
347.535	98.06
347.763	96.06
347.99	84.06
348.218	103.06
348.445	97.06
348.673	97.06
348.9	99.06
349.128	104.06
349.355	92.06
349.583	103.06
349.81	95.06
350.037	100.06
350.265	78.06
350.492	104.06
350.72	109.06
350.947	102.06
351.174	100.06
351.402	116.06
351.629	94.06
351.856	88.06
352.083	89.06
352.311	109.06
352.538	101.06
352.765	111.06
352.992	108.06
353.22	109.06
353.447	111.06
353.674	103.06
353.901	98.06
354.128	111.06
354.355	113.06
354.583	104.06
354.81	90.06
355.037	99.06
355.264	104.06
355.491	104.06
355.718	86.06
355.945	102.06
356.172	98.06
356.399	88.06
356.626	85.06
356.853	93.06
357.08	90.06
357.307	93.06
357.534	89.06
357.761	86.06
357.988	96.06
358.215	97.06
358.441	85.06
358.668	101.06
358.895	84.06
359.122	91.06
359.349	94.06
359.576	107.06
359.802	89.06
360.029	106.06
360.256	100.06
360.483	102.06
360.709	106.06
360.936	87.06
361.163	93.06
361.39	93.06
361.616	96.06
361.843	75.06
362.07	89.06
362.296	100.06
362.523	97.06
362.749	90.06
362.976	85.06
363.203	87.06
363.429	101.06
363.656	84.06
363.882	82.06
364.109	99.06
364.335	91.06
364.562	90.06
364.788	84.06
365.015	98.06
365.241	104.06
365.468	100.06
365.694	93.06
365.92	91.06
366.147	98.06
366.373	83.06
366.599	86.06
366.826	101.06
367.052	96.06
367.278	94.06
367.505	107.06
367.731	88.06
367.957	90.06
368.184	85.06
368.41	111.06
368.636	101.06
368.862	112.06
369.089	113.06
369.315	106.06
369.541	85.06
369.767	96.06
369.993	83.06
370.219	96.06
370.445	77.06
370.672	92.06
370.898	75.06
371.124	82.06
371.35	84.06
371.576	87.06
371.802	90.06
372.028	89.06
372.254	83.06
372.48	84.06
372.706	96.06
372.932	84.06
373.158	80.06
373.384	101.06
373.61	100.06
373.835	70.06
374.061	96.06
374.287	90.06
374.513	99.06
374.739	96.06
374.965	69.06
375.191	78.06
375.416	85.06
375.642	88.06
375.868	76.06
376.094	90.06
376.319	94.06
376.545	81.06
376.771	83.06
376.997	88.06
377.222	83.06
377.448	104.06
377.674	97.06
377.899	92.06
378.125	90.06
378.35	85.06
378.576	98.06
378.802	89.06
379.027	97.06
379.253	80.06
379.478	90.06
379.704	100.06
379.929	91.06
380.155	93.06
380.38	105.06
380.606	99.06
380.831	84.06
381.057	103.06
381.282	93.06
381.507	109.06
381.733	102.06
381.958	102.06
382.184	98.06
382.409	91.06
382.634	101.06
382.86	90.06
383.085	92.06
383.31	97.06
383.535	94.06
383.761	95.06
383.986	94.06
384.211	95.06
384.436	109.06
384.662	103.06
384.887	88.06
385.112	96.06
385.337	100.06
385.562	95.06
385.787	107.06
386.013	120.06
386.238	117.06
386.463	105.06
386.688	106.06
386.913	103.06
387.138	99.06
387.363	107.06
387.588	96.06
387.813	97.06
388.038	104.06
388.263	117.06
388.488	126.06
388.713	100.06
388.938	87.06
389.163	95.06
389.387	92.06
389.612	88.06
389.837	89.06
390.062	89.06
390.287	97.06
390.512	90.06
390.736	100.06
390.961	103.06
391.186	94.06
391.411	80.06
391.636	90.06
391.86	88.06
392.085	95.06
392.31	104.06
392.534	89.06
392.759	90.06
392.984	89.06
393.208	91.06
393.433	86.06
393.658	81.06
393.882	74.06
394.107	94.06
394.331	80.06
394.556	81.06
394.78	88.06
395.005	86.06
395.229	81.06
395.454	94.06
395.678	77.06
395.903	86.06
396.127	87.06
396.352	78.06
396.576	89.06
396.801	84.06
397.025	79.06
397.249	85.06
397.474	75.06
397.698	87.06
397.922	81.06
398.147	76.06
398.371	91.06
398.595	81.06
398.82	80.06
399.044	79.06
399.268	81.06
399.492	98.06
399.717	104.06
399.941	89.06
400.165	93.06
400.389	108.06
400.613	89.06
400.837	84.06
401.062	82.06
401.286	94.06
401.51	78.06
401.734	83.06
401.958	103.06
402.182	135.06
402.406	151.06
402.63	116.06
402.854	95.06
403.078	88.06
403.302	88.06
403.526	85.06
403.75	102.06
403.974	78.06
404.198	80.06
404.422	76.06
404.645	88.06
404.869	85.06
405.093	84.06
405.317	86.06
405.541	90.06
405.765	96.06
405.988	120.06
406.212	157.06
406.436	212.06
406.66	133.06
406.883	85.06
407.107	85.06
407.331	88.06
407.555	91.06
407.778	81.06
408.002	71.06
408.226	83.06
408.449	99.06
408.673	93.06
408.896	105.06
409.12	103.06
409.344	77.06
409.567	87.06
409.791	93.06
410.014	91.06
410.238	74.06
410.461	97.06
410.685	98.06
410.908	106.06
411.132	107.06
411.355	103.06
411.578	92.06
411.802	85.06
412.025	102.06
412.249	88.06
412.472	87.06
412.695	81.06
412.919	104.06
413.142	89.06
413.365	80.06
413.589	104.06
413.812	97.06
414.035	94.06
414.258	87.06
414.482	80.06
414.705	102.06
414.928	100.06
415.151	88.06
415.374	103.06
415.597	96.06
415.821	99.06
416.044	91.06
416.267	81.06
416.49	81.06
416.713	85.06
416.936	77.06
417.159	79.06
417.382	87.06
417.605	77.06
417.828	99.06
418.051	83.06
418.274	80.06
418.497	82.06
418.72	83.06
418.943	86.06
419.166	88.06
419.389	88.06
419.611	90.06
419.834	86.06
420.057	81.06
420.28	87.06
420.503	67.06
420.726	76.06
420.948	79.06
421.171	94.06
421.394	88.06
421.617	104.06
421.839	96.06
422.062	96.06
422.285	99.06
422.507	92.06
422.73	100.06
422.953	97.06
423.175	87.06
423.398	95.06
423.621	96.06
423.843	83.06
424.066	81.06
424.288	103.06
424.511	88.06
424.733	72.06
424.956	104.06
425.178	87.06
425.401	96.06
425.623	89.06
425.846	85.06
426.068	90.06
426.291	71.06
426.513	72.06
426.735	90.06
426.958	95.06
427.18	103.06
427.402	121.06
427.625	147.06
427.847	110.06
428.069	98.06
428.292	92.06
428.514	93.06
428.736	70.06
428.958	74.06
429.181	82.06
429.403	86.06
429.625	77.06
429.847	84.06
430.069	86.06
430.292	93.06
430.514	87.06
430.736	93.06
430.958	98.06
431.18	87.06
431.402	80.06
431.624	73.06
431.846	79.06
432.068	106.06
432.29	93.06
432.512	90.06
432.734	94.06
432.956	73.06
433.178	90.06
433.4	88.06
433.622	85.06
433.844	92.06
434.066	82.06
434.287	84.06
434.509	96.06
434.731	97.06
434.953	98.06
435.175	91.06
435.397	79.06
435.618	97.06
435.84	105.06
436.062	118.06
436.284	110.06
436.505	94.06
436.727	109.06
436.949	97.06
437.17	92.06
437.392	101.06
437.614	81.06
437.835	95.06
438.057	112.06
438.278	105.06
438.5	113.06
438.721	136.06
438.943	102.06
439.165	103.06
439.386	87.06
439.608	80.06
439.829	103.06
440.05	112.06
440.272	140.06
440.493	90.06
440.715	82.06
440.936	73.06
441.158	81.06
441.379	79.06
441.6	87.06
441.822	89.06
442.043	76.06
442.264	101.06
442.486	99.06
442.707	94.06
442.928	104.06
443.149	112.06
443.371	129.06
443.592	104.06
443.813	103.06
444.034	103.06
444.255	83.06
444.476	90.06
444.698	83.06
444.919	96.06
445.14	119.06
445.361	114.06
445.582	116.06
445.803	132.06
446.024	129.06
446.245	129.06
446.466	106.06
446.687	85.06
446.908	79.06
447.129	85.06
447.35	78.06
447.571	73.06
447.792	90.06
448.013	97.06
448.234	100.06
448.455	94.06
448.675	98.06
448.896	113.06
449.117	100.06
449.338	110.06
449.559	115.06
449.779	135.06
450	98.06
450.221	87.06
450.442	97.06
450.662	91.06
450.883	116.06
451.104	118.06
451.324	94.06
451.545	79.06
451.766	78.06
451.986	85.06
452.207	81.06
452.428	87.06
452.648	92.06
452.869	108.06
453.089	83.06
453.31	105.06
453.53	88.06
453.751	103.06
453.971	108.06
454.192	121.06
454.412	90.06
454.633	98.06
454.853	89.06
455.073	86.06
455.294	81.06
455.514	95.06
455.734	84.06
455.955	74.06
456.175	88.06
456.395	93.06
456.616	101.06
456.836	92.06
457.056	84.06
457.276	89.06
457.497	93.06
457.717	88.06
457.937	77.06
458.157	94.06
458.377	89.06
458.598	105.06
458.818	134.06
459.038	138.06
459.258	122.06
459.478	95.06
459.698	76.06
459.918	86.06
460.138	101.06
460.358	89.06
460.578	88.06
460.798	77.06
461.018	82.06
461.238	85.06
461.458	87.06
461.678	98.06
461.898	86.06
462.118	96.06
462.338	86.06
462.558	81.06
462.777	80.06
462.997	80.06
463.217	78.06
463.437	85.06
463.657	89.06
463.876	87.06
464.096	94.06
464.316	101.06
464.536	91.06
464.755	101.06
464.975	102.06
465.195	146.06
465.414	140.06
465.634	91.06
465.854	85.06
466.073	82.06
466.293	95.06
466.512	84.06
466.732	81.06
466.951	75.06
467.171	78.06
467.391	115.06
467.61	110.06
467.829	94.06
468.049	85.06
468.268	106.06
468.488	94.06
468.707	69.06
468.927	76.06
469.146	82.06
469.365	82.06
469.585	75.06
469.804	99.06
470.023	99.06
470.243	77.06
470.462	109.06
470.681	109.06
470.901	88.06
471.12	100.06
471.339	83.06
471.558	72.06
471.777	74.06
471.997	73.06
472.216	99.06
472.435	94.06
472.654	80.06
472.873	90.06
473.092	106.06
473.311	83.06
473.53	87.06
473.749	76.06
473.968	108.06
474.187	103.06
474.406	92.06
474.625	83.06
474.844	81.06
475.063	93.06
475.282	98.06
475.501	95.06
475.72	84.06
475.939	75.06
476.158	78.06
476.377	81.06
476.596	92.06
476.814	87.06
477.033	74.06
477.252	100.06
477.471	88.06
477.69	85.06
477.908	85.06
478.127	102.06
478.346	95.06
478.564	76.06
478.783	84.06
479.002	85.06
479.22	82.06
479.439	85.06
479.658	97.06
479.876	100.06
480.095	70.06
480.313	89.06
480.532	92.06
480.751	100.06
480.969	88.06
481.188	116.06
481.406	100.06
481.624	94.06
481.843	86.06
482.061	98.06
482.28	89.06
482.498	80.06
482.717	94.06
482.935	94.06
483.153	92.06
483.372	88.06
483.59	98.06
483.808	87.06
484.027	85.06
484.245	105.06
484.463	103.06
484.681	95.06
484.9	87.06
485.118	90.06
485.336	81.06
485.554	80.06
485.772	88.06
485.99	108.06
486.209	95.06
486.427	99.06
486.645	103.06
486.863	127.06
487.081	106.06
487.299	99.06
487.517	108.06
487.735	87.06
487.953	90.06
488.171	93.06
488.389	105.06
488.607	90.06
488.825	102.06
489.043	93.06
489.261	91.06
489.479	88.06
489.696	99.06
489.914	84.06
490.132	100.06
490.35	87.06
490.568	74.06
490.786	85.06
491.003	91.06
491.221	80.06
491.439	101.06
491.657	92.06
491.874	90.06
492.092	92.06
492.31	96.06
492.527	100.06
492.745	82.06
492.963	87.06
493.18	85.06
493.398	97.06
493.615	94.06
493.833	99.06
494.05	86.06
494.268	78.06
494.485	88.06
494.703	76.06
494.92	86.06
495.138	96.06
495.355	92.06
495.573	108.06
495.79	81.06
496.008	89.06
496.225	85.06
496.442	97.06
496.66	94.06
496.877	87.06
497.094	98.06
497.312	89.06
497.529	100.06
497.746	96.06
497.963	82.06
498.181	88.06
498.398	89.06
498.615	109.06
498.832	103.06
499.049	91.06
499.267	96.06
499.484	92.06
499.701	81.06
499.918	100.06
500.135	107.06
500.352	85.06
500.569	78.06
500.786	88.06
501.003	96.06
501.22	82.06
501.437	97.06
501.654	100.06
501.871	121.06
502.088	92.06
502.305	87.06
502.522	84.06
502.739	71.06
502.956	94.06
503.172	103.06
503.389	97.06
503.606	125.06
503.823	90.06
504.04	99.06
504.256	70.06
504.473	96.06
504.69	89.06
504.907	89.06
505.123	100.06
505.34	102.06
505.557	110.06
505.773	93.06
505.99	89.06
506.207	91.06
506.423	98.06
506.64	88.06
506.856	101.06
507.073	94.06
507.289	92.06
507.506	90.06
507.722	108.06
507.939	102.06
508.155	100.06
508.372	98.06
508.588	94.06
508.805	71.06
509.021	103.06
509.238	109.06
509.454	88.06
509.67	107.06
509.887	103.06
510.103	125.06
510.319	206.06
510.536	760.06
510.752	2319.06
510.968	658.06
511.184	158.06
511.401	99.06
511.617	100.06
511.833	100.06
512.049	90.06
512.265	93.06
512.481	96.06
512.698	95.06
512.914	94.06
513.13	95.06
513.346	90.06
513.562	88.06
513.778	98.06
513.994	85.06
514.21	95.06
514.426	104.06
514.642	128.06
514.858	116.06
515.074	155.06
515.29	437.06
515.506	1363.06
515.721	518.06
