Data from Uncirc_2003_H10_HRD10591_00089.txt Node
Date: Wed Jan 03 10:36:05 EST 2024
User: Yrep
Spectrometer: HR+D1059
Trigger mode: 1
Integration Time (sec): 1.000000E-1
Scans to average: 1
Electric dark correction enabled: true
Nonlinearity correction enabled: false
Boxcar width: 0
XAxis mode: Wavelengths
Number of Pixels in Spectrum: 2048
>>>>>Begin Spectral Data<<<<<
223.165	-18.31
223.4	-18.31
223.635	-18.31
223.869	-11.31
224.104	-12.31
224.338	-19.31
224.573	-1.31
224.808	-14.31
225.042	2.69
225.277	0.69
225.511	7.69
225.746	-1.31
225.98	5.69
226.215	-0.31
226.449	14.69
226.683	14.69
226.918	13.69
227.152	18.69
227.387	40.69
227.621	43.69
227.856	38.69
228.09	45.69
228.324	55.69
228.559	59.69
228.793	57.69
229.027	59.69
229.262	65.69
229.496	61.69
229.73	76.69
229.964	79.69
230.199	54.69
230.433	66.69
230.667	76.69
230.901	85.69
231.136	79.69
231.37	78.69
231.604	68.69
231.838	78.69
232.072	76.69
232.306	69.69
232.541	67.69
232.775	81.69
233.009	78.69
233.243	71.69
233.477	75.69
233.711	80.69
233.945	86.69
234.179	85.69
234.413	65.69
234.647	84.69
234.881	74.69
235.115	75.69
235.349	87.69
235.583	84.69
235.817	88.69
236.051	78.69
236.285	79.69
236.519	67.69
236.753	77.69
236.987	74.69
237.221	81.69
237.455	82.69
237.689	88.69
237.922	73.69
238.156	83.69
238.39	70.69
238.624	82.69
238.858	82.69
239.091	72.69
239.325	80.69
239.559	81.69
239.793	85.69
240.027	73.69
240.26	65.69
240.494	77.69
240.728	72.69
240.961	82.69
241.195	76.69
241.429	59.69
241.662	74.69
241.896	66.69
242.13	83.69
242.363	60.69
242.597	87.69
242.83	70.69
243.064	72.69
243.298	81.69
243.531	77.69
243.765	80.69
243.998	64.69
244.232	75.69
244.465	74.69
244.699	78.69
244.932	79.69
245.166	81.69
245.399	63.69
245.633	76.69
245.866	70.69
246.099	66.69
246.333	63.69
246.566	73.69
246.8	72.69
247.033	65.69
247.266	85.69
247.5	81.69
247.733	74.69
247.966	81.69
248.2	72.69
248.433	78.69
248.666	66.69
248.899	76.69
249.133	72.69
249.366	98.69
249.599	83.69
249.832	92.69
250.066	78.69
250.299	61.69
250.532	74.69
250.765	70.69
250.998	77.69
251.231	57.69
251.465	74.69
251.698	70.69
251.931	80.69
252.164	73.69
252.397	78.69
252.63	87.69
252.863	79.69
253.096	77.69
253.329	72.69
253.562	80.69
253.795	81.69
254.028	74.69
254.261	95.69
254.494	65.69
254.727	74.69
254.96	69.69
255.193	71.69
255.426	65.69
255.659	74.69
255.892	64.69
256.124	78.69
256.357	88.69
256.59	77.69
256.823	79.69
257.056	75.69
257.289	72.69
257.521	77.69
257.754	88.69
257.987	70.69
258.22	82.69
258.452	78.69
258.685	86.69
258.918	74.69
259.151	71.69
259.383	88.69
259.616	91.69
259.849	82.69
260.081	75.69
260.314	86.69
260.547	89.69
260.779	71.69
261.012	79.69
261.244	59.69
261.477	78.69
261.71	92.69
261.942	103.69
262.175	101.69
262.407	77.69
262.64	75.69
262.872	85.69
263.105	78.69
263.337	91.69
263.57	77.69
263.802	75.69
264.035	82.69
264.267	78.69
264.499	68.69
264.732	85.69
264.964	83.69
265.197	84.69
265.429	80.69
265.661	89.69
265.894	84.69
266.126	82.69
266.358	78.69
266.591	85.69
266.823	84.69
267.055	66.69
267.287	87.69
267.52	81.69
267.752	84.69
267.984	93.69
268.216	80.69
268.448	82.69
268.681	82.69
268.913	82.69
269.145	92.69
269.377	88.69
269.609	81.69
269.841	76.69
270.073	70.69
270.306	74.69
270.538	81.69
270.77	95.69
271.002	79.69
271.234	88.69
271.466	81.69
271.698	82.69
271.93	77.69
272.162	71.69
272.394	91.69
272.626	83.69
272.858	75.69
273.09	78.69
273.322	74.69
273.553	65.69
273.785	84.69
274.017	79.69
274.249	72.69
274.481	75.69
274.713	94.69
274.945	82.69
275.176	83.69
275.408	72.69
275.64	73.69
275.872	92.69
276.104	84.69
276.335	94.69
276.567	88.69
276.799	99.69
277.031	98.69
277.262	79.69
277.494	87.69
277.726	97.69
277.957	86.69
278.189	96.69
278.421	83.69
278.652	78.69
278.884	74.69
279.115	79.69
279.347	109.69
279.579	91.69
279.81	92.69
280.042	93.69
280.273	85.69
280.505	76.69
280.736	85.69
280.968	86.69
281.199	74.69
281.431	82.69
281.662	92.69
281.894	85.69
282.125	111.69
282.356	116.69
282.588	138.69
282.819	101.69
283.051	81.69
283.282	81.69
283.513	85.69
283.745	94.69
283.976	89.69
284.207	93.69
284.439	72.69
284.67	78.69
284.901	86.69
285.132	77.69
285.364	88.69
285.595	85.69
285.826	79.69
286.057	87.69
286.288	74.69
286.52	81.69
286.751	89.69
286.982	91.69
287.213	68.69
287.444	83.69
287.675	93.69
287.906	80.69
288.138	94.69
288.369	76.69
288.6	80.69
288.831	86.69
289.062	84.69
289.293	77.69
289.524	71.69
289.755	86.69
289.986	68.69
290.217	83.69
290.448	90.69
290.679	84.69
290.91	80.69
291.141	81.69
291.371	101.69
291.602	91.69
291.833	86.69
292.064	86.69
292.295	90.69
292.526	81.69
292.757	87.69
292.987	91.69
293.218	86.69
293.449	75.69
293.68	85.69
293.91	76.69
294.141	79.69
294.372	91.69
294.603	92.69
294.833	88.69
295.064	92.69
295.295	87.69
295.525	96.69
295.756	97.69
295.987	119.69
296.217	113.69
296.448	106.69
296.679	93.69
296.909	96.69
297.14	88.69
297.37	79.69
297.601	92.69
297.831	90.69
298.062	82.69
298.292	82.69
298.523	84.69
298.753	99.69
298.984	87.69
299.214	87.69
299.445	96.69
299.675	91.69
299.905	81.69
300.136	82.69
300.366	92.69
300.597	98.69
300.827	90.69
301.057	92.69
301.288	92.69
301.518	93.69
301.748	85.69
301.979	94.69
302.209	105.69
302.439	66.69
302.669	62.69
302.9	83.69
303.13	83.69
303.36	88.69
303.59	99.69
303.82	90.69
304.051	92.69
304.281	96.69
304.511	89.69
304.741	87.69
304.971	76.69
305.201	82.69
305.431	79.69
305.661	73.69
305.891	101.69
306.121	98.69
306.352	109.69
306.582	86.69
306.812	83.69
307.042	84.69
307.272	87.69
307.502	94.69
307.731	88.69
307.961	87.69
308.191	93.69
308.421	72.69
308.651	71.69
308.881	95.69
309.111	102.69
309.341	85.69
309.571	102.69
309.8	105.69
310.03	92.69
310.26	86.69
310.49	100.69
310.72	94.69
310.949	84.69
311.179	95.69
311.409	103.69
311.639	93.69
311.868	92.69
312.098	95.69
312.328	93.69
312.557	109.69
312.787	106.69
313.017	109.69
313.246	99.69
313.476	86.69
313.706	86.69
313.935	83.69
314.165	101.69
314.394	87.69
314.624	84.69
314.853	103.69
315.083	82.69
315.312	95.69
315.542	83.69
315.771	88.69
316.001	80.69
316.23	91.69
316.46	87.69
316.689	84.69
316.919	96.69
317.148	92.69
317.377	101.69
317.607	90.69
317.836	91.69
318.065	94.69
318.295	100.69
318.524	87.69
318.753	74.69
318.983	88.69
319.212	104.69
319.441	108.69
319.67	103.69
319.9	93.69
320.129	98.69
320.358	102.69
320.587	93.69
320.816	102.69
321.046	99.69
321.275	101.69
321.504	101.69
321.733	96.69
321.962	103.69
322.191	100.69
322.42	97.69
322.649	105.69
322.878	103.69
323.108	124.69
323.337	114.69
323.566	138.69
323.795	156.69
324.024	220.69
324.253	439.69
324.482	883.69
324.71	1942.69
324.939	2602.69
325.168	934.69
325.397	263.69
325.626	158.69
325.855	135.69
326.084	134.69
326.313	145.69
326.542	138.69
326.77	228.69
326.999	495.69
327.228	1064.69
327.457	1974.69
327.686	1587.69
327.914	412.69
328.143	185.69
328.372	158.69
328.6	110.69
328.829	118.69
329.058	116.69
329.287	107.69
329.515	114.69
329.744	96.69
329.972	99.69
330.201	99.69
330.43	100.69
330.658	118.69
330.887	149.69
331.115	126.69
331.344	87.69
331.572	93.69
331.801	88.69
332.03	87.69
332.258	70.69
332.486	99.69
332.715	76.69
332.943	91.69
333.172	102.69
333.4	106.69
333.629	90.69
333.857	106.69
334.085	96.69
334.314	76.69
334.542	104.69
334.771	88.69
334.999	103.69
335.227	114.69
335.455	93.69
335.684	83.69
335.912	86.69
336.14	101.69
336.369	96.69
336.597	101.69
336.825	94.69
337.053	102.69
337.281	89.69
337.51	78.69
337.738	84.69
337.966	89.69
338.194	92.69
338.422	106.69
338.65	95.69
338.878	99.69
339.106	87.69
339.334	92.69
339.562	95.69
339.79	88.69
340.018	98.69
340.246	91.69
340.474	83.69
340.702	85.69
340.93	94.69
341.158	80.69
341.386	91.69
341.614	83.69
341.842	87.69
342.07	92.69
342.298	87.69
342.526	84.69
342.754	83.69
342.981	87.69
343.209	98.69
343.437	93.69
343.665	93.69
343.893	96.69
344.12	81.69
344.348	92.69
344.576	74.69
344.804	82.69
345.031	102.69
345.259	109.69
345.487	102.69
345.714	82.69
345.942	86.69
346.17	84.69
346.397	86.69
346.625	106.69
346.853	90.69
347.08	89.69
347.308	98.69
347.535	109.69
347.763	100.69
347.99	107.69
348.218	91.69
348.445	98.69
348.673	95.69
348.9	100.69
349.128	83.69
349.355	92.69
349.583	93.69
349.81	102.69
350.037	99.69
350.265	82.69
350.492	86.69
350.72	82.69
350.947	106.69
351.174	85.69
351.402	113.69
351.629	119.69
351.856	107.69
352.083	90.69
352.311	96.69
352.538	97.69
352.765	118.69
352.992	114.69
353.22	107.69
353.447	110.69
353.674	100.69
353.901	96.69
354.128	101.69
354.355	78.69
354.583	98.69
354.81	97.69
355.037	93.69
355.264	87.69
355.491	92.69
355.718	99.69
355.945	85.69
356.172	81.69
356.399	96.69
356.626	97.69
356.853	87.69
357.08	80.69
357.307	87.69
357.534	93.69
357.761	87.69
357.988	92.69
358.215	91.69
358.441	93.69
358.668	76.69
358.895	91.69
359.122	105.69
359.349	96.69
359.576	94.69
359.802	92.69
360.029	106.69
360.256	111.69
360.483	85.69
360.709	91.69
360.936	96.69
361.163	94.69
361.39	86.69
361.616	91.69
361.843	105.69
362.07	88.69
362.296	85.69
362.523	85.69
362.749	84.69
362.976	85.69
363.203	100.69
363.429	85.69
363.656	82.69
363.882	85.69
364.109	62.69
364.335	86.69
364.562	99.69
364.788	99.69
365.015	104.69
365.241	97.69
365.468	98.69
365.694	101.69
365.92	82.69
366.147	81.69
366.373	94.69
366.599	87.69
366.826	76.69
367.052	81.69
367.278	100.69
367.505	83.69
367.731	86.69
367.957	95.69
368.184	99.69
368.41	88.69
368.636	126.69
368.862	102.69
369.089	96.69
369.315	88.69
369.541	100.69
369.767	98.69
369.993	84.69
370.219	90.69
370.445	88.69
370.672	93.69
370.898	82.69
371.124	84.69
371.35	89.69
371.576	82.69
371.802	84.69
372.028	88.69
372.254	63.69
372.48	80.69
372.706	87.69
372.932	82.69
373.158	84.69
373.384	90.69
373.61	83.69
373.835	92.69
374.061	98.69
374.287	87.69
374.513	103.69
374.739	81.69
374.965	88.69
375.191	98.69
375.416	83.69
375.642	90.69
375.868	87.69
376.094	82.69
376.319	92.69
376.545	98.69
376.771	92.69
376.997	95.69
377.222	94.69
377.448	96.69
377.674	86.69
377.899	86.69
378.125	78.69
378.35	79.69
378.576	86.69
378.802	93.69
379.027	65.69
379.253	96.69
379.478	86.69
379.704	92.69
379.929	99.69
380.155	85.69
380.38	82.69
380.606	87.69
380.831	85.69
381.057	85.69
381.282	88.69
381.507	90.69
381.733	92.69
381.958	81.69
382.184	94.69
382.409	100.69
382.634	87.69
382.86	99.69
383.085	97.69
383.31	85.69
383.535	112.69
383.761	89.69
383.986	106.69
384.211	109.69
384.436	101.69
384.662	91.69
384.887	102.69
385.112	101.69
385.337	112.69
385.562	84.69
385.787	99.69
386.013	112.69
386.238	96.69
386.463	119.69
386.688	103.69
386.913	91.69
387.138	97.69
387.363	107.69
387.588	90.69
387.813	95.69
388.038	98.69
388.263	99.69
388.488	102.69
388.713	97.69
388.938	103.69
389.163	94.69
389.387	92.69
389.612	91.69
389.837	89.69
390.062	90.69
390.287	88.69
390.512	90.69
390.736	78.69
390.961	83.69
391.186	99.69
391.411	85.69
391.636	89.69
391.86	82.69
392.085	86.69
392.31	73.69
392.534	88.69
392.759	93.69
392.984	96.69
393.208	81.69
393.433	95.69
393.658	94.69
393.882	88.69
394.107	83.69
394.331	76.69
394.556	92.69
394.78	105.69
395.005	80.69
395.229	92.69
395.454	91.69
395.678	81.69
395.903	77.69
396.127	100.69
396.352	87.69
396.576	91.69
396.801	97.69
397.025	77.69
397.249	68.69
397.474	88.69
397.698	82.69
397.922	86.69
398.147	87.69
398.371	87.69
398.595	90.69
398.82	77.69
399.044	92.69
399.268	82.69
399.492	88.69
399.717	80.69
399.941	91.69
400.165	91.69
400.389	86.69
400.613	83.69
400.837	92.69
401.062	75.69
401.286	83.69
401.51	90.69
401.734	92.69
401.958	100.69
402.182	130.69
402.406	165.69
402.63	118.69
402.854	99.69
403.078	108.69
403.302	83.69
403.526	81.69
403.75	88.69
403.974	97.69
404.198	69.69
404.422	80.69
404.645	75.69
404.869	89.69
405.093	103.69
405.317	114.69
405.541	90.69
405.765	94.69
405.988	121.69
406.212	175.69
406.436	233.69
406.66	162.69
406.883	98.69
407.107	78.69
407.331	84.69
407.555	103.69
407.778	100.69
408.002	88.69
408.226	91.69
408.449	88.69
408.673	84.69
408.896	87.69
409.12	95.69
409.344	99.69
409.567	90.69
409.791	80.69
410.014	102.69
410.238	95.69
410.461	97.69
410.685	107.69
410.908	82.69
411.132	106.69
411.355	93.69
411.578	82.69
411.802	84.69
412.025	82.69
412.249	74.69
412.472	89.69
412.695	94.69
412.919	74.69
413.142	108.69
413.365	83.69
413.589	91.69
413.812	82.69
414.035	87.69
414.258	82.69
414.482	88.69
414.705	90.69
414.928	95.69
415.151	78.69
415.374	99.69
415.597	92.69
415.821	79.69
416.044	88.69
416.267	88.69
416.49	102.69
416.713	85.69
416.936	90.69
417.159	80.69
417.382	78.69
417.605	79.69
417.828	88.69
418.051	94.69
418.274	90.69
418.497	86.69
418.72	87.69
418.943	96.69
419.166	76.69
419.389	94.69
419.611	81.69
419.834	76.69
420.057	93.69
420.28	92.69
420.503	96.69
420.726	74.69
420.948	96.69
421.171	101.69
421.394	94.69
421.617	85.69
421.839	100.69
422.062	94.69
422.285	94.69
422.507	94.69
422.73	109.69
422.953	88.69
423.175	80.69
423.398	82.69
423.621	90.69
423.843	101.69
424.066	104.69
424.288	91.69
424.511	88.69
424.733	92.69
424.956	102.69
425.178	87.69
425.401	89.69
425.623	129.69
425.846	88.69
426.068	81.69
426.291	98.69
426.513	82.69
426.735	94.69
426.958	110.69
427.18	102.69
427.402	129.69
427.625	170.69
427.847	124.69
428.069	102.69
428.292	83.69
428.514	76.69
428.736	85.69
428.958	87.69
429.181	85.69
429.403	86.69
429.625	93.69
429.847	84.69
430.069	106.69
430.292	93.69
430.514	88.69
430.736	81.69
430.958	81.69
431.18	91.69
431.402	78.69
431.624	74.69
431.846	92.69
432.068	91.69
432.29	82.69
432.512	81.69
432.734	88.69
432.956	84.69
433.178	107.69
433.4	116.69
433.622	107.69
433.844	84.69
434.066	77.69
434.287	86.69
434.509	92.69
434.731	91.69
434.953	83.69
435.175	91.69
435.397	93.69
435.618	87.69
435.84	103.69
436.062	116.69
436.284	109.69
436.505	108.69
436.727	106.69
436.949	91.69
437.17	84.69
437.392	81.69
437.614	84.69
437.835	108.69
438.057	113.69
438.278	109.69
438.5	114.69
438.721	137.69
438.943	88.69
439.165	101.69
439.386	86.69
439.608	94.69
439.829	98.69
440.05	109.69
440.272	147.69
440.493	91.69
440.715	85.69
440.936	86.69
441.158	98.69
441.379	97.69
441.6	95.69
441.822	92.69
442.043	91.69
442.264	102.69
442.486	104.69
442.707	78.69
442.928	102.69
443.149	142.69
443.371	156.69
443.592	119.69
443.813	108.69
444.034	102.69
444.255	97.69
444.476	84.69
444.698	112.69
444.919	78.69
445.14	139.69
445.361	134.69
445.582	113.69
445.803	143.69
446.024	140.69
446.245	133.69
446.466	117.69
446.687	100.69
446.908	102.69
447.129	94.69
447.35	91.69
447.571	100.69
447.792	80.69
448.013	99.69
448.234	110.69
448.455	111.69
448.675	126.69
448.896	124.69
449.117	94.69
449.338	91.69
449.559	123.69
449.779	135.69
450	89.69
450.221	96.69
450.442	83.69
450.662	102.69
450.883	92.69
451.104	109.69
451.324	97.69
451.545	97.69
451.766	86.69
451.986	86.69
452.207	88.69
452.428	83.69
452.648	111.69
452.869	116.69
453.089	116.69
453.31	124.69
453.53	88.69
453.751	89.69
453.971	101.69
454.192	113.69
454.412	96.69
454.633	94.69
454.853	97.69
455.073	84.69
455.294	94.69
455.514	102.69
455.734	88.69
455.955	90.69
456.175	81.69
456.395	81.69
456.616	85.69
456.836	75.69
457.056	76.69
457.276	89.69
457.497	91.69
457.717	88.69
457.937	87.69
458.157	91.69
458.377	87.69
458.598	108.69
458.818	149.69
459.038	158.69
459.258	109.69
459.478	95.69
459.698	91.69
459.918	81.69
460.138	91.69
460.358	79.69
460.578	90.69
460.798	86.69
461.018	96.69
461.238	100.69
461.458	97.69
461.678	81.69
461.898	93.69
462.118	83.69
462.338	82.69
462.558	78.69
462.777	81.69
462.997	74.69
463.217	93.69
463.437	73.69
463.657	79.69
463.876	81.69
464.096	82.69
464.316	103.69
464.536	100.69
464.755	89.69
464.975	111.69
465.195	160.69
465.414	161.69
465.634	100.69
465.854	84.69
466.073	91.69
466.293	76.69
466.512	94.69
466.732	83.69
466.951	99.69
467.171	96.69
467.391	96.69
467.61	104.69
467.829	80.69
468.049	79.69
468.268	94.69
468.488	83.69
468.707	87.69
468.927	85.69
469.146	91.69
469.365	88.69
469.585	78.69
469.804	90.69
470.023	88.69
470.243	83.69
470.462	106.69
470.681	104.69
470.901	102.69
471.12	89.69
471.339	86.69
471.558	99.69
471.777	76.69
471.997	82.69
472.216	106.69
472.435	91.69
472.654	80.69
472.873	99.69
473.092	82.69
473.311	94.69
473.53	99.69
473.749	83.69
473.968	77.69
474.187	114.69
474.406	96.69
474.625	72.69
474.844	80.69
475.063	72.69
475.282	91.69
475.501	96.69
475.72	88.69
475.939	79.69
476.158	82.69
476.377	84.69
476.596	88.69
476.814	92.69
477.033	98.69
477.252	70.69
477.471	94.69
477.69	103.69
477.908	99.69
478.127	89.69
478.346	92.69
478.564	72.69
478.783	79.69
479.002	91.69
479.22	84.69
479.439	98.69
479.658	93.69
479.876	81.69
480.095	104.69
480.313	102.69
480.532	95.69
480.751	90.69
480.969	111.69
481.188	123.69
481.406	95.69
481.624	80.69
481.843	91.69
482.061	88.69
482.28	86.69
482.498	80.69
482.717	82.69
482.935	85.69
483.153	86.69
483.372	81.69
483.59	85.69
483.808	91.69
484.027	84.69
484.245	95.69
484.463	99.69
484.681	96.69
484.9	97.69
485.118	101.69
485.336	99.69
485.554	103.69
485.772	105.69
485.99	93.69
486.209	93.69
486.427	101.69
486.645	95.69
486.863	100.69
487.081	102.69
487.299	91.69
487.517	88.69
487.735	94.69
487.953	101.69
488.171	91.69
488.389	94.69
488.607	83.69
488.825	82.69
489.043	85.69
489.261	81.69
489.479	83.69
489.696	92.69
489.914	85.69
490.132	92.69
490.35	106.69
490.568	76.69
490.786	74.69
491.003	92.69
491.221	93.69
491.439	101.69
491.657	91.69
491.874	96.69
492.092	90.69
492.31	90.69
492.527	87.69
492.745	94.69
492.963	95.69
493.18	84.69
493.398	87.69
493.615	87.69
493.833	101.69
494.05	99.69
494.268	78.69
494.485	74.69
494.703	93.69
494.92	70.69
495.138	76.69
495.355	83.69
495.573	86.69
495.79	85.69
496.008	103.69
496.225	81.69
496.442	102.69
496.66	83.69
496.877	92.69
497.094	99.69
497.312	73.69
497.529	96.69
497.746	88.69
497.963	81.69
498.181	78.69
498.398	101.69
498.615	125.69
498.832	103.69
499.049	87.69
499.267	104.69
499.484	88.69
499.701	94.69
499.918	80.69
500.135	77.69
500.352	85.69
500.569	94.69
500.786	86.69
501.003	94.69
501.22	100.69
501.437	94.69
501.654	84.69
501.871	109.69
502.088	83.69
502.305	81.69
502.522	94.69
502.739	82.69
502.956	92.69
503.172	92.69
503.389	79.69
503.606	108.69
503.823	91.69
504.04	94.69
504.256	82.69
504.473	75.69
504.69	90.69
504.907	87.69
505.123	84.69
505.34	91.69
505.557	98.69
505.773	93.69
505.99	87.69
506.207	75.69
506.423	78.69
506.64	91.69
506.856	89.69
507.073	67.69
507.289	104.69
507.506	107.69
507.722	110.69
507.939	110.69
508.155	82.69
508.372	85.69
508.588	98.69
508.805	106.69
509.021	105.69
509.238	97.69
509.454	99.69
509.67	98.69
509.887	111.69
510.103	140.69
510.319	221.69
510.536	840.69
510.752	2680.69
510.968	745.69
511.184	159.69
511.401	126.69
511.617	105.69
511.833	88.69
512.049	99.69
512.265	91.69
512.481	74.69
512.698	98.69
512.914	104.69
513.13	105.69
513.346	80.69
513.562	96.69
513.778	83.69
513.994	94.69
514.21	105.69
514.426	115.69
514.642	147.69
514.858	126.69
515.074	162.69
515.29	483.69
515.506	1607.69
515.721	605.69
515.937	167.69
516.153	110.69
