Data from Uncirc_2003_H10_HRD10591_00076.txt Node
Date: Wed Jan 03 10:36:03 EST 2024
User: Yrep
Spectrometer: HR+D1059
Trigger mode: 1
Integration Time (sec): 1.000000E-1
Scans to average: 1
Electric dark correction enabled: true
Nonlinearity correction enabled: false
Boxcar width: 0
XAxis mode: Wavelengths
Number of Pixels in Spectrum: 2048
>>>>>Begin Spectral Data<<<<<
223.165	-20.19
223.4	-20.19
223.635	-20.19
223.869	-19.19
224.104	-25.19
224.338	-5.19
224.573	-13.19
224.808	-26.19
225.042	-7.19
225.277	3.81
225.511	1.81
225.746	-2.19
225.98	-3.19
226.215	20.81
226.449	29.81
226.683	12.81
226.918	16.81
227.152	35.81
227.387	52.81
227.621	38.81
227.856	42.81
228.09	48.81
228.324	58.81
228.559	58.81
228.793	65.81
229.027	60.81
229.262	64.81
229.496	72.81
229.73	77.81
229.964	78.81
230.199	90.81
230.433	85.81
230.667	78.81
230.901	69.81
231.136	68.81
231.37	80.81
231.604	70.81
231.838	74.81
232.072	78.81
232.306	75.81
232.541	78.81
232.775	84.81
233.009	87.81
233.243	76.81
233.477	85.81
233.711	94.81
233.945	90.81
234.179	74.81
234.413	76.81
234.647	81.81
234.881	71.81
235.115	80.81
235.349	68.81
235.583	81.81
235.817	80.81
236.051	75.81
236.285	84.81
236.519	69.81
236.753	87.81
236.987	83.81
237.221	80.81
237.455	79.81
237.689	80.81
237.922	67.81
238.156	73.81
238.39	66.81
238.624	74.81
238.858	89.81
239.091	58.81
239.325	68.81
239.559	84.81
239.793	88.81
240.027	63.81
240.26	72.81
240.494	66.81
240.728	72.81
240.961	86.81
241.195	87.81
241.429	84.81
241.662	88.81
241.896	84.81
242.13	65.81
242.363	64.81
242.597	80.81
242.83	76.81
243.064	82.81
243.298	81.81
243.531	60.81
243.765	72.81
243.998	77.81
244.232	84.81
244.465	77.81
244.699	73.81
244.932	73.81
245.166	73.81
245.399	83.81
245.633	72.81
245.866	79.81
246.099	99.81
246.333	89.81
246.566	73.81
246.8	88.81
247.033	76.81
247.266	79.81
247.5	79.81
247.733	79.81
247.966	87.81
248.2	69.81
248.433	78.81
248.666	70.81
248.899	57.81
249.133	84.81
249.366	92.81
249.599	100.81
249.832	86.81
250.066	74.81
250.299	93.81
250.532	83.81
250.765	71.81
250.998	74.81
251.231	80.81
251.465	70.81
251.698	71.81
251.931	71.81
252.164	85.81
252.397	70.81
252.63	76.81
252.863	75.81
253.096	81.81
253.329	86.81
253.562	74.81
253.795	78.81
254.028	83.81
254.261	76.81
254.494	75.81
254.727	73.81
254.96	69.81
255.193	85.81
255.426	81.81
255.659	81.81
255.892	83.81
256.124	81.81
256.357	73.81
256.59	87.81
256.823	75.81
257.056	89.81
257.289	87.81
257.521	83.81
257.754	73.81
257.987	64.81
258.22	106.81
258.452	97.81
258.685	74.81
258.918	85.81
259.151	83.81
259.383	99.81
259.616	78.81
259.849	59.81
260.081	87.81
260.314	96.81
260.547	78.81
260.779	74.81
261.012	87.81
261.244	77.81
261.477	81.81
261.71	82.81
261.942	108.81
262.175	107.81
262.407	103.81
262.64	80.81
262.872	96.81
263.105	83.81
263.337	72.81
263.57	87.81
263.802	98.81
264.035	76.81
264.267	94.81
264.499	86.81
264.732	84.81
264.964	86.81
265.197	69.81
265.429	89.81
265.661	88.81
265.894	76.81
266.126	85.81
266.358	87.81
266.591	87.81
266.823	72.81
267.055	88.81
267.287	77.81
267.52	72.81
267.752	87.81
267.984	77.81
268.216	80.81
268.448	93.81
268.681	77.81
268.913	81.81
269.145	85.81
269.377	90.81
269.609	87.81
269.841	75.81
270.073	79.81
270.306	92.81
270.538	88.81
270.77	77.81
271.002	84.81
271.234	77.81
271.466	90.81
271.698	89.81
271.93	81.81
272.162	81.81
272.394	73.81
272.626	85.81
272.858	78.81
273.09	79.81
273.322	80.81
273.553	80.81
273.785	83.81
274.017	91.81
274.249	90.81
274.481	90.81
274.713	75.81
274.945	68.81
275.176	72.81
275.408	74.81
275.64	88.81
275.872	92.81
276.104	76.81
276.335	76.81
276.567	97.81
276.799	107.81
277.031	92.81
277.262	80.81
277.494	88.81
277.726	88.81
277.957	81.81
278.189	100.81
278.421	84.81
278.652	89.81
278.884	94.81
279.115	79.81
279.347	93.81
279.579	97.81
279.81	79.81
280.042	75.81
280.273	84.81
280.505	80.81
280.736	68.81
280.968	88.81
281.199	92.81
281.431	72.81
281.662	70.81
281.894	98.81
282.125	95.81
282.356	112.81
282.588	143.81
282.819	110.81
283.051	82.81
283.282	88.81
283.513	78.81
283.745	87.81
283.976	76.81
284.207	87.81
284.439	94.81
284.67	97.81
284.901	101.81
285.132	83.81
285.364	75.81
285.595	96.81
285.826	79.81
286.057	81.81
286.288	81.81
286.52	95.81
286.751	89.81
286.982	89.81
287.213	73.81
287.444	85.81
287.675	65.81
287.906	89.81
288.138	84.81
288.369	84.81
288.6	89.81
288.831	88.81
289.062	80.81
289.293	79.81
289.524	81.81
289.755	89.81
289.986	89.81
290.217	88.81
290.448	97.81
290.679	78.81
290.91	87.81
291.141	86.81
291.371	87.81
291.602	86.81
291.833	87.81
292.064	75.81
292.295	85.81
292.526	88.81
292.757	84.81
292.987	96.81
293.218	85.81
293.449	85.81
293.68	85.81
293.91	86.81
294.141	97.81
294.372	78.81
294.603	72.81
294.833	89.81
295.064	82.81
295.295	86.81
295.525	86.81
295.756	103.81
295.987	116.81
296.217	142.81
296.448	113.81
296.679	76.81
296.909	84.81
297.14	93.81
297.37	94.81
297.601	88.81
297.831	96.81
298.062	80.81
298.292	94.81
298.523	97.81
298.753	95.81
298.984	73.81
299.214	97.81
299.445	98.81
299.675	97.81
299.905	97.81
300.136	95.81
300.366	89.81
300.597	85.81
300.827	93.81
301.057	91.81
301.288	94.81
301.518	89.81
301.748	76.81
301.979	92.81
302.209	93.81
302.439	103.81
302.669	89.81
302.9	99.81
303.13	89.81
303.36	96.81
303.59	101.81
303.82	112.81
304.051	87.81
304.281	88.81
304.511	91.81
304.741	77.81
304.971	79.81
305.201	82.81
305.431	97.81
305.661	82.81
305.891	97.81
306.121	93.81
306.352	97.81
306.582	110.81
306.812	91.81
307.042	105.81
307.272	82.81
307.502	82.81
307.731	67.81
307.961	78.81
308.191	83.81
308.421	86.81
308.651	96.81
308.881	87.81
309.111	77.81
309.341	81.81
309.571	83.81
309.8	73.81
310.03	80.81
310.26	81.81
310.49	104.81
310.72	105.81
310.949	95.81
311.179	84.81
311.409	92.81
311.639	85.81
311.868	100.81
312.098	102.81
312.328	100.81
312.557	98.81
312.787	85.81
313.017	103.81
313.246	98.81
313.476	77.81
313.706	88.81
313.935	100.81
314.165	101.81
314.394	88.81
314.624	100.81
314.853	99.81
315.083	89.81
315.312	95.81
315.542	85.81
315.771	87.81
316.001	87.81
316.23	90.81
316.46	92.81
316.689	84.81
316.919	97.81
317.148	93.81
317.377	99.81
317.607	107.81
317.836	82.81
318.065	89.81
318.295	99.81
318.524	80.81
318.753	85.81
318.983	95.81
319.212	98.81
319.441	93.81
319.67	85.81
319.9	83.81
320.129	88.81
320.358	87.81
320.587	89.81
320.816	88.81
321.046	113.81
321.275	104.81
321.504	93.81
321.733	115.81
321.962	98.81
322.191	104.81
322.42	94.81
322.649	103.81
322.878	108.81
323.108	97.81
323.337	113.81
323.566	124.81
323.795	149.81
324.024	209.81
324.253	374.81
324.482	825.81
324.71	1638.81
324.939	2121.81
325.168	774.81
325.397	230.81
325.626	149.81
325.855	129.81
326.084	130.81
326.313	124.81
326.542	148.81
326.77	221.81
326.999	464.81
327.228	910.81
327.457	1695.81
327.686	1312.81
327.914	350.81
328.143	175.81
328.372	140.81
328.6	108.81
328.829	107.81
329.058	126.81
329.287	123.81
329.515	96.81
329.744	85.81
329.972	88.81
330.201	99.81
330.43	117.81
330.658	121.81
330.887	132.81
331.115	115.81
331.344	94.81
331.572	96.81
331.801	93.81
332.03	97.81
332.258	89.81
332.486	103.81
332.715	99.81
332.943	106.81
333.172	84.81
333.4	91.81
333.629	95.81
333.857	117.81
334.085	99.81
334.314	108.81
334.542	106.81
334.771	95.81
334.999	91.81
335.227	98.81
335.455	99.81
335.684	98.81
335.912	102.81
336.14	96.81
336.369	89.81
336.597	89.81
336.825	82.81
337.053	83.81
337.281	86.81
337.51	69.81
337.738	100.81
337.966	86.81
338.194	82.81
338.422	99.81
338.65	96.81
338.878	87.81
339.106	84.81
339.334	90.81
339.562	80.81
339.79	90.81
340.018	87.81
340.246	95.81
340.474	93.81
340.702	88.81
340.93	71.81
341.158	89.81
341.386	87.81
341.614	81.81
341.842	80.81
342.07	88.81
342.298	74.81
342.526	86.81
342.754	83.81
342.981	92.81
343.209	84.81
343.437	79.81
343.665	92.81
343.893	70.81
344.12	82.81
344.348	85.81
344.576	87.81
344.804	94.81
345.031	94.81
345.259	81.81
345.487	93.81
345.714	97.81
345.942	94.81
346.17	96.81
346.397	90.81
346.625	77.81
346.853	95.81
347.08	90.81
347.308	94.81
347.535	88.81
347.763	108.81
347.99	88.81
348.218	97.81
348.445	97.81
348.673	98.81
348.9	99.81
349.128	98.81
349.355	91.81
349.583	82.81
349.81	86.81
350.037	92.81
350.265	88.81
350.492	89.81
350.72	89.81
350.947	98.81
351.174	97.81
351.402	115.81
351.629	88.81
351.856	101.81
352.083	96.81
352.311	103.81
352.538	98.81
352.765	103.81
352.992	104.81
353.22	109.81
353.447	93.81
353.674	101.81
353.901	77.81
354.128	83.81
354.355	86.81
354.583	99.81
354.81	94.81
355.037	102.81
355.264	86.81
355.491	95.81
355.718	93.81
355.945	84.81
356.172	85.81
356.399	99.81
356.626	101.81
356.853	100.81
357.08	102.81
357.307	96.81
357.534	88.81
357.761	73.81
357.988	91.81
358.215	86.81
358.441	102.81
358.668	93.81
358.895	84.81
359.122	87.81
359.349	81.81
359.576	90.81
359.802	97.81
360.029	103.81
360.256	111.81
360.483	95.81
360.709	91.81
360.936	89.81
361.163	110.81
361.39	91.81
361.616	89.81
361.843	90.81
362.07	78.81
362.296	94.81
362.523	74.81
362.749	84.81
362.976	85.81
363.203	80.81
363.429	77.81
363.656	87.81
363.882	84.81
364.109	89.81
364.335	95.81
364.562	96.81
364.788	89.81
365.015	98.81
365.241	93.81
365.468	113.81
365.694	97.81
365.92	104.81
366.147	85.81
366.373	89.81
366.599	81.81
366.826	86.81
367.052	83.81
367.278	97.81
367.505	95.81
367.731	85.81
367.957	89.81
368.184	87.81
368.41	90.81
368.636	113.81
368.862	121.81
369.089	90.81
369.315	86.81
369.541	85.81
369.767	78.81
369.993	83.81
370.219	89.81
370.445	87.81
370.672	89.81
370.898	81.81
371.124	85.81
371.35	95.81
371.576	76.81
371.802	77.81
372.028	83.81
372.254	89.81
372.48	84.81
372.706	85.81
372.932	89.81
373.158	76.81
373.384	83.81
373.61	86.81
373.835	94.81
374.061	94.81
374.287	86.81
374.513	73.81
374.739	86.81
374.965	103.81
375.191	90.81
375.416	97.81
375.642	85.81
375.868	90.81
376.094	100.81
376.319	85.81
376.545	84.81
376.771	88.81
376.997	69.81
377.222	99.81
377.448	79.81
377.674	93.81
377.899	88.81
378.125	94.81
378.35	96.81
378.576	94.81
378.802	86.81
379.027	91.81
379.253	87.81
379.478	103.81
379.704	95.81
379.929	95.81
380.155	96.81
380.38	103.81
380.606	97.81
380.831	92.81
381.057	79.81
381.282	104.81
381.507	96.81
381.733	104.81
381.958	102.81
382.184	86.81
382.409	82.81
382.634	91.81
382.86	103.81
383.085	95.81
383.31	102.81
383.535	105.81
383.761	107.81
383.986	92.81
384.211	83.81
384.436	103.81
384.662	96.81
384.887	101.81
385.112	102.81
385.337	90.81
385.562	103.81
385.787	100.81
386.013	113.81
386.238	110.81
386.463	108.81
386.688	101.81
386.913	104.81
387.138	99.81
387.363	95.81
387.588	98.81
387.813	99.81
388.038	121.81
388.263	106.81
388.488	106.81
388.713	104.81
388.938	103.81
389.163	99.81
389.387	108.81
389.612	90.81
389.837	96.81
390.062	85.81
390.287	88.81
390.512	94.81
390.736	84.81
390.961	85.81
391.186	91.81
391.411	90.81
391.636	104.81
391.86	97.81
392.085	81.81
392.31	78.81
392.534	83.81
392.759	81.81
392.984	83.81
393.208	90.81
393.433	90.81
393.658	80.81
393.882	86.81
394.107	96.81
394.331	98.81
394.556	77.81
394.78	89.81
395.005	74.81
395.229	90.81
395.454	104.81
395.678	84.81
395.903	101.81
396.127	80.81
396.352	86.81
396.576	96.81
396.801	84.81
397.025	88.81
397.249	93.81
397.474	80.81
397.698	83.81
397.922	87.81
398.147	77.81
398.371	78.81
398.595	73.81
398.82	85.81
399.044	87.81
399.268	77.81
399.492	73.81
399.717	86.81
399.941	96.81
400.165	99.81
400.389	93.81
400.613	87.81
400.837	76.81
401.062	89.81
401.286	95.81
401.51	64.81
401.734	101.81
401.958	96.81
402.182	130.81
402.406	155.81
402.63	116.81
402.854	90.81
403.078	77.81
403.302	71.81
403.526	75.81
403.75	72.81
403.974	84.81
404.198	91.81
404.422	82.81
404.645	86.81
404.869	86.81
405.093	95.81
405.317	96.81
405.541	107.81
405.765	96.81
405.988	111.81
406.212	167.81
406.436	195.81
406.66	131.81
406.883	90.81
407.107	95.81
407.331	80.81
407.555	99.81
407.778	93.81
408.002	88.81
408.226	84.81
408.449	90.81
408.673	82.81
408.896	88.81
409.12	93.81
409.344	85.81
409.567	93.81
409.791	87.81
410.014	90.81
410.238	99.81
410.461	85.81
410.685	88.81
410.908	88.81
411.132	93.81
411.355	96.81
411.578	89.81
411.802	87.81
412.025	72.81
412.249	82.81
412.472	75.81
412.695	85.81
412.919	85.81
413.142	96.81
413.365	85.81
413.589	81.81
413.812	94.81
414.035	84.81
414.258	80.81
414.482	88.81
414.705	95.81
414.928	90.81
415.151	102.81
415.374	92.81
415.597	78.81
415.821	88.81
416.044	86.81
416.267	94.81
416.49	99.81
416.713	87.81
416.936	93.81
417.159	102.81
417.382	85.81
417.605	96.81
417.828	94.81
418.051	73.81
418.274	99.81
418.497	85.81
418.72	84.81
418.943	74.81
419.166	104.81
419.389	72.81
419.611	88.81
419.834	87.81
420.057	79.81
420.28	93.81
420.503	78.81
420.726	82.81
420.948	87.81
421.171	100.81
421.394	79.81
421.617	78.81
421.839	84.81
422.062	81.81
422.285	89.81
422.507	69.81
422.73	103.81
422.953	86.81
423.175	89.81
423.398	90.81
423.621	89.81
423.843	81.81
424.066	71.81
424.288	89.81
424.511	84.81
424.733	86.81
424.956	95.81
425.178	112.81
425.401	102.81
425.623	113.81
425.846	72.81
426.068	90.81
426.291	96.81
426.513	90.81
426.735	98.81
426.958	98.81
427.18	95.81
427.402	125.81
427.625	140.81
427.847	115.81
428.069	97.81
428.292	86.81
428.514	94.81
428.736	94.81
428.958	86.81
429.181	78.81
429.403	85.81
429.625	88.81
429.847	71.81
430.069	93.81
430.292	93.81
430.514	84.81
430.736	87.81
430.958	102.81
431.18	97.81
431.402	90.81
431.624	90.81
431.846	77.81
432.068	94.81
432.29	87.81
432.512	83.81
432.734	89.81
432.956	74.81
433.178	93.81
433.4	92.81
433.622	92.81
433.844	93.81
434.066	81.81
434.287	92.81
434.509	79.81
434.731	95.81
434.953	87.81
435.175	77.81
435.397	91.81
435.618	85.81
435.84	110.81
436.062	104.81
436.284	97.81
436.505	111.81
436.727	99.81
436.949	86.81
437.17	78.81
437.392	94.81
437.614	93.81
437.835	109.81
438.057	112.81
438.278	109.81
438.5	89.81
438.721	117.81
438.943	106.81
439.165	93.81
439.386	93.81
439.608	84.81
439.829	113.81
440.05	106.81
440.272	133.81
440.493	85.81
440.715	80.81
440.936	83.81
441.158	84.81
441.379	72.81
441.6	93.81
441.822	77.81
442.043	96.81
442.264	99.81
442.486	95.81
442.707	99.81
442.928	90.81
443.149	104.81
443.371	126.81
443.592	111.81
443.813	99.81
444.034	110.81
444.255	86.81
444.476	85.81
444.698	85.81
444.919	96.81
445.14	141.81
445.361	117.81
445.582	112.81
445.803	124.81
446.024	126.81
446.245	122.81
446.466	107.81
446.687	85.81
446.908	85.81
447.129	80.81
447.35	84.81
447.571	91.81
447.792	77.81
448.013	87.81
448.234	86.81
448.455	100.81
448.675	108.81
448.896	113.81
449.117	93.81
449.338	97.81
449.559	112.81
449.779	133.81
450	98.81
450.221	92.81
450.442	90.81
450.662	82.81
450.883	93.81
451.104	105.81
451.324	94.81
451.545	76.81
451.766	77.81
451.986	90.81
452.207	73.81
452.428	100.81
452.648	76.81
452.869	117.81
453.089	107.81
453.31	115.81
453.53	95.81
453.751	85.81
453.971	94.81
454.192	94.81
454.412	86.81
454.633	93.81
454.853	79.81
455.073	86.81
455.294	80.81
455.514	79.81
455.734	87.81
455.955	92.81
456.175	91.81
456.395	75.81
456.616	97.81
456.836	83.81
457.056	83.81
457.276	94.81
457.497	86.81
457.717	92.81
457.937	89.81
458.157	88.81
458.377	103.81
458.598	103.81
458.818	132.81
459.038	149.81
459.258	108.81
459.478	80.81
459.698	83.81
459.918	96.81
460.138	91.81
460.358	95.81
460.578	90.81
460.798	80.81
461.018	78.81
461.238	85.81
461.458	66.81
461.678	86.81
461.898	78.81
462.118	70.81
462.338	90.81
462.558	89.81
462.777	89.81
462.997	69.81
463.217	82.81
463.437	98.81
463.657	76.81
463.876	82.81
464.096	79.81
464.316	82.81
464.536	85.81
464.755	105.81
464.975	101.81
465.195	167.81
465.414	154.81
465.634	81.81
465.854	94.81
466.073	80.81
466.293	91.81
466.512	97.81
466.732	95.81
466.951	86.81
467.171	97.81
467.391	96.81
467.61	102.81
467.829	80.81
468.049	83.81
468.268	82.81
468.488	87.81
468.707	84.81
468.927	72.81
469.146	85.81
469.365	89.81
469.585	78.81
469.804	88.81
470.023	80.81
470.243	81.81
470.462	99.81
470.681	101.81
470.901	84.81
471.12	91.81
471.339	94.81
471.558	71.81
471.777	79.81
471.997	81.81
472.216	91.81
472.435	93.81
472.654	93.81
472.873	84.81
473.092	90.81
473.311	93.81
473.53	83.81
473.749	87.81
473.968	90.81
474.187	92.81
474.406	100.81
474.625	96.81
474.844	85.81
475.063	87.81
475.282	96.81
475.501	79.81
475.72	85.81
475.939	86.81
476.158	88.81
476.377	84.81
476.596	84.81
476.814	95.81
477.033	86.81
477.252	84.81
477.471	76.81
477.69	90.81
477.908	89.81
478.127	101.81
478.346	73.81
478.564	88.81
478.783	90.81
479.002	72.81
479.22	90.81
479.439	88.81
479.658	93.81
479.876	94.81
480.095	95.81
480.313	74.81
480.532	74.81
480.751	86.81
480.969	87.81
481.188	110.81
481.406	97.81
481.624	85.81
481.843	77.81
482.061	100.81
482.28	89.81
482.498	94.81
482.717	100.81
482.935	80.81
483.153	100.81
483.372	81.81
483.59	83.81
483.808	92.81
484.027	77.81
484.245	96.81
484.463	87.81
484.681	92.81
484.9	99.81
485.118	87.81
485.336	84.81
485.554	90.81
485.772	80.81
485.99	104.81
486.209	110.81
486.427	91.81
486.645	109.81
486.863	108.81
487.081	106.81
487.299	97.81
487.517	93.81
487.735	99.81
487.953	95.81
488.171	104.81
488.389	100.81
488.607	108.81
488.825	84.81
489.043	87.81
489.261	92.81
489.479	92.81
489.696	82.81
489.914	88.81
490.132	88.81
490.35	96.81
490.568	97.81
490.786	91.81
491.003	93.81
491.221	95.81
491.439	99.81
491.657	88.81
491.874	87.81
492.092	99.81
492.31	83.81
492.527	94.81
492.745	89.81
492.963	85.81
493.18	94.81
493.398	73.81
493.615	92.81
493.833	94.81
494.05	78.81
494.268	85.81
494.485	82.81
494.703	84.81
494.92	82.81
495.138	93.81
495.355	89.81
495.573	92.81
495.79	91.81
496.008	92.81
496.225	88.81
496.442	85.81
496.66	81.81
496.877	84.81
497.094	88.81
497.312	83.81
497.529	94.81
497.746	102.81
497.963	77.81
498.181	87.81
498.398	98.81
498.615	91.81
498.832	108.81
499.049	97.81
499.267	88.81
499.484	84.81
499.701	72.81
499.918	97.81
500.135	90.81
500.352	90.81
500.569	106.81
500.786	84.81
501.003	98.81
501.22	85.81
501.437	85.81
501.654	88.81
501.871	94.81
502.088	75.81
502.305	92.81
502.522	88.81
502.739	94.81
502.956	71.81
503.172	93.81
503.389	93.81
503.606	101.81
503.823	104.81
504.04	81.81
504.256	77.81
504.473	78.81
504.69	80.81
504.907	92.81
505.123	89.81
505.34	88.81
505.557	86.81
505.773	98.81
505.99	97.81
506.207	91.81
506.423	109.81
506.64	89.81
506.856	96.81
507.073	80.81
507.289	79.81
507.506	86.81
507.722	109.81
507.939	108.81
508.155	102.81
508.372	99.81
508.588	97.81
508.805	77.81
509.021	97.81
509.238	93.81
509.454	105.81
509.67	110.81
509.887	108.81
510.103	125.81
510.319	207.81
510.536	710.81
510.752	2262.81
510.968	642.81
511.184	140.81
511.401	104.81
511.617	86.81
511.833	84.81
512.049	97.81
512.265	90.81
512.481	87.81
512.698	83.81
512.914	97.81
513.13	90.81
513.346	93.81
513.562	98.81
513.778	106.81
513.994	105.81
514.21	90.81
514.426	97.81
514.642	114.81
514.858	125.81
515.074	152.81
515.29	392.81
515.506	1327.81
515.721	486.81
515.937	146.81
516.153	102.81
516.369	93.81
516.585	100.81
516.801	89.81
