Data from Uncirc_2003_H10_HRD10591_00024.txt Node
Date: Wed Jan 03 10:35:52 EST 2024
User: Yrep
Spectrometer: HR+D1059
Trigger mode: 1
Integration Time (sec): 1.000000E-1
Scans to average: 1
Electric dark correction enabled: true
Nonlinearity correction enabled: false
Boxcar width: 0
XAxis mode: Wavelengths
Number of Pixels in Spectrum: 2048
>>>>>Begin Spectral Data<<<<<
223.165	-0.25
223.4	-0.25
223.635	-0.25
223.869	-12.25
224.104	-23.25
224.338	-14.25
224.573	-21.25
224.808	-6.25
225.042	-12.25
225.277	4.75
225.511	-6.25
225.746	-2.25
225.98	-2.25
226.215	12.75
226.449	11.75
226.683	18.75
226.918	29.75
227.152	22.75
227.387	36.75
227.621	48.75
227.856	41.75
228.09	63.75
228.324	52.75
228.559	44.75
228.793	68.75
229.027	69.75
229.262	67.75
229.496	72.75
229.73	80.75
229.964	76.75
230.199	61.75
230.433	76.75
230.667	84.75
230.901	84.75
231.136	71.75
231.37	101.75
231.604	70.75
231.838	83.75
232.072	85.75
232.306	97.75
232.541	83.75
232.775	80.75
233.009	80.75
233.243	91.75
233.477	86.75
233.711	91.75
233.945	77.75
234.179	93.75
234.413	82.75
234.647	92.75
234.881	75.75
235.115	76.75
235.349	82.75
235.583	86.75
235.817	76.75
236.051	82.75
236.285	74.75
236.519	95.75
236.753	78.75
236.987	88.75
237.221	86.75
237.455	74.75
237.689	87.75
237.922	76.75
238.156	76.75
238.39	67.75
238.624	79.75
238.858	63.75
239.091	75.75
239.325	82.75
239.559	80.75
239.793	76.75
240.027	99.75
240.26	70.75
240.494	77.75
240.728	77.75
240.961	78.75
241.195	69.75
241.429	74.75
241.662	69.75
241.896	97.75
242.13	85.75
242.363	86.75
242.597	80.75
242.83	91.75
243.064	87.75
243.298	62.75
243.531	81.75
243.765	80.75
243.998	83.75
244.232	87.75
244.465	79.75
244.699	92.75
244.932	76.75
245.166	88.75
245.399	80.75
245.633	82.75
245.866	85.75
246.099	83.75
246.333	72.75
246.566	74.75
246.8	69.75
247.033	80.75
247.266	93.75
247.5	90.75
247.733	88.75
247.966	79.75
248.2	85.75
248.433	75.75
248.666	78.75
248.899	106.75
249.133	88.75
249.366	92.75
249.599	90.75
249.832	75.75
250.066	84.75
250.299	80.75
250.532	80.75
250.765	93.75
250.998	82.75
251.231	80.75
251.465	76.75
251.698	61.75
251.931	84.75
252.164	93.75
252.397	79.75
252.63	69.75
252.863	98.75
253.096	72.75
253.329	75.75
253.562	83.75
253.795	87.75
254.028	87.75
254.261	84.75
254.494	95.75
254.727	89.75
254.96	82.75
255.193	72.75
255.426	77.75
255.659	79.75
255.892	87.75
256.124	78.75
256.357	85.75
256.59	85.75
256.823	79.75
257.056	91.75
257.289	73.75
257.521	94.75
257.754	91.75
257.987	94.75
258.22	93.75
258.452	83.75
258.685	98.75
258.918	92.75
259.151	74.75
259.383	84.75
259.616	88.75
259.849	83.75
260.081	86.75
260.314	91.75
260.547	90.75
260.779	85.75
261.012	78.75
261.244	93.75
261.477	100.75
261.71	104.75
261.942	93.75
262.175	116.75
262.407	109.75
262.64	97.75
262.872	102.75
263.105	80.75
263.337	88.75
263.57	92.75
263.802	93.75
264.035	82.75
264.267	88.75
264.499	67.75
264.732	79.75
264.964	87.75
265.197	76.75
265.429	92.75
265.661	86.75
265.894	105.75
266.126	85.75
266.358	104.75
266.591	91.75
266.823	94.75
267.055	94.75
267.287	93.75
267.52	78.75
267.752	81.75
267.984	100.75
268.216	75.75
268.448	84.75
268.681	83.75
268.913	75.75
269.145	80.75
269.377	101.75
269.609	90.75
269.841	65.75
270.073	81.75
270.306	85.75
270.538	95.75
270.77	88.75
271.002	83.75
271.234	82.75
271.466	105.75
271.698	88.75
271.93	94.75
272.162	97.75
272.394	91.75
272.626	89.75
272.858	94.75
273.09	95.75
273.322	94.75
273.553	80.75
273.785	107.75
274.017	76.75
274.249	85.75
274.481	80.75
274.713	68.75
274.945	106.75
275.176	93.75
275.408	94.75
275.64	88.75
275.872	93.75
276.104	91.75
276.335	82.75
276.567	79.75
276.799	114.75
277.031	107.75
277.262	92.75
277.494	98.75
277.726	85.75
277.957	91.75
278.189	100.75
278.421	102.75
278.652	92.75
278.884	87.75
279.115	89.75
279.347	87.75
279.579	90.75
279.81	95.75
280.042	95.75
280.273	97.75
280.505	87.75
280.736	90.75
280.968	73.75
281.199	99.75
281.431	74.75
281.662	84.75
281.894	100.75
282.125	100.75
282.356	115.75
282.588	135.75
282.819	106.75
283.051	89.75
283.282	92.75
283.513	86.75
283.745	96.75
283.976	91.75
284.207	97.75
284.439	97.75
284.67	99.75
284.901	96.75
285.132	87.75
285.364	99.75
285.595	72.75
285.826	93.75
286.057	103.75
286.288	84.75
286.52	107.75
286.751	95.75
286.982	82.75
287.213	69.75
287.444	87.75
287.675	88.75
287.906	104.75
288.138	99.75
288.369	100.75
288.6	84.75
288.831	84.75
289.062	89.75
289.293	87.75
289.524	95.75
289.755	99.75
289.986	96.75
290.217	93.75
290.448	89.75
290.679	89.75
290.91	89.75
291.141	77.75
291.371	103.75
291.602	101.75
291.833	96.75
292.064	91.75
292.295	106.75
292.526	108.75
292.757	108.75
292.987	84.75
293.218	80.75
293.449	88.75
293.68	84.75
293.91	86.75
294.141	70.75
294.372	96.75
294.603	90.75
294.833	96.75
295.064	87.75
295.295	86.75
295.525	84.75
295.756	91.75
295.987	137.75
296.217	150.75
296.448	123.75
296.679	93.75
296.909	82.75
297.14	95.75
297.37	90.75
297.601	87.75
297.831	101.75
298.062	97.75
298.292	90.75
298.523	97.75
298.753	83.75
298.984	90.75
299.214	97.75
299.445	90.75
299.675	89.75
299.905	112.75
300.136	89.75
300.366	92.75
300.597	100.75
300.827	93.75
301.057	102.75
301.288	100.75
301.518	93.75
301.748	95.75
301.979	106.75
302.209	96.75
302.439	92.75
302.669	88.75
302.9	82.75
303.13	97.75
303.36	95.75
303.59	109.75
303.82	111.75
304.051	89.75
304.281	84.75
304.511	98.75
304.741	83.75
304.971	97.75
305.201	102.75
305.431	89.75
305.661	84.75
305.891	108.75
306.121	87.75
306.352	89.75
306.582	117.75
306.812	100.75
307.042	86.75
307.272	94.75
307.502	78.75
307.731	95.75
307.961	93.75
308.191	88.75
308.421	75.75
308.651	95.75
308.881	75.75
309.111	87.75
309.341	92.75
309.571	117.75
309.8	90.75
310.03	92.75
310.26	95.75
310.49	95.75
310.72	92.75
310.949	102.75
311.179	95.75
311.409	91.75
311.639	99.75
311.868	106.75
312.098	104.75
312.328	91.75
312.557	97.75
312.787	95.75
313.017	101.75
313.246	102.75
313.476	94.75
313.706	88.75
313.935	93.75
314.165	98.75
314.394	94.75
314.624	88.75
314.853	102.75
315.083	94.75
315.312	97.75
315.542	112.75
315.771	97.75
316.001	94.75
316.23	104.75
316.46	96.75
316.689	97.75
316.919	111.75
317.148	90.75
317.377	103.75
317.607	100.75
317.836	87.75
318.065	111.75
318.295	85.75
318.524	100.75
318.753	83.75
318.983	92.75
319.212	92.75
319.441	105.75
319.67	99.75
319.9	101.75
320.129	97.75
320.358	103.75
320.587	106.75
320.816	97.75
321.046	100.75
321.275	93.75
321.504	94.75
321.733	97.75
321.962	92.75
322.191	100.75
322.42	97.75
322.649	109.75
322.878	120.75
323.108	106.75
323.337	124.75
323.566	129.75
323.795	153.75
324.024	217.75
324.253	383.75
324.482	814.75
324.71	1724.75
324.939	2254.75
325.168	805.75
325.397	251.75
325.626	147.75
325.855	131.75
326.084	131.75
326.313	137.75
326.542	163.75
326.77	226.75
326.999	477.75
327.228	961.75
327.457	1721.75
327.686	1391.75
327.914	357.75
328.143	196.75
328.372	143.75
328.6	114.75
328.829	106.75
329.058	114.75
329.287	133.75
329.515	112.75
329.744	96.75
329.972	97.75
330.201	113.75
330.43	123.75
330.658	122.75
330.887	130.75
331.115	134.75
331.344	103.75
331.572	102.75
331.801	108.75
332.03	90.75
332.258	91.75
332.486	100.75
332.715	93.75
332.943	79.75
333.172	93.75
333.4	103.75
333.629	108.75
333.857	121.75
334.085	113.75
334.314	101.75
334.542	103.75
334.771	115.75
334.999	95.75
335.227	96.75
335.455	101.75
335.684	104.75
335.912	88.75
336.14	113.75
336.369	102.75
336.597	89.75
336.825	93.75
337.053	97.75
337.281	102.75
337.51	95.75
337.738	103.75
337.966	99.75
338.194	109.75
338.422	88.75
338.65	89.75
338.878	91.75
339.106	90.75
339.334	89.75
339.562	94.75
339.79	85.75
340.018	81.75
340.246	98.75
340.474	91.75
340.702	85.75
340.93	95.75
341.158	99.75
341.386	104.75
341.614	105.75
341.842	105.75
342.07	96.75
342.298	88.75
342.526	86.75
342.754	84.75
342.981	92.75
343.209	96.75
343.437	97.75
343.665	90.75
343.893	86.75
344.12	87.75
344.348	90.75
344.576	101.75
344.804	105.75
345.031	90.75
345.259	108.75
345.487	92.75
345.714	83.75
345.942	103.75
346.17	88.75
346.397	90.75
346.625	94.75
346.853	76.75
347.08	89.75
347.308	98.75
347.535	85.75
347.763	98.75
347.99	102.75
348.218	104.75
348.445	116.75
348.673	96.75
348.9	86.75
349.128	104.75
349.355	95.75
349.583	96.75
349.81	99.75
350.037	108.75
350.265	99.75
350.492	93.75
350.72	113.75
350.947	105.75
351.174	106.75
351.402	100.75
351.629	109.75
351.856	112.75
352.083	115.75
352.311	103.75
352.538	100.75
352.765	117.75
352.992	113.75
353.22	120.75
353.447	97.75
353.674	98.75
353.901	104.75
354.128	115.75
354.355	112.75
354.583	108.75
354.81	92.75
355.037	103.75
355.264	105.75
355.491	94.75
355.718	91.75
355.945	101.75
356.172	110.75
356.399	90.75
356.626	100.75
356.853	108.75
357.08	105.75
357.307	91.75
357.534	99.75
357.761	97.75
357.988	103.75
358.215	89.75
358.441	93.75
358.668	77.75
358.895	102.75
359.122	99.75
359.349	95.75
359.576	105.75
359.802	103.75
360.029	106.75
360.256	103.75
360.483	93.75
360.709	91.75
360.936	84.75
361.163	93.75
361.39	92.75
361.616	95.75
361.843	102.75
362.07	96.75
362.296	92.75
362.523	82.75
362.749	87.75
362.976	99.75
363.203	97.75
363.429	85.75
363.656	77.75
363.882	98.75
364.109	88.75
364.335	87.75
364.562	99.75
364.788	95.75
365.015	101.75
365.241	108.75
365.468	100.75
365.694	111.75
365.92	97.75
366.147	105.75
366.373	92.75
366.599	100.75
366.826	97.75
367.052	93.75
367.278	90.75
367.505	92.75
367.731	97.75
367.957	100.75
368.184	97.75
368.41	94.75
368.636	111.75
368.862	116.75
369.089	114.75
369.315	98.75
369.541	99.75
369.767	81.75
369.993	100.75
370.219	101.75
370.445	84.75
370.672	80.75
370.898	94.75
371.124	92.75
371.35	95.75
371.576	77.75
371.802	84.75
372.028	92.75
372.254	95.75
372.48	93.75
372.706	67.75
372.932	79.75
373.158	97.75
373.384	92.75
373.61	101.75
373.835	104.75
374.061	108.75
374.287	98.75
374.513	101.75
374.739	92.75
374.965	95.75
375.191	93.75
375.416	96.75
375.642	92.75
375.868	78.75
376.094	91.75
376.319	96.75
376.545	87.75
376.771	84.75
376.997	100.75
377.222	98.75
377.448	96.75
377.674	97.75
377.899	102.75
378.125	85.75
378.35	106.75
378.576	101.75
378.802	109.75
379.027	89.75
379.253	83.75
379.478	102.75
379.704	87.75
379.929	86.75
380.155	91.75
380.38	104.75
380.606	86.75
380.831	102.75
381.057	119.75
381.282	109.75
381.507	101.75
381.733	105.75
381.958	96.75
382.184	99.75
382.409	112.75
382.634	122.75
382.86	82.75
383.085	99.75
383.31	97.75
383.535	88.75
383.761	89.75
383.986	97.75
384.211	95.75
384.436	103.75
384.662	116.75
384.887	119.75
385.112	105.75
385.337	113.75
385.562	116.75
385.787	121.75
386.013	120.75
386.238	111.75
386.463	111.75
386.688	107.75
386.913	113.75
387.138	120.75
387.363	107.75
387.588	111.75
387.813	107.75
388.038	118.75
388.263	116.75
388.488	105.75
388.713	97.75
388.938	104.75
389.163	107.75
389.387	92.75
389.612	83.75
389.837	113.75
390.062	91.75
390.287	105.75
390.512	93.75
390.736	104.75
390.961	98.75
391.186	79.75
391.411	89.75
391.636	78.75
391.86	74.75
392.085	92.75
392.31	104.75
392.534	81.75
392.759	88.75
392.984	91.75
393.208	96.75
393.433	103.75
393.658	83.75
393.882	86.75
394.107	99.75
394.331	95.75
394.556	79.75
394.78	87.75
395.005	96.75
395.229	93.75
395.454	77.75
395.678	94.75
395.903	83.75
396.127	101.75
396.352	88.75
396.576	93.75
396.801	99.75
397.025	88.75
397.249	101.75
397.474	96.75
397.698	85.75
397.922	91.75
398.147	78.75
398.371	95.75
398.595	87.75
398.82	84.75
399.044	82.75
399.268	95.75
399.492	97.75
399.717	85.75
399.941	91.75
400.165	87.75
400.389	84.75
400.613	86.75
400.837	101.75
401.062	103.75
401.286	93.75
401.51	81.75
401.734	87.75
401.958	102.75
402.182	123.75
402.406	159.75
402.63	132.75
402.854	89.75
403.078	91.75
403.302	80.75
403.526	87.75
403.75	84.75
403.974	87.75
404.198	86.75
404.422	91.75
404.645	72.75
404.869	79.75
405.093	79.75
405.317	94.75
405.541	111.75
405.765	101.75
405.988	104.75
406.212	180.75
406.436	218.75
406.66	144.75
406.883	89.75
407.107	92.75
407.331	99.75
407.555	92.75
407.778	104.75
408.002	82.75
408.226	87.75
408.449	88.75
408.673	98.75
408.896	99.75
409.12	88.75
409.344	92.75
409.567	92.75
409.791	93.75
410.014	93.75
410.238	105.75
410.461	107.75
410.685	108.75
410.908	103.75
411.132	99.75
411.355	106.75
411.578	96.75
411.802	106.75
412.025	96.75
412.249	105.75
412.472	84.75
412.695	87.75
412.919	95.75
413.142	87.75
413.365	89.75
413.589	84.75
413.812	96.75
414.035	89.75
414.258	87.75
414.482	104.75
414.705	94.75
414.928	91.75
415.151	77.75
415.374	99.75
415.597	92.75
415.821	84.75
416.044	96.75
416.267	96.75
416.49	94.75
416.713	97.75
416.936	89.75
417.159	80.75
417.382	96.75
417.605	90.75
417.828	88.75
418.051	80.75
418.274	100.75
418.497	86.75
418.72	93.75
418.943	107.75
419.166	83.75
419.389	101.75
419.611	98.75
419.834	89.75
420.057	92.75
420.28	85.75
420.503	88.75
420.726	88.75
420.948	75.75
421.171	89.75
421.394	87.75
421.617	108.75
421.839	104.75
422.062	103.75
422.285	85.75
422.507	111.75
422.73	122.75
422.953	106.75
423.175	90.75
423.398	102.75
423.621	94.75
423.843	93.75
424.066	96.75
424.288	92.75
424.511	92.75
424.733	96.75
424.956	102.75
425.178	93.75
425.401	88.75
425.623	95.75
425.846	85.75
426.068	101.75
426.291	85.75
426.513	93.75
426.735	96.75
426.958	83.75
427.18	104.75
427.402	147.75
427.625	159.75
427.847	119.75
428.069	114.75
428.292	91.75
428.514	89.75
428.736	84.75
428.958	93.75
429.181	101.75
429.403	97.75
429.625	96.75
429.847	97.75
430.069	108.75
430.292	91.75
430.514	86.75
430.736	82.75
430.958	82.75
431.18	88.75
431.402	89.75
431.624	88.75
431.846	99.75
432.068	97.75
432.29	91.75
432.512	97.75
432.734	90.75
432.956	84.75
433.178	92.75
433.4	99.75
433.622	103.75
433.844	78.75
434.066	79.75
434.287	87.75
434.509	96.75
434.731	102.75
434.953	79.75
435.175	83.75
435.397	95.75
435.618	85.75
435.84	107.75
436.062	133.75
436.284	120.75
436.505	101.75
436.727	96.75
436.949	101.75
437.17	99.75
437.392	89.75
437.614	100.75
437.835	113.75
438.057	111.75
438.278	90.75
438.5	88.75
438.721	104.75
438.943	94.75
439.165	84.75
439.386	99.75
439.608	93.75
439.829	111.75
440.05	119.75
440.272	141.75
440.493	103.75
440.715	92.75
440.936	98.75
441.158	102.75
441.379	96.75
441.6	101.75
441.822	103.75
442.043	103.75
442.264	115.75
442.486	103.75
442.707	100.75
442.928	108.75
443.149	134.75
443.371	128.75
443.592	101.75
443.813	113.75
444.034	108.75
444.255	80.75
444.476	95.75
444.698	97.75
444.919	98.75
445.14	136.75
445.361	120.75
445.582	113.75
445.803	123.75
446.024	119.75
446.245	144.75
446.466	106.75
446.687	84.75
446.908	96.75
447.129	89.75
447.35	87.75
447.571	100.75
447.792	97.75
448.013	112.75
448.234	90.75
448.455	108.75
448.675	112.75
448.896	119.75
449.117	90.75
449.338	102.75
449.559	122.75
449.779	115.75
450	85.75
450.221	97.75
450.442	87.75
450.662	108.75
450.883	105.75
451.104	104.75
451.324	100.75
451.545	87.75
451.766	81.75
451.986	92.75
452.207	99.75
452.428	103.75
452.648	90.75
452.869	103.75
453.089	111.75
453.31	113.75
453.53	103.75
453.751	88.75
453.971	112.75
454.192	105.75
454.412	88.75
454.633	93.75
454.853	81.75
455.073	88.75
455.294	92.75
455.514	96.75
455.734	99.75
455.955	100.75
456.175	85.75
456.395	89.75
456.616	104.75
456.836	100.75
457.056	86.75
457.276	97.75
457.497	100.75
457.717	79.75
457.937	104.75
458.157	83.75
458.377	101.75
458.598	115.75
458.818	135.75
459.038	129.75
459.258	96.75
459.478	103.75
459.698	90.75
459.918	93.75
460.138	107.75
460.358	91.75
460.578	108.75
460.798	85.75
461.018	97.75
461.238	71.75
461.458	87.75
461.678	93.75
461.898	92.75
462.118	88.75
462.338	100.75
462.558	88.75
462.777	89.75
462.997	78.75
463.217	83.75
463.437	103.75
463.657	97.75
463.876	89.75
464.096	90.75
464.316	97.75
464.536	92.75
464.755	93.75
464.975	112.75
465.195	144.75
465.414	149.75
465.634	99.75
465.854	98.75
466.073	83.75
466.293	97.75
466.512	89.75
466.732	73.75
466.951	84.75
467.171	100.75
467.391	93.75
467.61	100.75
467.829	95.75
468.049	106.75
468.268	97.75
468.488	88.75
468.707	85.75
468.927	92.75
469.146	70.75
469.365	95.75
469.585	89.75
469.804	109.75
470.023	94.75
470.243	109.75
470.462	95.75
470.681	107.75
470.901	107.75
471.12	104.75
471.339	97.75
471.558	90.75
471.777	93.75
471.997	109.75
472.216	91.75
472.435	105.75
472.654	89.75
472.873	86.75
473.092	81.75
473.311	84.75
473.53	91.75
473.749	98.75
473.968	92.75
474.187	100.75
474.406	90.75
474.625	75.75
474.844	93.75
475.063	84.75
475.282	97.75
475.501	92.75
475.72	93.75
475.939	92.75
476.158	87.75
476.377	95.75
476.596	96.75
476.814	97.75
477.033	101.75
477.252	88.75
477.471	102.75
477.69	105.75
477.908	76.75
478.127	91.75
478.346	88.75
478.564	93.75
478.783	83.75
479.002	94.75
479.22	97.75
479.439	101.75
479.658	116.75
479.876	104.75
480.095	85.75
480.313	93.75
480.532	89.75
480.751	85.75
480.969	97.75
481.188	124.75
481.406	93.75
481.624	103.75
481.843	96.75
482.061	81.75
482.28	81.75
482.498	98.75
482.717	89.75
482.935	90.75
483.153	101.75
483.372	92.75
483.59	107.75
483.808	99.75
484.027	98.75
484.245	79.75
484.463	95.75
484.681	100.75
484.9	87.75
485.118	96.75
485.336	92.75
485.554	107.75
485.772	110.75
485.99	98.75
486.209	98.75
486.427	93.75
486.645	115.75
486.863	120.75
487.081	115.75
487.299	104.75
487.517	90.75
487.735	87.75
487.953	89.75
488.171	103.75
488.389	112.75
488.607	102.75
488.825	91.75
489.043	96.75
489.261	91.75
489.479	104.75
489.696	88.75
489.914	89.75
490.132	97.75
490.35	93.75
490.568	89.75
490.786	84.75
491.003	96.75
491.221	102.75
491.439	101.75
491.657	100.75
491.874	90.75
492.092	91.75
492.31	99.75
492.527	95.75
492.745	96.75
492.963	101.75
493.18	83.75
493.398	91.75
493.615	79.75
493.833	103.75
494.05	105.75
494.268	83.75
494.485	80.75
494.703	99.75
494.92	97.75
495.138	106.75
495.355	93.75
495.573	100.75
495.79	92.75
496.008	97.75
496.225	87.75
496.442	99.75
496.66	91.75
496.877	86.75
497.094	87.75
497.312	81.75
497.529	89.75
497.746	93.75
497.963	90.75
498.181	100.75
498.398	99.75
498.615	108.75
498.832	97.75
499.049	100.75
499.267	93.75
499.484	88.75
499.701	108.75
499.918	101.75
500.135	93.75
500.352	103.75
500.569	100.75
500.786	77.75
501.003	93.75
501.22	85.75
501.437	90.75
501.654	95.75
501.871	116.75
502.088	99.75
502.305	94.75
502.522	100.75
502.739	85.75
502.956	83.75
503.172	92.75
503.389	91.75
503.606	90.75
503.823	112.75
504.04	96.75
504.256	79.75
504.473	87.75
504.69	96.75
504.907	102.75
505.123	103.75
505.34	97.75
505.557	103.75
505.773	90.75
505.99	93.75
506.207	97.75
506.423	88.75
506.64	105.75
506.856	113.75
507.073	88.75
507.289	101.75
507.506	91.75
507.722	114.75
507.939	103.75
508.155	98.75
508.372	85.75
508.588	87.75
508.805	108.75
509.021	95.75
509.238	99.75
509.454	90.75
509.67	111.75
509.887	117.75
510.103	123.75
510.319	233.75
510.536	729.75
510.752	2382.75
510.968	655.75
511.184	151.75
511.401	108.75
511.617	107.75
511.833	93.75
512.049	95.75
512.265	88.75
512.481	88.75
512.698	110.75
512.914	101.75
513.13	93.75
513.346	85.75
513.562	96.75
513.778	91.75
513.994	103.75
514.21	123.75
