Data from Uncirc_2003_H10_HRD10591_00095.txt Node
Date: Wed Jan 03 10:36:06 EST 2024
User: Yrep
Spectrometer: HR+D1059
Trigger mode: 1
Integration Time (sec): 1.000000E-1
Scans to average: 1
Electric dark correction enabled: true
Nonlinearity correction enabled: false
Boxcar width: 0
XAxis mode: Wavelengths
Number of Pixels in Spectrum: 2048
>>>>>Begin Spectral Data<<<<<
223.165	-11.12
223.4	-11.12
223.635	-11.12
223.869	-30.12
224.104	-24.12
224.338	-24.12
224.573	-19.12
224.808	-15.12
225.042	-5.12
225.277	-9.12
225.511	-8.12
225.746	7.88
225.98	3.88
226.215	16.88
226.449	26.88
226.683	17.88
226.918	21.88
227.152	50.88
227.387	40.88
227.621	33.88
227.856	45.88
228.09	53.88
228.324	53.88
228.559	60.88
228.793	45.88
229.027	63.88
229.262	77.88
229.496	83.88
229.73	81.88
229.964	86.88
230.199	93.88
230.433	72.88
230.667	70.88
230.901	76.88
231.136	90.88
231.37	89.88
231.604	76.88
231.838	80.88
232.072	85.88
232.306	78.88
232.541	70.88
232.775	79.88
233.009	74.88
233.243	85.88
233.477	75.88
233.711	81.88
233.945	78.88
234.179	70.88
234.413	87.88
234.647	94.88
234.881	71.88
235.115	65.88
235.349	62.88
235.583	70.88
235.817	89.88
236.051	84.88
236.285	89.88
236.519	74.88
236.753	70.88
236.987	66.88
237.221	67.88
237.455	86.88
237.689	84.88
237.922	79.88
238.156	68.88
238.39	65.88
238.624	85.88
238.858	76.88
239.091	87.88
239.325	79.88
239.559	82.88
239.793	73.88
240.027	77.88
240.26	84.88
240.494	80.88
240.728	71.88
240.961	70.88
241.195	68.88
241.429	89.88
241.662	84.88
241.896	75.88
242.13	80.88
242.363	67.88
242.597	68.88
242.83	74.88
243.064	71.88
243.298	68.88
243.531	84.88
243.765	77.88
243.998	70.88
244.232	87.88
244.465	76.88
244.699	76.88
244.932	71.88
245.166	78.88
245.399	73.88
245.633	72.88
245.866	80.88
246.099	74.88
246.333	91.88
246.566	74.88
246.8	83.88
247.033	79.88
247.266	88.88
247.5	74.88
247.733	86.88
247.966	82.88
248.2	70.88
248.433	66.88
248.666	73.88
248.899	83.88
249.133	88.88
249.366	93.88
249.599	101.88
249.832	86.88
250.066	93.88
250.299	82.88
250.532	71.88
250.765	87.88
250.998	72.88
251.231	84.88
251.465	87.88
251.698	93.88
251.931	71.88
252.164	82.88
252.397	80.88
252.63	81.88
252.863	73.88
253.096	95.88
253.329	83.88
253.562	82.88
253.795	84.88
254.028	77.88
254.261	76.88
254.494	76.88
254.727	69.88
254.96	74.88
255.193	76.88
255.426	76.88
255.659	78.88
255.892	80.88
256.124	81.88
256.357	77.88
256.59	70.88
256.823	80.88
257.056	96.88
257.289	87.88
257.521	77.88
257.754	68.88
257.987	94.88
258.22	84.88
258.452	65.88
258.685	71.88
258.918	77.88
259.151	81.88
259.383	81.88
259.616	84.88
259.849	85.88
260.081	71.88
260.314	95.88
260.547	81.88
260.779	86.88
261.012	76.88
261.244	80.88
261.477	94.88
261.71	73.88
261.942	104.88
262.175	102.88
262.407	87.88
262.64	78.88
262.872	84.88
263.105	82.88
263.337	84.88
263.57	82.88
263.802	89.88
264.035	83.88
264.267	96.88
264.499	78.88
264.732	79.88
264.964	88.88
265.197	86.88
265.429	78.88
265.661	89.88
265.894	85.88
266.126	90.88
266.358	88.88
266.591	81.88
266.823	78.88
267.055	81.88
267.287	80.88
267.52	83.88
267.752	84.88
267.984	91.88
268.216	79.88
268.448	96.88
268.681	91.88
268.913	83.88
269.145	92.88
269.377	79.88
269.609	75.88
269.841	91.88
270.073	94.88
270.306	80.88
270.538	87.88
270.77	72.88
271.002	60.88
271.234	70.88
271.466	74.88
271.698	72.88
271.93	106.88
272.162	88.88
272.394	90.88
272.626	87.88
272.858	84.88
273.09	92.88
273.322	83.88
273.553	86.88
273.785	82.88
274.017	78.88
274.249	83.88
274.481	90.88
274.713	70.88
274.945	80.88
275.176	87.88
275.408	82.88
275.64	95.88
275.872	74.88
276.104	89.88
276.335	83.88
276.567	99.88
276.799	83.88
277.031	95.88
277.262	92.88
277.494	80.88
277.726	76.88
277.957	85.88
278.189	81.88
278.421	80.88
278.652	71.88
278.884	86.88
279.115	81.88
279.347	86.88
279.579	77.88
279.81	81.88
280.042	92.88
280.273	84.88
280.505	88.88
280.736	85.88
280.968	90.88
281.199	87.88
281.431	88.88
281.662	91.88
281.894	86.88
282.125	99.88
282.356	113.88
282.588	126.88
282.819	101.88
283.051	90.88
283.282	70.88
283.513	82.88
283.745	93.88
283.976	75.88
284.207	76.88
284.439	84.88
284.67	88.88
284.901	92.88
285.132	77.88
285.364	77.88
285.595	90.88
285.826	90.88
286.057	78.88
286.288	77.88
286.52	85.88
286.751	75.88
286.982	84.88
287.213	90.88
287.444	86.88
287.675	102.88
287.906	87.88
288.138	87.88
288.369	94.88
288.6	108.88
288.831	96.88
289.062	96.88
289.293	94.88
289.524	86.88
289.755	95.88
289.986	84.88
290.217	90.88
290.448	85.88
290.679	86.88
290.91	87.88
291.141	96.88
291.371	80.88
291.602	90.88
291.833	81.88
292.064	77.88
292.295	80.88
292.526	84.88
292.757	82.88
292.987	91.88
293.218	85.88
293.449	87.88
293.68	73.88
293.91	78.88
294.141	102.88
294.372	89.88
294.603	98.88
294.833	89.88
295.064	85.88
295.295	101.88
295.525	89.88
295.756	102.88
295.987	106.88
296.217	132.88
296.448	127.88
296.679	101.88
296.909	89.88
297.14	82.88
297.37	92.88
297.601	92.88
297.831	90.88
298.062	86.88
298.292	74.88
298.523	82.88
298.753	82.88
298.984	98.88
299.214	82.88
299.445	89.88
299.675	96.88
299.905	96.88
300.136	89.88
300.366	86.88
300.597	85.88
300.827	90.88
301.057	103.88
301.288	109.88
301.518	76.88
301.748	96.88
301.979	98.88
302.209	94.88
302.439	95.88
302.669	71.88
302.9	87.88
303.13	88.88
303.36	89.88
303.59	82.88
303.82	106.88
304.051	96.88
304.281	92.88
304.511	97.88
304.741	82.88
304.971	81.88
305.201	74.88
305.431	92.88
305.661	92.88
305.891	80.88
306.121	88.88
306.352	101.88
306.582	111.88
306.812	90.88
307.042	98.88
307.272	112.88
307.502	101.88
307.731	87.88
307.961	91.88
308.191	89.88
308.421	105.88
308.651	85.88
308.881	88.88
309.111	99.88
309.341	94.88
309.571	109.88
309.8	93.88
310.03	98.88
310.26	96.88
310.49	88.88
310.72	90.88
310.949	99.88
311.179	103.88
311.409	93.88
311.639	105.88
311.868	96.88
312.098	89.88
312.328	101.88
312.557	98.88
312.787	109.88
313.017	92.88
313.246	87.88
313.476	97.88
313.706	100.88
313.935	98.88
314.165	93.88
314.394	102.88
314.624	94.88
314.853	101.88
315.083	101.88
315.312	85.88
315.542	86.88
315.771	106.88
316.001	97.88
316.23	85.88
316.46	94.88
316.689	91.88
316.919	86.88
317.148	98.88
317.377	87.88
317.607	90.88
317.836	89.88
318.065	78.88
318.295	89.88
318.524	90.88
318.753	90.88
318.983	88.88
319.212	98.88
319.441	98.88
319.67	104.88
319.9	96.88
320.129	82.88
320.358	86.88
320.587	102.88
320.816	92.88
321.046	115.88
321.275	100.88
321.504	89.88
321.733	86.88
321.962	100.88
322.191	105.88
322.42	88.88
322.649	108.88
322.878	114.88
323.108	114.88
323.337	131.88
323.566	136.88
323.795	163.88
324.024	223.88
324.253	438.88
324.482	914.88
324.71	1910.88
324.939	2567.88
325.168	942.88
325.397	254.88
325.626	163.88
325.855	140.88
326.084	126.88
326.313	136.88
326.542	147.88
326.77	241.88
326.999	497.88
327.228	1034.88
327.457	1984.88
327.686	1539.88
327.914	395.88
328.143	212.88
328.372	149.88
328.6	135.88
328.829	113.88
329.058	136.88
329.287	119.88
329.515	106.88
329.744	97.88
329.972	92.88
330.201	96.88
330.43	123.88
330.658	113.88
330.887	135.88
331.115	125.88
331.344	92.88
331.572	103.88
331.801	98.88
332.03	96.88
332.258	90.88
332.486	86.88
332.715	101.88
332.943	97.88
333.172	105.88
333.4	101.88
333.629	96.88
333.857	121.88
334.085	119.88
334.314	97.88
334.542	94.88
334.771	111.88
334.999	95.88
335.227	99.88
335.455	99.88
335.684	93.88
335.912	96.88
336.14	94.88
336.369	92.88
336.597	101.88
336.825	105.88
337.053	97.88
337.281	92.88
337.51	95.88
337.738	94.88
337.966	101.88
338.194	93.88
338.422	93.88
338.65	90.88
338.878	98.88
339.106	90.88
339.334	91.88
339.562	88.88
339.79	78.88
340.018	85.88
340.246	98.88
340.474	117.88
340.702	93.88
340.93	96.88
341.158	98.88
341.386	98.88
341.614	98.88
341.842	90.88
342.07	77.88
342.298	91.88
342.526	84.88
342.754	85.88
342.981	90.88
343.209	71.88
343.437	100.88
343.665	91.88
343.893	78.88
344.12	92.88
344.348	82.88
344.576	90.88
344.804	98.88
345.031	87.88
345.259	97.88
345.487	88.88
345.714	94.88
345.942	93.88
346.17	93.88
346.397	98.88
346.625	105.88
346.853	89.88
347.08	83.88
347.308	76.88
347.535	99.88
347.763	101.88
347.99	102.88
348.218	116.88
348.445	114.88
348.673	86.88
348.9	92.88
349.128	88.88
349.355	91.88
349.583	85.88
349.81	89.88
350.037	98.88
350.265	89.88
350.492	97.88
350.72	85.88
350.947	99.88
351.174	106.88
351.402	118.88
351.629	105.88
351.856	102.88
352.083	96.88
352.311	99.88
352.538	115.88
352.765	101.88
352.992	109.88
353.22	110.88
353.447	109.88
353.674	88.88
353.901	87.88
354.128	93.88
354.355	86.88
354.583	104.88
354.81	101.88
355.037	96.88
355.264	106.88
355.491	94.88
355.718	70.88
355.945	101.88
356.172	101.88
356.399	93.88
356.626	85.88
356.853	90.88
357.08	86.88
357.307	93.88
357.534	102.88
357.761	103.88
357.988	101.88
358.215	93.88
358.441	101.88
358.668	81.88
358.895	104.88
359.122	70.88
359.349	85.88
359.576	93.88
359.802	92.88
360.029	103.88
360.256	92.88
360.483	99.88
360.709	93.88
360.936	83.88
361.163	88.88
361.39	105.88
361.616	96.88
361.843	85.88
362.07	92.88
362.296	96.88
362.523	84.88
362.749	85.88
362.976	102.88
363.203	99.88
363.429	98.88
363.656	92.88
363.882	86.88
364.109	94.88
364.335	85.88
364.562	88.88
364.788	86.88
365.015	92.88
365.241	91.88
365.468	100.88
365.694	97.88
365.92	83.88
366.147	87.88
366.373	89.88
366.599	90.88
366.826	92.88
367.052	98.88
367.278	101.88
367.505	94.88
367.731	78.88
367.957	93.88
368.184	95.88
368.41	89.88
368.636	94.88
368.862	108.88
369.089	101.88
369.315	94.88
369.541	84.88
369.767	98.88
369.993	77.88
370.219	93.88
370.445	86.88
370.672	79.88
370.898	86.88
371.124	96.88
371.35	97.88
371.576	88.88
371.802	92.88
372.028	82.88
372.254	91.88
372.48	81.88
372.706	83.88
372.932	77.88
373.158	90.88
373.384	97.88
373.61	82.88
373.835	90.88
374.061	84.88
374.287	90.88
374.513	90.88
374.739	84.88
374.965	110.88
375.191	89.88
375.416	92.88
375.642	86.88
375.868	94.88
376.094	77.88
376.319	86.88
376.545	88.88
376.771	105.88
376.997	99.88
377.222	97.88
377.448	91.88
377.674	82.88
377.899	86.88
378.125	98.88
378.35	92.88
378.576	100.88
378.802	86.88
379.027	80.88
379.253	95.88
379.478	71.88
379.704	84.88
379.929	94.88
380.155	111.88
380.38	93.88
380.606	101.88
380.831	91.88
381.057	96.88
381.282	93.88
381.507	95.88
381.733	100.88
381.958	97.88
382.184	101.88
382.409	92.88
382.634	102.88
382.86	90.88
383.085	106.88
383.31	101.88
383.535	114.88
383.761	87.88
383.986	84.88
384.211	82.88
384.436	117.88
384.662	96.88
384.887	96.88
385.112	98.88
385.337	97.88
385.562	102.88
385.787	106.88
386.013	101.88
386.238	107.88
386.463	95.88
386.688	98.88
386.913	103.88
387.138	87.88
387.363	94.88
387.588	89.88
387.813	98.88
388.038	104.88
388.263	108.88
388.488	106.88
388.713	94.88
388.938	106.88
389.163	98.88
389.387	98.88
389.612	84.88
389.837	84.88
390.062	96.88
390.287	99.88
390.512	95.88
390.736	103.88
390.961	96.88
391.186	88.88
391.411	94.88
391.636	105.88
391.86	85.88
392.085	93.88
392.31	74.88
392.534	81.88
392.759	81.88
392.984	86.88
393.208	92.88
393.433	78.88
393.658	82.88
393.882	88.88
394.107	92.88
394.331	79.88
394.556	87.88
394.78	108.88
395.005	93.88
395.229	87.88
395.454	98.88
395.678	70.88
395.903	79.88
396.127	83.88
396.352	84.88
396.576	95.88
396.801	90.88
397.025	97.88
397.249	87.88
397.474	101.88
397.698	95.88
397.922	87.88
398.147	96.88
398.371	96.88
398.595	79.88
398.82	91.88
399.044	89.88
399.268	91.88
399.492	84.88
399.717	73.88
399.941	79.88
400.165	99.88
400.389	96.88
400.613	88.88
400.837	76.88
401.062	87.88
401.286	103.88
401.51	82.88
401.734	85.88
401.958	82.88
402.182	118.88
402.406	150.88
402.63	124.88
402.854	97.88
403.078	102.88
403.302	87.88
403.526	85.88
403.75	76.88
403.974	80.88
404.198	92.88
404.422	94.88
404.645	85.88
404.869	101.88
405.093	101.88
405.317	106.88
405.541	95.88
405.765	93.88
405.988	124.88
406.212	172.88
406.436	220.88
406.66	144.88
406.883	106.88
407.107	104.88
407.331	89.88
407.555	100.88
407.778	94.88
408.002	102.88
408.226	93.88
408.449	97.88
408.673	72.88
408.896	98.88
409.12	90.88
409.344	105.88
409.567	83.88
409.791	90.88
410.014	96.88
410.238	75.88
410.461	101.88
410.685	102.88
410.908	102.88
411.132	97.88
411.355	88.88
411.578	87.88
411.802	78.88
412.025	87.88
412.249	89.88
412.472	91.88
412.695	95.88
412.919	95.88
413.142	81.88
413.365	77.88
413.589	80.88
413.812	94.88
414.035	86.88
414.258	96.88
414.482	81.88
414.705	100.88
414.928	92.88
415.151	88.88
415.374	89.88
415.597	84.88
415.821	79.88
416.044	87.88
416.267	96.88
416.49	90.88
416.713	99.88
416.936	92.88
417.159	89.88
417.382	85.88
417.605	77.88
417.828	85.88
418.051	103.88
418.274	96.88
418.497	81.88
418.72	77.88
418.943	81.88
419.166	88.88
419.389	88.88
419.611	96.88
419.834	81.88
420.057	90.88
420.28	90.88
420.503	90.88
420.726	81.88
420.948	84.88
421.171	68.88
421.394	100.88
421.617	103.88
421.839	103.88
422.062	80.88
422.285	99.88
422.507	87.88
422.73	99.88
422.953	100.88
423.175	93.88
423.398	105.88
423.621	97.88
423.843	90.88
424.066	80.88
424.288	80.88
424.511	89.88
424.733	95.88
424.956	117.88
425.178	90.88
425.401	101.88
425.623	110.88
425.846	95.88
426.068	112.88
426.291	91.88
426.513	89.88
426.735	87.88
426.958	98.88
427.18	108.88
427.402	145.88
427.625	164.88
427.847	130.88
428.069	105.88
428.292	89.88
428.514	82.88
428.736	89.88
428.958	79.88
429.181	75.88
429.403	74.88
429.625	88.88
429.847	105.88
430.069	100.88
430.292	91.88
430.514	85.88
430.736	78.88
430.958	96.88
431.18	70.88
431.402	86.88
431.624	93.88
431.846	100.88
432.068	79.88
432.29	89.88
432.512	90.88
432.734	96.88
432.956	95.88
433.178	96.88
433.4	105.88
433.622	84.88
433.844	94.88
434.066	85.88
434.287	92.88
434.509	89.88
434.731	85.88
434.953	97.88
435.175	81.88
435.397	87.88
435.618	90.88
435.84	94.88
436.062	128.88
436.284	105.88
436.505	114.88
436.727	89.88
436.949	94.88
437.17	84.88
437.392	82.88
437.614	82.88
437.835	117.88
438.057	117.88
438.278	108.88
438.5	96.88
438.721	113.88
438.943	104.88
439.165	72.88
439.386	79.88
439.608	86.88
439.829	97.88
440.05	126.88
440.272	136.88
440.493	84.88
440.715	94.88
440.936	87.88
441.158	98.88
441.379	97.88
441.6	94.88
441.822	94.88
442.043	96.88
442.264	95.88
442.486	76.88
442.707	87.88
442.928	100.88
443.149	128.88
443.371	137.88
443.592	116.88
443.813	116.88
444.034	117.88
444.255	91.88
444.476	83.88
444.698	88.88
444.919	87.88
445.14	134.88
445.361	137.88
445.582	125.88
445.803	131.88
446.024	124.88
446.245	119.88
446.466	112.88
446.687	95.88
446.908	97.88
447.129	87.88
447.35	84.88
447.571	98.88
447.792	91.88
448.013	100.88
448.234	101.88
448.455	105.88
448.675	112.88
448.896	121.88
449.117	91.88
449.338	102.88
449.559	119.88
449.779	128.88
450	90.88
450.221	85.88
450.442	92.88
450.662	89.88
450.883	98.88
451.104	112.88
451.324	103.88
451.545	92.88
451.766	84.88
451.986	85.88
452.207	88.88
452.428	87.88
452.648	88.88
452.869	106.88
453.089	110.88
453.31	117.88
453.53	105.88
453.751	85.88
453.971	107.88
454.192	113.88
454.412	85.88
454.633	80.88
454.853	86.88
455.073	92.88
455.294	90.88
455.514	102.88
455.734	72.88
455.955	81.88
456.175	98.88
456.395	85.88
456.616	77.88
456.836	85.88
457.056	89.88
457.276	89.88
457.497	82.88
457.717	87.88
457.937	86.88
458.157	104.88
458.377	82.88
458.598	114.88
458.818	151.88
459.038	151.88
459.258	105.88
459.478	90.88
459.698	95.88
459.918	86.88
460.138	73.88
460.358	100.88
460.578	78.88
460.798	79.88
461.018	88.88
461.238	89.88
461.458	99.88
461.678	102.88
461.898	79.88
462.118	66.88
462.338	89.88
462.558	82.88
462.777	85.88
462.997	89.88
463.217	74.88
463.437	81.88
463.657	95.88
463.876	92.88
464.096	86.88
464.316	81.88
464.536	94.88
464.755	100.88
464.975	104.88
465.195	171.88
465.414	168.88
465.634	89.88
465.854	73.88
466.073	80.88
466.293	88.88
466.512	91.88
466.732	79.88
466.951	85.88
467.171	96.88
467.391	88.88
467.61	105.88
467.829	86.88
468.049	86.88
468.268	89.88
468.488	93.88
468.707	83.88
468.927	82.88
469.146	85.88
469.365	90.88
469.585	94.88
469.804	88.88
470.023	94.88
470.243	100.88
470.462	113.88
470.681	124.88
470.901	93.88
471.12	91.88
471.339	79.88
471.558	84.88
471.777	89.88
471.997	93.88
472.216	113.88
472.435	99.88
472.654	66.88
472.873	84.88
473.092	86.88
473.311	96.88
473.53	85.88
473.749	74.88
473.968	101.88
474.187	86.88
474.406	88.88
474.625	88.88
474.844	87.88
475.063	100.88
475.282	80.88
475.501	90.88
475.72	95.88
475.939	81.88
476.158	83.88
476.377	91.88
476.596	86.88
476.814	113.88
477.033	99.88
477.252	100.88
477.471	90.88
477.69	90.88
477.908	95.88
478.127	98.88
478.346	95.88
478.564	106.88
478.783	101.88
479.002	93.88
479.22	88.88
479.439	98.88
479.658	108.88
479.876	97.88
480.095	100.88
480.313	79.88
480.532	88.88
480.751	99.88
480.969	81.88
481.188	121.88
481.406	108.88
481.624	102.88
481.843	88.88
482.061	94.88
482.28	84.88
482.498	87.88
482.717	111.88
482.935	93.88
483.153	85.88
483.372	91.88
483.59	94.88
483.808	99.88
484.027	101.88
484.245	80.88
484.463	95.88
484.681	90.88
484.9	93.88
485.118	100.88
485.336	97.88
485.554	104.88
485.772	99.88
485.99	90.88
486.209	104.88
486.427	99.88
486.645	111.88
486.863	105.88
487.081	91.88
487.299	113.88
487.517	106.88
487.735	92.88
487.953	90.88
488.171	82.88
488.389	85.88
488.607	99.88
488.825	101.88
489.043	89.88
489.261	95.88
489.479	85.88
489.696	72.88
489.914	90.88
490.132	93.88
490.35	87.88
490.568	94.88
490.786	97.88
491.003	87.88
491.221	89.88
491.439	84.88
491.657	88.88
491.874	83.88
492.092	80.88
492.31	104.88
492.527	98.88
492.745	82.88
492.963	86.88
493.18	84.88
493.398	87.88
493.615	107.88
493.833	103.88
494.05	91.88
494.268	98.88
494.485	86.88
494.703	92.88
494.92	77.88
495.138	94.88
495.355	81.88
495.573	79.88
495.79	89.88
496.008	95.88
496.225	87.88
496.442	93.88
496.66	92.88
496.877	96.88
497.094	108.88
497.312	98.88
497.529	93.88
497.746	100.88
497.963	104.88
498.181	94.88
498.398	100.88
498.615	97.88
498.832	121.88
499.049	82.88
499.267	87.88
499.484	89.88
499.701	103.88
499.918	101.88
500.135	91.88
500.352	90.88
500.569	78.88
500.786	94.88
501.003	80.88
501.22	96.88
501.437	97.88
501.654	83.88
501.871	97.88
502.088	98.88
502.305	92.88
502.522	82.88
502.739	85.88
502.956	100.88
503.172	96.88
503.389	102.88
503.606	103.88
503.823	101.88
504.04	80.88
504.256	76.88
504.473	87.88
504.69	88.88
504.907	102.88
505.123	108.88
505.34	93.88
505.557	101.88
505.773	85.88
505.99	77.88
506.207	112.88
506.423	104.88
506.64	90.88
506.856	89.88
507.073	72.88
507.289	109.88
507.506	90.88
507.722	99.88
507.939	117.88
508.155	95.88
508.372	101.88
508.588	95.88
508.805	88.88
509.021	83.88
509.238	98.88
509.454	104.88
509.67	103.88
509.887	102.88
510.103	134.88
510.319	235.88
510.536	788.88
510.752	2496.88
510.968	700.88
511.184	171.88
511.401	112.88
511.617	106.88
511.833	107.88
512.049	80.88
512.265	89.88
512.481	103.88
512.698	86.88
512.914	83.88
513.13	86.88
513.346	95.88
513.562	94.88
513.778	82.88
513.994	101.88
514.21	97.88
514.426	110.88
514.642	120.88
514.858	128.88
515.074	170.88
515.29	480.88
515.506	1500.88
515.721	569.88
