Data from Uncirc_2003_H10_HRD10591_00087.txt Node
Date: Wed Jan 03 10:36:05 EST 2024
User: Yrep
Spectrometer: HR+D1059
Trigger mode: 1
Integration Time (sec): 1.000000E-1
Scans to average: 1
Electric dark correction enabled: true
Nonlinearity correction enabled: false
Boxcar width: 0
XAxis mode: Wavelengths
Number of Pixels in Spectrum: 2048
>>>>>Begin Spectral Data<<<<<
223.165	-19.12
223.4	-19.12
223.635	-19.12
223.869	-13.12
224.104	-7.12
224.338	-11.12
224.573	-22.12
224.808	-15.12
225.042	0.88
225.277	-26.12
225.511	2.88
225.746	5.88
225.98	2.88
226.215	4.88
226.449	6.88
226.683	15.88
226.918	48.88
227.152	24.88
227.387	44.88
227.621	37.88
227.856	50.88
228.09	46.88
228.324	55.88
228.559	71.88
228.793	64.88
229.027	66.88
229.262	72.88
229.496	62.88
229.73	74.88
229.964	68.88
230.199	64.88
230.433	78.88
230.667	71.88
230.901	78.88
231.136	83.88
231.37	81.88
231.604	75.88
231.838	85.88
232.072	87.88
232.306	90.88
232.541	91.88
232.775	81.88
233.009	89.88
233.243	79.88
233.477	95.88
233.711	89.88
233.945	84.88
234.179	96.88
234.413	84.88
234.647	64.88
234.881	73.88
235.115	84.88
235.349	76.88
235.583	75.88
235.817	77.88
236.051	83.88
236.285	82.88
236.519	93.88
236.753	83.88
236.987	81.88
237.221	84.88
237.455	82.88
237.689	63.88
237.922	74.88
238.156	73.88
238.39	80.88
238.624	71.88
238.858	83.88
239.091	59.88
239.325	68.88
239.559	82.88
239.793	87.88
240.027	83.88
240.26	80.88
240.494	83.88
240.728	73.88
240.961	73.88
241.195	86.88
241.429	76.88
241.662	69.88
241.896	77.88
242.13	81.88
242.363	74.88
242.597	77.88
242.83	67.88
243.064	71.88
243.298	85.88
243.531	83.88
243.765	68.88
243.998	85.88
244.232	88.88
244.465	84.88
244.699	76.88
244.932	85.88
245.166	87.88
245.399	81.88
245.633	79.88
245.866	87.88
246.099	82.88
246.333	90.88
246.566	64.88
246.8	71.88
247.033	86.88
247.266	88.88
247.5	73.88
247.733	94.88
247.966	79.88
248.2	87.88
248.433	81.88
248.666	89.88
248.899	85.88
249.133	84.88
249.366	84.88
249.599	100.88
249.832	68.88
250.066	82.88
250.299	71.88
250.532	88.88
250.765	71.88
250.998	79.88
251.231	74.88
251.465	78.88
251.698	74.88
251.931	96.88
252.164	85.88
252.397	85.88
252.63	74.88
252.863	74.88
253.096	97.88
253.329	95.88
253.562	78.88
253.795	75.88
254.028	88.88
254.261	73.88
254.494	72.88
254.727	67.88
254.96	75.88
255.193	83.88
255.426	81.88
255.659	92.88
255.892	74.88
256.124	72.88
256.357	83.88
256.59	94.88
256.823	75.88
257.056	69.88
257.289	81.88
257.521	80.88
257.754	75.88
257.987	76.88
258.22	82.88
258.452	73.88
258.685	89.88
258.918	81.88
259.151	79.88
259.383	84.88
259.616	92.88
259.849	78.88
260.081	83.88
260.314	78.88
260.547	84.88
260.779	95.88
261.012	78.88
261.244	77.88
261.477	81.88
261.71	92.88
261.942	101.88
262.175	101.88
262.407	81.88
262.64	72.88
262.872	75.88
263.105	87.88
263.337	73.88
263.57	90.88
263.802	79.88
264.035	79.88
264.267	82.88
264.499	91.88
264.732	85.88
264.964	87.88
265.197	75.88
265.429	75.88
265.661	74.88
265.894	81.88
266.126	95.88
266.358	80.88
266.591	74.88
266.823	87.88
267.055	93.88
267.287	89.88
267.52	83.88
267.752	83.88
267.984	83.88
268.216	93.88
268.448	82.88
268.681	81.88
268.913	85.88
269.145	96.88
269.377	82.88
269.609	85.88
269.841	84.88
270.073	97.88
270.306	87.88
270.538	74.88
270.77	85.88
271.002	82.88
271.234	89.88
271.466	75.88
271.698	91.88
271.93	83.88
272.162	91.88
272.394	101.88
272.626	93.88
272.858	82.88
273.09	84.88
273.322	76.88
273.553	95.88
273.785	73.88
274.017	89.88
274.249	86.88
274.481	81.88
274.713	79.88
274.945	74.88
275.176	83.88
275.408	98.88
275.64	71.88
275.872	72.88
276.104	94.88
276.335	86.88
276.567	86.88
276.799	102.88
277.031	86.88
277.262	97.88
277.494	87.88
277.726	83.88
277.957	89.88
278.189	80.88
278.421	75.88
278.652	73.88
278.884	88.88
279.115	90.88
279.347	78.88
279.579	86.88
279.81	102.88
280.042	74.88
280.273	82.88
280.505	105.88
280.736	94.88
280.968	95.88
281.199	78.88
281.431	80.88
281.662	92.88
281.894	107.88
282.125	90.88
282.356	126.88
282.588	131.88
282.819	129.88
283.051	99.88
283.282	80.88
283.513	75.88
283.745	79.88
283.976	76.88
284.207	83.88
284.439	82.88
284.67	86.88
284.901	91.88
285.132	85.88
285.364	88.88
285.595	94.88
285.826	67.88
286.057	78.88
286.288	90.88
286.52	86.88
286.751	91.88
286.982	74.88
287.213	84.88
287.444	86.88
287.675	89.88
287.906	90.88
288.138	82.88
288.369	92.88
288.6	90.88
288.831	79.88
289.062	76.88
289.293	84.88
289.524	100.88
289.755	95.88
289.986	83.88
290.217	83.88
290.448	91.88
290.679	83.88
290.91	79.88
291.141	92.88
291.371	87.88
291.602	89.88
291.833	90.88
292.064	92.88
292.295	103.88
292.526	89.88
292.757	90.88
292.987	86.88
293.218	103.88
293.449	100.88
293.68	86.88
293.91	92.88
294.141	83.88
294.372	106.88
294.603	76.88
294.833	94.88
295.064	91.88
295.295	90.88
295.525	111.88
295.756	121.88
295.987	112.88
296.217	140.88
296.448	111.88
296.679	94.88
296.909	87.88
297.14	93.88
297.37	88.88
297.601	82.88
297.831	73.88
298.062	87.88
298.292	101.88
298.523	96.88
298.753	96.88
298.984	99.88
299.214	83.88
299.445	103.88
299.675	101.88
299.905	111.88
300.136	97.88
300.366	90.88
300.597	98.88
300.827	94.88
301.057	98.88
301.288	87.88
301.518	93.88
301.748	79.88
301.979	105.88
302.209	100.88
302.439	95.88
302.669	82.88
302.9	87.88
303.13	83.88
303.36	86.88
303.59	81.88
303.82	96.88
304.051	93.88
304.281	87.88
304.511	105.88
304.741	86.88
304.971	87.88
305.201	91.88
305.431	95.88
305.661	96.88
305.891	90.88
306.121	85.88
306.352	108.88
306.582	106.88
306.812	106.88
307.042	97.88
307.272	99.88
307.502	87.88
307.731	79.88
307.961	89.88
308.191	98.88
308.421	91.88
308.651	97.88
308.881	97.88
309.111	91.88
309.341	90.88
309.571	99.88
309.8	83.88
310.03	102.88
310.26	92.88
310.49	102.88
310.72	86.88
310.949	92.88
311.179	97.88
311.409	88.88
311.639	94.88
311.868	90.88
312.098	99.88
312.328	91.88
312.557	99.88
312.787	111.88
313.017	97.88
313.246	84.88
313.476	82.88
313.706	95.88
313.935	98.88
314.165	100.88
314.394	104.88
314.624	89.88
314.853	108.88
315.083	89.88
315.312	102.88
315.542	79.88
315.771	89.88
316.001	94.88
316.23	88.88
316.46	95.88
316.689	85.88
316.919	76.88
317.148	87.88
317.377	96.88
317.607	101.88
317.836	97.88
318.065	79.88
318.295	86.88
318.524	86.88
318.753	99.88
318.983	88.88
319.212	104.88
319.441	110.88
319.67	98.88
319.9	91.88
320.129	96.88
320.358	98.88
320.587	97.88
320.816	89.88
321.046	102.88
321.275	83.88
321.504	99.88
321.733	83.88
321.962	76.88
322.191	95.88
322.42	108.88
322.649	108.88
322.878	121.88
323.108	115.88
323.337	122.88
323.566	127.88
323.795	142.88
324.024	202.88
324.253	412.88
324.482	848.88
324.71	1768.88
324.939	2297.88
325.168	848.88
325.397	251.88
325.626	149.88
325.855	126.88
326.084	141.88
326.313	143.88
326.542	155.88
326.77	215.88
326.999	484.88
327.228	970.88
327.457	1786.88
327.686	1430.88
327.914	359.88
328.143	180.88
328.372	137.88
328.6	122.88
328.829	99.88
329.058	105.88
329.287	120.88
329.515	92.88
329.744	109.88
329.972	91.88
330.201	99.88
330.43	129.88
330.658	110.88
330.887	120.88
331.115	116.88
331.344	98.88
331.572	107.88
331.801	102.88
332.03	99.88
332.258	82.88
332.486	96.88
332.715	96.88
332.943	91.88
333.172	91.88
333.4	110.88
333.629	109.88
333.857	99.88
334.085	103.88
334.314	100.88
334.542	88.88
334.771	97.88
334.999	101.88
335.227	94.88
335.455	100.88
335.684	94.88
335.912	91.88
336.14	100.88
336.369	106.88
336.597	95.88
336.825	98.88
337.053	95.88
337.281	97.88
337.51	90.88
337.738	93.88
337.966	96.88
338.194	89.88
338.422	91.88
338.65	83.88
338.878	94.88
339.106	86.88
339.334	87.88
339.562	104.88
339.79	99.88
340.018	88.88
340.246	100.88
340.474	92.88
340.702	88.88
340.93	79.88
341.158	87.88
341.386	89.88
341.614	95.88
341.842	91.88
342.07	86.88
342.298	88.88
342.526	86.88
342.754	84.88
342.981	92.88
343.209	92.88
343.437	103.88
343.665	88.88
343.893	88.88
344.12	87.88
344.348	97.88
344.576	94.88
344.804	87.88
345.031	107.88
345.259	90.88
345.487	89.88
345.714	86.88
345.942	102.88
346.17	88.88
346.397	89.88
346.625	86.88
346.853	80.88
347.08	104.88
347.308	93.88
347.535	76.88
347.763	92.88
347.99	97.88
348.218	93.88
348.445	100.88
348.673	116.88
348.9	71.88
349.128	95.88
349.355	90.88
349.583	89.88
349.81	90.88
350.037	103.88
350.265	89.88
350.492	96.88
350.72	114.88
350.947	99.88
351.174	91.88
351.402	96.88
351.629	100.88
351.856	101.88
352.083	105.88
352.311	107.88
352.538	103.88
352.765	108.88
352.992	115.88
353.22	107.88
353.447	110.88
353.674	105.88
353.901	101.88
354.128	104.88
354.355	102.88
354.583	110.88
354.81	102.88
355.037	95.88
355.264	89.88
355.491	85.88
355.718	96.88
355.945	87.88
356.172	104.88
356.399	103.88
356.626	96.88
356.853	106.88
357.08	98.88
357.307	84.88
357.534	98.88
357.761	98.88
357.988	96.88
358.215	88.88
358.441	90.88
358.668	98.88
358.895	84.88
359.122	91.88
359.349	84.88
359.576	78.88
359.802	114.88
360.029	118.88
360.256	113.88
360.483	107.88
360.709	89.88
360.936	84.88
361.163	87.88
361.39	85.88
361.616	106.88
361.843	99.88
362.07	88.88
362.296	105.88
362.523	88.88
362.749	104.88
362.976	83.88
363.203	91.88
363.429	91.88
363.656	92.88
363.882	87.88
364.109	89.88
364.335	95.88
364.562	95.88
364.788	93.88
365.015	71.88
365.241	108.88
365.468	87.88
365.694	104.88
365.92	90.88
366.147	91.88
366.373	74.88
366.599	74.88
366.826	91.88
367.052	104.88
367.278	96.88
367.505	93.88
367.731	87.88
367.957	90.88
368.184	92.88
368.41	104.88
368.636	111.88
368.862	103.88
369.089	87.88
369.315	89.88
369.541	109.88
369.767	88.88
369.993	90.88
370.219	86.88
370.445	93.88
370.672	75.88
370.898	95.88
371.124	91.88
371.35	98.88
371.576	79.88
371.802	94.88
372.028	98.88
372.254	86.88
372.48	95.88
372.706	78.88
372.932	77.88
373.158	89.88
373.384	99.88
373.61	96.88
373.835	84.88
374.061	85.88
374.287	94.88
374.513	94.88
374.739	88.88
374.965	92.88
375.191	85.88
375.416	99.88
375.642	97.88
375.868	99.88
376.094	92.88
376.319	92.88
376.545	102.88
376.771	89.88
376.997	77.88
377.222	98.88
377.448	87.88
377.674	86.88
377.899	91.88
378.125	101.88
378.35	91.88
378.576	102.88
378.802	75.88
379.027	88.88
379.253	89.88
379.478	88.88
379.704	100.88
379.929	98.88
380.155	83.88
380.38	103.88
380.606	95.88
380.831	90.88
381.057	89.88
381.282	95.88
381.507	84.88
381.733	92.88
381.958	89.88
382.184	85.88
382.409	95.88
382.634	109.88
382.86	81.88
383.085	106.88
383.31	102.88
383.535	103.88
383.761	93.88
383.986	98.88
384.211	92.88
384.436	106.88
384.662	102.88
384.887	106.88
385.112	107.88
385.337	88.88
385.562	108.88
385.787	103.88
386.013	106.88
386.238	115.88
386.463	87.88
386.688	104.88
386.913	107.88
387.138	111.88
387.363	91.88
387.588	101.88
387.813	104.88
388.038	119.88
388.263	101.88
388.488	106.88
388.713	93.88
388.938	102.88
389.163	101.88
389.387	86.88
389.612	92.88
389.837	95.88
390.062	102.88
390.287	86.88
390.512	93.88
390.736	88.88
390.961	92.88
391.186	106.88
391.411	96.88
391.636	100.88
391.86	85.88
392.085	87.88
392.31	90.88
392.534	76.88
392.759	86.88
392.984	84.88
393.208	97.88
393.433	79.88
393.658	85.88
393.882	82.88
394.107	87.88
394.331	92.88
394.556	91.88
394.78	90.88
395.005	81.88
395.229	79.88
395.454	79.88
395.678	95.88
395.903	84.88
396.127	78.88
396.352	84.88
396.576	100.88
396.801	92.88
397.025	92.88
397.249	89.88
397.474	84.88
397.698	101.88
397.922	91.88
398.147	78.88
398.371	102.88
398.595	91.88
398.82	84.88
399.044	85.88
399.268	79.88
399.492	88.88
399.717	93.88
399.941	104.88
400.165	103.88
400.389	90.88
400.613	91.88
400.837	91.88
401.062	80.88
401.286	73.88
401.51	85.88
401.734	96.88
401.958	91.88
402.182	112.88
402.406	150.88
402.63	112.88
402.854	107.88
403.078	94.88
403.302	74.88
403.526	87.88
403.75	88.88
403.974	90.88
404.198	77.88
404.422	74.88
404.645	93.88
404.869	89.88
405.093	101.88
405.317	114.88
405.541	89.88
405.765	93.88
405.988	113.88
406.212	152.88
406.436	198.88
406.66	128.88
406.883	94.88
407.107	87.88
407.331	89.88
407.555	103.88
407.778	85.88
408.002	89.88
408.226	91.88
408.449	82.88
408.673	82.88
408.896	96.88
409.12	92.88
409.344	96.88
409.567	96.88
409.791	91.88
410.014	91.88
410.238	92.88
410.461	89.88
410.685	96.88
410.908	89.88
411.132	112.88
411.355	104.88
411.578	69.88
411.802	99.88
412.025	99.88
412.249	80.88
412.472	92.88
412.695	89.88
412.919	84.88
413.142	92.88
413.365	94.88
413.589	96.88
413.812	96.88
414.035	98.88
414.258	88.88
414.482	90.88
414.705	92.88
414.928	85.88
415.151	91.88
415.374	88.88
415.597	91.88
415.821	80.88
416.044	81.88
416.267	80.88
416.49	98.88
416.713	72.88
416.936	102.88
417.159	94.88
417.382	91.88
417.605	103.88
417.828	87.88
418.051	91.88
418.274	106.88
418.497	91.88
418.72	86.88
418.943	87.88
419.166	87.88
419.389	90.88
419.611	81.88
419.834	86.88
420.057	100.88
420.28	91.88
420.503	100.88
420.726	92.88
420.948	87.88
421.171	97.88
421.394	100.88
421.617	82.88
421.839	86.88
422.062	101.88
422.285	98.88
422.507	94.88
422.73	96.88
422.953	86.88
423.175	80.88
423.398	99.88
423.621	102.88
423.843	96.88
424.066	89.88
424.288	94.88
424.511	94.88
424.733	104.88
424.956	96.88
425.178	95.88
425.401	93.88
425.623	102.88
425.846	96.88
426.068	85.88
426.291	106.88
426.513	97.88
426.735	90.88
426.958	99.88
427.18	100.88
427.402	116.88
427.625	138.88
427.847	130.88
428.069	114.88
428.292	94.88
428.514	91.88
428.736	89.88
428.958	88.88
429.181	86.88
429.403	73.88
429.625	86.88
429.847	68.88
430.069	109.88
430.292	82.88
430.514	93.88
430.736	86.88
430.958	96.88
431.18	76.88
431.402	94.88
431.624	75.88
431.846	87.88
432.068	94.88
432.29	93.88
432.512	83.88
432.734	79.88
432.956	90.88
433.178	91.88
433.4	115.88
433.622	92.88
433.844	87.88
434.066	89.88
434.287	89.88
434.509	90.88
434.731	84.88
434.953	102.88
435.175	100.88
435.397	83.88
435.618	98.88
435.84	97.88
436.062	105.88
436.284	108.88
436.505	101.88
436.727	110.88
436.949	91.88
437.17	92.88
437.392	96.88
437.614	86.88
437.835	108.88
438.057	110.88
438.278	106.88
438.5	102.88
438.721	103.88
438.943	88.88
439.165	86.88
439.386	83.88
439.608	87.88
439.829	93.88
440.05	123.88
440.272	137.88
440.493	105.88
440.715	87.88
440.936	92.88
441.158	81.88
441.379	99.88
441.6	101.88
441.822	95.88
442.043	86.88
442.264	94.88
442.486	110.88
442.707	81.88
442.928	82.88
443.149	127.88
443.371	114.88
443.592	108.88
443.813	109.88
444.034	107.88
444.255	102.88
444.476	84.88
444.698	72.88
444.919	85.88
445.14	120.88
445.361	135.88
445.582	113.88
445.803	122.88
446.024	118.88
446.245	123.88
446.466	101.88
446.687	92.88
446.908	89.88
447.129	89.88
447.35	96.88
447.571	98.88
447.792	100.88
448.013	104.88
448.234	110.88
448.455	100.88
448.675	112.88
448.896	125.88
449.117	90.88
449.338	93.88
449.559	112.88
449.779	126.88
450	79.88
450.221	88.88
450.442	96.88
450.662	95.88
450.883	91.88
451.104	108.88
451.324	89.88
451.545	91.88
451.766	86.88
451.986	98.88
452.207	99.88
452.428	103.88
452.648	96.88
452.869	106.88
453.089	110.88
453.31	102.88
453.53	91.88
453.751	86.88
453.971	96.88
454.192	103.88
454.412	87.88
454.633	94.88
454.853	84.88
455.073	88.88
455.294	98.88
455.514	97.88
455.734	84.88
455.955	77.88
456.175	80.88
456.395	89.88
456.616	82.88
456.836	85.88
457.056	79.88
457.276	84.88
457.497	96.88
457.717	103.88
457.937	99.88
458.157	96.88
458.377	95.88
458.598	89.88
458.818	150.88
459.038	147.88
459.258	115.88
459.478	94.88
459.698	86.88
459.918	80.88
460.138	83.88
460.358	95.88
460.578	90.88
460.798	95.88
461.018	79.88
461.238	85.88
461.458	80.88
461.678	73.88
461.898	78.88
462.118	78.88
462.338	82.88
462.558	100.88
462.777	90.88
462.997	86.88
463.217	75.88
463.437	90.88
463.657	86.88
463.876	87.88
464.096	99.88
464.316	90.88
464.536	92.88
464.755	91.88
464.975	111.88
465.195	160.88
465.414	140.88
465.634	105.88
465.854	89.88
466.073	83.88
466.293	86.88
466.512	89.88
466.732	73.88
466.951	90.88
467.171	95.88
467.391	90.88
467.61	94.88
467.829	99.88
468.049	87.88
468.268	94.88
468.488	85.88
468.707	74.88
468.927	82.88
469.146	84.88
469.365	81.88
469.585	91.88
469.804	99.88
470.023	94.88
470.243	105.88
470.462	104.88
470.681	96.88
470.901	80.88
471.12	75.88
471.339	83.88
471.558	99.88
471.777	88.88
471.997	87.88
472.216	87.88
472.435	95.88
472.654	88.88
472.873	103.88
473.092	90.88
473.311	74.88
473.53	74.88
473.749	94.88
473.968	84.88
474.187	97.88
474.406	96.88
474.625	87.88
474.844	94.88
475.063	86.88
475.282	83.88
475.501	84.88
475.72	83.88
475.939	82.88
476.158	91.88
476.377	105.88
476.596	87.88
476.814	92.88
477.033	105.88
477.252	89.88
477.471	96.88
477.69	96.88
477.908	89.88
478.127	83.88
478.346	95.88
478.564	98.88
478.783	87.88
479.002	84.88
479.22	85.88
479.439	127.88
479.658	96.88
479.876	87.88
480.095	92.88
480.313	96.88
480.532	87.88
480.751	94.88
480.969	89.88
481.188	99.88
481.406	83.88
481.624	85.88
481.843	91.88
482.061	99.88
482.28	93.88
482.498	92.88
482.717	100.88
482.935	95.88
483.153	76.88
483.372	79.88
483.59	91.88
483.808	103.88
484.027	89.88
484.245	93.88
484.463	100.88
484.681	102.88
484.9	89.88
485.118	112.88
485.336	90.88
485.554	105.88
485.772	110.88
485.99	98.88
486.209	111.88
486.427	113.88
486.645	104.88
486.863	97.88
487.081	105.88
487.299	92.88
487.517	92.88
487.735	98.88
487.953	96.88
488.171	90.88
488.389	98.88
488.607	96.88
488.825	84.88
489.043	99.88
489.261	88.88
489.479	82.88
489.696	85.88
489.914	88.88
490.132	82.88
490.35	81.88
490.568	78.88
490.786	94.88
491.003	103.88
491.221	84.88
491.439	94.88
491.657	86.88
491.874	98.88
492.092	93.88
492.31	111.88
492.527	88.88
492.745	100.88
492.963	107.88
493.18	95.88
493.398	86.88
493.615	84.88
493.833	78.88
494.05	81.88
494.268	96.88
494.485	94.88
494.703	91.88
494.92	85.88
495.138	88.88
495.355	97.88
495.573	79.88
495.79	96.88
496.008	95.88
496.225	98.88
496.442	88.88
496.66	91.88
496.877	74.88
497.094	100.88
497.312	96.88
497.529	92.88
497.746	95.88
497.963	104.88
498.181	87.88
498.398	92.88
498.615	99.88
498.832	111.88
499.049	99.88
499.267	82.88
499.484	83.88
499.701	91.88
499.918	76.88
500.135	102.88
500.352	86.88
500.569	98.88
500.786	100.88
501.003	98.88
501.22	96.88
501.437	86.88
501.654	84.88
501.871	93.88
502.088	98.88
502.305	90.88
502.522	107.88
502.739	96.88
502.956	99.88
503.172	88.88
503.389	103.88
503.606	94.88
503.823	97.88
504.04	106.88
504.256	86.88
504.473	83.88
504.69	95.88
504.907	108.88
505.123	97.88
505.34	98.88
505.557	100.88
505.773	95.88
505.99	95.88
506.207	96.88
506.423	98.88
506.64	93.88
506.856	79.88
507.073	94.88
507.289	86.88
507.506	92.88
507.722	113.88
507.939	104.88
508.155	91.88
508.372	97.88
508.588	96.88
508.805	103.88
509.021	97.88
509.238	99.88
509.454	92.88
509.67	105.88
509.887	102.88
510.103	118.88
510.319	206.88
510.536	738.88
510.752	2354.88
510.968	658.88
511.184	153.88
511.401	109.88
511.617	107.88
511.833	86.88
512.049	98.88
512.265	101.88
512.481	96.88
512.698	103.88
512.914	96.88
513.13	93.88
513.346	108.88
513.562	91.88
513.778	103.88
513.994	97.88
514.21	106.88
514.426	119.88
514.642	121.88
514.858	123.88
515.074	173.88
515.29	414.88
515.506	1372.88
515.721	513.88
