Data from Uncirc_2003_H10_HRD10591_00022.txt Node
Date: Wed Jan 03 10:35:52 EST 2024
User: Yrep
Spectrometer: HR+D1059
Trigger mode: 1
Integration Time (sec): 1.000000E-1
Scans to average: 1
Electric dark correction enabled: true
Nonlinearity correction enabled: false
Boxcar width: 0
XAxis mode: Wavelengths
Number of Pixels in Spectrum: 2048
>>>>>Begin Spectral Data<<<<<
223.165	-17.25
223.4	-17.25
223.635	-17.25
223.869	-25.25
224.104	-16.25
224.338	-17.25
224.573	-7.25
224.808	-16.25
225.042	-12.25
225.277	-2.25
225.511	12.75
225.746	-2.25
225.98	5.75
226.215	3.75
226.449	14.75
226.683	1.75
226.918	34.75
227.152	42.75
227.387	47.75
227.621	30.75
227.856	38.75
228.09	24.75
228.324	49.75
228.559	48.75
228.793	62.75
229.027	59.75
229.262	68.75
229.496	69.75
229.73	73.75
229.964	69.75
230.199	68.75
230.433	70.75
230.667	55.75
230.901	84.75
231.136	75.75
231.37	84.75
231.604	67.75
231.838	71.75
232.072	74.75
232.306	79.75
232.541	75.75
232.775	89.75
233.009	77.75
233.243	76.75
233.477	75.75
233.711	77.75
233.945	80.75
234.179	81.75
234.413	58.75
234.647	78.75
234.881	85.75
235.115	70.75
235.349	71.75
235.583	74.75
235.817	72.75
236.051	79.75
236.285	66.75
236.519	55.75
236.753	71.75
236.987	70.75
237.221	68.75
237.455	78.75
237.689	73.75
237.922	79.75
238.156	63.75
238.39	68.75
238.624	79.75
238.858	83.75
239.091	80.75
239.325	66.75
239.559	87.75
239.793	78.75
240.027	82.75
240.26	67.75
240.494	87.75
240.728	78.75
240.961	75.75
241.195	70.75
241.429	73.75
241.662	72.75
241.896	69.75
242.13	81.75
242.363	78.75
242.597	77.75
242.83	70.75
243.064	87.75
243.298	63.75
243.531	74.75
243.765	72.75
243.998	87.75
244.232	82.75
244.465	77.75
244.699	69.75
244.932	80.75
245.166	73.75
245.399	75.75
245.633	85.75
245.866	69.75
246.099	67.75
246.333	70.75
246.566	63.75
246.8	85.75
247.033	67.75
247.266	66.75
247.5	80.75
247.733	71.75
247.966	79.75
248.2	73.75
248.433	80.75
248.666	87.75
248.899	71.75
249.133	82.75
249.366	87.75
249.599	80.75
249.832	82.75
250.066	71.75
250.299	80.75
250.532	80.75
250.765	71.75
250.998	62.75
251.231	63.75
251.465	84.75
251.698	81.75
251.931	64.75
252.164	83.75
252.397	49.75
252.63	77.75
252.863	65.75
253.096	82.75
253.329	93.75
253.562	80.75
253.795	77.75
254.028	62.75
254.261	80.75
254.494	66.75
254.727	98.75
254.96	74.75
255.193	79.75
255.426	66.75
255.659	88.75
255.892	94.75
256.124	78.75
256.357	83.75
256.59	76.75
256.823	73.75
257.056	69.75
257.289	83.75
257.521	77.75
257.754	82.75
257.987	81.75
258.22	75.75
258.452	77.75
258.685	75.75
258.918	82.75
259.151	83.75
259.383	85.75
259.616	72.75
259.849	68.75
260.081	98.75
260.314	77.75
260.547	72.75
260.779	87.75
261.012	87.75
261.244	79.75
261.477	92.75
261.71	81.75
261.942	109.75
262.175	110.75
262.407	72.75
262.64	62.75
262.872	87.75
263.105	87.75
263.337	77.75
263.57	84.75
263.802	93.75
264.035	87.75
264.267	78.75
264.499	84.75
264.732	79.75
264.964	80.75
265.197	80.75
265.429	70.75
265.661	79.75
265.894	85.75
266.126	90.75
266.358	92.75
266.591	94.75
266.823	83.75
267.055	91.75
267.287	92.75
267.52	77.75
267.752	89.75
267.984	77.75
268.216	86.75
268.448	83.75
268.681	75.75
268.913	84.75
269.145	72.75
269.377	79.75
269.609	76.75
269.841	85.75
270.073	79.75
270.306	79.75
270.538	76.75
270.77	71.75
271.002	70.75
271.234	87.75
271.466	81.75
271.698	91.75
271.93	91.75
272.162	76.75
272.394	95.75
272.626	90.75
272.858	77.75
273.09	70.75
273.322	69.75
273.553	76.75
273.785	82.75
274.017	81.75
274.249	84.75
274.481	85.75
274.713	71.75
274.945	75.75
275.176	79.75
275.408	78.75
275.64	99.75
275.872	87.75
276.104	87.75
276.335	92.75
276.567	86.75
276.799	95.75
277.031	83.75
277.262	83.75
277.494	89.75
277.726	90.75
277.957	68.75
278.189	74.75
278.421	88.75
278.652	81.75
278.884	74.75
279.115	90.75
279.347	87.75
279.579	87.75
279.81	88.75
280.042	85.75
280.273	80.75
280.505	85.75
280.736	76.75
280.968	84.75
281.199	62.75
281.431	79.75
281.662	78.75
281.894	76.75
282.125	85.75
282.356	117.75
282.588	135.75
282.819	98.75
283.051	86.75
283.282	75.75
283.513	90.75
283.745	83.75
283.976	77.75
284.207	80.75
284.439	80.75
284.67	92.75
284.901	78.75
285.132	84.75
285.364	93.75
285.595	89.75
285.826	77.75
286.057	107.75
286.288	79.75
286.52	74.75
286.751	90.75
286.982	95.75
287.213	79.75
287.444	92.75
287.675	74.75
287.906	87.75
288.138	82.75
288.369	87.75
288.6	97.75
288.831	95.75
289.062	69.75
289.293	71.75
289.524	66.75
289.755	87.75
289.986	95.75
290.217	89.75
290.448	86.75
290.679	87.75
290.91	86.75
291.141	80.75
291.371	88.75
291.602	80.75
291.833	79.75
292.064	83.75
292.295	74.75
292.526	70.75
292.757	72.75
292.987	82.75
293.218	82.75
293.449	90.75
293.68	90.75
293.91	77.75
294.141	88.75
294.372	85.75
294.603	80.75
294.833	74.75
295.064	85.75
295.295	97.75
295.525	78.75
295.756	85.75
295.987	107.75
296.217	139.75
296.448	124.75
296.679	87.75
296.909	84.75
297.14	80.75
297.37	89.75
297.601	82.75
297.831	84.75
298.062	105.75
298.292	95.75
298.523	82.75
298.753	77.75
298.984	83.75
299.214	69.75
299.445	92.75
299.675	70.75
299.905	99.75
300.136	94.75
300.366	87.75
300.597	73.75
300.827	83.75
301.057	95.75
301.288	92.75
301.518	97.75
301.748	101.75
301.979	75.75
302.209	82.75
302.439	88.75
302.669	92.75
302.9	94.75
303.13	89.75
303.36	95.75
303.59	96.75
303.82	85.75
304.051	96.75
304.281	76.75
304.511	76.75
304.741	87.75
304.971	84.75
305.201	84.75
305.431	78.75
305.661	93.75
305.891	87.75
306.121	95.75
306.352	92.75
306.582	88.75
306.812	85.75
307.042	97.75
307.272	104.75
307.502	92.75
307.731	75.75
307.961	74.75
308.191	87.75
308.421	94.75
308.651	93.75
308.881	100.75
309.111	83.75
309.341	95.75
309.571	85.75
309.8	93.75
310.03	95.75
310.26	84.75
310.49	85.75
310.72	97.75
310.949	106.75
311.179	99.75
311.409	87.75
311.639	99.75
311.868	84.75
312.098	93.75
312.328	94.75
312.557	106.75
312.787	90.75
313.017	92.75
313.246	98.75
313.476	83.75
313.706	102.75
313.935	85.75
314.165	102.75
314.394	92.75
314.624	81.75
314.853	98.75
315.083	89.75
315.312	82.75
315.542	85.75
315.771	95.75
316.001	87.75
316.23	80.75
316.46	85.75
316.689	85.75
316.919	90.75
317.148	94.75
317.377	91.75
317.607	72.75
317.836	95.75
318.065	86.75
318.295	93.75
318.524	84.75
318.753	92.75
318.983	98.75
319.212	97.75
319.441	104.75
319.67	116.75
319.9	95.75
320.129	74.75
320.358	87.75
320.587	91.75
320.816	91.75
321.046	99.75
321.275	78.75
321.504	97.75
321.733	99.75
321.962	99.75
322.191	112.75
322.42	101.75
322.649	115.75
322.878	116.75
323.108	117.75
323.337	128.75
323.566	128.75
323.795	156.75
324.024	217.75
324.253	416.75
324.482	862.75
324.71	1867.75
324.939	2483.75
325.168	894.75
325.397	261.75
325.626	140.75
325.855	138.75
326.084	126.75
326.313	122.75
326.542	156.75
326.77	227.75
326.999	501.75
327.228	1020.75
327.457	1938.75
327.686	1516.75
327.914	389.75
328.143	184.75
328.372	146.75
328.6	115.75
328.829	114.75
329.058	135.75
329.287	134.75
329.515	116.75
329.744	103.75
329.972	106.75
330.201	97.75
330.43	118.75
330.658	103.75
330.887	138.75
331.115	119.75
331.344	94.75
331.572	104.75
331.801	98.75
332.03	97.75
332.258	96.75
332.486	91.75
332.715	84.75
332.943	103.75
333.172	91.75
333.4	84.75
333.629	105.75
333.857	106.75
334.085	102.75
334.314	79.75
334.542	84.75
334.771	94.75
334.999	97.75
335.227	99.75
335.455	106.75
335.684	87.75
335.912	88.75
336.14	91.75
336.369	92.75
336.597	97.75
336.825	99.75
337.053	95.75
337.281	93.75
337.51	96.75
337.738	88.75
337.966	93.75
338.194	92.75
338.422	75.75
338.65	79.75
338.878	96.75
339.106	70.75
339.334	90.75
339.562	79.75
339.79	90.75
340.018	88.75
340.246	98.75
340.474	84.75
340.702	105.75
340.93	110.75
341.158	92.75
341.386	78.75
341.614	106.75
341.842	99.75
342.07	86.75
342.298	98.75
342.526	80.75
342.754	90.75
342.981	90.75
343.209	92.75
343.437	101.75
343.665	81.75
343.893	82.75
344.12	98.75
344.348	96.75
344.576	84.75
344.804	84.75
345.031	89.75
345.259	77.75
345.487	96.75
345.714	95.75
345.942	100.75
346.17	96.75
346.397	84.75
346.625	94.75
346.853	92.75
347.08	78.75
347.308	90.75
347.535	90.75
347.763	88.75
347.99	106.75
348.218	101.75
348.445	92.75
348.673	94.75
348.9	102.75
349.128	87.75
349.355	84.75
349.583	92.75
349.81	92.75
350.037	81.75
350.265	101.75
350.492	93.75
350.72	95.75
350.947	104.75
351.174	99.75
351.402	102.75
351.629	98.75
351.856	98.75
352.083	113.75
352.311	93.75
352.538	110.75
352.765	102.75
352.992	106.75
353.22	122.75
353.447	112.75
353.674	93.75
353.901	107.75
354.128	101.75
354.355	77.75
354.583	89.75
354.81	92.75
355.037	94.75
355.264	100.75
355.491	86.75
355.718	94.75
355.945	92.75
356.172	88.75
356.399	89.75
356.626	115.75
356.853	98.75
357.08	87.75
357.307	83.75
357.534	109.75
357.761	88.75
357.988	83.75
358.215	84.75
358.441	85.75
358.668	94.75
358.895	93.75
359.122	78.75
359.349	93.75
359.576	101.75
359.802	101.75
360.029	98.75
360.256	102.75
360.483	94.75
360.709	81.75
360.936	92.75
361.163	98.75
361.39	84.75
361.616	91.75
361.843	88.75
362.07	96.75
362.296	104.75
362.523	99.75
362.749	90.75
362.976	85.75
363.203	84.75
363.429	88.75
363.656	87.75
363.882	87.75
364.109	83.75
364.335	80.75
364.562	95.75
364.788	99.75
365.015	88.75
365.241	103.75
365.468	105.75
365.694	113.75
365.92	86.75
366.147	84.75
366.373	90.75
366.599	98.75
366.826	93.75
367.052	87.75
367.278	88.75
367.505	92.75
367.731	105.75
367.957	82.75
368.184	87.75
368.41	87.75
368.636	125.75
368.862	125.75
369.089	104.75
369.315	91.75
369.541	83.75
369.767	94.75
369.993	107.75
370.219	100.75
370.445	107.75
370.672	78.75
370.898	90.75
371.124	91.75
371.35	93.75
371.576	101.75
371.802	74.75
372.028	82.75
372.254	87.75
372.48	101.75
372.706	80.75
372.932	88.75
373.158	82.75
373.384	86.75
373.61	94.75
373.835	98.75
374.061	98.75
374.287	105.75
374.513	85.75
374.739	87.75
374.965	95.75
375.191	95.75
375.416	87.75
375.642	88.75
375.868	80.75
376.094	72.75
376.319	86.75
376.545	86.75
376.771	83.75
376.997	85.75
377.222	89.75
377.448	96.75
377.674	99.75
377.899	89.75
378.125	83.75
378.35	90.75
378.576	106.75
378.802	95.75
379.027	92.75
379.253	93.75
379.478	91.75
379.704	82.75
379.929	84.75
380.155	87.75
380.38	99.75
380.606	83.75
380.831	86.75
381.057	95.75
381.282	76.75
381.507	93.75
381.733	86.75
381.958	89.75
382.184	110.75
382.409	100.75
382.634	98.75
382.86	93.75
383.085	93.75
383.31	103.75
383.535	98.75
383.761	112.75
383.986	94.75
384.211	90.75
384.436	96.75
384.662	88.75
384.887	93.75
385.112	106.75
385.337	102.75
385.562	100.75
385.787	93.75
386.013	96.75
386.238	111.75
386.463	105.75
386.688	117.75
386.913	97.75
387.138	119.75
387.363	105.75
387.588	104.75
387.813	93.75
388.038	103.75
388.263	90.75
388.488	102.75
388.713	98.75
388.938	89.75
389.163	94.75
389.387	107.75
389.612	102.75
389.837	91.75
390.062	91.75
390.287	79.75
390.512	92.75
390.736	99.75
390.961	104.75
391.186	97.75
391.411	95.75
391.636	95.75
391.86	88.75
392.085	91.75
392.31	84.75
392.534	77.75
392.759	93.75
392.984	87.75
393.208	79.75
393.433	93.75
393.658	87.75
393.882	89.75
394.107	76.75
394.331	87.75
394.556	92.75
394.78	78.75
395.005	78.75
395.229	67.75
395.454	82.75
395.678	95.75
395.903	98.75
396.127	80.75
396.352	90.75
396.576	75.75
396.801	73.75
397.025	80.75
397.249	71.75
397.474	93.75
397.698	96.75
397.922	83.75
398.147	78.75
398.371	84.75
398.595	94.75
398.82	70.75
399.044	86.75
399.268	95.75
399.492	85.75
399.717	72.75
399.941	93.75
400.165	103.75
400.389	88.75
400.613	85.75
400.837	83.75
401.062	82.75
401.286	81.75
401.51	91.75
401.734	90.75
401.958	103.75
402.182	127.75
402.406	161.75
402.63	124.75
402.854	92.75
403.078	90.75
403.302	86.75
403.526	73.75
403.75	90.75
403.974	99.75
404.198	87.75
404.422	88.75
404.645	87.75
404.869	81.75
405.093	98.75
405.317	101.75
405.541	94.75
405.765	113.75
405.988	114.75
406.212	176.75
406.436	240.75
406.66	145.75
406.883	89.75
407.107	97.75
407.331	90.75
407.555	99.75
407.778	86.75
408.002	95.75
408.226	99.75
408.449	97.75
408.673	92.75
408.896	83.75
409.12	79.75
409.344	108.75
409.567	84.75
409.791	83.75
410.014	102.75
410.238	95.75
410.461	96.75
410.685	103.75
410.908	91.75
411.132	83.75
411.355	90.75
411.578	91.75
411.802	93.75
412.025	96.75
412.249	92.75
412.472	89.75
412.695	91.75
412.919	81.75
413.142	90.75
413.365	77.75
413.589	86.75
413.812	79.75
414.035	109.75
414.258	85.75
414.482	90.75
414.705	83.75
414.928	81.75
415.151	91.75
415.374	84.75
415.597	92.75
415.821	91.75
416.044	89.75
416.267	86.75
416.49	87.75
416.713	93.75
416.936	93.75
417.159	84.75
417.382	84.75
417.605	81.75
417.828	78.75
418.051	99.75
418.274	95.75
418.497	73.75
418.72	96.75
418.943	91.75
419.166	85.75
419.389	88.75
419.611	84.75
419.834	88.75
420.057	80.75
420.28	90.75
420.503	87.75
420.726	77.75
420.948	88.75
421.171	86.75
421.394	84.75
421.617	89.75
421.839	85.75
422.062	74.75
422.285	86.75
422.507	85.75
422.73	100.75
422.953	102.75
423.175	94.75
423.398	106.75
423.621	95.75
423.843	93.75
424.066	82.75
424.288	85.75
424.511	94.75
424.733	96.75
424.956	95.75
425.178	91.75
425.401	111.75
425.623	93.75
425.846	94.75
426.068	86.75
426.291	86.75
426.513	85.75
426.735	90.75
426.958	102.75
427.18	102.75
427.402	141.75
427.625	162.75
427.847	128.75
428.069	75.75
428.292	87.75
428.514	74.75
428.736	78.75
428.958	90.75
429.181	95.75
429.403	84.75
429.625	96.75
429.847	90.75
430.069	89.75
430.292	92.75
430.514	71.75
430.736	84.75
430.958	76.75
431.18	72.75
431.402	67.75
431.624	95.75
431.846	92.75
432.068	84.75
432.29	80.75
432.512	88.75
432.734	98.75
432.956	82.75
433.178	99.75
433.4	104.75
433.622	81.75
433.844	82.75
434.066	88.75
434.287	94.75
434.509	81.75
434.731	92.75
434.953	86.75
435.175	90.75
435.397	93.75
435.618	95.75
435.84	114.75
436.062	103.75
436.284	124.75
436.505	100.75
436.727	98.75
436.949	80.75
437.17	77.75
437.392	98.75
437.614	85.75
437.835	103.75
438.057	124.75
438.278	117.75
438.5	101.75
438.721	124.75
438.943	105.75
439.165	87.75
439.386	88.75
439.608	99.75
439.829	93.75
440.05	115.75
440.272	138.75
440.493	94.75
440.715	83.75
440.936	80.75
441.158	83.75
441.379	83.75
441.6	94.75
441.822	83.75
442.043	94.75
442.264	95.75
442.486	98.75
442.707	87.75
442.928	94.75
443.149	116.75
443.371	119.75
443.592	108.75
443.813	108.75
444.034	91.75
444.255	90.75
444.476	72.75
444.698	74.75
444.919	88.75
445.14	122.75
445.361	106.75
445.582	109.75
445.803	155.75
446.024	132.75
446.245	142.75
446.466	103.75
446.687	90.75
446.908	85.75
447.129	94.75
447.35	92.75
447.571	79.75
447.792	103.75
448.013	98.75
448.234	86.75
448.455	99.75
448.675	104.75
448.896	101.75
449.117	99.75
449.338	92.75
449.559	128.75
449.779	138.75
450	102.75
450.221	95.75
450.442	99.75
450.662	92.75
450.883	95.75
451.104	107.75
451.324	108.75
451.545	82.75
451.766	79.75
451.986	72.75
452.207	82.75
452.428	103.75
452.648	102.75
452.869	107.75
453.089	111.75
453.31	120.75
453.53	95.75
453.751	82.75
453.971	110.75
454.192	125.75
454.412	93.75
454.633	90.75
454.853	85.75
455.073	95.75
455.294	87.75
455.514	95.75
455.734	84.75
455.955	96.75
456.175	77.75
456.395	90.75
456.616	74.75
456.836	80.75
457.056	88.75
457.276	78.75
457.497	80.75
457.717	96.75
457.937	83.75
458.157	74.75
458.377	77.75
458.598	106.75
458.818	160.75
459.038	165.75
459.258	111.75
459.478	84.75
459.698	85.75
459.918	86.75
460.138	83.75
460.358	87.75
460.578	74.75
460.798	79.75
461.018	86.75
461.238	76.75
461.458	89.75
461.678	81.75
461.898	86.75
462.118	89.75
462.338	71.75
462.558	80.75
462.777	71.75
462.997	86.75
463.217	76.75
463.437	92.75
463.657	84.75
463.876	76.75
464.096	88.75
464.316	84.75
464.536	97.75
464.755	76.75
464.975	99.75
465.195	158.75
465.414	154.75
465.634	102.75
465.854	89.75
466.073	76.75
466.293	90.75
466.512	88.75
466.732	73.75
466.951	89.75
467.171	103.75
467.391	93.75
467.61	115.75
467.829	106.75
468.049	80.75
468.268	94.75
468.488	88.75
468.707	78.75
468.927	76.75
469.146	76.75
469.365	92.75
469.585	71.75
469.804	97.75
470.023	102.75
470.243	92.75
470.462	81.75
470.681	108.75
470.901	100.75
471.12	104.75
471.339	83.75
471.558	76.75
471.777	83.75
471.997	91.75
472.216	83.75
472.435	103.75
472.654	91.75
472.873	92.75
473.092	83.75
473.311	80.75
473.53	76.75
473.749	91.75
473.968	87.75
474.187	104.75
474.406	82.75
474.625	83.75
474.844	78.75
475.063	88.75
475.282	84.75
475.501	87.75
475.72	81.75
475.939	74.75
476.158	83.75
476.377	81.75
476.596	84.75
476.814	80.75
477.033	93.75
477.252	82.75
477.471	74.75
477.69	87.75
477.908	93.75
478.127	79.75
478.346	94.75
478.564	83.75
478.783	92.75
479.002	80.75
479.22	91.75
479.439	112.75
479.658	96.75
479.876	89.75
480.095	87.75
480.313	86.75
480.532	82.75
480.751	69.75
480.969	91.75
481.188	92.75
481.406	107.75
481.624	84.75
481.843	84.75
482.061	79.75
482.28	94.75
482.498	90.75
482.717	78.75
482.935	87.75
483.153	92.75
483.372	82.75
483.59	86.75
483.808	88.75
484.027	104.75
484.245	96.75
484.463	100.75
484.681	87.75
484.9	79.75
485.118	85.75
485.336	96.75
485.554	96.75
485.772	111.75
485.99	99.75
486.209	96.75
486.427	103.75
486.645	103.75
486.863	84.75
487.081	95.75
487.299	94.75
487.517	87.75
487.735	90.75
487.953	91.75
488.171	81.75
488.389	99.75
488.607	98.75
488.825	105.75
489.043	94.75
489.261	88.75
489.479	81.75
489.696	88.75
489.914	88.75
490.132	82.75
490.35	89.75
490.568	93.75
490.786	80.75
491.003	81.75
491.221	87.75
491.439	80.75
491.657	96.75
491.874	97.75
492.092	90.75
492.31	84.75
492.527	83.75
492.745	108.75
492.963	91.75
493.18	89.75
493.398	77.75
493.615	102.75
493.833	93.75
494.05	76.75
494.268	92.75
494.485	71.75
494.703	87.75
494.92	79.75
495.138	79.75
495.355	91.75
495.573	90.75
495.79	92.75
496.008	85.75
496.225	87.75
496.442	84.75
496.66	71.75
496.877	86.75
497.094	87.75
497.312	92.75
497.529	82.75
497.746	97.75
497.963	94.75
498.181	94.75
498.398	96.75
498.615	93.75
498.832	98.75
499.049	79.75
499.267	93.75
499.484	82.75
499.701	75.75
499.918	73.75
500.135	90.75
500.352	85.75
500.569	84.75
500.786	94.75
501.003	79.75
501.22	94.75
501.437	81.75
501.654	101.75
501.871	96.75
502.088	87.75
502.305	84.75
502.522	75.75
502.739	87.75
502.956	90.75
503.172	90.75
503.389	73.75
503.606	101.75
503.823	95.75
504.04	87.75
504.256	85.75
504.473	88.75
504.69	96.75
504.907	108.75
505.123	87.75
505.34	84.75
505.557	85.75
505.773	87.75
505.99	70.75
506.207	75.75
506.423	86.75
506.64	93.75
506.856	94.75
507.073	93.75
507.289	82.75
507.506	87.75
507.722	106.75
507.939	97.75
508.155	107.75
508.372	91.75
508.588	81.75
508.805	99.75
509.021	86.75
509.238	115.75
509.454	96.75
509.67	101.75
509.887	109.75
510.103	143.75
510.319	212.75
510.536	838.75
510.752	2616.75
510.968	707.75
511.184	170.75
511.401	105.75
511.617	88.75
511.833	93.75
512.049	109.75
512.265	84.75
512.481	88.75
512.698	98.75
512.914	79.75
513.13	93.75
513.346	87.75
513.562	92.75
513.778	82.75
513.994	87.75
514.21	101.75
514.426	125.75
514.642	139.75
514.858	121.75
515.074	189.75
515.29	495.75
515.506	1658.75
515.721	597.75
515.937	158.75
516.153	113.75
516.369	100.75
516.585	90.75
