Data from Uncirc_2003_H10_HRD10591_00082.txt Node
Date: Wed Jan 03 10:36:04 EST 2024
User: Yrep
Spectrometer: HR+D1059
Trigger mode: 1
Integration Time (sec): 1.000000E-1
Scans to average: 1
Electric dark correction enabled: true
Nonlinearity correction enabled: false
Boxcar width: 0
XAxis mode: Wavelengths
Number of Pixels in Spectrum: 2048
>>>>>Begin Spectral Data<<<<<
223.165	-19.56
223.4	-19.56
223.635	-19.56
223.869	-18.56
224.104	-25.56
224.338	-23.56
224.573	-18.56
224.808	-2.56
225.042	10.44
225.277	-8.56
225.511	-4.56
225.746	2.44
225.98	9.44
226.215	6.44
226.449	15.44
226.683	30.44
226.918	20.44
227.152	26.44
227.387	42.44
227.621	33.44
227.856	33.44
228.09	39.44
228.324	58.44
228.559	50.44
228.793	53.44
229.027	60.44
229.262	60.44
229.496	72.44
229.73	81.44
229.964	88.44
230.199	73.44
230.433	82.44
230.667	78.44
230.901	81.44
231.136	66.44
231.37	76.44
231.604	88.44
231.838	78.44
232.072	77.44
232.306	78.44
232.541	82.44
232.775	87.44
233.009	81.44
233.243	84.44
233.477	80.44
233.711	75.44
233.945	85.44
234.179	71.44
234.413	80.44
234.647	87.44
234.881	78.44
235.115	88.44
235.349	75.44
235.583	83.44
235.817	66.44
236.051	76.44
236.285	90.44
236.519	67.44
236.753	68.44
236.987	72.44
237.221	94.44
237.455	79.44
237.689	76.44
237.922	79.44
238.156	71.44
238.39	85.44
238.624	64.44
238.858	72.44
239.091	64.44
239.325	82.44
239.559	77.44
239.793	85.44
240.027	70.44
240.26	82.44
240.494	80.44
240.728	70.44
240.961	63.44
241.195	84.44
241.429	74.44
241.662	76.44
241.896	64.44
242.13	69.44
242.363	91.44
242.597	78.44
242.83	86.44
243.064	57.44
243.298	75.44
243.531	80.44
243.765	71.44
243.998	77.44
244.232	74.44
244.465	82.44
244.699	85.44
244.932	82.44
245.166	82.44
245.399	71.44
245.633	77.44
245.866	73.44
246.099	82.44
246.333	87.44
246.566	81.44
246.8	74.44
247.033	68.44
247.266	66.44
247.5	78.44
247.733	82.44
247.966	78.44
248.2	86.44
248.433	77.44
248.666	82.44
248.899	80.44
249.133	85.44
249.366	103.44
249.599	90.44
249.832	86.44
250.066	97.44
250.299	77.44
250.532	88.44
250.765	74.44
250.998	86.44
251.231	78.44
251.465	84.44
251.698	84.44
251.931	81.44
252.164	76.44
252.397	71.44
252.63	72.44
252.863	81.44
253.096	74.44
253.329	85.44
253.562	80.44
253.795	76.44
254.028	73.44
254.261	71.44
254.494	81.44
254.727	80.44
254.96	80.44
255.193	72.44
255.426	74.44
255.659	69.44
255.892	71.44
256.124	86.44
256.357	97.44
256.59	73.44
256.823	96.44
257.056	99.44
257.289	76.44
257.521	84.44
257.754	74.44
257.987	72.44
258.22	86.44
258.452	77.44
258.685	75.44
258.918	76.44
259.151	86.44
259.383	81.44
259.616	90.44
259.849	87.44
260.081	75.44
260.314	78.44
260.547	81.44
260.779	87.44
261.012	85.44
261.244	72.44
261.477	89.44
261.71	84.44
261.942	104.44
262.175	101.44
262.407	73.44
262.64	80.44
262.872	81.44
263.105	77.44
263.337	86.44
263.57	88.44
263.802	71.44
264.035	75.44
264.267	87.44
264.499	74.44
264.732	86.44
264.964	89.44
265.197	83.44
265.429	82.44
265.661	81.44
265.894	85.44
266.126	77.44
266.358	92.44
266.591	86.44
266.823	89.44
267.055	76.44
267.287	86.44
267.52	82.44
267.752	88.44
267.984	79.44
268.216	82.44
268.448	92.44
268.681	85.44
268.913	73.44
269.145	78.44
269.377	76.44
269.609	95.44
269.841	89.44
270.073	105.44
270.306	76.44
270.538	100.44
270.77	96.44
271.002	89.44
271.234	76.44
271.466	80.44
271.698	75.44
271.93	92.44
272.162	69.44
272.394	88.44
272.626	86.44
272.858	88.44
273.09	92.44
273.322	90.44
273.553	97.44
273.785	88.44
274.017	88.44
274.249	88.44
274.481	71.44
274.713	89.44
274.945	91.44
275.176	84.44
275.408	96.44
275.64	86.44
275.872	91.44
276.104	101.44
276.335	80.44
276.567	105.44
276.799	105.44
277.031	103.44
277.262	89.44
277.494	104.44
277.726	78.44
277.957	91.44
278.189	76.44
278.421	97.44
278.652	87.44
278.884	95.44
279.115	101.44
279.347	84.44
279.579	87.44
279.81	83.44
280.042	105.44
280.273	87.44
280.505	101.44
280.736	94.44
280.968	96.44
281.199	86.44
281.431	88.44
281.662	91.44
281.894	93.44
282.125	102.44
282.356	103.44
282.588	132.44
282.819	106.44
283.051	100.44
283.282	97.44
283.513	88.44
283.745	83.44
283.976	74.44
284.207	87.44
284.439	90.44
284.67	95.44
284.901	86.44
285.132	78.44
285.364	86.44
285.595	82.44
285.826	73.44
286.057	91.44
286.288	87.44
286.52	73.44
286.751	91.44
286.982	92.44
287.213	86.44
287.444	90.44
287.675	85.44
287.906	83.44
288.138	92.44
288.369	90.44
288.6	105.44
288.831	88.44
289.062	92.44
289.293	88.44
289.524	88.44
289.755	85.44
289.986	96.44
290.217	98.44
290.448	88.44
290.679	94.44
290.91	93.44
291.141	81.44
291.371	84.44
291.602	81.44
291.833	85.44
292.064	81.44
292.295	87.44
292.526	95.44
292.757	103.44
292.987	104.44
293.218	95.44
293.449	87.44
293.68	89.44
293.91	85.44
294.141	86.44
294.372	90.44
294.603	81.44
294.833	78.44
295.064	81.44
295.295	92.44
295.525	91.44
295.756	101.44
295.987	110.44
296.217	136.44
296.448	114.44
296.679	85.44
296.909	99.44
297.14	101.44
297.37	85.44
297.601	81.44
297.831	101.44
298.062	79.44
298.292	89.44
298.523	79.44
298.753	82.44
298.984	82.44
299.214	87.44
299.445	91.44
299.675	83.44
299.905	88.44
300.136	82.44
300.366	92.44
300.597	90.44
300.827	87.44
301.057	103.44
301.288	105.44
301.518	102.44
301.748	97.44
301.979	96.44
302.209	85.44
302.439	96.44
302.669	82.44
302.9	83.44
303.13	101.44
303.36	108.44
303.59	103.44
303.82	92.44
304.051	100.44
304.281	94.44
304.511	90.44
304.741	72.44
304.971	75.44
305.201	84.44
305.431	84.44
305.661	93.44
305.891	91.44
306.121	79.44
306.352	88.44
306.582	98.44
306.812	94.44
307.042	85.44
307.272	103.44
307.502	96.44
307.731	94.44
307.961	84.44
308.191	94.44
308.421	85.44
308.651	98.44
308.881	84.44
309.111	93.44
309.341	103.44
309.571	112.44
309.8	96.44
310.03	87.44
310.26	100.44
310.49	82.44
310.72	97.44
310.949	103.44
311.179	96.44
311.409	94.44
311.639	109.44
311.868	99.44
312.098	98.44
312.328	89.44
312.557	94.44
312.787	102.44
313.017	111.44
313.246	91.44
313.476	80.44
313.706	96.44
313.935	85.44
314.165	100.44
314.394	97.44
314.624	86.44
314.853	86.44
315.083	88.44
315.312	87.44
315.542	86.44
315.771	81.44
316.001	96.44
316.23	85.44
316.46	84.44
316.689	89.44
316.919	96.44
317.148	104.44
317.377	98.44
317.607	90.44
317.836	98.44
318.065	87.44
318.295	91.44
318.524	89.44
318.753	96.44
318.983	95.44
319.212	97.44
319.441	108.44
319.67	94.44
319.9	94.44
320.129	88.44
320.358	76.44
320.587	96.44
320.816	90.44
321.046	96.44
321.275	89.44
321.504	98.44
321.733	85.44
321.962	96.44
322.191	111.44
322.42	95.44
322.649	106.44
322.878	112.44
323.108	112.44
323.337	112.44
323.566	142.44
323.795	154.44
324.024	211.44
324.253	437.44
324.482	928.44
324.71	1927.44
324.939	2482.44
325.168	910.44
325.397	266.44
325.626	161.44
325.855	131.44
326.084	121.44
326.313	127.44
326.542	150.44
326.77	256.44
326.999	501.44
327.228	1076.44
327.457	1899.44
327.686	1536.44
327.914	405.44
328.143	193.44
328.372	144.44
328.6	121.44
328.829	114.44
329.058	120.44
329.287	124.44
329.515	102.44
329.744	104.44
329.972	88.44
330.201	92.44
330.43	113.44
330.658	124.44
330.887	142.44
331.115	108.44
331.344	99.44
331.572	109.44
331.801	105.44
332.03	99.44
332.258	93.44
332.486	89.44
332.715	92.44
332.943	83.44
333.172	106.44
333.4	103.44
333.629	121.44
333.857	104.44
334.085	84.44
334.314	88.44
334.542	90.44
334.771	88.44
334.999	86.44
335.227	84.44
335.455	99.44
335.684	81.44
335.912	104.44
336.14	90.44
336.369	101.44
336.597	99.44
336.825	103.44
337.053	98.44
337.281	80.44
337.51	95.44
337.738	83.44
337.966	95.44
338.194	98.44
338.422	97.44
338.65	93.44
338.878	108.44
339.106	86.44
339.334	80.44
339.562	94.44
339.79	83.44
340.018	88.44
340.246	83.44
340.474	96.44
340.702	96.44
340.93	86.44
341.158	94.44
341.386	94.44
341.614	87.44
341.842	104.44
342.07	94.44
342.298	90.44
342.526	97.44
342.754	89.44
342.981	91.44
343.209	82.44
343.437	91.44
343.665	88.44
343.893	104.44
344.12	94.44
344.348	103.44
344.576	79.44
344.804	78.44
345.031	93.44
345.259	82.44
345.487	110.44
345.714	83.44
345.942	86.44
346.17	89.44
346.397	89.44
346.625	94.44
346.853	93.44
347.08	98.44
347.308	95.44
347.535	95.44
347.763	93.44
347.99	85.44
348.218	94.44
348.445	100.44
348.673	99.44
348.9	104.44
349.128	102.44
349.355	91.44
349.583	95.44
349.81	93.44
350.037	93.44
350.265	91.44
350.492	92.44
350.72	94.44
350.947	112.44
351.174	103.44
351.402	105.44
351.629	104.44
351.856	93.44
352.083	111.44
352.311	103.44
352.538	97.44
352.765	125.44
352.992	124.44
353.22	129.44
353.447	111.44
353.674	101.44
353.901	93.44
354.128	102.44
354.355	93.44
354.583	97.44
354.81	98.44
355.037	90.44
355.264	85.44
355.491	96.44
355.718	79.44
355.945	86.44
356.172	96.44
356.399	117.44
356.626	92.44
356.853	93.44
357.08	98.44
357.307	101.44
357.534	88.44
357.761	84.44
357.988	94.44
358.215	105.44
358.441	97.44
358.668	87.44
358.895	83.44
359.122	101.44
359.349	76.44
359.576	94.44
359.802	98.44
360.029	115.44
360.256	106.44
360.483	93.44
360.709	86.44
360.936	90.44
361.163	105.44
361.39	106.44
361.616	90.44
361.843	90.44
362.07	96.44
362.296	84.44
362.523	94.44
362.749	79.44
362.976	95.44
363.203	92.44
363.429	92.44
363.656	87.44
363.882	94.44
364.109	101.44
364.335	68.44
364.562	92.44
364.788	87.44
365.015	85.44
365.241	97.44
365.468	100.44
365.694	97.44
365.92	94.44
366.147	100.44
366.373	99.44
366.599	100.44
366.826	93.44
367.052	106.44
367.278	92.44
367.505	75.44
367.731	82.44
367.957	103.44
368.184	86.44
368.41	98.44
368.636	93.44
368.862	120.44
369.089	102.44
369.315	99.44
369.541	90.44
369.767	106.44
369.993	94.44
370.219	77.44
370.445	75.44
370.672	95.44
370.898	81.44
371.124	103.44
371.35	87.44
371.576	76.44
371.802	85.44
372.028	96.44
372.254	90.44
372.48	95.44
372.706	85.44
372.932	86.44
373.158	98.44
373.384	82.44
373.61	89.44
373.835	99.44
374.061	75.44
374.287	89.44
374.513	95.44
374.739	76.44
374.965	90.44
375.191	94.44
375.416	85.44
375.642	86.44
375.868	95.44
376.094	89.44
376.319	84.44
376.545	97.44
376.771	84.44
376.997	76.44
377.222	93.44
377.448	90.44
377.674	97.44
377.899	88.44
378.125	74.44
378.35	81.44
378.576	74.44
378.802	89.44
379.027	84.44
379.253	91.44
379.478	98.44
379.704	91.44
379.929	96.44
380.155	102.44
380.38	109.44
380.606	103.44
380.831	85.44
381.057	102.44
381.282	84.44
381.507	81.44
381.733	86.44
381.958	102.44
382.184	114.44
382.409	103.44
382.634	102.44
382.86	95.44
383.085	101.44
383.31	113.44
383.535	102.44
383.761	92.44
383.986	98.44
384.211	104.44
384.436	93.44
384.662	109.44
384.887	96.44
385.112	90.44
385.337	99.44
385.562	104.44
385.787	108.44
386.013	115.44
386.238	108.44
386.463	104.44
386.688	109.44
386.913	92.44
387.138	107.44
387.363	93.44
387.588	87.44
387.813	97.44
388.038	89.44
388.263	90.44
388.488	107.44
388.713	107.44
388.938	100.44
389.163	82.44
389.387	101.44
389.612	93.44
389.837	85.44
390.062	95.44
390.287	100.44
390.512	96.44
390.736	84.44
390.961	80.44
391.186	80.44
391.411	102.44
391.636	87.44
391.86	98.44
392.085	82.44
392.31	82.44
392.534	99.44
392.759	84.44
392.984	90.44
393.208	78.44
393.433	90.44
393.658	84.44
393.882	89.44
394.107	88.44
394.331	84.44
394.556	89.44
394.78	87.44
395.005	87.44
395.229	77.44
395.454	90.44
395.678	84.44
395.903	85.44
396.127	86.44
396.352	94.44
396.576	82.44
396.801	79.44
397.025	87.44
397.249	93.44
397.474	79.44
397.698	93.44
397.922	87.44
398.147	86.44
398.371	75.44
398.595	80.44
398.82	88.44
399.044	103.44
399.268	75.44
399.492	79.44
399.717	86.44
399.941	94.44
400.165	96.44
400.389	91.44
400.613	82.44
400.837	88.44
401.062	79.44
401.286	96.44
401.51	84.44
401.734	88.44
401.958	102.44
402.182	137.44
402.406	148.44
402.63	120.44
402.854	84.44
403.078	85.44
403.302	104.44
403.526	90.44
403.75	79.44
403.974	81.44
404.198	87.44
404.422	91.44
404.645	86.44
404.869	84.44
405.093	98.44
405.317	107.44
405.541	89.44
405.765	95.44
405.988	115.44
406.212	174.44
406.436	223.44
406.66	138.44
406.883	93.44
407.107	97.44
407.331	89.44
407.555	104.44
407.778	99.44
408.002	92.44
408.226	78.44
408.449	78.44
408.673	88.44
408.896	90.44
409.12	101.44
409.344	100.44
409.567	77.44
409.791	91.44
410.014	98.44
410.238	96.44
410.461	93.44
410.685	89.44
410.908	93.44
411.132	103.44
411.355	106.44
411.578	97.44
411.802	83.44
412.025	91.44
412.249	109.44
412.472	98.44
412.695	97.44
412.919	93.44
413.142	99.44
413.365	92.44
413.589	93.44
413.812	86.44
414.035	100.44
414.258	86.44
414.482	86.44
414.705	91.44
414.928	87.44
415.151	95.44
415.374	87.44
415.597	89.44
415.821	77.44
416.044	88.44
416.267	83.44
416.49	85.44
416.713	98.44
416.936	71.44
417.159	91.44
417.382	89.44
417.605	87.44
417.828	87.44
418.051	94.44
418.274	87.44
418.497	98.44
418.72	90.44
418.943	90.44
419.166	90.44
419.389	82.44
419.611	105.44
419.834	84.44
420.057	94.44
420.28	105.44
420.503	84.44
420.726	86.44
420.948	79.44
421.171	101.44
421.394	103.44
421.617	87.44
421.839	96.44
422.062	94.44
422.285	104.44
422.507	87.44
422.73	94.44
422.953	90.44
423.175	85.44
423.398	84.44
423.621	83.44
423.843	103.44
424.066	88.44
424.288	82.44
424.511	93.44
424.733	95.44
424.956	110.44
425.178	100.44
425.401	92.44
425.623	89.44
425.846	89.44
426.068	97.44
426.291	84.44
426.513	97.44
426.735	79.44
426.958	95.44
427.18	105.44
427.402	153.44
427.625	151.44
427.847	121.44
428.069	106.44
428.292	97.44
428.514	74.44
428.736	72.44
428.958	93.44
429.181	82.44
429.403	86.44
429.625	77.44
429.847	88.44
430.069	92.44
430.292	96.44
430.514	90.44
430.736	89.44
430.958	80.44
431.18	92.44
431.402	76.44
431.624	81.44
431.846	83.44
432.068	79.44
432.29	84.44
432.512	80.44
432.734	97.44
432.956	93.44
433.178	100.44
433.4	96.44
433.622	108.44
433.844	89.44
434.066	73.44
434.287	82.44
434.509	95.44
434.731	81.44
434.953	77.44
435.175	76.44
435.397	82.44
435.618	92.44
435.84	94.44
436.062	113.44
436.284	101.44
436.505	89.44
436.727	95.44
436.949	98.44
437.17	83.44
437.392	77.44
437.614	92.44
437.835	101.44
438.057	105.44
438.278	106.44
438.5	104.44
438.721	126.44
438.943	101.44
439.165	87.44
439.386	85.44
439.608	85.44
439.829	113.44
440.05	113.44
440.272	140.44
440.493	95.44
440.715	85.44
440.936	82.44
441.158	75.44
441.379	98.44
441.6	87.44
441.822	89.44
442.043	97.44
442.264	110.44
442.486	97.44
442.707	84.44
442.928	107.44
443.149	129.44
443.371	129.44
443.592	105.44
443.813	109.44
444.034	103.44
444.255	109.44
444.476	83.44
444.698	86.44
444.919	85.44
445.14	135.44
445.361	134.44
445.582	106.44
445.803	131.44
446.024	128.44
446.245	124.44
446.466	105.44
446.687	84.44
446.908	80.44
447.129	83.44
447.35	84.44
447.571	84.44
447.792	90.44
448.013	103.44
448.234	115.44
448.455	105.44
448.675	117.44
448.896	114.44
449.117	95.44
449.338	100.44
449.559	127.44
449.779	115.44
450	96.44
450.221	70.44
450.442	101.44
450.662	97.44
450.883	110.44
451.104	99.44
451.324	76.44
451.545	87.44
451.766	96.44
451.986	77.44
452.207	107.44
452.428	93.44
452.648	87.44
452.869	91.44
453.089	111.44
453.31	100.44
453.53	75.44
453.751	91.44
453.971	108.44
454.192	114.44
454.412	77.44
454.633	83.44
454.853	69.44
455.073	88.44
455.294	83.44
455.514	96.44
455.734	92.44
455.955	82.44
456.175	97.44
456.395	84.44
456.616	96.44
456.836	88.44
457.056	80.44
457.276	93.44
457.497	99.44
457.717	79.44
457.937	79.44
458.157	99.44
458.377	89.44
458.598	113.44
458.818	135.44
459.038	154.44
459.258	94.44
459.478	88.44
459.698	95.44
459.918	87.44
460.138	86.44
460.358	96.44
460.578	84.44
460.798	94.44
461.018	82.44
461.238	87.44
461.458	85.44
461.678	95.44
461.898	74.44
462.118	81.44
462.338	78.44
462.558	89.44
462.777	67.44
462.997	100.44
463.217	90.44
463.437	75.44
463.657	80.44
463.876	84.44
464.096	84.44
464.316	94.44
464.536	93.44
464.755	78.44
464.975	109.44
465.195	167.44
465.414	172.44
465.634	110.44
465.854	91.44
466.073	77.44
466.293	84.44
466.512	74.44
466.732	73.44
466.951	93.44
467.171	85.44
467.391	104.44
467.61	93.44
467.829	93.44
468.049	92.44
468.268	97.44
468.488	81.44
468.707	71.44
468.927	89.44
469.146	97.44
469.365	88.44
469.585	90.44
469.804	87.44
470.023	96.44
470.243	85.44
470.462	90.44
470.681	104.44
470.901	79.44
471.12	73.44
471.339	84.44
471.558	92.44
471.777	80.44
471.997	87.44
472.216	89.44
472.435	92.44
472.654	85.44
472.873	77.44
473.092	84.44
473.311	77.44
473.53	96.44
473.749	82.44
473.968	83.44
474.187	93.44
474.406	88.44
474.625	97.44
474.844	82.44
475.063	85.44
475.282	85.44
475.501	81.44
475.72	97.44
475.939	88.44
476.158	75.44
476.377	94.44
476.596	85.44
476.814	93.44
477.033	92.44
477.252	97.44
477.471	95.44
477.69	93.44
477.908	84.44
478.127	84.44
478.346	95.44
478.564	102.44
478.783	109.44
479.002	96.44
479.22	80.44
479.439	96.44
479.658	95.44
479.876	101.44
480.095	85.44
480.313	97.44
480.532	93.44
480.751	84.44
480.969	96.44
481.188	104.44
481.406	108.44
481.624	83.44
481.843	95.44
482.061	85.44
482.28	96.44
482.498	89.44
482.717	101.44
482.935	79.44
483.153	92.44
483.372	110.44
483.59	95.44
483.808	85.44
484.027	81.44
484.245	105.44
484.463	114.44
484.681	96.44
484.9	99.44
485.118	100.44
485.336	89.44
485.554	109.44
485.772	106.44
485.99	107.44
486.209	107.44
486.427	101.44
486.645	113.44
486.863	111.44
487.081	86.44
487.299	100.44
487.517	85.44
487.735	89.44
487.953	79.44
488.171	84.44
488.389	88.44
488.607	101.44
488.825	92.44
489.043	76.44
489.261	93.44
489.479	74.44
489.696	98.44
489.914	81.44
490.132	85.44
490.35	92.44
490.568	91.44
490.786	95.44
491.003	78.44
491.221	92.44
491.439	89.44
491.657	88.44
491.874	84.44
492.092	80.44
492.31	97.44
492.527	88.44
492.745	96.44
492.963	82.44
493.18	95.44
493.398	89.44
493.615	106.44
493.833	108.44
494.05	88.44
494.268	89.44
494.485	90.44
494.703	102.44
494.92	97.44
495.138	93.44
495.355	105.44
495.573	85.44
495.79	86.44
496.008	93.44
496.225	82.44
496.442	80.44
496.66	80.44
496.877	99.44
497.094	88.44
497.312	98.44
497.529	93.44
497.746	98.44
497.963	87.44
498.181	87.44
498.398	103.44
498.615	97.44
498.832	104.44
499.049	108.44
499.267	92.44
499.484	92.44
499.701	93.44
499.918	93.44
500.135	98.44
500.352	92.44
500.569	86.44
500.786	81.44
501.003	84.44
501.22	78.44
501.437	91.44
501.654	104.44
501.871	97.44
502.088	87.44
502.305	101.44
502.522	86.44
502.739	92.44
502.956	95.44
503.172	86.44
503.389	88.44
503.606	93.44
503.823	97.44
504.04	80.44
504.256	100.44
504.473	87.44
504.69	82.44
504.907	108.44
505.123	100.44
505.34	101.44
505.557	92.44
505.773	94.44
505.99	103.44
506.207	88.44
506.423	98.44
506.64	88.44
506.856	84.44
507.073	80.44
507.289	106.44
507.506	93.44
507.722	116.44
507.939	102.44
508.155	90.44
508.372	89.44
508.588	88.44
508.805	97.44
509.021	88.44
509.238	97.44
509.454	103.44
509.67	102.44
509.887	104.44
510.103	138.44
510.319	229.44
510.536	823.44
510.752	2658.44
510.968	729.44
511.184	162.44
511.401	116.44
511.617	103.44
511.833	122.44
512.049	95.44
512.265	105.44
512.481	78.44
512.698	92.44
512.914	84.44
513.13	93.44
513.346	99.44
513.562	96.44
513.778	98.44
513.994	96.44
514.21	105.44
514.426	115.44
514.642	153.44
514.858	116.44
515.074	160.44
515.29	479.44
515.506	1578.44
515.721	558.44
515.937	144.44
