Data from Uncirc_2003_H10_HRD10591_00059.txt Node
Date: Wed Jan 03 10:35:59 EST 2024
User: Yrep
Spectrometer: HR+D1059
Trigger mode: 1
Integration Time (sec): 1.000000E-1
Scans to average: 1
Electric dark correction enabled: true
Nonlinearity correction enabled: false
Boxcar width: 0
XAxis mode: Wavelengths
Number of Pixels in Spectrum: 2048
>>>>>Begin Spectral Data<<<<<
223.165	-32.31
223.4	-32.31
223.635	-32.31
223.869	-11.31
224.104	-14.31
224.338	-15.31
224.573	-16.31
224.808	-7.31
225.042	-5.31
225.277	-7.31
225.511	2.69
225.746	6.69
225.98	0.69
226.215	14.69
226.449	14.69
226.683	11.69
226.918	20.69
227.152	37.69
227.387	21.69
227.621	37.69
227.856	36.69
228.09	30.69
228.324	52.69
228.559	49.69
228.793	56.69
229.027	64.69
229.262	63.69
229.496	72.69
229.73	89.69
229.964	87.69
230.199	87.69
230.433	75.69
230.667	79.69
230.901	76.69
231.136	88.69
231.37	79.69
231.604	79.69
231.838	76.69
232.072	93.69
232.306	86.69
232.541	72.69
232.775	77.69
233.009	89.69
233.243	70.69
233.477	77.69
233.711	89.69
233.945	81.69
234.179	86.69
234.413	71.69
234.647	84.69
234.881	69.69
235.115	74.69
235.349	86.69
235.583	90.69
235.817	77.69
236.051	80.69
236.285	75.69
236.519	70.69
236.753	82.69
236.987	77.69
237.221	84.69
237.455	80.69
237.689	78.69
237.922	83.69
238.156	78.69
238.39	65.69
238.624	68.69
238.858	89.69
239.091	80.69
239.325	74.69
239.559	75.69
239.793	80.69
240.027	88.69
240.26	65.69
240.494	73.69
240.728	61.69
240.961	74.69
241.195	84.69
241.429	87.69
241.662	74.69
241.896	77.69
242.13	78.69
242.363	74.69
242.597	88.69
242.83	84.69
243.064	81.69
243.298	89.69
243.531	84.69
243.765	87.69
243.998	79.69
244.232	67.69
244.465	72.69
244.699	91.69
244.932	74.69
245.166	75.69
245.399	83.69
245.633	74.69
245.866	76.69
246.099	72.69
246.333	72.69
246.566	74.69
246.8	89.69
247.033	78.69
247.266	90.69
247.5	78.69
247.733	81.69
247.966	72.69
248.2	78.69
248.433	83.69
248.666	74.69
248.899	84.69
249.133	80.69
249.366	94.69
249.599	92.69
249.832	73.69
250.066	74.69
250.299	68.69
250.532	81.69
250.765	78.69
250.998	83.69
251.231	70.69
251.465	81.69
251.698	83.69
251.931	85.69
252.164	93.69
252.397	80.69
252.63	83.69
252.863	71.69
253.096	89.69
253.329	80.69
253.562	79.69
253.795	78.69
254.028	89.69
254.261	79.69
254.494	80.69
254.727	83.69
254.96	79.69
255.193	79.69
255.426	91.69
255.659	70.69
255.892	89.69
256.124	67.69
256.357	69.69
256.59	79.69
256.823	78.69
257.056	82.69
257.289	77.69
257.521	95.69
257.754	79.69
257.987	87.69
258.22	102.69
258.452	87.69
258.685	75.69
258.918	82.69
259.151	72.69
259.383	84.69
259.616	89.69
259.849	80.69
260.081	66.69
260.314	89.69
260.547	91.69
260.779	78.69
261.012	83.69
261.244	84.69
261.477	86.69
261.71	106.69
261.942	116.69
262.175	109.69
262.407	74.69
262.64	74.69
262.872	90.69
263.105	84.69
263.337	87.69
263.57	99.69
263.802	83.69
264.035	101.69
264.267	87.69
264.499	75.69
264.732	77.69
264.964	93.69
265.197	94.69
265.429	65.69
265.661	91.69
265.894	81.69
266.126	92.69
266.358	85.69
266.591	82.69
266.823	86.69
267.055	89.69
267.287	76.69
267.52	84.69
267.752	99.69
267.984	88.69
268.216	83.69
268.448	96.69
268.681	89.69
268.913	81.69
269.145	77.69
269.377	84.69
269.609	82.69
269.841	85.69
270.073	85.69
270.306	74.69
270.538	85.69
270.77	79.69
271.002	83.69
271.234	87.69
271.466	89.69
271.698	73.69
271.93	91.69
272.162	83.69
272.394	79.69
272.626	89.69
272.858	68.69
273.09	68.69
273.322	79.69
273.553	91.69
273.785	94.69
274.017	74.69
274.249	82.69
274.481	69.69
274.713	94.69
274.945	85.69
275.176	79.69
275.408	87.69
275.64	83.69
275.872	80.69
276.104	85.69
276.335	82.69
276.567	94.69
276.799	103.69
277.031	82.69
277.262	82.69
277.494	83.69
277.726	86.69
277.957	91.69
278.189	74.69
278.421	85.69
278.652	69.69
278.884	80.69
279.115	83.69
279.347	82.69
279.579	79.69
279.81	84.69
280.042	80.69
280.273	87.69
280.505	92.69
280.736	87.69
280.968	85.69
281.199	80.69
281.431	88.69
281.662	73.69
281.894	97.69
282.125	96.69
282.356	97.69
282.588	140.69
282.819	102.69
283.051	87.69
283.282	78.69
283.513	94.69
283.745	83.69
283.976	94.69
284.207	89.69
284.439	90.69
284.67	102.69
284.901	72.69
285.132	92.69
285.364	96.69
285.595	80.69
285.826	78.69
286.057	91.69
286.288	80.69
286.52	81.69
286.751	85.69
286.982	88.69
287.213	85.69
287.444	86.69
287.675	78.69
287.906	80.69
288.138	97.69
288.369	88.69
288.6	81.69
288.831	88.69
289.062	97.69
289.293	98.69
289.524	78.69
289.755	91.69
289.986	85.69
290.217	100.69
290.448	88.69
290.679	89.69
290.91	99.69
291.141	84.69
291.371	93.69
291.602	100.69
291.833	101.69
292.064	80.69
292.295	87.69
292.526	79.69
292.757	74.69
292.987	80.69
293.218	76.69
293.449	92.69
293.68	92.69
293.91	96.69
294.141	86.69
294.372	85.69
294.603	94.69
294.833	80.69
295.064	95.69
295.295	81.69
295.525	94.69
295.756	96.69
295.987	99.69
296.217	129.69
296.448	123.69
296.679	105.69
296.909	79.69
297.14	83.69
297.37	89.69
297.601	89.69
297.831	91.69
298.062	86.69
298.292	90.69
298.523	94.69
298.753	104.69
298.984	78.69
299.214	96.69
299.445	93.69
299.675	94.69
299.905	87.69
300.136	80.69
300.366	89.69
300.597	84.69
300.827	88.69
301.057	93.69
301.288	90.69
301.518	99.69
301.748	90.69
301.979	98.69
302.209	92.69
302.439	73.69
302.669	92.69
302.9	84.69
303.13	85.69
303.36	85.69
303.59	114.69
303.82	112.69
304.051	90.69
304.281	101.69
304.511	88.69
304.741	86.69
304.971	73.69
305.201	94.69
305.431	97.69
305.661	87.69
305.891	81.69
306.121	101.69
306.352	108.69
306.582	112.69
306.812	85.69
307.042	77.69
307.272	87.69
307.502	97.69
307.731	101.69
307.961	104.69
308.191	88.69
308.421	82.69
308.651	86.69
308.881	78.69
309.111	86.69
309.341	84.69
309.571	98.69
309.8	100.69
310.03	98.69
310.26	104.69
310.49	110.69
310.72	92.69
310.949	110.69
311.179	93.69
311.409	101.69
311.639	99.69
311.868	89.69
312.098	85.69
312.328	89.69
312.557	83.69
312.787	101.69
313.017	113.69
313.246	104.69
313.476	85.69
313.706	95.69
313.935	84.69
314.165	104.69
314.394	89.69
314.624	79.69
314.853	99.69
315.083	96.69
315.312	101.69
315.542	98.69
315.771	88.69
316.001	97.69
316.23	105.69
316.46	93.69
316.689	76.69
316.919	88.69
317.148	98.69
317.377	94.69
317.607	102.69
317.836	98.69
318.065	92.69
318.295	79.69
318.524	99.69
318.753	91.69
318.983	103.69
319.212	113.69
319.441	100.69
319.67	102.69
319.9	103.69
320.129	99.69
320.358	88.69
320.587	87.69
320.816	104.69
321.046	101.69
321.275	106.69
321.504	92.69
321.733	114.69
321.962	90.69
322.191	103.69
322.42	100.69
322.649	95.69
322.878	98.69
323.108	101.69
323.337	114.69
323.566	142.69
323.795	145.69
324.024	214.69
324.253	397.69
324.482	857.69
324.71	1776.69
324.939	2333.69
325.168	826.69
325.397	244.69
325.626	154.69
325.855	129.69
326.084	113.69
326.313	146.69
326.542	164.69
326.77	237.69
326.999	467.69
327.228	998.69
327.457	1811.69
327.686	1432.69
327.914	388.69
328.143	180.69
328.372	130.69
328.6	115.69
328.829	120.69
329.058	117.69
329.287	114.69
329.515	108.69
329.744	99.69
329.972	104.69
330.201	101.69
330.43	110.69
330.658	99.69
330.887	140.69
331.115	132.69
331.344	100.69
331.572	98.69
331.801	99.69
332.03	96.69
332.258	84.69
332.486	94.69
332.715	94.69
332.943	89.69
333.172	86.69
333.4	93.69
333.629	108.69
333.857	116.69
334.085	106.69
334.314	98.69
334.542	102.69
334.771	93.69
334.999	101.69
335.227	85.69
335.455	89.69
335.684	108.69
335.912	100.69
336.14	92.69
336.369	98.69
336.597	86.69
336.825	100.69
337.053	94.69
337.281	91.69
337.51	86.69
337.738	89.69
337.966	98.69
338.194	92.69
338.422	101.69
338.65	97.69
338.878	91.69
339.106	80.69
339.334	103.69
339.562	82.69
339.79	89.69
340.018	101.69
340.246	92.69
340.474	86.69
340.702	103.69
340.93	89.69
341.158	100.69
341.386	83.69
341.614	106.69
341.842	98.69
342.07	97.69
342.298	91.69
342.526	88.69
342.754	91.69
342.981	101.69
343.209	96.69
343.437	106.69
343.665	81.69
343.893	94.69
344.12	100.69
344.348	96.69
344.576	73.69
344.804	98.69
345.031	89.69
345.259	86.69
345.487	89.69
345.714	84.69
345.942	79.69
346.17	89.69
346.397	109.69
346.625	93.69
346.853	89.69
347.08	96.69
347.308	98.69
347.535	101.69
347.763	82.69
347.99	103.69
348.218	106.69
348.445	99.69
348.673	97.69
348.9	94.69
349.128	96.69
349.355	93.69
349.583	95.69
349.81	107.69
350.037	95.69
350.265	84.69
350.492	99.69
350.72	97.69
350.947	97.69
351.174	97.69
351.402	117.69
351.629	112.69
351.856	100.69
352.083	102.69
352.311	118.69
352.538	99.69
352.765	106.69
352.992	101.69
353.22	95.69
353.447	111.69
353.674	95.69
353.901	105.69
354.128	100.69
354.355	89.69
354.583	101.69
354.81	94.69
355.037	103.69
355.264	95.69
355.491	102.69
355.718	81.69
355.945	90.69
356.172	99.69
356.399	95.69
356.626	96.69
356.853	104.69
357.08	89.69
357.307	98.69
357.534	102.69
357.761	96.69
357.988	96.69
358.215	98.69
358.441	105.69
358.668	76.69
358.895	85.69
359.122	90.69
359.349	92.69
359.576	90.69
359.802	103.69
360.029	104.69
360.256	107.69
360.483	108.69
360.709	82.69
360.936	85.69
361.163	106.69
361.39	96.69
361.616	101.69
361.843	77.69
362.07	96.69
362.296	101.69
362.523	93.69
362.749	93.69
362.976	88.69
363.203	85.69
363.429	88.69
363.656	87.69
363.882	80.69
364.109	98.69
364.335	80.69
364.562	85.69
364.788	87.69
365.015	89.69
365.241	98.69
365.468	124.69
365.694	110.69
365.92	99.69
366.147	86.69
366.373	93.69
366.599	74.69
366.826	90.69
367.052	97.69
367.278	97.69
367.505	90.69
367.731	92.69
367.957	77.69
368.184	76.69
368.41	88.69
368.636	119.69
368.862	109.69
369.089	90.69
369.315	96.69
369.541	78.69
369.767	82.69
369.993	88.69
370.219	83.69
370.445	100.69
370.672	81.69
370.898	79.69
371.124	74.69
371.35	80.69
371.576	95.69
371.802	97.69
372.028	83.69
372.254	80.69
372.48	77.69
372.706	92.69
372.932	90.69
373.158	94.69
373.384	87.69
373.61	104.69
373.835	98.69
374.061	86.69
374.287	106.69
374.513	96.69
374.739	90.69
374.965	89.69
375.191	93.69
375.416	89.69
375.642	87.69
375.868	77.69
376.094	94.69
376.319	84.69
376.545	90.69
376.771	86.69
376.997	85.69
377.222	93.69
377.448	87.69
377.674	93.69
377.899	86.69
378.125	110.69
378.35	100.69
378.576	85.69
378.802	92.69
379.027	76.69
379.253	90.69
379.478	97.69
379.704	92.69
379.929	110.69
380.155	88.69
380.38	103.69
380.606	95.69
380.831	96.69
381.057	102.69
381.282	96.69
381.507	86.69
381.733	98.69
381.958	100.69
382.184	93.69
382.409	97.69
382.634	103.69
382.86	108.69
383.085	108.69
383.31	96.69
383.535	105.69
383.761	99.69
383.986	95.69
384.211	94.69
384.436	105.69
384.662	82.69
384.887	96.69
385.112	103.69
385.337	109.69
385.562	89.69
385.787	102.69
386.013	113.69
386.238	105.69
386.463	107.69
386.688	100.69
386.913	112.69
387.138	101.69
387.363	111.69
387.588	89.69
387.813	98.69
388.038	92.69
388.263	98.69
388.488	99.69
388.713	79.69
388.938	106.69
389.163	108.69
389.387	84.69
389.612	96.69
389.837	99.69
390.062	100.69
390.287	98.69
390.512	101.69
390.736	84.69
390.961	95.69
391.186	91.69
391.411	95.69
391.636	89.69
391.86	101.69
392.085	83.69
392.31	95.69
392.534	81.69
392.759	89.69
392.984	80.69
393.208	83.69
393.433	85.69
393.658	95.69
393.882	82.69
394.107	95.69
394.331	94.69
394.556	93.69
394.78	85.69
395.005	78.69
395.229	95.69
395.454	99.69
395.678	90.69
395.903	87.69
396.127	98.69
396.352	98.69
396.576	85.69
396.801	89.69
397.025	88.69
397.249	85.69
397.474	97.69
397.698	90.69
397.922	89.69
398.147	89.69
398.371	80.69
398.595	90.69
398.82	99.69
399.044	96.69
399.268	86.69
399.492	83.69
399.717	103.69
399.941	91.69
400.165	84.69
400.389	89.69
400.613	85.69
400.837	81.69
401.062	88.69
401.286	73.69
401.51	85.69
401.734	90.69
401.958	99.69
402.182	114.69
402.406	160.69
402.63	115.69
402.854	106.69
403.078	95.69
403.302	88.69
403.526	95.69
403.75	81.69
403.974	74.69
404.198	74.69
404.422	71.69
404.645	95.69
404.869	81.69
405.093	98.69
405.317	91.69
405.541	86.69
405.765	85.69
405.988	108.69
406.212	175.69
406.436	220.69
406.66	136.69
406.883	101.69
407.107	93.69
407.331	87.69
407.555	102.69
407.778	84.69
408.002	81.69
408.226	80.69
408.449	85.69
408.673	76.69
408.896	102.69
409.12	96.69
409.344	97.69
409.567	80.69
409.791	86.69
410.014	99.69
410.238	95.69
410.461	91.69
410.685	110.69
410.908	83.69
411.132	92.69
411.355	70.69
411.578	91.69
411.802	84.69
412.025	96.69
412.249	95.69
412.472	79.69
412.695	85.69
412.919	88.69
413.142	82.69
413.365	96.69
413.589	98.69
413.812	82.69
414.035	101.69
414.258	79.69
414.482	100.69
414.705	103.69
414.928	83.69
415.151	96.69
415.374	96.69
415.597	90.69
415.821	93.69
416.044	96.69
416.267	94.69
416.49	96.69
416.713	92.69
416.936	87.69
417.159	81.69
417.382	79.69
417.605	96.69
417.828	70.69
418.051	85.69
418.274	108.69
418.497	91.69
418.72	90.69
418.943	102.69
419.166	80.69
419.389	93.69
419.611	86.69
419.834	73.69
420.057	98.69
420.28	86.69
420.503	79.69
420.726	85.69
420.948	80.69
421.171	95.69
421.394	99.69
421.617	98.69
421.839	74.69
422.062	89.69
422.285	82.69
422.507	96.69
422.73	104.69
422.953	87.69
423.175	80.69
423.398	90.69
423.621	101.69
423.843	92.69
424.066	76.69
424.288	88.69
424.511	94.69
424.733	94.69
424.956	102.69
425.178	93.69
425.401	104.69
425.623	101.69
425.846	100.69
426.068	95.69
426.291	95.69
426.513	91.69
426.735	90.69
426.958	88.69
427.18	100.69
427.402	127.69
427.625	131.69
427.847	114.69
428.069	92.69
428.292	98.69
428.514	77.69
428.736	85.69
428.958	92.69
429.181	100.69
429.403	87.69
429.625	104.69
429.847	105.69
430.069	87.69
430.292	83.69
430.514	94.69
430.736	81.69
430.958	89.69
431.18	77.69
431.402	83.69
431.624	90.69
431.846	85.69
432.068	83.69
432.29	78.69
432.512	89.69
432.734	86.69
432.956	97.69
433.178	86.69
433.4	107.69
433.622	103.69
433.844	98.69
434.066	81.69
434.287	83.69
434.509	90.69
434.731	97.69
434.953	83.69
435.175	86.69
435.397	80.69
435.618	85.69
435.84	93.69
436.062	113.69
436.284	105.69
436.505	89.69
436.727	96.69
436.949	89.69
437.17	76.69
437.392	89.69
437.614	90.69
437.835	96.69
438.057	111.69
438.278	97.69
438.5	96.69
438.721	127.69
438.943	101.69
439.165	92.69
439.386	93.69
439.608	92.69
439.829	97.69
440.05	115.69
440.272	129.69
440.493	110.69
440.715	77.69
440.936	94.69
441.158	105.69
441.379	77.69
441.6	79.69
441.822	86.69
442.043	97.69
442.264	100.69
442.486	110.69
442.707	96.69
442.928	82.69
443.149	131.69
443.371	125.69
443.592	107.69
443.813	103.69
444.034	123.69
444.255	90.69
444.476	90.69
444.698	80.69
444.919	94.69
445.14	142.69
445.361	132.69
445.582	107.69
445.803	114.69
446.024	127.69
446.245	125.69
446.466	117.69
446.687	86.69
446.908	89.69
447.129	89.69
447.35	100.69
447.571	89.69
447.792	95.69
448.013	98.69
448.234	95.69
448.455	97.69
448.675	112.69
448.896	113.69
449.117	106.69
449.338	106.69
449.559	105.69
449.779	108.69
450	94.69
450.221	80.69
450.442	84.69
450.662	89.69
450.883	103.69
451.104	102.69
451.324	83.69
451.545	84.69
451.766	88.69
451.986	88.69
452.207	93.69
452.428	90.69
452.648	87.69
452.869	102.69
453.089	113.69
453.31	114.69
453.53	92.69
453.751	94.69
453.971	105.69
454.192	103.69
454.412	87.69
454.633	91.69
454.853	79.69
455.073	79.69
455.294	94.69
455.514	97.69
455.734	78.69
455.955	85.69
456.175	91.69
456.395	101.69
456.616	77.69
456.836	105.69
457.056	83.69
457.276	94.69
457.497	79.69
457.717	83.69
457.937	88.69
458.157	94.69
458.377	96.69
458.598	96.69
458.818	146.69
459.038	153.69
459.258	114.69
459.478	91.69
459.698	87.69
459.918	76.69
460.138	88.69
460.358	94.69
460.578	86.69
460.798	81.69
461.018	76.69
461.238	81.69
461.458	86.69
461.678	88.69
461.898	81.69
462.118	97.69
462.338	79.69
462.558	80.69
462.777	81.69
462.997	89.69
463.217	94.69
463.437	83.69
463.657	84.69
463.876	92.69
464.096	102.69
464.316	108.69
464.536	93.69
464.755	98.69
464.975	87.69
465.195	157.69
465.414	154.69
465.634	81.69
465.854	95.69
466.073	92.69
466.293	95.69
466.512	99.69
466.732	89.69
466.951	101.69
467.171	94.69
467.391	99.69
467.61	96.69
467.829	93.69
468.049	103.69
468.268	84.69
468.488	96.69
468.707	83.69
468.927	97.69
469.146	86.69
469.365	81.69
469.585	95.69
469.804	99.69
470.023	96.69
470.243	93.69
470.462	90.69
470.681	106.69
470.901	87.69
471.12	88.69
471.339	89.69
471.558	79.69
471.777	79.69
471.997	77.69
472.216	86.69
472.435	89.69
472.654	91.69
472.873	80.69
473.092	78.69
473.311	96.69
473.53	88.69
473.749	91.69
473.968	87.69
474.187	96.69
474.406	89.69
474.625	87.69
474.844	84.69
475.063	74.69
475.282	85.69
475.501	86.69
475.72	97.69
475.939	86.69
476.158	73.69
476.377	87.69
476.596	81.69
476.814	80.69
477.033	83.69
477.252	74.69
477.471	81.69
477.69	94.69
477.908	94.69
478.127	95.69
478.346	99.69
478.564	90.69
478.783	100.69
479.002	77.69
479.22	85.69
479.439	104.69
479.658	104.69
479.876	91.69
480.095	93.69
480.313	93.69
480.532	82.69
480.751	90.69
480.969	87.69
481.188	94.69
481.406	93.69
481.624	98.69
481.843	88.69
482.061	101.69
482.28	94.69
482.498	81.69
482.717	84.69
482.935	87.69
483.153	77.69
483.372	93.69
483.59	85.69
483.808	65.69
484.027	66.69
484.245	98.69
484.463	81.69
484.681	87.69
484.9	100.69
485.118	85.69
485.336	91.69
485.554	81.69
485.772	104.69
485.99	106.69
486.209	97.69
486.427	96.69
486.645	88.69
486.863	99.69
487.081	87.69
487.299	94.69
487.517	93.69
487.735	89.69
487.953	84.69
488.171	102.69
488.389	95.69
488.607	97.69
488.825	86.69
489.043	99.69
489.261	98.69
489.479	82.69
489.696	96.69
489.914	82.69
490.132	90.69
490.35	102.69
490.568	92.69
490.786	93.69
491.003	90.69
491.221	84.69
491.439	91.69
491.657	80.69
491.874	92.69
492.092	88.69
492.31	97.69
492.527	88.69
492.745	105.69
492.963	94.69
493.18	86.69
493.398	93.69
493.615	91.69
493.833	101.69
494.05	95.69
494.268	96.69
494.485	98.69
494.703	90.69
494.92	102.69
495.138	82.69
495.355	86.69
495.573	114.69
495.79	98.69
496.008	82.69
496.225	101.69
496.442	79.69
496.66	96.69
496.877	89.69
497.094	92.69
497.312	97.69
497.529	94.69
497.746	89.69
497.963	105.69
498.181	97.69
498.398	95.69
498.615	96.69
498.832	114.69
499.049	98.69
499.267	88.69
499.484	91.69
499.701	92.69
499.918	93.69
500.135	92.69
500.352	76.69
500.569	88.69
500.786	102.69
501.003	87.69
501.22	105.69
501.437	102.69
501.654	103.69
501.871	113.69
502.088	93.69
502.305	84.69
502.522	87.69
502.739	102.69
502.956	88.69
503.172	83.69
503.389	76.69
503.606	112.69
503.823	96.69
504.04	112.69
504.256	79.69
504.473	98.69
504.69	78.69
504.907	82.69
505.123	89.69
505.34	104.69
505.557	88.69
505.773	84.69
505.99	92.69
506.207	97.69
506.423	97.69
506.64	89.69
506.856	83.69
507.073	93.69
507.289	102.69
507.506	104.69
507.722	106.69
507.939	98.69
508.155	90.69
508.372	82.69
508.588	100.69
508.805	101.69
509.021	105.69
509.238	93.69
509.454	99.69
509.67	115.69
509.887	105.69
510.103	154.69
510.319	212.69
510.536	778.69
510.752	2462.69
510.968	697.69
511.184	156.69
511.401	116.69
511.617	97.69
511.833	81.69
512.049	87.69
512.265	86.69
512.481	93.69
512.698	88.69
512.914	86.69
513.13	90.69
513.346	94.69
513.562	104.69
513.778	96.69
513.994	94.69
514.21	108.69
514.426	119.69
514.642	127.69
514.858	128.69
515.074	157.69
515.29	459.69
515.506	1454.69
515.721	522.69
515.937	143.69
