Data from Uncirc_2003_H10_HRD10591_00060.txt Node
Date: Wed Jan 03 10:35:59 EST 2024
User: Yrep
Spectrometer: HR+D1059
Trigger mode: 1
Integration Time (sec): 1.000000E-1
Scans to average: 1
Electric dark correction enabled: true
Nonlinearity correction enabled: false
Boxcar width: 0
XAxis mode: Wavelengths
Number of Pixels in Spectrum: 2048
>>>>>Begin Spectral Data<<<<<
223.165	-18.38
223.4	-18.38
223.635	-18.38
223.869	-22.38
224.104	-27.38
224.338	-10.38
224.573	-26.38
224.808	-16.38
225.042	-0.38
225.277	-3.38
225.511	2.62
225.746	10.62
225.98	-2.38
226.215	23.62
226.449	18.62
226.683	13.62
226.918	24.62
227.152	33.62
227.387	32.62
227.621	39.62
227.856	47.62
228.09	37.62
228.324	50.62
228.559	51.62
228.793	53.62
229.027	55.62
229.262	68.62
229.496	80.62
229.73	76.62
229.964	76.62
230.199	68.62
230.433	76.62
230.667	66.62
230.901	77.62
231.136	73.62
231.37	76.62
231.604	82.62
231.838	63.62
232.072	72.62
232.306	91.62
232.541	76.62
232.775	72.62
233.009	75.62
233.243	76.62
233.477	84.62
233.711	74.62
233.945	78.62
234.179	69.62
234.413	72.62
234.647	68.62
234.881	79.62
235.115	73.62
235.349	77.62
235.583	73.62
235.817	81.62
236.051	67.62
236.285	70.62
236.519	66.62
236.753	78.62
236.987	86.62
237.221	71.62
237.455	91.62
237.689	82.62
237.922	81.62
238.156	70.62
238.39	67.62
238.624	72.62
238.858	76.62
239.091	65.62
239.325	83.62
239.559	71.62
239.793	80.62
240.027	88.62
240.26	69.62
240.494	77.62
240.728	85.62
240.961	73.62
241.195	87.62
241.429	80.62
241.662	68.62
241.896	73.62
242.13	83.62
242.363	80.62
242.597	66.62
242.83	88.62
243.064	76.62
243.298	82.62
243.531	79.62
243.765	76.62
243.998	90.62
244.232	84.62
244.465	77.62
244.699	77.62
244.932	67.62
245.166	75.62
245.399	85.62
245.633	72.62
245.866	75.62
246.099	73.62
246.333	67.62
246.566	83.62
246.8	71.62
247.033	66.62
247.266	92.62
247.5	73.62
247.733	84.62
247.966	74.62
248.2	68.62
248.433	92.62
248.666	88.62
248.899	92.62
249.133	73.62
249.366	106.62
249.599	95.62
249.832	88.62
250.066	79.62
250.299	63.62
250.532	78.62
250.765	75.62
250.998	84.62
251.231	87.62
251.465	86.62
251.698	60.62
251.931	84.62
252.164	85.62
252.397	77.62
252.63	85.62
252.863	91.62
253.096	72.62
253.329	87.62
253.562	76.62
253.795	84.62
254.028	73.62
254.261	101.62
254.494	86.62
254.727	76.62
254.96	93.62
255.193	92.62
255.426	71.62
255.659	79.62
255.892	82.62
256.124	71.62
256.357	79.62
256.59	79.62
256.823	81.62
257.056	75.62
257.289	71.62
257.521	77.62
257.754	84.62
257.987	84.62
258.22	91.62
258.452	79.62
258.685	80.62
258.918	77.62
259.151	78.62
259.383	102.62
259.616	70.62
259.849	70.62
260.081	80.62
260.314	76.62
260.547	76.62
260.779	77.62
261.012	74.62
261.244	73.62
261.477	90.62
261.71	96.62
261.942	111.62
262.175	112.62
262.407	88.62
262.64	85.62
262.872	96.62
263.105	83.62
263.337	89.62
263.57	82.62
263.802	90.62
264.035	71.62
264.267	72.62
264.499	88.62
264.732	84.62
264.964	85.62
265.197	75.62
265.429	90.62
265.661	83.62
265.894	92.62
266.126	88.62
266.358	81.62
266.591	67.62
266.823	83.62
267.055	93.62
267.287	98.62
267.52	76.62
267.752	91.62
267.984	87.62
268.216	77.62
268.448	87.62
268.681	80.62
268.913	75.62
269.145	82.62
269.377	98.62
269.609	98.62
269.841	89.62
270.073	90.62
270.306	82.62
270.538	97.62
270.77	85.62
271.002	82.62
271.234	99.62
271.466	86.62
271.698	80.62
271.93	83.62
272.162	76.62
272.394	99.62
272.626	105.62
272.858	85.62
273.09	75.62
273.322	73.62
273.553	77.62
273.785	96.62
274.017	70.62
274.249	83.62
274.481	81.62
274.713	78.62
274.945	73.62
275.176	86.62
275.408	79.62
275.64	91.62
275.872	81.62
276.104	101.62
276.335	95.62
276.567	90.62
276.799	101.62
277.031	97.62
277.262	95.62
277.494	83.62
277.726	95.62
277.957	91.62
278.189	86.62
278.421	92.62
278.652	93.62
278.884	80.62
279.115	80.62
279.347	88.62
279.579	68.62
279.81	76.62
280.042	80.62
280.273	78.62
280.505	75.62
280.736	85.62
280.968	73.62
281.199	89.62
281.431	80.62
281.662	80.62
281.894	93.62
282.125	106.62
282.356	122.62
282.588	128.62
282.819	113.62
283.051	89.62
283.282	87.62
283.513	84.62
283.745	96.62
283.976	83.62
284.207	103.62
284.439	67.62
284.67	85.62
284.901	83.62
285.132	83.62
285.364	91.62
285.595	94.62
285.826	74.62
286.057	77.62
286.288	84.62
286.52	84.62
286.751	83.62
286.982	96.62
287.213	89.62
287.444	76.62
287.675	87.62
287.906	83.62
288.138	93.62
288.369	87.62
288.6	90.62
288.831	92.62
289.062	85.62
289.293	82.62
289.524	83.62
289.755	95.62
289.986	89.62
290.217	94.62
290.448	92.62
290.679	96.62
290.91	91.62
291.141	87.62
291.371	84.62
291.602	91.62
291.833	88.62
292.064	78.62
292.295	83.62
292.526	79.62
292.757	95.62
292.987	92.62
293.218	103.62
293.449	91.62
293.68	84.62
293.91	76.62
294.141	96.62
294.372	84.62
294.603	92.62
294.833	92.62
295.064	91.62
295.295	99.62
295.525	92.62
295.756	92.62
295.987	114.62
296.217	124.62
296.448	120.62
296.679	93.62
296.909	83.62
297.14	90.62
297.37	86.62
297.601	93.62
297.831	90.62
298.062	78.62
298.292	85.62
298.523	87.62
298.753	74.62
298.984	76.62
299.214	81.62
299.445	81.62
299.675	85.62
299.905	96.62
300.136	100.62
300.366	94.62
300.597	89.62
300.827	105.62
301.057	104.62
301.288	95.62
301.518	101.62
301.748	94.62
301.979	83.62
302.209	82.62
302.439	87.62
302.669	80.62
302.9	95.62
303.13	79.62
303.36	96.62
303.59	115.62
303.82	91.62
304.051	83.62
304.281	82.62
304.511	90.62
304.741	82.62
304.971	78.62
305.201	94.62
305.431	84.62
305.661	90.62
305.891	95.62
306.121	95.62
306.352	91.62
306.582	105.62
306.812	92.62
307.042	93.62
307.272	78.62
307.502	95.62
307.731	93.62
307.961	87.62
308.191	89.62
308.421	74.62
308.651	99.62
308.881	97.62
309.111	93.62
309.341	95.62
309.571	98.62
309.8	87.62
310.03	99.62
310.26	90.62
310.49	93.62
310.72	100.62
310.949	107.62
311.179	86.62
311.409	85.62
311.639	84.62
311.868	100.62
312.098	90.62
312.328	111.62
312.557	101.62
312.787	99.62
313.017	87.62
313.246	79.62
313.476	79.62
313.706	96.62
313.935	92.62
314.165	87.62
314.394	107.62
314.624	102.62
314.853	83.62
315.083	90.62
315.312	94.62
315.542	88.62
315.771	105.62
316.001	94.62
316.23	93.62
316.46	95.62
316.689	82.62
316.919	72.62
317.148	90.62
317.377	91.62
317.607	90.62
317.836	99.62
318.065	91.62
318.295	100.62
318.524	87.62
318.753	90.62
318.983	109.62
319.212	107.62
319.441	116.62
319.67	98.62
319.9	90.62
320.129	95.62
320.358	97.62
320.587	95.62
320.816	100.62
321.046	94.62
321.275	100.62
321.504	103.62
321.733	88.62
321.962	83.62
322.191	103.62
322.42	76.62
322.649	96.62
322.878	102.62
323.108	119.62
323.337	122.62
323.566	119.62
323.795	156.62
324.024	222.62
324.253	402.62
324.482	878.62
324.71	1806.62
324.939	2400.62
325.168	890.62
325.397	237.62
325.626	134.62
325.855	133.62
326.084	123.62
326.313	146.62
326.542	147.62
326.77	225.62
326.999	492.62
327.228	1022.62
327.457	1845.62
327.686	1442.62
327.914	384.62
328.143	200.62
328.372	151.62
328.6	109.62
328.829	119.62
329.058	126.62
329.287	136.62
329.515	118.62
329.744	106.62
329.972	110.62
330.201	104.62
330.43	116.62
330.658	126.62
330.887	136.62
331.115	110.62
331.344	87.62
331.572	96.62
331.801	94.62
332.03	107.62
332.258	76.62
332.486	87.62
332.715	99.62
332.943	100.62
333.172	94.62
333.4	87.62
333.629	92.62
333.857	106.62
334.085	104.62
334.314	88.62
334.542	94.62
334.771	106.62
334.999	84.62
335.227	95.62
335.455	90.62
335.684	97.62
335.912	101.62
336.14	105.62
336.369	102.62
336.597	102.62
336.825	97.62
337.053	87.62
337.281	102.62
337.51	103.62
337.738	76.62
337.966	79.62
338.194	86.62
338.422	93.62
338.65	94.62
338.878	87.62
339.106	86.62
339.334	93.62
339.562	92.62
339.79	96.62
340.018	75.62
340.246	77.62
340.474	85.62
340.702	91.62
340.93	106.62
341.158	79.62
341.386	97.62
341.614	113.62
341.842	77.62
342.07	86.62
342.298	86.62
342.526	93.62
342.754	83.62
342.981	93.62
343.209	87.62
343.437	84.62
343.665	84.62
343.893	90.62
344.12	94.62
344.348	84.62
344.576	77.62
344.804	81.62
345.031	98.62
345.259	99.62
345.487	99.62
345.714	86.62
345.942	84.62
346.17	89.62
346.397	77.62
346.625	91.62
346.853	95.62
347.08	95.62
347.308	74.62
347.535	90.62
347.763	100.62
347.99	87.62
348.218	103.62
348.445	98.62
348.673	91.62
348.9	84.62
349.128	87.62
349.355	86.62
349.583	88.62
349.81	106.62
350.037	96.62
350.265	92.62
350.492	77.62
350.72	94.62
350.947	112.62
351.174	108.62
351.402	110.62
351.629	96.62
351.856	109.62
352.083	95.62
352.311	101.62
352.538	107.62
352.765	115.62
352.992	111.62
353.22	111.62
353.447	98.62
353.674	100.62
353.901	92.62
354.128	88.62
354.355	88.62
354.583	98.62
354.81	101.62
355.037	94.62
355.264	97.62
355.491	98.62
355.718	95.62
355.945	74.62
356.172	100.62
356.399	88.62
356.626	85.62
356.853	94.62
357.08	106.62
357.307	95.62
357.534	92.62
357.761	83.62
357.988	102.62
358.215	104.62
358.441	103.62
358.668	92.62
358.895	100.62
359.122	93.62
359.349	96.62
359.576	95.62
359.802	108.62
360.029	129.62
360.256	116.62
360.483	102.62
360.709	100.62
360.936	98.62
361.163	87.62
361.39	83.62
361.616	107.62
361.843	83.62
362.07	77.62
362.296	94.62
362.523	88.62
362.749	82.62
362.976	93.62
363.203	85.62
363.429	94.62
363.656	99.62
363.882	96.62
364.109	98.62
364.335	102.62
364.562	81.62
364.788	96.62
365.015	89.62
365.241	99.62
365.468	93.62
365.694	99.62
365.92	107.62
366.147	94.62
366.373	80.62
366.599	81.62
366.826	96.62
367.052	87.62
367.278	78.62
367.505	95.62
367.731	84.62
367.957	90.62
368.184	100.62
368.41	104.62
368.636	122.62
368.862	116.62
369.089	102.62
369.315	86.62
369.541	95.62
369.767	99.62
369.993	91.62
370.219	83.62
370.445	93.62
370.672	99.62
370.898	89.62
371.124	84.62
371.35	82.62
371.576	87.62
371.802	82.62
372.028	78.62
372.254	86.62
372.48	85.62
372.706	80.62
372.932	84.62
373.158	91.62
373.384	87.62
373.61	92.62
373.835	76.62
374.061	90.62
374.287	90.62
374.513	86.62
374.739	94.62
374.965	86.62
375.191	76.62
375.416	84.62
375.642	93.62
375.868	95.62
376.094	86.62
376.319	94.62
376.545	87.62
376.771	97.62
376.997	88.62
377.222	86.62
377.448	94.62
377.674	98.62
377.899	90.62
378.125	84.62
378.35	95.62
378.576	99.62
378.802	83.62
379.027	109.62
379.253	89.62
379.478	96.62
379.704	93.62
379.929	83.62
380.155	89.62
380.38	97.62
380.606	98.62
380.831	94.62
381.057	102.62
381.282	93.62
381.507	83.62
381.733	87.62
381.958	109.62
382.184	96.62
382.409	104.62
382.634	96.62
382.86	107.62
383.085	92.62
383.31	98.62
383.535	105.62
383.761	89.62
383.986	80.62
384.211	97.62
384.436	104.62
384.662	98.62
384.887	103.62
385.112	94.62
385.337	97.62
385.562	98.62
385.787	104.62
386.013	109.62
386.238	109.62
386.463	103.62
386.688	112.62
386.913	97.62
387.138	97.62
387.363	91.62
387.588	90.62
387.813	95.62
388.038	104.62
388.263	100.62
388.488	95.62
388.713	112.62
388.938	96.62
389.163	97.62
389.387	87.62
389.612	91.62
389.837	87.62
390.062	86.62
390.287	87.62
390.512	88.62
390.736	88.62
390.961	88.62
391.186	102.62
391.411	89.62
391.636	91.62
391.86	91.62
392.085	70.62
392.31	88.62
392.534	83.62
392.759	92.62
392.984	80.62
393.208	75.62
393.433	87.62
393.658	87.62
393.882	98.62
394.107	85.62
394.331	74.62
394.556	78.62
394.78	90.62
395.005	95.62
395.229	91.62
395.454	93.62
395.678	80.62
395.903	95.62
396.127	95.62
396.352	83.62
396.576	84.62
396.801	66.62
397.025	85.62
397.249	82.62
397.474	110.62
397.698	96.62
397.922	86.62
398.147	84.62
398.371	88.62
398.595	71.62
398.82	88.62
399.044	80.62
399.268	95.62
399.492	91.62
399.717	95.62
399.941	87.62
400.165	98.62
400.389	87.62
400.613	95.62
400.837	81.62
401.062	90.62
401.286	88.62
401.51	87.62
401.734	97.62
401.958	95.62
402.182	111.62
402.406	156.62
402.63	107.62
402.854	78.62
403.078	91.62
403.302	91.62
403.526	90.62
403.75	77.62
403.974	78.62
404.198	74.62
404.422	81.62
404.645	87.62
404.869	95.62
405.093	74.62
405.317	90.62
405.541	88.62
405.765	85.62
405.988	111.62
406.212	166.62
406.436	225.62
406.66	124.62
406.883	98.62
407.107	87.62
407.331	70.62
407.555	94.62
407.778	102.62
408.002	91.62
408.226	92.62
408.449	88.62
408.673	85.62
408.896	96.62
409.12	99.62
409.344	106.62
409.567	80.62
409.791	87.62
410.014	92.62
410.238	92.62
410.461	83.62
410.685	99.62
410.908	93.62
411.132	100.62
411.355	88.62
411.578	92.62
411.802	97.62
412.025	96.62
412.249	93.62
412.472	79.62
412.695	86.62
412.919	91.62
413.142	84.62
413.365	89.62
413.589	92.62
413.812	79.62
414.035	97.62
414.258	92.62
414.482	95.62
414.705	89.62
414.928	76.62
415.151	90.62
415.374	89.62
415.597	80.62
415.821	83.62
416.044	95.62
416.267	76.62
416.49	74.62
416.713	94.62
416.936	107.62
417.159	92.62
417.382	91.62
417.605	87.62
417.828	96.62
418.051	73.62
418.274	76.62
418.497	91.62
418.72	92.62
418.943	85.62
419.166	86.62
419.389	79.62
419.611	101.62
419.834	100.62
420.057	91.62
420.28	87.62
420.503	78.62
420.726	78.62
420.948	80.62
421.171	84.62
421.394	72.62
421.617	82.62
421.839	91.62
422.062	79.62
422.285	88.62
422.507	79.62
422.73	77.62
422.953	82.62
423.175	97.62
423.398	83.62
423.621	79.62
423.843	102.62
424.066	70.62
424.288	83.62
424.511	87.62
424.733	87.62
424.956	99.62
425.178	105.62
425.401	89.62
425.623	93.62
425.846	85.62
426.068	76.62
426.291	70.62
426.513	65.62
426.735	91.62
426.958	100.62
427.18	111.62
427.402	127.62
427.625	145.62
427.847	124.62
428.069	93.62
428.292	75.62
428.514	88.62
428.736	78.62
428.958	85.62
429.181	69.62
429.403	79.62
429.625	75.62
429.847	97.62
430.069	92.62
430.292	98.62
430.514	86.62
430.736	78.62
430.958	103.62
431.18	84.62
431.402	82.62
431.624	79.62
431.846	79.62
432.068	93.62
432.29	85.62
432.512	88.62
432.734	82.62
432.956	83.62
433.178	91.62
433.4	95.62
433.622	99.62
433.844	73.62
434.066	84.62
434.287	90.62
434.509	76.62
434.731	101.62
434.953	114.62
435.175	88.62
435.397	92.62
435.618	92.62
435.84	86.62
436.062	106.62
436.284	116.62
436.505	107.62
436.727	103.62
436.949	82.62
437.17	88.62
437.392	74.62
437.614	98.62
437.835	101.62
438.057	118.62
438.278	100.62
438.5	104.62
438.721	109.62
438.943	110.62
439.165	88.62
439.386	91.62
439.608	83.62
439.829	90.62
440.05	126.62
440.272	140.62
440.493	102.62
440.715	81.62
440.936	92.62
441.158	103.62
441.379	91.62
441.6	94.62
441.822	96.62
442.043	84.62
442.264	102.62
442.486	84.62
442.707	88.62
442.928	96.62
443.149	117.62
443.371	124.62
443.592	103.62
443.813	93.62
444.034	107.62
444.255	105.62
444.476	88.62
444.698	92.62
444.919	77.62
445.14	117.62
445.361	125.62
445.582	90.62
445.803	127.62
446.024	127.62
446.245	129.62
446.466	97.62
446.687	93.62
446.908	86.62
447.129	87.62
447.35	89.62
447.571	94.62
447.792	95.62
448.013	91.62
448.234	107.62
448.455	91.62
448.675	102.62
448.896	127.62
449.117	90.62
449.338	90.62
449.559	107.62
449.779	133.62
450	86.62
450.221	90.62
450.442	83.62
450.662	99.62
450.883	98.62
451.104	94.62
451.324	92.62
451.545	88.62
451.766	70.62
451.986	78.62
452.207	97.62
452.428	90.62
452.648	84.62
452.869	107.62
453.089	126.62
453.31	116.62
453.53	87.62
453.751	71.62
453.971	104.62
454.192	108.62
454.412	85.62
454.633	74.62
454.853	88.62
455.073	90.62
455.294	83.62
455.514	84.62
455.734	88.62
455.955	89.62
456.175	93.62
456.395	67.62
456.616	73.62
456.836	84.62
457.056	88.62
457.276	59.62
457.497	92.62
457.717	78.62
457.937	71.62
458.157	94.62
458.377	82.62
458.598	106.62
458.818	146.62
459.038	154.62
459.258	123.62
459.478	85.62
459.698	93.62
459.918	72.62
460.138	83.62
460.358	76.62
460.578	91.62
460.798	80.62
461.018	93.62
461.238	82.62
461.458	92.62
461.678	79.62
461.898	88.62
462.118	94.62
462.338	70.62
462.558	83.62
462.777	58.62
462.997	82.62
463.217	99.62
463.437	87.62
463.657	84.62
463.876	92.62
464.096	92.62
464.316	92.62
464.536	90.62
464.755	101.62
464.975	102.62
465.195	156.62
465.414	161.62
465.634	101.62
465.854	80.62
466.073	88.62
466.293	81.62
466.512	76.62
466.732	87.62
466.951	94.62
467.171	78.62
467.391	103.62
467.61	93.62
467.829	103.62
468.049	86.62
468.268	84.62
468.488	85.62
468.707	99.62
468.927	88.62
469.146	86.62
469.365	88.62
469.585	84.62
469.804	98.62
470.023	99.62
470.243	81.62
470.462	86.62
470.681	103.62
470.901	86.62
471.12	94.62
471.339	85.62
471.558	87.62
471.777	81.62
471.997	94.62
472.216	78.62
472.435	89.62
472.654	87.62
472.873	79.62
473.092	94.62
473.311	95.62
473.53	82.62
473.749	86.62
473.968	87.62
474.187	116.62
474.406	108.62
474.625	91.62
474.844	86.62
475.063	82.62
475.282	85.62
475.501	79.62
475.72	84.62
475.939	79.62
476.158	99.62
476.377	81.62
476.596	92.62
476.814	82.62
477.033	98.62
477.252	84.62
477.471	71.62
477.69	86.62
477.908	98.62
478.127	76.62
478.346	87.62
478.564	94.62
478.783	90.62
479.002	92.62
479.22	89.62
479.439	107.62
479.658	96.62
479.876	84.62
480.095	82.62
480.313	98.62
480.532	92.62
480.751	88.62
480.969	85.62
481.188	100.62
481.406	81.62
481.624	91.62
481.843	81.62
482.061	83.62
482.28	93.62
482.498	91.62
482.717	80.62
482.935	91.62
483.153	78.62
483.372	88.62
483.59	79.62
483.808	89.62
484.027	81.62
484.245	76.62
484.463	84.62
484.681	74.62
484.9	82.62
485.118	91.62
485.336	85.62
485.554	103.62
485.772	104.62
485.99	98.62
486.209	94.62
486.427	83.62
486.645	102.62
486.863	103.62
487.081	94.62
487.299	80.62
487.517	86.62
487.735	94.62
487.953	92.62
488.171	104.62
488.389	99.62
488.607	91.62
488.825	88.62
489.043	98.62
489.261	86.62
489.479	82.62
489.696	91.62
489.914	93.62
490.132	88.62
490.35	87.62
490.568	95.62
490.786	83.62
491.003	93.62
491.221	92.62
491.439	78.62
491.657	82.62
491.874	92.62
492.092	81.62
492.31	96.62
492.527	85.62
492.745	92.62
492.963	99.62
493.18	91.62
493.398	83.62
493.615	90.62
493.833	87.62
494.05	85.62
494.268	78.62
494.485	87.62
494.703	96.62
494.92	96.62
495.138	87.62
495.355	108.62
495.573	95.62
495.79	83.62
496.008	96.62
496.225	80.62
496.442	82.62
496.66	98.62
496.877	96.62
497.094	103.62
497.312	88.62
497.529	88.62
497.746	100.62
497.963	93.62
498.181	102.62
498.398	94.62
498.615	120.62
498.832	107.62
499.049	103.62
499.267	95.62
499.484	80.62
499.701	94.62
499.918	77.62
500.135	70.62
500.352	75.62
500.569	90.62
500.786	96.62
501.003	83.62
501.22	84.62
501.437	69.62
501.654	83.62
501.871	96.62
502.088	89.62
502.305	92.62
502.522	87.62
502.739	93.62
502.956	86.62
503.172	77.62
503.389	87.62
503.606	107.62
503.823	84.62
504.04	95.62
504.256	93.62
504.473	81.62
504.69	94.62
504.907	90.62
505.123	81.62
505.34	80.62
505.557	91.62
505.773	99.62
505.99	85.62
506.207	87.62
506.423	80.62
506.64	90.62
506.856	78.62
507.073	93.62
507.289	87.62
507.506	85.62
507.722	113.62
507.939	115.62
508.155	86.62
508.372	106.62
508.588	100.62
508.805	91.62
509.021	86.62
509.238	95.62
509.454	107.62
509.67	100.62
509.887	122.62
510.103	136.62
510.319	225.62
510.536	830.62
510.752	2684.62
510.968	720.62
511.184	170.62
511.401	109.62
511.617	110.62
511.833	94.62
512.049	88.62
512.265	94.62
512.481	97.62
512.698	96.62
512.914	80.62
513.13	87.62
513.346	70.62
513.562	90.62
513.778	96.62
513.994	103.62
514.21	87.62
514.426	119.62
514.642	130.62
514.858	122.62
515.074	171.62
515.29	466.62
515.506	1541.62
515.721	566.62
515.937	146.62
516.153	108.62
516.369	98.62
