Data from Uncirc_2003_H10_HRD10591_00062.txt Node
Date: Wed Jan 03 10:36:00 EST 2024
User: Yrep
Spectrometer: HR+D1059
Trigger mode: 1
Integration Time (sec): 1.000000E-1
Scans to average: 1
Electric dark correction enabled: true
Nonlinearity correction enabled: false
Boxcar width: 0
XAxis mode: Wavelengths
Number of Pixels in Spectrum: 2048
>>>>>Begin Spectral Data<<<<<
223.165	-7.44
223.4	-7.44
223.635	-7.44
223.869	-10.44
224.104	-11.44
224.338	-19.44
224.573	-17.44
224.808	-26.44
225.042	-3.44
225.277	0.56
225.511	-2.44
225.746	7.56
225.98	-2.44
226.215	-3.44
226.449	13.56
226.683	31.56
226.918	26.56
227.152	24.56
227.387	26.56
227.621	43.56
227.856	44.56
228.09	42.56
228.324	44.56
228.559	50.56
228.793	62.56
229.027	59.56
229.262	64.56
229.496	65.56
229.73	81.56
229.964	86.56
230.199	73.56
230.433	54.56
230.667	77.56
230.901	78.56
231.136	77.56
231.37	75.56
231.604	82.56
231.838	81.56
232.072	86.56
232.306	81.56
232.541	83.56
232.775	89.56
233.009	83.56
233.243	79.56
233.477	81.56
233.711	70.56
233.945	80.56
234.179	71.56
234.413	77.56
234.647	81.56
234.881	73.56
235.115	86.56
235.349	71.56
235.583	78.56
235.817	73.56
236.051	86.56
236.285	84.56
236.519	66.56
236.753	89.56
236.987	88.56
237.221	71.56
237.455	72.56
237.689	67.56
237.922	64.56
238.156	77.56
238.39	63.56
238.624	84.56
238.858	71.56
239.091	80.56
239.325	77.56
239.559	79.56
239.793	77.56
240.027	70.56
240.26	73.56
240.494	84.56
240.728	81.56
240.961	69.56
241.195	76.56
241.429	75.56
241.662	80.56
241.896	74.56
242.13	70.56
242.363	68.56
242.597	77.56
242.83	77.56
243.064	72.56
243.298	75.56
243.531	94.56
243.765	77.56
243.998	106.56
244.232	73.56
244.465	82.56
244.699	89.56
244.932	74.56
245.166	72.56
245.399	71.56
245.633	79.56
245.866	57.56
246.099	68.56
246.333	77.56
246.566	77.56
246.8	76.56
247.033	73.56
247.266	75.56
247.5	86.56
247.733	83.56
247.966	100.56
248.2	84.56
248.433	76.56
248.666	77.56
248.899	79.56
249.133	88.56
249.366	99.56
249.599	105.56
249.832	76.56
250.066	77.56
250.299	72.56
250.532	76.56
250.765	82.56
250.998	77.56
251.231	73.56
251.465	81.56
251.698	81.56
251.931	78.56
252.164	67.56
252.397	89.56
252.63	82.56
252.863	83.56
253.096	80.56
253.329	77.56
253.562	80.56
253.795	78.56
254.028	68.56
254.261	89.56
254.494	82.56
254.727	87.56
254.96	69.56
255.193	84.56
255.426	92.56
255.659	75.56
255.892	78.56
256.124	86.56
256.357	78.56
256.59	84.56
256.823	83.56
257.056	85.56
257.289	87.56
257.521	73.56
257.754	73.56
257.987	71.56
258.22	76.56
258.452	75.56
258.685	85.56
258.918	76.56
259.151	80.56
259.383	73.56
259.616	84.56
259.849	80.56
260.081	80.56
260.314	80.56
260.547	76.56
260.779	87.56
261.012	86.56
261.244	84.56
261.477	88.56
261.71	101.56
261.942	108.56
262.175	104.56
262.407	89.56
262.64	72.56
262.872	78.56
263.105	79.56
263.337	88.56
263.57	78.56
263.802	80.56
264.035	85.56
264.267	77.56
264.499	84.56
264.732	95.56
264.964	78.56
265.197	87.56
265.429	88.56
265.661	72.56
265.894	73.56
266.126	94.56
266.358	79.56
266.591	79.56
266.823	85.56
267.055	80.56
267.287	77.56
267.52	74.56
267.752	89.56
267.984	79.56
268.216	73.56
268.448	78.56
268.681	85.56
268.913	90.56
269.145	92.56
269.377	75.56
269.609	67.56
269.841	92.56
270.073	73.56
270.306	92.56
270.538	80.56
270.77	84.56
271.002	77.56
271.234	76.56
271.466	66.56
271.698	90.56
271.93	76.56
272.162	93.56
272.394	99.56
272.626	86.56
272.858	78.56
273.09	80.56
273.322	81.56
273.553	93.56
273.785	92.56
274.017	82.56
274.249	77.56
274.481	93.56
274.713	84.56
274.945	83.56
275.176	90.56
275.408	75.56
275.64	90.56
275.872	67.56
276.104	75.56
276.335	99.56
276.567	81.56
276.799	109.56
277.031	101.56
277.262	103.56
277.494	83.56
277.726	95.56
277.957	83.56
278.189	80.56
278.421	79.56
278.652	68.56
278.884	71.56
279.115	87.56
279.347	95.56
279.579	76.56
279.81	95.56
280.042	78.56
280.273	79.56
280.505	76.56
280.736	77.56
280.968	95.56
281.199	97.56
281.431	108.56
281.662	79.56
281.894	88.56
282.125	94.56
282.356	105.56
282.588	116.56
282.819	114.56
283.051	102.56
283.282	89.56
283.513	98.56
283.745	76.56
283.976	91.56
284.207	84.56
284.439	97.56
284.67	99.56
284.901	84.56
285.132	95.56
285.364	94.56
285.595	89.56
285.826	81.56
286.057	87.56
286.288	88.56
286.52	83.56
286.751	86.56
286.982	73.56
287.213	79.56
287.444	99.56
287.675	81.56
287.906	89.56
288.138	85.56
288.369	93.56
288.6	84.56
288.831	75.56
289.062	94.56
289.293	80.56
289.524	89.56
289.755	81.56
289.986	92.56
290.217	89.56
290.448	79.56
290.679	96.56
290.91	77.56
291.141	94.56
291.371	76.56
291.602	84.56
291.833	78.56
292.064	77.56
292.295	84.56
292.526	76.56
292.757	75.56
292.987	70.56
293.218	79.56
293.449	93.56
293.68	95.56
293.91	68.56
294.141	91.56
294.372	87.56
294.603	99.56
294.833	84.56
295.064	87.56
295.295	91.56
295.525	72.56
295.756	98.56
295.987	114.56
296.217	139.56
296.448	107.56
296.679	94.56
296.909	88.56
297.14	93.56
297.37	93.56
297.601	90.56
297.831	86.56
298.062	75.56
298.292	84.56
298.523	77.56
298.753	95.56
298.984	83.56
299.214	79.56
299.445	99.56
299.675	105.56
299.905	94.56
300.136	85.56
300.366	86.56
300.597	87.56
300.827	89.56
301.057	100.56
301.288	103.56
301.518	95.56
301.748	78.56
301.979	92.56
302.209	100.56
302.439	83.56
302.669	92.56
302.9	88.56
303.13	93.56
303.36	81.56
303.59	91.56
303.82	95.56
304.051	89.56
304.281	96.56
304.511	94.56
304.741	79.56
304.971	91.56
305.201	88.56
305.431	76.56
305.661	71.56
305.891	80.56
306.121	101.56
306.352	104.56
306.582	93.56
306.812	93.56
307.042	82.56
307.272	105.56
307.502	97.56
307.731	89.56
307.961	83.56
308.191	79.56
308.421	90.56
308.651	83.56
308.881	74.56
309.111	93.56
309.341	91.56
309.571	94.56
309.8	101.56
310.03	84.56
310.26	83.56
310.49	88.56
310.72	105.56
310.949	106.56
311.179	99.56
311.409	102.56
311.639	90.56
311.868	99.56
312.098	87.56
312.328	86.56
312.557	100.56
312.787	109.56
313.017	116.56
313.246	87.56
313.476	96.56
313.706	96.56
313.935	97.56
314.165	103.56
314.394	101.56
314.624	95.56
314.853	97.56
315.083	95.56
315.312	103.56
315.542	96.56
315.771	95.56
316.001	95.56
316.23	93.56
316.46	89.56
316.689	83.56
316.919	95.56
317.148	86.56
317.377	108.56
317.607	98.56
317.836	78.56
318.065	88.56
318.295	97.56
318.524	88.56
318.753	95.56
318.983	93.56
319.212	84.56
319.441	102.56
319.67	112.56
319.9	93.56
320.129	99.56
320.358	89.56
320.587	87.56
320.816	95.56
321.046	109.56
321.275	102.56
321.504	92.56
321.733	99.56
321.962	103.56
322.191	98.56
322.42	99.56
322.649	109.56
322.878	111.56
323.108	118.56
323.337	117.56
323.566	141.56
323.795	140.56
324.024	208.56
324.253	419.56
324.482	915.56
324.71	1862.56
324.939	2446.56
325.168	871.56
325.397	257.56
325.626	143.56
325.855	124.56
326.084	128.56
326.313	136.56
326.542	166.56
326.77	243.56
326.999	504.56
327.228	1052.56
327.457	1848.56
327.686	1492.56
327.914	398.56
328.143	195.56
328.372	146.56
328.6	136.56
328.829	113.56
329.058	118.56
329.287	128.56
329.515	94.56
329.744	99.56
329.972	102.56
330.201	80.56
330.43	99.56
330.658	110.56
330.887	125.56
331.115	113.56
331.344	107.56
331.572	99.56
331.801	92.56
332.03	95.56
332.258	97.56
332.486	80.56
332.715	89.56
332.943	100.56
333.172	97.56
333.4	85.56
333.629	101.56
333.857	120.56
334.085	114.56
334.314	95.56
334.542	96.56
334.771	108.56
334.999	91.56
335.227	100.56
335.455	95.56
335.684	98.56
335.912	84.56
336.14	108.56
336.369	100.56
336.597	84.56
336.825	94.56
337.053	85.56
337.281	95.56
337.51	89.56
337.738	92.56
337.966	88.56
338.194	102.56
338.422	93.56
338.65	89.56
338.878	101.56
339.106	104.56
339.334	86.56
339.562	79.56
339.79	81.56
340.018	103.56
340.246	79.56
340.474	97.56
340.702	88.56
340.93	76.56
341.158	76.56
341.386	93.56
341.614	91.56
341.842	91.56
342.07	93.56
342.298	96.56
342.526	83.56
342.754	97.56
342.981	91.56
343.209	83.56
343.437	101.56
343.665	89.56
343.893	103.56
344.12	94.56
344.348	76.56
344.576	100.56
344.804	91.56
345.031	96.56
345.259	80.56
345.487	102.56
345.714	101.56
345.942	82.56
346.17	97.56
346.397	79.56
346.625	89.56
346.853	84.56
347.08	91.56
347.308	85.56
347.535	90.56
347.763	98.56
347.99	85.56
348.218	97.56
348.445	103.56
348.673	103.56
348.9	96.56
349.128	99.56
349.355	93.56
349.583	85.56
349.81	101.56
350.037	91.56
350.265	92.56
350.492	98.56
350.72	99.56
350.947	102.56
351.174	124.56
351.402	106.56
351.629	110.56
351.856	109.56
352.083	93.56
352.311	106.56
352.538	108.56
352.765	117.56
352.992	117.56
353.22	113.56
353.447	103.56
353.674	94.56
353.901	108.56
354.128	98.56
354.355	89.56
354.583	95.56
354.81	104.56
355.037	90.56
355.264	103.56
355.491	97.56
355.718	85.56
355.945	87.56
356.172	92.56
356.399	93.56
356.626	91.56
356.853	84.56
357.08	87.56
357.307	100.56
357.534	92.56
357.761	97.56
357.988	102.56
358.215	92.56
358.441	88.56
358.668	87.56
358.895	87.56
359.122	95.56
359.349	81.56
359.576	95.56
359.802	92.56
360.029	107.56
360.256	104.56
360.483	92.56
360.709	96.56
360.936	95.56
361.163	87.56
361.39	96.56
361.616	96.56
361.843	100.56
362.07	96.56
362.296	112.56
362.523	88.56
362.749	93.56
362.976	98.56
363.203	87.56
363.429	80.56
363.656	88.56
363.882	77.56
364.109	98.56
364.335	92.56
364.562	102.56
364.788	87.56
365.015	104.56
365.241	86.56
365.468	121.56
365.694	103.56
365.92	101.56
366.147	90.56
366.373	81.56
366.599	88.56
366.826	94.56
367.052	85.56
367.278	90.56
367.505	88.56
367.731	84.56
367.957	94.56
368.184	93.56
368.41	96.56
368.636	104.56
368.862	119.56
369.089	113.56
369.315	95.56
369.541	88.56
369.767	99.56
369.993	97.56
370.219	93.56
370.445	82.56
370.672	74.56
370.898	95.56
371.124	86.56
371.35	79.56
371.576	89.56
371.802	94.56
372.028	89.56
372.254	87.56
372.48	84.56
372.706	92.56
372.932	97.56
373.158	83.56
373.384	84.56
373.61	98.56
373.835	92.56
374.061	92.56
374.287	87.56
374.513	80.56
374.739	100.56
374.965	86.56
375.191	103.56
375.416	87.56
375.642	78.56
375.868	101.56
376.094	81.56
376.319	83.56
376.545	85.56
376.771	89.56
376.997	84.56
377.222	92.56
377.448	77.56
377.674	78.56
377.899	93.56
378.125	86.56
378.35	91.56
378.576	99.56
378.802	88.56
379.027	93.56
379.253	83.56
379.478	80.56
379.704	87.56
379.929	101.56
380.155	88.56
380.38	75.56
380.606	83.56
380.831	92.56
381.057	86.56
381.282	103.56
381.507	93.56
381.733	95.56
381.958	95.56
382.184	84.56
382.409	96.56
382.634	91.56
382.86	88.56
383.085	106.56
383.31	99.56
383.535	96.56
383.761	91.56
383.986	97.56
384.211	98.56
384.436	89.56
384.662	101.56
384.887	91.56
385.112	102.56
385.337	97.56
385.562	114.56
385.787	103.56
386.013	109.56
386.238	101.56
386.463	107.56
386.688	104.56
386.913	107.56
387.138	111.56
387.363	97.56
387.588	99.56
387.813	104.56
388.038	100.56
388.263	110.56
388.488	112.56
388.713	93.56
388.938	99.56
389.163	100.56
389.387	97.56
389.612	87.56
389.837	93.56
390.062	79.56
390.287	77.56
390.512	83.56
390.736	89.56
390.961	84.56
391.186	87.56
391.411	96.56
391.636	97.56
391.86	78.56
392.085	78.56
392.31	79.56
392.534	90.56
392.759	74.56
392.984	87.56
393.208	95.56
393.433	72.56
393.658	103.56
393.882	74.56
394.107	93.56
394.331	81.56
394.556	79.56
394.78	84.56
395.005	76.56
395.229	79.56
395.454	95.56
395.678	85.56
395.903	86.56
396.127	97.56
396.352	97.56
396.576	88.56
396.801	81.56
397.025	75.56
397.249	91.56
397.474	88.56
397.698	79.56
397.922	77.56
398.147	92.56
398.371	84.56
398.595	84.56
398.82	89.56
399.044	77.56
399.268	93.56
399.492	89.56
399.717	88.56
399.941	105.56
400.165	92.56
400.389	93.56
400.613	93.56
400.837	90.56
401.062	81.56
401.286	94.56
401.51	100.56
401.734	83.56
401.958	100.56
402.182	129.56
402.406	159.56
402.63	94.56
402.854	89.56
403.078	77.56
403.302	87.56
403.526	93.56
403.75	83.56
403.974	87.56
404.198	93.56
404.422	87.56
404.645	89.56
404.869	81.56
405.093	72.56
405.317	94.56
405.541	88.56
405.765	92.56
405.988	108.56
406.212	175.56
406.436	218.56
406.66	144.56
406.883	95.56
407.107	97.56
407.331	96.56
407.555	92.56
407.778	101.56
408.002	84.56
408.226	87.56
408.449	73.56
408.673	97.56
408.896	98.56
409.12	111.56
409.344	107.56
409.567	89.56
409.791	96.56
410.014	90.56
410.238	96.56
410.461	95.56
410.685	77.56
410.908	91.56
411.132	97.56
411.355	103.56
411.578	86.56
411.802	96.56
412.025	81.56
412.249	88.56
412.472	83.56
412.695	99.56
412.919	85.56
413.142	92.56
413.365	82.56
413.589	80.56
413.812	89.56
414.035	80.56
414.258	81.56
414.482	90.56
414.705	84.56
414.928	90.56
415.151	94.56
415.374	91.56
415.597	93.56
415.821	87.56
416.044	79.56
416.267	76.56
416.49	77.56
416.713	85.56
416.936	89.56
417.159	73.56
417.382	88.56
417.605	83.56
417.828	102.56
418.051	92.56
418.274	87.56
418.497	80.56
418.72	83.56
418.943	93.56
419.166	89.56
419.389	83.56
419.611	92.56
419.834	85.56
420.057	83.56
420.28	85.56
420.503	72.56
420.726	83.56
420.948	95.56
421.171	84.56
421.394	75.56
421.617	75.56
421.839	89.56
422.062	101.56
422.285	89.56
422.507	107.56
422.73	98.56
422.953	86.56
423.175	88.56
423.398	101.56
423.621	89.56
423.843	96.56
424.066	81.56
424.288	86.56
424.511	84.56
424.733	97.56
424.956	100.56
425.178	104.56
425.401	104.56
425.623	107.56
425.846	97.56
426.068	89.56
426.291	96.56
426.513	94.56
426.735	85.56
426.958	95.56
427.18	104.56
427.402	141.56
427.625	166.56
427.847	120.56
428.069	109.56
428.292	80.56
428.514	95.56
428.736	77.56
428.958	86.56
429.181	96.56
429.403	87.56
429.625	88.56
429.847	75.56
430.069	96.56
430.292	94.56
430.514	90.56
430.736	82.56
430.958	99.56
431.18	73.56
431.402	77.56
431.624	84.56
431.846	82.56
432.068	92.56
432.29	73.56
432.512	85.56
432.734	85.56
432.956	108.56
433.178	111.56
433.4	100.56
433.622	102.56
433.844	85.56
434.066	86.56
434.287	76.56
434.509	102.56
434.731	96.56
434.953	92.56
435.175	95.56
435.397	92.56
435.618	97.56
435.84	100.56
436.062	112.56
436.284	106.56
436.505	88.56
436.727	92.56
436.949	80.56
437.17	80.56
437.392	86.56
437.614	98.56
437.835	105.56
438.057	119.56
438.278	92.56
438.5	101.56
438.721	124.56
438.943	95.56
439.165	81.56
439.386	81.56
439.608	107.56
439.829	99.56
440.05	109.56
440.272	132.56
440.493	100.56
440.715	96.56
440.936	85.56
441.158	91.56
441.379	82.56
441.6	87.56
441.822	92.56
442.043	89.56
442.264	102.56
442.486	93.56
442.707	83.56
442.928	108.56
443.149	135.56
443.371	127.56
443.592	111.56
443.813	110.56
444.034	98.56
444.255	91.56
444.476	79.56
444.698	78.56
444.919	87.56
445.14	124.56
445.361	133.56
445.582	115.56
445.803	128.56
446.024	143.56
446.245	126.56
446.466	109.56
446.687	91.56
446.908	90.56
447.129	84.56
447.35	87.56
447.571	81.56
447.792	89.56
448.013	103.56
448.234	107.56
448.455	104.56
448.675	111.56
448.896	111.56
449.117	102.56
449.338	104.56
449.559	120.56
449.779	123.56
450	88.56
450.221	88.56
450.442	98.56
450.662	95.56
450.883	99.56
451.104	88.56
451.324	99.56
451.545	84.56
451.766	80.56
451.986	88.56
452.207	81.56
452.428	97.56
452.648	92.56
452.869	109.56
453.089	107.56
453.31	107.56
453.53	87.56
453.751	88.56
453.971	112.56
454.192	112.56
454.412	89.56
454.633	86.56
454.853	81.56
455.073	75.56
455.294	89.56
455.514	89.56
455.734	86.56
455.955	95.56
456.175	92.56
456.395	87.56
456.616	87.56
456.836	63.56
457.056	88.56
457.276	80.56
457.497	70.56
457.717	94.56
457.937	84.56
458.157	87.56
458.377	84.56
458.598	105.56
458.818	141.56
459.038	163.56
459.258	114.56
459.478	83.56
459.698	78.56
459.918	94.56
460.138	88.56
460.358	78.56
460.578	84.56
460.798	83.56
461.018	89.56
461.238	77.56
461.458	91.56
461.678	81.56
461.898	95.56
462.118	92.56
462.338	97.56
462.558	88.56
462.777	73.56
462.997	95.56
463.217	91.56
463.437	85.56
463.657	84.56
463.876	77.56
464.096	85.56
464.316	97.56
464.536	99.56
464.755	93.56
464.975	89.56
465.195	172.56
465.414	144.56
465.634	89.56
465.854	92.56
466.073	83.56
466.293	85.56
466.512	76.56
466.732	87.56
466.951	87.56
467.171	86.56
467.391	94.56
467.61	110.56
467.829	83.56
468.049	81.56
468.268	76.56
468.488	87.56
468.707	80.56
468.927	81.56
469.146	100.56
469.365	82.56
469.585	89.56
469.804	94.56
470.023	81.56
470.243	95.56
470.462	107.56
470.681	104.56
470.901	79.56
471.12	87.56
471.339	78.56
471.558	80.56
471.777	82.56
471.997	92.56
472.216	71.56
472.435	92.56
472.654	86.56
472.873	79.56
473.092	89.56
473.311	81.56
473.53	87.56
473.749	84.56
473.968	97.56
474.187	95.56
474.406	99.56
474.625	91.56
474.844	83.56
475.063	77.56
475.282	88.56
475.501	78.56
475.72	67.56
475.939	86.56
476.158	85.56
476.377	87.56
476.596	93.56
476.814	99.56
477.033	83.56
477.252	96.56
477.471	76.56
477.69	90.56
477.908	81.56
478.127	87.56
478.346	92.56
478.564	102.56
478.783	92.56
479.002	76.56
479.22	102.56
479.439	95.56
479.658	97.56
479.876	92.56
480.095	93.56
480.313	84.56
480.532	80.56
480.751	94.56
480.969	77.56
481.188	99.56
481.406	95.56
481.624	83.56
481.843	99.56
482.061	75.56
482.28	72.56
482.498	81.56
482.717	90.56
482.935	75.56
483.153	80.56
483.372	86.56
483.59	84.56
483.808	88.56
484.027	78.56
484.245	90.56
484.463	88.56
484.681	101.56
484.9	82.56
485.118	90.56
485.336	96.56
485.554	89.56
485.772	90.56
485.99	95.56
486.209	126.56
486.427	114.56
486.645	114.56
486.863	110.56
487.081	108.56
487.299	99.56
487.517	99.56
487.735	96.56
487.953	103.56
488.171	75.56
488.389	99.56
488.607	85.56
488.825	77.56
489.043	78.56
489.261	77.56
489.479	68.56
489.696	91.56
489.914	81.56
490.132	75.56
490.35	90.56
490.568	93.56
490.786	96.56
491.003	79.56
491.221	83.56
491.439	104.56
491.657	96.56
491.874	88.56
492.092	94.56
492.31	85.56
492.527	97.56
492.745	92.56
492.963	92.56
493.18	99.56
493.398	99.56
493.615	95.56
493.833	95.56
494.05	95.56
494.268	88.56
494.485	101.56
494.703	72.56
494.92	72.56
495.138	78.56
495.355	101.56
495.573	90.56
495.79	75.56
496.008	84.56
496.225	84.56
496.442	86.56
496.66	77.56
496.877	84.56
497.094	84.56
497.312	84.56
497.529	83.56
497.746	95.56
497.963	87.56
498.181	92.56
498.398	86.56
498.615	126.56
498.832	99.56
499.049	80.56
499.267	73.56
499.484	100.56
499.701	95.56
499.918	78.56
500.135	82.56
500.352	84.56
500.569	87.56
500.786	101.56
501.003	97.56
501.22	85.56
501.437	86.56
501.654	98.56
501.871	105.56
502.088	84.56
502.305	87.56
502.522	77.56
502.739	91.56
502.956	94.56
503.172	94.56
503.389	103.56
503.606	97.56
503.823	85.56
504.04	89.56
504.256	86.56
504.473	95.56
504.69	95.56
504.907	102.56
505.123	99.56
505.34	104.56
505.557	89.56
505.773	74.56
505.99	93.56
506.207	87.56
506.423	84.56
506.64	86.56
506.856	86.56
507.073	80.56
507.289	82.56
507.506	95.56
507.722	104.56
507.939	112.56
508.155	86.56
508.372	99.56
508.588	93.56
508.805	99.56
509.021	89.56
509.238	90.56
509.454	112.56
509.67	108.56
509.887	97.56
510.103	126.56
510.319	212.56
510.536	861.56
510.752	2781.56
510.968	772.56
511.184	161.56
511.401	104.56
511.617	102.56
511.833	97.56
512.049	89.56
512.265	95.56
512.481	85.56
512.698	86.56
512.914	87.56
513.13	89.56
513.346	96.56
513.562	86.56
513.778	97.56
513.994	96.56
514.21	93.56
514.426	136.56
514.642	143.56
514.858	130.56
515.074	175.56
515.29	500.56
515.506	1664.56
515.721	585.56
515.937	165.56
516.153	103.56
516.369	104.56
