Data from Uncirc_2003_H10_HRD10591_00027.txt Node
Date: Wed Jan 03 10:35:53 EST 2024
User: Yrep
Spectrometer: HR+D1059
Trigger mode: 1
Integration Time (sec): 1.000000E-1
Scans to average: 1
Electric dark correction enabled: true
Nonlinearity correction enabled: false
Boxcar width: 0
XAxis mode: Wavelengths
Number of Pixels in Spectrum: 2048
>>>>>Begin Spectral Data<<<<<
223.165	0.56
223.4	0.56
223.635	0.56
223.869	-13.44
224.104	-22.44
224.338	-12.44
224.573	-25.44
224.808	-14.44
225.042	1.56
225.277	-18.44
225.511	-5.44
225.746	-4.44
225.98	6.56
226.215	20.56
226.449	20.56
226.683	9.56
226.918	21.56
227.152	35.56
227.387	27.56
227.621	53.56
227.856	36.56
228.09	40.56
228.324	46.56
228.559	54.56
228.793	70.56
229.027	78.56
229.262	72.56
229.496	73.56
229.73	83.56
229.964	75.56
230.199	67.56
230.433	73.56
230.667	82.56
230.901	73.56
231.136	70.56
231.37	82.56
231.604	85.56
231.838	79.56
232.072	80.56
232.306	80.56
232.541	82.56
232.775	87.56
233.009	84.56
233.243	77.56
233.477	77.56
233.711	94.56
233.945	78.56
234.179	86.56
234.413	77.56
234.647	79.56
234.881	88.56
235.115	88.56
235.349	82.56
235.583	84.56
235.817	91.56
236.051	64.56
236.285	80.56
236.519	79.56
236.753	80.56
236.987	87.56
237.221	78.56
237.455	76.56
237.689	79.56
237.922	76.56
238.156	72.56
238.39	80.56
238.624	81.56
238.858	61.56
239.091	75.56
239.325	77.56
239.559	81.56
239.793	77.56
240.027	65.56
240.26	76.56
240.494	61.56
240.728	85.56
240.961	61.56
241.195	87.56
241.429	78.56
241.662	82.56
241.896	73.56
242.13	73.56
242.363	53.56
242.597	74.56
242.83	73.56
243.064	78.56
243.298	76.56
243.531	76.56
243.765	80.56
243.998	81.56
244.232	70.56
244.465	89.56
244.699	73.56
244.932	79.56
245.166	87.56
245.399	71.56
245.633	89.56
245.866	77.56
246.099	87.56
246.333	67.56
246.566	80.56
246.8	64.56
247.033	72.56
247.266	78.56
247.5	91.56
247.733	84.56
247.966	93.56
248.2	75.56
248.433	73.56
248.666	90.56
248.899	78.56
249.133	77.56
249.366	85.56
249.599	98.56
249.832	101.56
250.066	85.56
250.299	74.56
250.532	87.56
250.765	77.56
250.998	84.56
251.231	81.56
251.465	80.56
251.698	85.56
251.931	84.56
252.164	83.56
252.397	80.56
252.63	84.56
252.863	74.56
253.096	71.56
253.329	88.56
253.562	87.56
253.795	79.56
254.028	92.56
254.261	88.56
254.494	78.56
254.727	76.56
254.96	84.56
255.193	76.56
255.426	91.56
255.659	96.56
255.892	72.56
256.124	79.56
256.357	85.56
256.59	90.56
256.823	77.56
257.056	75.56
257.289	83.56
257.521	78.56
257.754	74.56
257.987	84.56
258.22	85.56
258.452	73.56
258.685	92.56
258.918	68.56
259.151	79.56
259.383	77.56
259.616	83.56
259.849	73.56
260.081	70.56
260.314	73.56
260.547	73.56
260.779	74.56
261.012	83.56
261.244	90.56
261.477	90.56
261.71	64.56
261.942	108.56
262.175	110.56
262.407	86.56
262.64	92.56
262.872	78.56
263.105	79.56
263.337	98.56
263.57	73.56
263.802	94.56
264.035	90.56
264.267	102.56
264.499	87.56
264.732	82.56
264.964	86.56
265.197	99.56
265.429	88.56
265.661	105.56
265.894	83.56
266.126	79.56
266.358	91.56
266.591	74.56
266.823	80.56
267.055	86.56
267.287	83.56
267.52	81.56
267.752	87.56
267.984	83.56
268.216	89.56
268.448	86.56
268.681	83.56
268.913	81.56
269.145	79.56
269.377	77.56
269.609	85.56
269.841	80.56
270.073	78.56
270.306	82.56
270.538	86.56
270.77	84.56
271.002	101.56
271.234	83.56
271.466	80.56
271.698	77.56
271.93	95.56
272.162	94.56
272.394	85.56
272.626	76.56
272.858	90.56
273.09	89.56
273.322	99.56
273.553	82.56
273.785	96.56
274.017	83.56
274.249	84.56
274.481	65.56
274.713	89.56
274.945	81.56
275.176	94.56
275.408	93.56
275.64	90.56
275.872	79.56
276.104	82.56
276.335	93.56
276.567	101.56
276.799	93.56
277.031	98.56
277.262	86.56
277.494	71.56
277.726	80.56
277.957	82.56
278.189	86.56
278.421	75.56
278.652	73.56
278.884	71.56
279.115	85.56
279.347	87.56
279.579	78.56
279.81	93.56
280.042	84.56
280.273	82.56
280.505	80.56
280.736	77.56
280.968	88.56
281.199	83.56
281.431	72.56
281.662	87.56
281.894	82.56
282.125	93.56
282.356	118.56
282.588	121.56
282.819	104.56
283.051	84.56
283.282	95.56
283.513	90.56
283.745	85.56
283.976	88.56
284.207	86.56
284.439	89.56
284.67	88.56
284.901	81.56
285.132	79.56
285.364	93.56
285.595	90.56
285.826	85.56
286.057	96.56
286.288	94.56
286.52	79.56
286.751	88.56
286.982	94.56
287.213	85.56
287.444	84.56
287.675	76.56
287.906	88.56
288.138	94.56
288.369	88.56
288.6	85.56
288.831	81.56
289.062	96.56
289.293	88.56
289.524	90.56
289.755	92.56
289.986	80.56
290.217	85.56
290.448	88.56
290.679	84.56
290.91	89.56
291.141	73.56
291.371	87.56
291.602	93.56
291.833	80.56
292.064	86.56
292.295	84.56
292.526	96.56
292.757	89.56
292.987	90.56
293.218	80.56
293.449	81.56
293.68	80.56
293.91	97.56
294.141	87.56
294.372	85.56
294.603	84.56
294.833	90.56
295.064	89.56
295.295	86.56
295.525	88.56
295.756	109.56
295.987	117.56
296.217	127.56
296.448	121.56
296.679	104.56
296.909	97.56
297.14	92.56
297.37	85.56
297.601	78.56
297.831	89.56
298.062	75.56
298.292	89.56
298.523	85.56
298.753	74.56
298.984	89.56
299.214	82.56
299.445	94.56
299.675	83.56
299.905	99.56
300.136	85.56
300.366	87.56
300.597	89.56
300.827	96.56
301.057	93.56
301.288	94.56
301.518	96.56
301.748	103.56
301.979	94.56
302.209	86.56
302.439	76.56
302.669	81.56
302.9	90.56
303.13	94.56
303.36	89.56
303.59	100.56
303.82	105.56
304.051	98.56
304.281	80.56
304.511	97.56
304.741	64.56
304.971	78.56
305.201	83.56
305.431	89.56
305.661	86.56
305.891	86.56
306.121	93.56
306.352	104.56
306.582	95.56
306.812	88.56
307.042	94.56
307.272	92.56
307.502	87.56
307.731	103.56
307.961	96.56
308.191	89.56
308.421	97.56
308.651	80.56
308.881	88.56
309.111	92.56
309.341	104.56
309.571	87.56
309.8	98.56
310.03	84.56
310.26	97.56
310.49	104.56
310.72	111.56
310.949	95.56
311.179	96.56
311.409	94.56
311.639	95.56
311.868	88.56
312.098	94.56
312.328	86.56
312.557	94.56
312.787	103.56
313.017	101.56
313.246	109.56
313.476	89.56
313.706	96.56
313.935	101.56
314.165	86.56
314.394	97.56
314.624	84.56
314.853	94.56
315.083	80.56
315.312	86.56
315.542	95.56
315.771	95.56
316.001	80.56
316.23	78.56
316.46	82.56
316.689	94.56
316.919	97.56
317.148	103.56
317.377	101.56
317.607	86.56
317.836	97.56
318.065	100.56
318.295	80.56
318.524	84.56
318.753	86.56
318.983	84.56
319.212	105.56
319.441	107.56
319.67	106.56
319.9	94.56
320.129	89.56
320.358	94.56
320.587	90.56
320.816	99.56
321.046	96.56
321.275	102.56
321.504	106.56
321.733	95.56
321.962	104.56
322.191	113.56
322.42	98.56
322.649	98.56
322.878	105.56
323.108	119.56
323.337	111.56
323.566	118.56
323.795	140.56
324.024	212.56
324.253	429.56
324.482	888.56
324.71	1826.56
324.939	2417.56
325.168	897.56
325.397	257.56
325.626	152.56
325.855	144.56
326.084	129.56
326.313	140.56
326.542	149.56
326.77	237.56
326.999	493.56
327.228	1015.56
327.457	1859.56
327.686	1467.56
327.914	393.56
328.143	183.56
328.372	148.56
328.6	135.56
328.829	103.56
329.058	117.56
329.287	105.56
329.515	101.56
329.744	110.56
329.972	103.56
330.201	102.56
330.43	104.56
330.658	105.56
330.887	112.56
331.115	125.56
331.344	97.56
331.572	102.56
331.801	109.56
332.03	98.56
332.258	83.56
332.486	93.56
332.715	104.56
332.943	93.56
333.172	89.56
333.4	106.56
333.629	111.56
333.857	119.56
334.085	94.56
334.314	87.56
334.542	78.56
334.771	88.56
334.999	95.56
335.227	93.56
335.455	109.56
335.684	95.56
335.912	90.56
336.14	90.56
336.369	91.56
336.597	97.56
336.825	90.56
337.053	97.56
337.281	106.56
337.51	88.56
337.738	87.56
337.966	87.56
338.194	86.56
338.422	85.56
338.65	95.56
338.878	106.56
339.106	94.56
339.334	90.56
339.562	91.56
339.79	84.56
340.018	90.56
340.246	94.56
340.474	98.56
340.702	82.56
340.93	89.56
341.158	99.56
341.386	90.56
341.614	88.56
341.842	89.56
342.07	77.56
342.298	102.56
342.526	88.56
342.754	96.56
342.981	97.56
343.209	89.56
343.437	91.56
343.665	92.56
343.893	92.56
344.12	79.56
344.348	89.56
344.576	79.56
344.804	87.56
345.031	100.56
345.259	91.56
345.487	100.56
345.714	102.56
345.942	96.56
346.17	78.56
346.397	95.56
346.625	97.56
346.853	98.56
347.08	102.56
347.308	88.56
347.535	87.56
347.763	101.56
347.99	88.56
348.218	96.56
348.445	99.56
348.673	104.56
348.9	81.56
349.128	104.56
349.355	88.56
349.583	84.56
349.81	90.56
350.037	103.56
350.265	103.56
350.492	107.56
350.72	88.56
350.947	94.56
351.174	109.56
351.402	106.56
351.629	100.56
351.856	90.56
352.083	88.56
352.311	105.56
352.538	111.56
352.765	113.56
352.992	119.56
353.22	108.56
353.447	105.56
353.674	92.56
353.901	88.56
354.128	97.56
354.355	94.56
354.583	86.56
354.81	108.56
355.037	110.56
355.264	92.56
355.491	93.56
355.718	97.56
355.945	95.56
356.172	96.56
356.399	90.56
356.626	85.56
356.853	97.56
357.08	84.56
357.307	80.56
357.534	98.56
357.761	93.56
357.988	86.56
358.215	88.56
358.441	98.56
358.668	94.56
358.895	90.56
359.122	85.56
359.349	78.56
359.576	80.56
359.802	110.56
360.029	108.56
360.256	110.56
360.483	105.56
360.709	93.56
360.936	89.56
361.163	101.56
361.39	89.56
361.616	86.56
361.843	85.56
362.07	94.56
362.296	99.56
362.523	95.56
362.749	88.56
362.976	87.56
363.203	99.56
363.429	100.56
363.656	91.56
363.882	82.56
364.109	86.56
364.335	72.56
364.562	90.56
364.788	81.56
365.015	81.56
365.241	100.56
365.468	99.56
365.694	109.56
365.92	89.56
366.147	78.56
366.373	101.56
366.599	86.56
366.826	94.56
367.052	94.56
367.278	86.56
367.505	91.56
367.731	92.56
367.957	84.56
368.184	90.56
368.41	88.56
368.636	103.56
368.862	120.56
369.089	103.56
369.315	98.56
369.541	82.56
369.767	80.56
369.993	72.56
370.219	84.56
370.445	98.56
370.672	90.56
370.898	102.56
371.124	91.56
371.35	83.56
371.576	87.56
371.802	97.56
372.028	77.56
372.254	82.56
372.48	81.56
372.706	93.56
372.932	91.56
373.158	85.56
373.384	101.56
373.61	89.56
373.835	92.56
374.061	93.56
374.287	84.56
374.513	83.56
374.739	80.56
374.965	88.56
375.191	84.56
375.416	78.56
375.642	83.56
375.868	95.56
376.094	77.56
376.319	77.56
376.545	80.56
376.771	91.56
376.997	84.56
377.222	100.56
377.448	80.56
377.674	80.56
377.899	95.56
378.125	82.56
378.35	80.56
378.576	88.56
378.802	87.56
379.027	86.56
379.253	90.56
379.478	73.56
379.704	93.56
379.929	84.56
380.155	97.56
380.38	86.56
380.606	88.56
380.831	96.56
381.057	94.56
381.282	110.56
381.507	101.56
381.733	92.56
381.958	92.56
382.184	97.56
382.409	87.56
382.634	102.56
382.86	94.56
383.085	96.56
383.31	111.56
383.535	106.56
383.761	80.56
383.986	95.56
384.211	91.56
384.436	86.56
384.662	96.56
384.887	92.56
385.112	97.56
385.337	101.56
385.562	87.56
385.787	78.56
386.013	105.56
386.238	104.56
386.463	111.56
386.688	115.56
386.913	100.56
387.138	107.56
387.363	104.56
387.588	100.56
387.813	99.56
388.038	90.56
388.263	97.56
388.488	103.56
388.713	102.56
388.938	85.56
389.163	98.56
389.387	95.56
389.612	77.56
389.837	83.56
390.062	87.56
390.287	84.56
390.512	87.56
390.736	94.56
390.961	86.56
391.186	94.56
391.411	107.56
391.636	85.56
391.86	75.56
392.085	82.56
392.31	81.56
392.534	88.56
392.759	82.56
392.984	92.56
393.208	86.56
393.433	76.56
393.658	79.56
393.882	89.56
394.107	90.56
394.331	80.56
394.556	85.56
394.78	86.56
395.005	72.56
395.229	84.56
395.454	70.56
395.678	86.56
395.903	98.56
396.127	69.56
396.352	82.56
396.576	94.56
396.801	95.56
397.025	89.56
397.249	89.56
397.474	82.56
397.698	78.56
397.922	86.56
398.147	84.56
398.371	76.56
398.595	74.56
398.82	86.56
399.044	78.56
399.268	84.56
399.492	101.56
399.717	84.56
399.941	96.56
400.165	100.56
400.389	88.56
400.613	86.56
400.837	83.56
401.062	77.56
401.286	86.56
401.51	79.56
401.734	97.56
401.958	90.56
402.182	140.56
402.406	150.56
402.63	110.56
402.854	87.56
403.078	86.56
403.302	101.56
403.526	83.56
403.75	83.56
403.974	82.56
404.198	81.56
404.422	82.56
404.645	87.56
404.869	76.56
405.093	102.56
405.317	75.56
405.541	89.56
405.765	103.56
405.988	106.56
406.212	170.56
406.436	211.56
406.66	126.56
406.883	88.56
407.107	75.56
407.331	91.56
407.555	112.56
407.778	102.56
408.002	87.56
408.226	83.56
408.449	96.56
408.673	81.56
408.896	73.56
409.12	88.56
409.344	78.56
409.567	94.56
409.791	90.56
410.014	94.56
410.238	102.56
410.461	85.56
410.685	77.56
410.908	95.56
411.132	100.56
411.355	90.56
411.578	96.56
411.802	92.56
412.025	73.56
412.249	91.56
412.472	100.56
412.695	86.56
412.919	93.56
413.142	90.56
413.365	89.56
413.589	74.56
413.812	81.56
414.035	81.56
414.258	88.56
414.482	74.56
414.705	92.56
414.928	92.56
415.151	88.56
415.374	92.56
415.597	93.56
415.821	84.56
416.044	86.56
416.267	86.56
416.49	86.56
416.713	88.56
416.936	85.56
417.159	90.56
417.382	87.56
417.605	101.56
417.828	86.56
418.051	79.56
418.274	73.56
418.497	79.56
418.72	80.56
418.943	94.56
419.166	101.56
419.389	88.56
419.611	89.56
419.834	85.56
420.057	83.56
420.28	76.56
420.503	89.56
420.726	93.56
420.948	80.56
421.171	88.56
421.394	89.56
421.617	85.56
421.839	78.56
422.062	77.56
422.285	93.56
422.507	104.56
422.73	93.56
422.953	87.56
423.175	94.56
423.398	89.56
423.621	96.56
423.843	81.56
424.066	85.56
424.288	101.56
424.511	90.56
424.733	86.56
424.956	91.56
425.178	103.56
425.401	102.56
425.623	98.56
425.846	93.56
426.068	64.56
426.291	93.56
426.513	99.56
426.735	84.56
426.958	89.56
427.18	106.56
427.402	137.56
427.625	164.56
427.847	124.56
428.069	94.56
428.292	87.56
428.514	80.56
428.736	77.56
428.958	67.56
429.181	88.56
429.403	100.56
429.625	80.56
429.847	75.56
430.069	90.56
430.292	93.56
430.514	83.56
430.736	82.56
430.958	90.56
431.18	100.56
431.402	80.56
431.624	75.56
431.846	73.56
432.068	80.56
432.29	90.56
432.512	92.56
432.734	93.56
432.956	88.56
433.178	92.56
433.4	92.56
433.622	100.56
433.844	90.56
434.066	91.56
434.287	85.56
434.509	80.56
434.731	86.56
434.953	81.56
435.175	82.56
435.397	99.56
435.618	95.56
435.84	93.56
436.062	135.56
436.284	116.56
436.505	103.56
436.727	98.56
436.949	89.56
437.17	95.56
437.392	88.56
437.614	85.56
437.835	96.56
438.057	104.56
438.278	97.56
438.5	100.56
438.721	116.56
438.943	95.56
439.165	90.56
439.386	91.56
439.608	70.56
439.829	117.56
440.05	111.56
440.272	135.56
440.493	93.56
440.715	94.56
440.936	92.56
441.158	86.56
441.379	80.56
441.6	79.56
441.822	90.56
442.043	93.56
442.264	95.56
442.486	98.56
442.707	109.56
442.928	95.56
443.149	110.56
443.371	113.56
443.592	102.56
443.813	97.56
444.034	89.56
444.255	92.56
444.476	96.56
444.698	74.56
444.919	68.56
445.14	124.56
445.361	128.56
445.582	117.56
445.803	122.56
446.024	128.56
446.245	138.56
446.466	103.56
446.687	95.56
446.908	83.56
447.129	95.56
447.35	93.56
447.571	83.56
447.792	98.56
448.013	93.56
448.234	102.56
448.455	86.56
448.675	116.56
448.896	126.56
449.117	78.56
449.338	99.56
449.559	100.56
449.779	128.56
450	82.56
450.221	96.56
450.442	81.56
450.662	80.56
450.883	111.56
451.104	86.56
451.324	94.56
451.545	89.56
451.766	80.56
451.986	80.56
452.207	93.56
452.428	101.56
452.648	92.56
452.869	101.56
453.089	108.56
453.31	118.56
453.53	85.56
453.751	91.56
453.971	106.56
454.192	107.56
454.412	78.56
454.633	85.56
454.853	85.56
455.073	77.56
455.294	103.56
455.514	103.56
455.734	92.56
455.955	89.56
456.175	85.56
456.395	94.56
456.616	77.56
456.836	98.56
457.056	84.56
457.276	78.56
457.497	84.56
457.717	74.56
457.937	92.56
458.157	79.56
458.377	81.56
458.598	98.56
458.818	153.56
459.038	154.56
459.258	99.56
459.478	91.56
459.698	78.56
459.918	81.56
460.138	80.56
460.358	85.56
460.578	87.56
460.798	86.56
461.018	94.56
461.238	80.56
461.458	79.56
461.678	104.56
461.898	90.56
462.118	86.56
462.338	85.56
462.558	82.56
462.777	76.56
462.997	86.56
463.217	84.56
463.437	82.56
463.657	94.56
463.876	86.56
464.096	82.56
464.316	89.56
464.536	101.56
464.755	97.56
464.975	116.56
465.195	154.56
465.414	141.56
465.634	101.56
465.854	89.56
466.073	83.56
466.293	101.56
466.512	86.56
466.732	93.56
466.951	94.56
467.171	87.56
467.391	86.56
467.61	106.56
467.829	112.56
468.049	78.56
468.268	77.56
468.488	91.56
468.707	71.56
468.927	90.56
469.146	94.56
469.365	83.56
469.585	98.56
469.804	85.56
470.023	93.56
470.243	102.56
470.462	99.56
470.681	100.56
470.901	93.56
471.12	88.56
471.339	88.56
471.558	77.56
471.777	86.56
471.997	78.56
472.216	95.56
472.435	82.56
472.654	87.56
472.873	93.56
473.092	92.56
473.311	82.56
473.53	77.56
473.749	83.56
473.968	94.56
474.187	96.56
474.406	89.56
474.625	82.56
474.844	92.56
475.063	87.56
475.282	84.56
475.501	94.56
475.72	89.56
475.939	86.56
476.158	98.56
476.377	97.56
476.596	92.56
476.814	84.56
477.033	93.56
477.252	96.56
477.471	83.56
477.69	88.56
477.908	73.56
478.127	97.56
478.346	96.56
478.564	98.56
478.783	96.56
479.002	94.56
479.22	84.56
479.439	81.56
479.658	96.56
479.876	101.56
480.095	80.56
480.313	97.56
480.532	89.56
480.751	83.56
480.969	87.56
481.188	100.56
481.406	95.56
481.624	87.56
481.843	77.56
482.061	93.56
482.28	82.56
482.498	79.56
482.717	98.56
482.935	90.56
483.153	93.56
483.372	87.56
483.59	90.56
483.808	82.56
484.027	104.56
484.245	82.56
484.463	102.56
484.681	90.56
484.9	94.56
485.118	86.56
485.336	83.56
485.554	102.56
485.772	87.56
485.99	108.56
486.209	96.56
486.427	99.56
486.645	111.56
486.863	110.56
487.081	109.56
487.299	102.56
487.517	91.56
487.735	88.56
487.953	97.56
488.171	89.56
488.389	83.56
488.607	108.56
488.825	112.56
489.043	77.56
489.261	89.56
489.479	84.56
489.696	78.56
489.914	97.56
490.132	82.56
490.35	94.56
490.568	85.56
490.786	88.56
491.003	93.56
491.221	91.56
491.439	77.56
491.657	88.56
491.874	91.56
492.092	89.56
492.31	99.56
492.527	95.56
492.745	84.56
492.963	90.56
493.18	96.56
493.398	100.56
493.615	110.56
493.833	85.56
494.05	75.56
494.268	89.56
494.485	78.56
494.703	96.56
494.92	86.56
495.138	76.56
495.355	84.56
495.573	83.56
495.79	90.56
496.008	99.56
496.225	97.56
496.442	97.56
496.66	90.56
496.877	70.56
497.094	100.56
497.312	87.56
497.529	93.56
497.746	90.56
497.963	79.56
498.181	83.56
498.398	101.56
498.615	122.56
498.832	95.56
499.049	80.56
499.267	77.56
499.484	84.56
499.701	88.56
499.918	77.56
500.135	74.56
500.352	73.56
500.569	107.56
500.786	90.56
501.003	93.56
501.22	76.56
501.437	96.56
501.654	93.56
501.871	103.56
502.088	98.56
502.305	89.56
502.522	96.56
502.739	87.56
502.956	98.56
503.172	76.56
503.389	109.56
503.606	93.56
503.823	102.56
504.04	87.56
504.256	87.56
504.473	91.56
504.69	94.56
504.907	89.56
505.123	96.56
505.34	82.56
505.557	94.56
505.773	97.56
505.99	95.56
506.207	103.56
506.423	87.56
506.64	82.56
506.856	102.56
507.073	98.56
507.289	89.56
507.506	87.56
507.722	93.56
507.939	112.56
508.155	93.56
508.372	107.56
508.588	96.56
508.805	101.56
509.021	79.56
509.238	90.56
509.454	103.56
509.67	98.56
509.887	117.56
510.103	149.56
510.319	214.56
510.536	781.56
510.752	2535.56
510.968	682.56
511.184	160.56
511.401	113.56
511.617	85.56
511.833	87.56
512.049	94.56
512.265	86.56
512.481	87.56
512.698	88.56
512.914	97.56
513.13	95.56
513.346	88.56
513.562	86.56
513.778	88.56
513.994	101.56
514.21	107.56
514.426	126.56
514.642	134.56
514.858	108.56
515.074	170.56
515.29	476.56
515.506	1526.56
515.721	554.56
515.937	165.56
516.153	113.56
516.369	91.56
