Data from Uncirc_2003_H10_HRD10591_00039.txt Node
Date: Wed Jan 03 10:35:55 EST 2024
User: Yrep
Spectrometer: HR+D1059
Trigger mode: 1
Integration Time (sec): 1.000000E-1
Scans to average: 1
Electric dark correction enabled: true
Nonlinearity correction enabled: false
Boxcar width: 0
XAxis mode: Wavelengths
Number of Pixels in Spectrum: 2048
>>>>>Begin Spectral Data<<<<<
223.165	-20.88
223.4	-20.88
223.635	-20.88
223.869	-20.88
224.104	-23.88
224.338	-17.88
224.573	0.12
224.808	-9.88
225.042	-18.88
225.277	-13.88
225.511	-0.88
225.746	13.12
225.98	16.12
226.215	21.12
226.449	12.12
226.683	15.12
226.918	20.12
227.152	29.12
227.387	29.12
227.621	46.12
227.856	46.12
228.09	42.12
228.324	61.12
228.559	52.12
228.793	68.12
229.027	65.12
229.262	67.12
229.496	58.12
229.73	70.12
229.964	68.12
230.199	82.12
230.433	67.12
230.667	84.12
230.901	66.12
231.136	73.12
231.37	91.12
231.604	79.12
231.838	76.12
232.072	84.12
232.306	82.12
232.541	72.12
232.775	90.12
233.009	87.12
233.243	76.12
233.477	79.12
233.711	73.12
233.945	75.12
234.179	78.12
234.413	77.12
234.647	78.12
234.881	88.12
235.115	78.12
235.349	70.12
235.583	81.12
235.817	65.12
236.051	61.12
236.285	62.12
236.519	71.12
236.753	79.12
236.987	72.12
237.221	75.12
237.455	76.12
237.689	69.12
237.922	73.12
238.156	67.12
238.39	74.12
238.624	68.12
238.858	75.12
239.091	75.12
239.325	59.12
239.559	82.12
239.793	83.12
240.027	68.12
240.26	87.12
240.494	70.12
240.728	58.12
240.961	62.12
241.195	92.12
241.429	65.12
241.662	70.12
241.896	81.12
242.13	82.12
242.363	73.12
242.597	85.12
242.83	64.12
243.064	69.12
243.298	78.12
243.531	94.12
243.765	71.12
243.998	66.12
244.232	78.12
244.465	90.12
244.699	89.12
244.932	73.12
245.166	74.12
245.399	73.12
245.633	71.12
245.866	61.12
246.099	80.12
246.333	75.12
246.566	81.12
246.8	61.12
247.033	80.12
247.266	69.12
247.5	72.12
247.733	65.12
247.966	80.12
248.2	65.12
248.433	80.12
248.666	76.12
248.899	82.12
249.133	78.12
249.366	87.12
249.599	100.12
249.832	87.12
250.066	72.12
250.299	62.12
250.532	69.12
250.765	76.12
250.998	70.12
251.231	71.12
251.465	78.12
251.698	74.12
251.931	70.12
252.164	73.12
252.397	77.12
252.63	79.12
252.863	81.12
253.096	63.12
253.329	85.12
253.562	71.12
253.795	85.12
254.028	70.12
254.261	68.12
254.494	80.12
254.727	71.12
254.96	82.12
255.193	80.12
255.426	74.12
255.659	78.12
255.892	80.12
256.124	69.12
256.357	79.12
256.59	78.12
256.823	76.12
257.056	84.12
257.289	81.12
257.521	73.12
257.754	81.12
257.987	77.12
258.22	74.12
258.452	63.12
258.685	68.12
258.918	73.12
259.151	62.12
259.383	68.12
259.616	72.12
259.849	84.12
260.081	78.12
260.314	87.12
260.547	79.12
260.779	74.12
261.012	81.12
261.244	69.12
261.477	85.12
261.71	84.12
261.942	101.12
262.175	102.12
262.407	90.12
262.64	79.12
262.872	92.12
263.105	75.12
263.337	71.12
263.57	72.12
263.802	83.12
264.035	68.12
264.267	77.12
264.499	93.12
264.732	74.12
264.964	83.12
265.197	80.12
265.429	77.12
265.661	79.12
265.894	81.12
266.126	72.12
266.358	97.12
266.591	78.12
266.823	91.12
267.055	89.12
267.287	71.12
267.52	72.12
267.752	82.12
267.984	81.12
268.216	95.12
268.448	77.12
268.681	86.12
268.913	83.12
269.145	83.12
269.377	92.12
269.609	63.12
269.841	78.12
270.073	76.12
270.306	93.12
270.538	82.12
270.77	68.12
271.002	73.12
271.234	100.12
271.466	82.12
271.698	80.12
271.93	81.12
272.162	81.12
272.394	71.12
272.626	72.12
272.858	82.12
273.09	76.12
273.322	82.12
273.553	85.12
273.785	78.12
274.017	85.12
274.249	83.12
274.481	73.12
274.713	86.12
274.945	91.12
275.176	78.12
275.408	77.12
275.64	75.12
275.872	79.12
276.104	88.12
276.335	78.12
276.567	93.12
276.799	109.12
277.031	99.12
277.262	76.12
277.494	73.12
277.726	90.12
277.957	77.12
278.189	84.12
278.421	100.12
278.652	84.12
278.884	91.12
279.115	78.12
279.347	85.12
279.579	83.12
279.81	90.12
280.042	79.12
280.273	73.12
280.505	86.12
280.736	71.12
280.968	88.12
281.199	89.12
281.431	99.12
281.662	98.12
281.894	89.12
282.125	85.12
282.356	114.12
282.588	126.12
282.819	118.12
283.051	84.12
283.282	91.12
283.513	78.12
283.745	85.12
283.976	85.12
284.207	87.12
284.439	94.12
284.67	79.12
284.901	76.12
285.132	81.12
285.364	83.12
285.595	77.12
285.826	68.12
286.057	91.12
286.288	89.12
286.52	93.12
286.751	77.12
286.982	87.12
287.213	86.12
287.444	91.12
287.675	91.12
287.906	86.12
288.138	83.12
288.369	85.12
288.6	78.12
288.831	85.12
289.062	82.12
289.293	97.12
289.524	88.12
289.755	89.12
289.986	67.12
290.217	74.12
290.448	75.12
290.679	79.12
290.91	97.12
291.141	83.12
291.371	93.12
291.602	86.12
291.833	83.12
292.064	82.12
292.295	100.12
292.526	90.12
292.757	73.12
292.987	89.12
293.218	99.12
293.449	80.12
293.68	83.12
293.91	93.12
294.141	102.12
294.372	81.12
294.603	89.12
294.833	88.12
295.064	93.12
295.295	83.12
295.525	96.12
295.756	95.12
295.987	104.12
296.217	138.12
296.448	121.12
296.679	85.12
296.909	90.12
297.14	89.12
297.37	95.12
297.601	92.12
297.831	81.12
298.062	79.12
298.292	77.12
298.523	85.12
298.753	77.12
298.984	78.12
299.214	95.12
299.445	93.12
299.675	95.12
299.905	91.12
300.136	86.12
300.366	77.12
300.597	96.12
300.827	85.12
301.057	89.12
301.288	106.12
301.518	109.12
301.748	77.12
301.979	95.12
302.209	75.12
302.439	87.12
302.669	90.12
302.9	89.12
303.13	98.12
303.36	83.12
303.59	100.12
303.82	89.12
304.051	90.12
304.281	80.12
304.511	86.12
304.741	83.12
304.971	98.12
305.201	82.12
305.431	86.12
305.661	90.12
305.891	91.12
306.121	77.12
306.352	94.12
306.582	78.12
306.812	94.12
307.042	85.12
307.272	74.12
307.502	93.12
307.731	94.12
307.961	86.12
308.191	75.12
308.421	84.12
308.651	96.12
308.881	85.12
309.111	76.12
309.341	86.12
309.571	101.12
309.8	101.12
310.03	93.12
310.26	85.12
310.49	96.12
310.72	92.12
310.949	98.12
311.179	102.12
311.409	91.12
311.639	98.12
311.868	93.12
312.098	82.12
312.328	100.12
312.557	97.12
312.787	91.12
313.017	87.12
313.246	100.12
313.476	98.12
313.706	89.12
313.935	94.12
314.165	92.12
314.394	106.12
314.624	85.12
314.853	101.12
315.083	87.12
315.312	97.12
315.542	75.12
315.771	83.12
316.001	87.12
316.23	91.12
316.46	76.12
316.689	90.12
316.919	70.12
317.148	95.12
317.377	95.12
317.607	91.12
317.836	82.12
318.065	92.12
318.295	102.12
318.524	92.12
318.753	98.12
318.983	94.12
319.212	86.12
319.441	113.12
319.67	95.12
319.9	85.12
320.129	74.12
320.358	91.12
320.587	102.12
320.816	87.12
321.046	86.12
321.275	93.12
321.504	83.12
321.733	89.12
321.962	94.12
322.191	97.12
322.42	86.12
322.649	107.12
322.878	92.12
323.108	106.12
323.337	118.12
323.566	130.12
323.795	149.12
324.024	219.12
324.253	430.12
324.482	913.12
324.71	1903.12
324.939	2612.12
325.168	929.12
325.397	267.12
325.626	161.12
325.855	137.12
326.084	121.12
326.313	130.12
326.542	159.12
326.77	235.12
326.999	521.12
327.228	1069.12
327.457	1961.12
327.686	1516.12
327.914	387.12
328.143	203.12
328.372	132.12
328.6	115.12
328.829	129.12
329.058	126.12
329.287	134.12
329.515	107.12
329.744	91.12
329.972	85.12
330.201	91.12
330.43	91.12
330.658	124.12
330.887	115.12
331.115	115.12
331.344	79.12
331.572	98.12
331.801	89.12
332.03	95.12
332.258	86.12
332.486	94.12
332.715	97.12
332.943	97.12
333.172	100.12
333.4	91.12
333.629	101.12
333.857	102.12
334.085	87.12
334.314	98.12
334.542	101.12
334.771	101.12
334.999	93.12
335.227	92.12
335.455	99.12
335.684	102.12
335.912	91.12
336.14	86.12
336.369	82.12
336.597	101.12
336.825	93.12
337.053	87.12
337.281	90.12
337.51	81.12
337.738	98.12
337.966	97.12
338.194	90.12
338.422	94.12
338.65	102.12
338.878	93.12
339.106	92.12
339.334	91.12
339.562	70.12
339.79	85.12
340.018	88.12
340.246	87.12
340.474	76.12
340.702	94.12
340.93	85.12
341.158	82.12
341.386	84.12
341.614	82.12
341.842	85.12
342.07	84.12
342.298	85.12
342.526	90.12
342.754	86.12
342.981	80.12
343.209	84.12
343.437	91.12
343.665	96.12
343.893	83.12
344.12	85.12
344.348	96.12
344.576	101.12
344.804	84.12
345.031	87.12
345.259	84.12
345.487	85.12
345.714	81.12
345.942	87.12
346.17	88.12
346.397	91.12
346.625	87.12
346.853	94.12
347.08	92.12
347.308	96.12
347.535	83.12
347.763	108.12
347.99	84.12
348.218	90.12
348.445	92.12
348.673	97.12
348.9	90.12
349.128	96.12
349.355	78.12
349.583	102.12
349.81	93.12
350.037	96.12
350.265	86.12
350.492	103.12
350.72	83.12
350.947	91.12
351.174	106.12
351.402	92.12
351.629	100.12
351.856	103.12
352.083	109.12
352.311	107.12
352.538	107.12
352.765	137.12
352.992	117.12
353.22	107.12
353.447	95.12
353.674	94.12
353.901	93.12
354.128	90.12
354.355	98.12
354.583	89.12
354.81	94.12
355.037	88.12
355.264	102.12
355.491	100.12
355.718	68.12
355.945	97.12
356.172	101.12
356.399	83.12
356.626	101.12
356.853	89.12
357.08	92.12
357.307	100.12
357.534	83.12
357.761	98.12
357.988	94.12
358.215	91.12
358.441	93.12
358.668	92.12
358.895	86.12
359.122	83.12
359.349	73.12
359.576	83.12
359.802	101.12
360.029	110.12
360.256	105.12
360.483	97.12
360.709	71.12
360.936	88.12
361.163	87.12
361.39	89.12
361.616	87.12
361.843	95.12
362.07	86.12
362.296	90.12
362.523	84.12
362.749	104.12
362.976	90.12
363.203	95.12
363.429	73.12
363.656	93.12
363.882	88.12
364.109	84.12
364.335	94.12
364.562	105.12
364.788	91.12
365.015	74.12
365.241	108.12
365.468	94.12
365.694	99.12
365.92	89.12
366.147	91.12
366.373	76.12
366.599	83.12
366.826	78.12
367.052	82.12
367.278	90.12
367.505	75.12
367.731	92.12
367.957	91.12
368.184	89.12
368.41	100.12
368.636	113.12
368.862	121.12
369.089	106.12
369.315	81.12
369.541	88.12
369.767	87.12
369.993	95.12
370.219	76.12
370.445	84.12
370.672	82.12
370.898	86.12
371.124	74.12
371.35	99.12
371.576	87.12
371.802	95.12
372.028	84.12
372.254	86.12
372.48	84.12
372.706	82.12
372.932	86.12
373.158	63.12
373.384	83.12
373.61	94.12
373.835	84.12
374.061	109.12
374.287	91.12
374.513	94.12
374.739	82.12
374.965	78.12
375.191	77.12
375.416	93.12
375.642	90.12
375.868	92.12
376.094	93.12
376.319	86.12
376.545	89.12
376.771	79.12
376.997	91.12
377.222	100.12
377.448	87.12
377.674	79.12
377.899	81.12
378.125	92.12
378.35	81.12
378.576	73.12
378.802	91.12
379.027	94.12
379.253	99.12
379.478	97.12
379.704	91.12
379.929	73.12
380.155	89.12
380.38	83.12
380.606	90.12
380.831	80.12
381.057	95.12
381.282	84.12
381.507	99.12
381.733	84.12
381.958	107.12
382.184	80.12
382.409	83.12
382.634	88.12
382.86	110.12
383.085	97.12
383.31	100.12
383.535	89.12
383.761	97.12
383.986	89.12
384.211	75.12
384.436	90.12
384.662	102.12
384.887	100.12
385.112	97.12
385.337	92.12
385.562	83.12
385.787	108.12
386.013	109.12
386.238	111.12
386.463	96.12
386.688	114.12
386.913	113.12
387.138	96.12
387.363	100.12
387.588	105.12
387.813	100.12
388.038	82.12
388.263	110.12
388.488	111.12
388.713	93.12
388.938	85.12
389.163	91.12
389.387	94.12
389.612	91.12
389.837	100.12
390.062	99.12
390.287	94.12
390.512	87.12
390.736	86.12
390.961	78.12
391.186	105.12
391.411	79.12
391.636	82.12
391.86	85.12
392.085	78.12
392.31	76.12
392.534	78.12
392.759	94.12
392.984	91.12
393.208	89.12
393.433	95.12
393.658	87.12
393.882	87.12
394.107	92.12
394.331	87.12
394.556	94.12
394.78	86.12
395.005	90.12
395.229	84.12
395.454	86.12
395.678	74.12
395.903	84.12
396.127	90.12
396.352	83.12
396.576	81.12
396.801	71.12
397.025	78.12
397.249	73.12
397.474	76.12
397.698	74.12
397.922	102.12
398.147	75.12
398.371	76.12
398.595	76.12
398.82	71.12
399.044	82.12
399.268	89.12
399.492	80.12
399.717	90.12
399.941	83.12
400.165	98.12
400.389	88.12
400.613	76.12
400.837	84.12
401.062	84.12
401.286	81.12
401.51	82.12
401.734	76.12
401.958	93.12
402.182	113.12
402.406	154.12
402.63	115.12
402.854	102.12
403.078	89.12
403.302	82.12
403.526	87.12
403.75	85.12
403.974	78.12
404.198	73.12
404.422	89.12
404.645	74.12
404.869	75.12
405.093	83.12
405.317	92.12
405.541	93.12
405.765	87.12
405.988	98.12
406.212	189.12
406.436	239.12
406.66	162.12
406.883	102.12
407.107	90.12
407.331	97.12
407.555	86.12
407.778	98.12
408.002	99.12
408.226	91.12
408.449	86.12
408.673	89.12
408.896	94.12
409.12	94.12
409.344	85.12
409.567	100.12
409.791	77.12
410.014	86.12
410.238	85.12
410.461	103.12
410.685	95.12
410.908	103.12
411.132	105.12
411.355	82.12
411.578	94.12
411.802	106.12
412.025	78.12
412.249	83.12
412.472	82.12
412.695	81.12
412.919	75.12
413.142	90.12
413.365	85.12
413.589	91.12
413.812	80.12
414.035	94.12
414.258	81.12
414.482	90.12
414.705	82.12
414.928	85.12
415.151	68.12
415.374	78.12
415.597	93.12
415.821	95.12
416.044	89.12
416.267	83.12
416.49	81.12
416.713	80.12
416.936	80.12
417.159	78.12
417.382	94.12
417.605	86.12
417.828	92.12
418.051	92.12
418.274	85.12
418.497	74.12
418.72	79.12
418.943	74.12
419.166	92.12
419.389	82.12
419.611	90.12
419.834	85.12
420.057	77.12
420.28	87.12
420.503	96.12
420.726	84.12
420.948	94.12
421.171	82.12
421.394	98.12
421.617	90.12
421.839	79.12
422.062	83.12
422.285	95.12
422.507	84.12
422.73	108.12
422.953	90.12
423.175	84.12
423.398	81.12
423.621	75.12
423.843	85.12
424.066	91.12
424.288	83.12
424.511	101.12
424.733	106.12
424.956	95.12
425.178	104.12
425.401	111.12
425.623	103.12
425.846	86.12
426.068	96.12
426.291	91.12
426.513	83.12
426.735	84.12
426.958	85.12
427.18	92.12
427.402	124.12
427.625	170.12
427.847	103.12
428.069	88.12
428.292	102.12
428.514	98.12
428.736	78.12
428.958	90.12
429.181	83.12
429.403	71.12
429.625	80.12
429.847	97.12
430.069	108.12
430.292	92.12
430.514	90.12
430.736	78.12
430.958	86.12
431.18	75.12
431.402	86.12
431.624	79.12
431.846	86.12
432.068	81.12
432.29	64.12
432.512	86.12
432.734	83.12
432.956	85.12
433.178	83.12
433.4	97.12
433.622	87.12
433.844	85.12
434.066	89.12
434.287	93.12
434.509	95.12
434.731	95.12
434.953	88.12
435.175	93.12
435.397	90.12
435.618	85.12
435.84	123.12
436.062	115.12
436.284	108.12
436.505	102.12
436.727	103.12
436.949	91.12
437.17	86.12
437.392	91.12
437.614	79.12
437.835	94.12
438.057	112.12
438.278	103.12
438.5	105.12
438.721	100.12
438.943	106.12
439.165	69.12
439.386	106.12
439.608	83.12
439.829	90.12
440.05	105.12
440.272	145.12
440.493	102.12
440.715	90.12
440.936	86.12
441.158	87.12
441.379	82.12
441.6	87.12
441.822	89.12
442.043	85.12
442.264	94.12
442.486	104.12
442.707	102.12
442.928	115.12
443.149	138.12
443.371	134.12
443.592	95.12
443.813	99.12
444.034	107.12
444.255	79.12
444.476	92.12
444.698	76.12
444.919	81.12
445.14	127.12
445.361	120.12
445.582	89.12
445.803	144.12
446.024	141.12
446.245	130.12
446.466	101.12
446.687	77.12
446.908	68.12
447.129	102.12
447.35	87.12
447.571	86.12
447.792	93.12
448.013	105.12
448.234	97.12
448.455	101.12
448.675	103.12
448.896	114.12
449.117	98.12
449.338	105.12
449.559	123.12
449.779	140.12
450	89.12
450.221	78.12
450.442	82.12
450.662	82.12
450.883	80.12
451.104	102.12
451.324	104.12
451.545	93.12
451.766	93.12
451.986	74.12
452.207	87.12
452.428	87.12
452.648	86.12
452.869	114.12
453.089	105.12
453.31	102.12
453.53	88.12
453.751	93.12
453.971	108.12
454.192	103.12
454.412	82.12
454.633	80.12
454.853	95.12
455.073	83.12
455.294	89.12
455.514	93.12
455.734	87.12
455.955	83.12
456.175	70.12
456.395	86.12
456.616	90.12
456.836	75.12
457.056	84.12
457.276	80.12
457.497	70.12
457.717	90.12
457.937	84.12
458.157	78.12
458.377	85.12
458.598	115.12
458.818	162.12
459.038	150.12
459.258	129.12
459.478	77.12
459.698	94.12
459.918	74.12
460.138	71.12
460.358	80.12
460.578	79.12
460.798	77.12
461.018	100.12
461.238	79.12
461.458	90.12
461.678	85.12
461.898	77.12
462.118	81.12
462.338	84.12
462.558	80.12
462.777	87.12
462.997	87.12
463.217	90.12
463.437	83.12
463.657	90.12
463.876	75.12
464.096	92.12
464.316	82.12
464.536	85.12
464.755	98.12
464.975	108.12
465.195	157.12
465.414	159.12
465.634	84.12
465.854	84.12
466.073	88.12
466.293	69.12
466.512	82.12
466.732	77.12
466.951	91.12
467.171	82.12
467.391	106.12
467.61	100.12
467.829	104.12
468.049	91.12
468.268	87.12
468.488	84.12
468.707	80.12
468.927	86.12
469.146	93.12
469.365	86.12
469.585	98.12
469.804	91.12
470.023	89.12
470.243	77.12
470.462	92.12
470.681	101.12
470.901	97.12
471.12	89.12
471.339	74.12
471.558	65.12
471.777	74.12
471.997	77.12
472.216	91.12
472.435	91.12
472.654	97.12
472.873	95.12
473.092	97.12
473.311	93.12
473.53	74.12
473.749	77.12
473.968	84.12
474.187	101.12
474.406	95.12
474.625	86.12
474.844	98.12
475.063	95.12
475.282	74.12
475.501	88.12
475.72	86.12
475.939	82.12
476.158	85.12
476.377	81.12
476.596	86.12
476.814	94.12
477.033	92.12
477.252	85.12
477.471	75.12
477.69	85.12
477.908	86.12
478.127	91.12
478.346	91.12
478.564	93.12
478.783	87.12
479.002	91.12
479.22	86.12
479.439	101.12
479.658	92.12
479.876	91.12
480.095	81.12
480.313	76.12
480.532	81.12
480.751	83.12
480.969	82.12
481.188	104.12
481.406	101.12
481.624	84.12
481.843	86.12
482.061	96.12
482.28	86.12
482.498	90.12
482.717	79.12
482.935	78.12
483.153	80.12
483.372	98.12
483.59	89.12
483.808	102.12
484.027	100.12
484.245	101.12
484.463	95.12
484.681	85.12
484.9	96.12
485.118	78.12
485.336	87.12
485.554	97.12
485.772	107.12
485.99	109.12
486.209	110.12
486.427	107.12
486.645	118.12
486.863	110.12
487.081	85.12
487.299	95.12
487.517	93.12
487.735	97.12
487.953	81.12
488.171	92.12
488.389	93.12
488.607	103.12
488.825	91.12
489.043	88.12
489.261	90.12
489.479	99.12
489.696	97.12
489.914	88.12
490.132	100.12
490.35	88.12
490.568	75.12
490.786	80.12
491.003	85.12
491.221	89.12
491.439	82.12
491.657	82.12
491.874	97.12
492.092	102.12
492.31	93.12
492.527	85.12
492.745	98.12
492.963	86.12
493.18	95.12
493.398	99.12
493.615	94.12
493.833	89.12
494.05	75.12
494.268	79.12
494.485	89.12
494.703	92.12
494.92	87.12
495.138	87.12
495.355	81.12
495.573	94.12
495.79	84.12
496.008	84.12
496.225	105.12
496.442	91.12
496.66	83.12
496.877	85.12
497.094	84.12
497.312	90.12
497.529	83.12
497.746	98.12
497.963	86.12
498.181	96.12
498.398	99.12
498.615	103.12
498.832	102.12
499.049	95.12
499.267	82.12
499.484	101.12
499.701	97.12
499.918	82.12
500.135	78.12
500.352	76.12
500.569	92.12
500.786	95.12
501.003	95.12
501.22	93.12
501.437	102.12
501.654	97.12
501.871	113.12
502.088	84.12
502.305	91.12
502.522	84.12
502.739	85.12
502.956	92.12
503.172	86.12
503.389	95.12
503.606	100.12
503.823	86.12
504.04	95.12
504.256	97.12
504.473	79.12
504.69	91.12
504.907	98.12
505.123	105.12
505.34	81.12
505.557	85.12
505.773	93.12
505.99	78.12
506.207	77.12
506.423	86.12
506.64	82.12
506.856	108.12
507.073	88.12
507.289	74.12
507.506	109.12
507.722	104.12
507.939	117.12
508.155	88.12
508.372	90.12
508.588	93.12
508.805	94.12
509.021	97.12
509.238	87.12
509.454	100.12
509.67	92.12
509.887	116.12
510.103	115.12
510.319	234.12
510.536	817.12
510.752	2589.12
510.968	715.12
511.184	148.12
511.401	111.12
511.617	101.12
511.833	81.12
512.049	90.12
512.265	93.12
512.481	94.12
512.698	85.12
512.914	102.12
513.13	98.12
513.346	88.12
513.562	83.12
513.778	94.12
513.994	108.12
514.21	106.12
514.426	111.12
514.642	135.12
514.858	125.12
515.074	158.12
515.29	474.12
515.506	1568.12
515.721	581.12
515.937	161.12
516.153	131.12
516.369	96.12
516.585	90.12
