Data from Uncirc_2003_H10_HRD10591_00020.txt Node
Date: Wed Jan 03 10:35:51 EST 2024
User: Yrep
Spectrometer: HR+D1059
Trigger mode: 1
Integration Time (sec): 1.000000E-1
Scans to average: 1
Electric dark correction enabled: true
Nonlinearity correction enabled: false
Boxcar width: 0
XAxis mode: Wavelengths
Number of Pixels in Spectrum: 2048
>>>>>Begin Spectral Data<<<<<
223.165	-21.25
223.4	-21.25
223.635	-21.25
223.869	-19.25
224.104	-20.25
224.338	-2.25
224.573	-16.25
224.808	-14.25
225.042	-11.25
225.277	-0.25
225.511	7.75
225.746	3.75
225.98	8.75
226.215	6.75
226.449	3.75
226.683	20.75
226.918	19.75
227.152	33.75
227.387	45.75
227.621	44.75
227.856	43.75
228.09	41.75
228.324	64.75
228.559	50.75
228.793	62.75
229.027	74.75
229.262	72.75
229.496	74.75
229.73	96.75
229.964	82.75
230.199	79.75
230.433	69.75
230.667	88.75
230.901	77.75
231.136	79.75
231.37	85.75
231.604	85.75
231.838	77.75
232.072	98.75
232.306	78.75
232.541	79.75
232.775	87.75
233.009	74.75
233.243	57.75
233.477	99.75
233.711	71.75
233.945	79.75
234.179	92.75
234.413	85.75
234.647	87.75
234.881	87.75
235.115	90.75
235.349	67.75
235.583	90.75
235.817	85.75
236.051	63.75
236.285	82.75
236.519	88.75
236.753	88.75
236.987	78.75
237.221	72.75
237.455	84.75
237.689	77.75
237.922	88.75
238.156	93.75
238.39	74.75
238.624	79.75
238.858	97.75
239.091	70.75
239.325	82.75
239.559	82.75
239.793	69.75
240.027	89.75
240.26	84.75
240.494	75.75
240.728	84.75
240.961	89.75
241.195	79.75
241.429	56.75
241.662	77.75
241.896	71.75
242.13	69.75
242.363	78.75
242.597	85.75
242.83	64.75
243.064	71.75
243.298	74.75
243.531	78.75
243.765	84.75
243.998	91.75
244.232	87.75
244.465	77.75
244.699	93.75
244.932	69.75
245.166	77.75
245.399	68.75
245.633	88.75
245.866	79.75
246.099	58.75
246.333	77.75
246.566	85.75
246.8	58.75
247.033	81.75
247.266	69.75
247.5	72.75
247.733	70.75
247.966	81.75
248.2	81.75
248.433	69.75
248.666	81.75
248.899	63.75
249.133	102.75
249.366	99.75
249.599	101.75
249.832	90.75
250.066	93.75
250.299	78.75
250.532	80.75
250.765	86.75
250.998	75.75
251.231	65.75
251.465	90.75
251.698	75.75
251.931	84.75
252.164	89.75
252.397	78.75
252.63	94.75
252.863	84.75
253.096	78.75
253.329	72.75
253.562	88.75
253.795	70.75
254.028	88.75
254.261	83.75
254.494	84.75
254.727	85.75
254.96	85.75
255.193	80.75
255.426	87.75
255.659	86.75
255.892	93.75
256.124	77.75
256.357	88.75
256.59	89.75
256.823	84.75
257.056	75.75
257.289	79.75
257.521	70.75
257.754	83.75
257.987	89.75
258.22	79.75
258.452	80.75
258.685	74.75
258.918	74.75
259.151	82.75
259.383	73.75
259.616	90.75
259.849	89.75
260.081	78.75
260.314	83.75
260.547	80.75
260.779	76.75
261.012	75.75
261.244	88.75
261.477	90.75
261.71	103.75
261.942	94.75
262.175	100.75
262.407	98.75
262.64	79.75
262.872	91.75
263.105	80.75
263.337	79.75
263.57	84.75
263.802	89.75
264.035	81.75
264.267	75.75
264.499	87.75
264.732	88.75
264.964	88.75
265.197	88.75
265.429	102.75
265.661	90.75
265.894	83.75
266.126	81.75
266.358	78.75
266.591	78.75
266.823	71.75
267.055	85.75
267.287	85.75
267.52	75.75
267.752	79.75
267.984	98.75
268.216	82.75
268.448	76.75
268.681	96.75
268.913	87.75
269.145	84.75
269.377	81.75
269.609	89.75
269.841	89.75
270.073	99.75
270.306	87.75
270.538	80.75
270.77	80.75
271.002	95.75
271.234	87.75
271.466	90.75
271.698	78.75
271.93	92.75
272.162	84.75
272.394	95.75
272.626	95.75
272.858	88.75
273.09	83.75
273.322	82.75
273.553	86.75
273.785	72.75
274.017	87.75
274.249	78.75
274.481	71.75
274.713	94.75
274.945	81.75
275.176	68.75
275.408	88.75
275.64	71.75
275.872	94.75
276.104	77.75
276.335	89.75
276.567	85.75
276.799	104.75
277.031	101.75
277.262	86.75
277.494	96.75
277.726	71.75
277.957	85.75
278.189	84.75
278.421	89.75
278.652	77.75
278.884	82.75
279.115	86.75
279.347	75.75
279.579	79.75
279.81	90.75
280.042	83.75
280.273	87.75
280.505	87.75
280.736	79.75
280.968	99.75
281.199	73.75
281.431	89.75
281.662	83.75
281.894	97.75
282.125	90.75
282.356	99.75
282.588	133.75
282.819	115.75
283.051	91.75
283.282	91.75
283.513	89.75
283.745	77.75
283.976	88.75
284.207	90.75
284.439	88.75
284.67	85.75
284.901	81.75
285.132	76.75
285.364	89.75
285.595	97.75
285.826	83.75
286.057	94.75
286.288	83.75
286.52	86.75
286.751	86.75
286.982	89.75
287.213	93.75
287.444	85.75
287.675	92.75
287.906	86.75
288.138	80.75
288.369	90.75
288.6	85.75
288.831	97.75
289.062	98.75
289.293	79.75
289.524	79.75
289.755	84.75
289.986	77.75
290.217	92.75
290.448	84.75
290.679	83.75
290.91	85.75
291.141	94.75
291.371	93.75
291.602	83.75
291.833	73.75
292.064	71.75
292.295	87.75
292.526	86.75
292.757	84.75
292.987	90.75
293.218	76.75
293.449	94.75
293.68	74.75
293.91	87.75
294.141	94.75
294.372	87.75
294.603	93.75
294.833	75.75
295.064	76.75
295.295	83.75
295.525	91.75
295.756	99.75
295.987	124.75
296.217	126.75
296.448	116.75
296.679	89.75
296.909	96.75
297.14	89.75
297.37	95.75
297.601	93.75
297.831	86.75
298.062	81.75
298.292	102.75
298.523	88.75
298.753	84.75
298.984	91.75
299.214	97.75
299.445	88.75
299.675	97.75
299.905	90.75
300.136	85.75
300.366	93.75
300.597	93.75
300.827	104.75
301.057	97.75
301.288	105.75
301.518	86.75
301.748	95.75
301.979	105.75
302.209	98.75
302.439	101.75
302.669	97.75
302.9	78.75
303.13	88.75
303.36	97.75
303.59	102.75
303.82	97.75
304.051	85.75
304.281	85.75
304.511	85.75
304.741	92.75
304.971	95.75
305.201	104.75
305.431	94.75
305.661	78.75
305.891	77.75
306.121	95.75
306.352	94.75
306.582	99.75
306.812	74.75
307.042	75.75
307.272	77.75
307.502	94.75
307.731	77.75
307.961	87.75
308.191	101.75
308.421	91.75
308.651	82.75
308.881	91.75
309.111	93.75
309.341	93.75
309.571	97.75
309.8	94.75
310.03	102.75
310.26	92.75
310.49	85.75
310.72	91.75
310.949	101.75
311.179	89.75
311.409	99.75
311.639	91.75
311.868	101.75
312.098	94.75
312.328	109.75
312.557	95.75
312.787	104.75
313.017	97.75
313.246	99.75
313.476	96.75
313.706	98.75
313.935	79.75
314.165	95.75
314.394	103.75
314.624	101.75
314.853	116.75
315.083	98.75
315.312	114.75
315.542	102.75
315.771	94.75
316.001	78.75
316.23	95.75
316.46	93.75
316.689	86.75
316.919	91.75
317.148	104.75
317.377	102.75
317.607	98.75
317.836	89.75
318.065	99.75
318.295	91.75
318.524	87.75
318.753	91.75
318.983	88.75
319.212	93.75
319.441	113.75
319.67	96.75
319.9	99.75
320.129	91.75
320.358	86.75
320.587	85.75
320.816	97.75
321.046	92.75
321.275	96.75
321.504	104.75
321.733	89.75
321.962	94.75
322.191	112.75
322.42	93.75
322.649	114.75
322.878	99.75
323.108	117.75
323.337	109.75
323.566	137.75
323.795	151.75
324.024	202.75
324.253	374.75
324.482	831.75
324.71	1656.75
324.939	2215.75
325.168	785.75
325.397	250.75
325.626	144.75
325.855	133.75
326.084	112.75
326.313	136.75
326.542	157.75
326.77	209.75
326.999	473.75
327.228	932.75
327.457	1743.75
327.686	1349.75
327.914	349.75
328.143	194.75
328.372	128.75
328.6	112.75
328.829	122.75
329.058	115.75
329.287	130.75
329.515	102.75
329.744	97.75
329.972	89.75
330.201	110.75
330.43	101.75
330.658	111.75
330.887	105.75
331.115	101.75
331.344	95.75
331.572	91.75
331.801	108.75
332.03	94.75
332.258	101.75
332.486	86.75
332.715	89.75
332.943	89.75
333.172	98.75
333.4	100.75
333.629	91.75
333.857	107.75
334.085	111.75
334.314	95.75
334.542	100.75
334.771	93.75
334.999	96.75
335.227	97.75
335.455	82.75
335.684	103.75
335.912	90.75
336.14	90.75
336.369	95.75
336.597	101.75
336.825	92.75
337.053	84.75
337.281	101.75
337.51	89.75
337.738	88.75
337.966	97.75
338.194	89.75
338.422	97.75
338.65	90.75
338.878	88.75
339.106	94.75
339.334	87.75
339.562	82.75
339.79	83.75
340.018	80.75
340.246	77.75
340.474	95.75
340.702	94.75
340.93	95.75
341.158	98.75
341.386	91.75
341.614	91.75
341.842	78.75
342.07	95.75
342.298	94.75
342.526	95.75
342.754	90.75
342.981	101.75
343.209	83.75
343.437	89.75
343.665	88.75
343.893	98.75
344.12	89.75
344.348	101.75
344.576	97.75
344.804	98.75
345.031	91.75
345.259	107.75
345.487	91.75
345.714	104.75
345.942	105.75
346.17	81.75
346.397	86.75
346.625	108.75
346.853	97.75
347.08	94.75
347.308	105.75
347.535	97.75
347.763	94.75
347.99	97.75
348.218	106.75
348.445	105.75
348.673	99.75
348.9	80.75
349.128	96.75
349.355	98.75
349.583	98.75
349.81	97.75
350.037	98.75
350.265	101.75
350.492	88.75
350.72	93.75
350.947	95.75
351.174	106.75
351.402	103.75
351.629	98.75
351.856	96.75
352.083	103.75
352.311	114.75
352.538	100.75
352.765	109.75
352.992	111.75
353.22	115.75
353.447	101.75
353.674	108.75
353.901	92.75
354.128	108.75
354.355	100.75
354.583	102.75
354.81	94.75
355.037	106.75
355.264	107.75
355.491	126.75
355.718	97.75
355.945	99.75
356.172	96.75
356.399	94.75
356.626	104.75
356.853	106.75
357.08	102.75
357.307	83.75
357.534	106.75
357.761	105.75
357.988	87.75
358.215	89.75
358.441	105.75
358.668	104.75
358.895	100.75
359.122	91.75
359.349	84.75
359.576	99.75
359.802	91.75
360.029	101.75
360.256	95.75
360.483	92.75
360.709	89.75
360.936	86.75
361.163	93.75
361.39	83.75
361.616	84.75
361.843	93.75
362.07	79.75
362.296	89.75
362.523	98.75
362.749	106.75
362.976	95.75
363.203	84.75
363.429	76.75
363.656	92.75
363.882	90.75
364.109	86.75
364.335	107.75
364.562	95.75
364.788	79.75
365.015	89.75
365.241	96.75
365.468	118.75
365.694	91.75
365.92	107.75
366.147	97.75
366.373	103.75
366.599	88.75
366.826	91.75
367.052	71.75
367.278	84.75
367.505	77.75
367.731	83.75
367.957	101.75
368.184	96.75
368.41	98.75
368.636	121.75
368.862	118.75
369.089	103.75
369.315	95.75
369.541	112.75
369.767	80.75
369.993	81.75
370.219	82.75
370.445	102.75
370.672	88.75
370.898	97.75
371.124	81.75
371.35	78.75
371.576	77.75
371.802	74.75
372.028	93.75
372.254	85.75
372.48	90.75
372.706	83.75
372.932	90.75
373.158	88.75
373.384	96.75
373.61	100.75
373.835	95.75
374.061	91.75
374.287	85.75
374.513	83.75
374.739	87.75
374.965	89.75
375.191	84.75
375.416	79.75
375.642	99.75
375.868	91.75
376.094	79.75
376.319	90.75
376.545	83.75
376.771	87.75
376.997	90.75
377.222	94.75
377.448	90.75
377.674	107.75
377.899	89.75
378.125	78.75
378.35	79.75
378.576	83.75
378.802	90.75
379.027	99.75
379.253	95.75
379.478	79.75
379.704	96.75
379.929	99.75
380.155	97.75
380.38	103.75
380.606	88.75
380.831	91.75
381.057	82.75
381.282	104.75
381.507	86.75
381.733	77.75
381.958	102.75
382.184	106.75
382.409	99.75
382.634	104.75
382.86	96.75
383.085	102.75
383.31	114.75
383.535	110.75
383.761	90.75
383.986	106.75
384.211	95.75
384.436	95.75
384.662	109.75
384.887	98.75
385.112	106.75
385.337	101.75
385.562	99.75
385.787	118.75
386.013	112.75
386.238	110.75
386.463	109.75
386.688	125.75
386.913	115.75
387.138	99.75
387.363	121.75
387.588	98.75
387.813	100.75
388.038	115.75
388.263	120.75
388.488	114.75
388.713	86.75
388.938	87.75
389.163	97.75
389.387	97.75
389.612	94.75
389.837	101.75
390.062	97.75
390.287	91.75
390.512	105.75
390.736	77.75
390.961	97.75
391.186	91.75
391.411	96.75
391.636	104.75
391.86	82.75
392.085	97.75
392.31	81.75
392.534	72.75
392.759	82.75
392.984	94.75
393.208	78.75
393.433	79.75
393.658	86.75
393.882	93.75
394.107	90.75
394.331	77.75
394.556	76.75
394.78	82.75
395.005	93.75
395.229	90.75
395.454	101.75
395.678	92.75
395.903	99.75
396.127	93.75
396.352	76.75
396.576	83.75
396.801	90.75
397.025	91.75
397.249	97.75
397.474	93.75
397.698	73.75
397.922	88.75
398.147	100.75
398.371	77.75
398.595	75.75
398.82	94.75
399.044	89.75
399.268	97.75
399.492	93.75
399.717	102.75
399.941	87.75
400.165	97.75
400.389	92.75
400.613	87.75
400.837	89.75
401.062	91.75
401.286	88.75
401.51	86.75
401.734	97.75
401.958	91.75
402.182	132.75
402.406	147.75
402.63	119.75
402.854	90.75
403.078	91.75
403.302	80.75
403.526	96.75
403.75	89.75
403.974	79.75
404.198	92.75
404.422	79.75
404.645	90.75
404.869	81.75
405.093	103.75
405.317	89.75
405.541	98.75
405.765	87.75
405.988	112.75
406.212	155.75
406.436	225.75
406.66	133.75
406.883	90.75
407.107	94.75
407.331	100.75
407.555	94.75
407.778	89.75
408.002	78.75
408.226	95.75
408.449	83.75
408.673	93.75
408.896	89.75
409.12	89.75
409.344	79.75
409.567	90.75
409.791	95.75
410.014	101.75
410.238	86.75
410.461	97.75
410.685	96.75
410.908	89.75
411.132	100.75
411.355	118.75
411.578	91.75
411.802	108.75
412.025	102.75
412.249	98.75
412.472	90.75
412.695	94.75
412.919	95.75
413.142	94.75
413.365	90.75
413.589	94.75
413.812	87.75
414.035	93.75
414.258	95.75
414.482	91.75
414.705	96.75
414.928	90.75
415.151	96.75
415.374	95.75
415.597	85.75
415.821	96.75
416.044	90.75
416.267	84.75
416.49	88.75
416.713	85.75
416.936	81.75
417.159	80.75
417.382	101.75
417.605	90.75
417.828	90.75
418.051	95.75
418.274	94.75
418.497	80.75
418.72	96.75
418.943	99.75
419.166	96.75
419.389	81.75
419.611	100.75
419.834	95.75
420.057	92.75
420.28	86.75
420.503	94.75
420.726	72.75
420.948	82.75
421.171	90.75
421.394	93.75
421.617	75.75
421.839	86.75
422.062	86.75
422.285	89.75
422.507	93.75
422.73	112.75
422.953	105.75
423.175	89.75
423.398	77.75
423.621	94.75
423.843	69.75
424.066	89.75
424.288	88.75
424.511	91.75
424.733	98.75
424.956	105.75
425.178	102.75
425.401	98.75
425.623	98.75
425.846	85.75
426.068	86.75
426.291	80.75
426.513	98.75
426.735	90.75
426.958	92.75
427.18	90.75
427.402	120.75
427.625	135.75
427.847	122.75
428.069	96.75
428.292	85.75
428.514	101.75
428.736	80.75
428.958	79.75
429.181	94.75
429.403	82.75
429.625	90.75
429.847	95.75
430.069	102.75
430.292	80.75
430.514	80.75
430.736	75.75
430.958	85.75
431.18	99.75
431.402	100.75
431.624	86.75
431.846	94.75
432.068	87.75
432.29	87.75
432.512	90.75
432.734	86.75
432.956	97.75
433.178	115.75
433.4	86.75
433.622	105.75
433.844	96.75
434.066	91.75
434.287	100.75
434.509	90.75
434.731	87.75
434.953	104.75
435.175	74.75
435.397	79.75
435.618	84.75
435.84	100.75
436.062	110.75
436.284	112.75
436.505	111.75
436.727	91.75
436.949	90.75
437.17	83.75
437.392	98.75
437.614	101.75
437.835	90.75
438.057	118.75
438.278	99.75
438.5	98.75
438.721	119.75
438.943	91.75
439.165	77.75
439.386	88.75
439.608	81.75
439.829	83.75
440.05	105.75
440.272	136.75
440.493	116.75
440.715	90.75
440.936	96.75
441.158	92.75
441.379	96.75
441.6	92.75
441.822	107.75
442.043	104.75
442.264	98.75
442.486	94.75
442.707	86.75
442.928	91.75
443.149	115.75
443.371	113.75
443.592	86.75
443.813	105.75
444.034	95.75
444.255	96.75
444.476	99.75
444.698	87.75
444.919	93.75
445.14	135.75
445.361	110.75
445.582	107.75
445.803	116.75
446.024	126.75
446.245	131.75
446.466	122.75
446.687	86.75
446.908	76.75
447.129	90.75
447.35	98.75
447.571	86.75
447.792	96.75
448.013	102.75
448.234	103.75
448.455	90.75
448.675	128.75
448.896	112.75
449.117	95.75
449.338	104.75
449.559	129.75
449.779	122.75
450	95.75
450.221	93.75
450.442	87.75
450.662	97.75
450.883	98.75
451.104	105.75
451.324	89.75
451.545	87.75
451.766	81.75
451.986	82.75
452.207	80.75
452.428	75.75
452.648	84.75
452.869	114.75
453.089	112.75
453.31	111.75
453.53	98.75
453.751	85.75
453.971	87.75
454.192	106.75
454.412	96.75
454.633	92.75
454.853	89.75
455.073	90.75
455.294	84.75
455.514	89.75
455.734	65.75
455.955	97.75
456.175	96.75
456.395	75.75
456.616	82.75
456.836	97.75
457.056	96.75
457.276	70.75
457.497	96.75
457.717	95.75
457.937	90.75
458.157	87.75
458.377	81.75
458.598	115.75
458.818	136.75
459.038	156.75
459.258	97.75
459.478	86.75
459.698	106.75
459.918	73.75
460.138	81.75
460.358	94.75
460.578	98.75
460.798	80.75
461.018	89.75
461.238	91.75
461.458	91.75
461.678	72.75
461.898	79.75
462.118	89.75
462.338	80.75
462.558	86.75
462.777	99.75
462.997	86.75
463.217	82.75
463.437	89.75
463.657	84.75
463.876	77.75
464.096	88.75
464.316	92.75
464.536	93.75
464.755	98.75
464.975	124.75
465.195	154.75
465.414	141.75
465.634	103.75
465.854	81.75
466.073	97.75
466.293	92.75
466.512	85.75
466.732	92.75
466.951	86.75
467.171	95.75
467.391	78.75
467.61	103.75
467.829	86.75
468.049	77.75
468.268	89.75
468.488	99.75
468.707	85.75
468.927	77.75
469.146	74.75
469.365	93.75
469.585	90.75
469.804	88.75
470.023	88.75
470.243	88.75
470.462	101.75
470.681	110.75
470.901	97.75
471.12	87.75
471.339	96.75
471.558	93.75
471.777	92.75
471.997	90.75
472.216	90.75
472.435	93.75
472.654	87.75
472.873	82.75
473.092	79.75
473.311	99.75
473.53	102.75
473.749	96.75
473.968	98.75
474.187	108.75
474.406	109.75
474.625	77.75
474.844	83.75
475.063	97.75
475.282	83.75
475.501	110.75
475.72	100.75
475.939	101.75
476.158	80.75
476.377	93.75
476.596	91.75
476.814	90.75
477.033	106.75
477.252	97.75
477.471	98.75
477.69	86.75
477.908	99.75
478.127	91.75
478.346	106.75
478.564	85.75
478.783	84.75
479.002	85.75
479.22	94.75
479.439	111.75
479.658	103.75
479.876	94.75
480.095	109.75
480.313	93.75
480.532	103.75
480.751	80.75
480.969	94.75
481.188	115.75
481.406	104.75
481.624	99.75
481.843	95.75
482.061	81.75
482.28	85.75
482.498	77.75
482.717	78.75
482.935	85.75
483.153	80.75
483.372	84.75
483.59	91.75
483.808	84.75
484.027	90.75
484.245	99.75
484.463	96.75
484.681	86.75
484.9	73.75
485.118	100.75
485.336	94.75
485.554	94.75
485.772	100.75
485.99	109.75
486.209	101.75
486.427	112.75
486.645	102.75
486.863	102.75
487.081	101.75
487.299	95.75
487.517	103.75
487.735	107.75
487.953	97.75
488.171	91.75
488.389	90.75
488.607	107.75
488.825	91.75
489.043	95.75
489.261	88.75
489.479	94.75
489.696	95.75
489.914	92.75
490.132	86.75
490.35	98.75
490.568	95.75
490.786	91.75
491.003	91.75
491.221	101.75
491.439	80.75
491.657	104.75
491.874	104.75
492.092	86.75
492.31	98.75
492.527	92.75
492.745	104.75
492.963	97.75
493.18	97.75
493.398	105.75
493.615	93.75
493.833	100.75
494.05	85.75
494.268	86.75
494.485	83.75
494.703	94.75
494.92	89.75
495.138	87.75
495.355	90.75
495.573	96.75
495.79	100.75
496.008	82.75
496.225	90.75
496.442	91.75
496.66	105.75
496.877	100.75
497.094	84.75
497.312	101.75
497.529	87.75
497.746	92.75
497.963	99.75
498.181	82.75
498.398	96.75
498.615	110.75
498.832	116.75
499.049	86.75
499.267	101.75
499.484	92.75
499.701	92.75
499.918	89.75
500.135	93.75
500.352	87.75
500.569	89.75
500.786	93.75
501.003	88.75
501.22	95.75
501.437	79.75
501.654	97.75
501.871	102.75
502.088	75.75
502.305	85.75
502.522	90.75
502.739	87.75
502.956	99.75
503.172	85.75
503.389	89.75
503.606	104.75
503.823	98.75
504.04	108.75
504.256	99.75
504.473	89.75
504.69	101.75
504.907	92.75
505.123	88.75
505.34	87.75
505.557	89.75
505.773	75.75
505.99	93.75
506.207	93.75
506.423	89.75
506.64	87.75
506.856	85.75
507.073	98.75
507.289	98.75
507.506	94.75
507.722	103.75
507.939	107.75
508.155	106.75
508.372	96.75
508.588	90.75
508.805	89.75
509.021	102.75
509.238	103.75
509.454	104.75
509.67	102.75
509.887	106.75
510.103	121.75
510.319	201.75
510.536	749.75
510.752	2306.75
510.968	649.75
511.184	148.75
511.401	117.75
511.617	88.75
511.833	92.75
512.049	106.75
512.265	103.75
512.481	101.75
512.698	92.75
512.914	80.75
513.13	82.75
513.346	95.75
513.562	97.75
513.778	87.75
513.994	93.75
514.21	102.75
514.426	116.75
514.642	122.75
514.858	125.75
515.074	141.75
515.29	439.75
515.506	1358.75
515.721	498.75
