Data from Uncirc_2003_H10_HRD10591_00068.txt Node
Date: Wed Jan 03 10:36:01 EST 2024
User: Yrep
Spectrometer: HR+D1059
Trigger mode: 1
Integration Time (sec): 1.000000E-1
Scans to average: 1
Electric dark correction enabled: true
Nonlinearity correction enabled: false
Boxcar width: 0
XAxis mode: Wavelengths
Number of Pixels in Spectrum: 2048
>>>>>Begin Spectral Data<<<<<
223.165	-11.88
223.4	-11.88
223.635	-11.88
223.869	-25.88
224.104	-10.88
224.338	-3.88
224.573	-12.88
224.808	-16.88
225.042	-2.88
225.277	3.12
225.511	10.12
225.746	3.12
225.98	-2.88
226.215	5.12
226.449	16.12
226.683	15.12
226.918	10.12
227.152	25.12
227.387	33.12
227.621	45.12
227.856	45.12
228.09	63.12
228.324	51.12
228.559	62.12
228.793	56.12
229.027	65.12
229.262	56.12
229.496	67.12
229.73	60.12
229.964	81.12
230.199	70.12
230.433	66.12
230.667	78.12
230.901	79.12
231.136	81.12
231.37	78.12
231.604	81.12
231.838	71.12
232.072	77.12
232.306	81.12
232.541	79.12
232.775	70.12
233.009	78.12
233.243	79.12
233.477	83.12
233.711	80.12
233.945	91.12
234.179	75.12
234.413	78.12
234.647	85.12
234.881	70.12
235.115	87.12
235.349	72.12
235.583	67.12
235.817	83.12
236.051	86.12
236.285	90.12
236.519	80.12
236.753	85.12
236.987	71.12
237.221	60.12
237.455	73.12
237.689	81.12
237.922	83.12
238.156	78.12
238.39	72.12
238.624	64.12
238.858	77.12
239.091	67.12
239.325	78.12
239.559	75.12
239.793	65.12
240.027	85.12
240.26	80.12
240.494	79.12
240.728	83.12
240.961	81.12
241.195	75.12
241.429	74.12
241.662	76.12
241.896	67.12
242.13	85.12
242.363	72.12
242.597	59.12
242.83	78.12
243.064	76.12
243.298	67.12
243.531	71.12
243.765	72.12
243.998	82.12
244.232	80.12
244.465	86.12
244.699	87.12
244.932	79.12
245.166	78.12
245.399	81.12
245.633	88.12
245.866	80.12
246.099	89.12
246.333	77.12
246.566	65.12
246.8	81.12
247.033	79.12
247.266	85.12
247.5	83.12
247.733	85.12
247.966	89.12
248.2	79.12
248.433	90.12
248.666	82.12
248.899	87.12
249.133	78.12
249.366	92.12
249.599	98.12
249.832	81.12
250.066	80.12
250.299	75.12
250.532	90.12
250.765	81.12
250.998	88.12
251.231	81.12
251.465	87.12
251.698	68.12
251.931	80.12
252.164	67.12
252.397	100.12
252.63	73.12
252.863	74.12
253.096	79.12
253.329	88.12
253.562	82.12
253.795	81.12
254.028	77.12
254.261	71.12
254.494	70.12
254.727	87.12
254.96	69.12
255.193	76.12
255.426	79.12
255.659	66.12
255.892	85.12
256.124	63.12
256.357	80.12
256.59	88.12
256.823	75.12
257.056	87.12
257.289	78.12
257.521	86.12
257.754	86.12
257.987	83.12
258.22	99.12
258.452	73.12
258.685	89.12
258.918	72.12
259.151	79.12
259.383	83.12
259.616	65.12
259.849	84.12
260.081	82.12
260.314	75.12
260.547	88.12
260.779	90.12
261.012	85.12
261.244	102.12
261.477	80.12
261.71	80.12
261.942	115.12
262.175	114.12
262.407	86.12
262.64	80.12
262.872	81.12
263.105	77.12
263.337	69.12
263.57	72.12
263.802	80.12
264.035	87.12
264.267	71.12
264.499	94.12
264.732	96.12
264.964	88.12
265.197	86.12
265.429	81.12
265.661	83.12
265.894	87.12
266.126	78.12
266.358	83.12
266.591	80.12
266.823	77.12
267.055	76.12
267.287	78.12
267.52	96.12
267.752	84.12
267.984	78.12
268.216	71.12
268.448	81.12
268.681	72.12
268.913	93.12
269.145	85.12
269.377	78.12
269.609	73.12
269.841	81.12
270.073	84.12
270.306	89.12
270.538	84.12
270.77	84.12
271.002	80.12
271.234	84.12
271.466	88.12
271.698	84.12
271.93	78.12
272.162	77.12
272.394	92.12
272.626	83.12
272.858	86.12
273.09	98.12
273.322	71.12
273.553	79.12
273.785	89.12
274.017	81.12
274.249	77.12
274.481	87.12
274.713	88.12
274.945	89.12
275.176	93.12
275.408	89.12
275.64	98.12
275.872	85.12
276.104	86.12
276.335	81.12
276.567	84.12
276.799	101.12
277.031	91.12
277.262	82.12
277.494	91.12
277.726	84.12
277.957	81.12
278.189	73.12
278.421	83.12
278.652	76.12
278.884	87.12
279.115	85.12
279.347	81.12
279.579	83.12
279.81	93.12
280.042	88.12
280.273	89.12
280.505	83.12
280.736	93.12
280.968	86.12
281.199	88.12
281.431	94.12
281.662	95.12
281.894	78.12
282.125	86.12
282.356	102.12
282.588	141.12
282.819	121.12
283.051	91.12
283.282	87.12
283.513	83.12
283.745	77.12
283.976	91.12
284.207	96.12
284.439	91.12
284.67	84.12
284.901	75.12
285.132	96.12
285.364	84.12
285.595	88.12
285.826	92.12
286.057	108.12
286.288	86.12
286.52	89.12
286.751	82.12
286.982	81.12
287.213	75.12
287.444	83.12
287.675	88.12
287.906	93.12
288.138	90.12
288.369	98.12
288.6	78.12
288.831	85.12
289.062	89.12
289.293	80.12
289.524	82.12
289.755	88.12
289.986	84.12
290.217	75.12
290.448	79.12
290.679	81.12
290.91	80.12
291.141	93.12
291.371	76.12
291.602	85.12
291.833	92.12
292.064	87.12
292.295	79.12
292.526	85.12
292.757	89.12
292.987	72.12
293.218	95.12
293.449	76.12
293.68	82.12
293.91	91.12
294.141	92.12
294.372	95.12
294.603	84.12
294.833	86.12
295.064	88.12
295.295	96.12
295.525	98.12
295.756	101.12
295.987	111.12
296.217	138.12
296.448	120.12
296.679	80.12
296.909	101.12
297.14	75.12
297.37	83.12
297.601	83.12
297.831	92.12
298.062	83.12
298.292	94.12
298.523	74.12
298.753	81.12
298.984	101.12
299.214	67.12
299.445	98.12
299.675	83.12
299.905	87.12
300.136	79.12
300.366	88.12
300.597	68.12
300.827	94.12
301.057	118.12
301.288	93.12
301.518	93.12
301.748	91.12
301.979	88.12
302.209	86.12
302.439	84.12
302.669	88.12
302.9	93.12
303.13	89.12
303.36	87.12
303.59	103.12
303.82	102.12
304.051	90.12
304.281	96.12
304.511	87.12
304.741	85.12
304.971	73.12
305.201	81.12
305.431	81.12
305.661	81.12
305.891	72.12
306.121	109.12
306.352	91.12
306.582	102.12
306.812	99.12
307.042	85.12
307.272	88.12
307.502	91.12
307.731	105.12
307.961	95.12
308.191	90.12
308.421	91.12
308.651	88.12
308.881	83.12
309.111	97.12
309.341	95.12
309.571	103.12
309.8	97.12
310.03	95.12
310.26	107.12
310.49	91.12
310.72	91.12
310.949	106.12
311.179	105.12
311.409	104.12
311.639	93.12
311.868	98.12
312.098	100.12
312.328	103.12
312.557	93.12
312.787	104.12
313.017	88.12
313.246	92.12
313.476	94.12
313.706	102.12
313.935	101.12
314.165	91.12
314.394	108.12
314.624	95.12
314.853	80.12
315.083	104.12
315.312	104.12
315.542	84.12
315.771	98.12
316.001	97.12
316.23	95.12
316.46	86.12
316.689	91.12
316.919	89.12
317.148	89.12
317.377	92.12
317.607	89.12
317.836	104.12
318.065	88.12
318.295	88.12
318.524	87.12
318.753	83.12
318.983	87.12
319.212	103.12
319.441	104.12
319.67	102.12
319.9	100.12
320.129	95.12
320.358	104.12
320.587	94.12
320.816	101.12
321.046	89.12
321.275	101.12
321.504	93.12
321.733	110.12
321.962	109.12
322.191	100.12
322.42	100.12
322.649	109.12
322.878	123.12
323.108	111.12
323.337	109.12
323.566	134.12
323.795	149.12
324.024	211.12
324.253	422.12
324.482	921.12
324.71	1902.12
324.939	2473.12
325.168	919.12
325.397	259.12
325.626	162.12
325.855	133.12
326.084	134.12
326.313	141.12
326.542	152.12
326.77	247.12
326.999	505.12
327.228	1060.12
327.457	1924.12
327.686	1483.12
327.914	394.12
328.143	206.12
328.372	147.12
328.6	113.12
328.829	112.12
329.058	132.12
329.287	121.12
329.515	111.12
329.744	108.12
329.972	108.12
330.201	100.12
330.43	102.12
330.658	118.12
330.887	139.12
331.115	122.12
331.344	99.12
331.572	99.12
331.801	97.12
332.03	90.12
332.258	91.12
332.486	86.12
332.715	87.12
332.943	89.12
333.172	102.12
333.4	95.12
333.629	102.12
333.857	127.12
334.085	103.12
334.314	71.12
334.542	88.12
334.771	83.12
334.999	81.12
335.227	102.12
335.455	110.12
335.684	93.12
335.912	93.12
336.14	91.12
336.369	89.12
336.597	85.12
336.825	83.12
337.053	95.12
337.281	89.12
337.51	78.12
337.738	111.12
337.966	96.12
338.194	98.12
338.422	89.12
338.65	68.12
338.878	92.12
339.106	83.12
339.334	75.12
339.562	90.12
339.79	78.12
340.018	100.12
340.246	102.12
340.474	92.12
340.702	97.12
340.93	96.12
341.158	95.12
341.386	82.12
341.614	82.12
341.842	90.12
342.07	89.12
342.298	93.12
342.526	108.12
342.754	82.12
342.981	69.12
343.209	87.12
343.437	104.12
343.665	94.12
343.893	88.12
344.12	80.12
344.348	95.12
344.576	82.12
344.804	89.12
345.031	105.12
345.259	102.12
345.487	93.12
345.714	93.12
345.942	97.12
346.17	100.12
346.397	83.12
346.625	89.12
346.853	96.12
347.08	87.12
347.308	91.12
347.535	97.12
347.763	102.12
347.99	85.12
348.218	95.12
348.445	100.12
348.673	87.12
348.9	92.12
349.128	101.12
349.355	90.12
349.583	92.12
349.81	92.12
350.037	99.12
350.265	73.12
350.492	107.12
350.72	102.12
350.947	97.12
351.174	111.12
351.402	107.12
351.629	105.12
351.856	105.12
352.083	83.12
352.311	102.12
352.538	101.12
352.765	117.12
352.992	99.12
353.22	117.12
353.447	104.12
353.674	106.12
353.901	87.12
354.128	110.12
354.355	99.12
354.583	93.12
354.81	96.12
355.037	97.12
355.264	89.12
355.491	96.12
355.718	88.12
355.945	78.12
356.172	84.12
356.399	100.12
356.626	103.12
356.853	100.12
357.08	95.12
357.307	88.12
357.534	95.12
357.761	109.12
357.988	72.12
358.215	87.12
358.441	88.12
358.668	94.12
358.895	89.12
359.122	82.12
359.349	93.12
359.576	95.12
359.802	99.12
360.029	120.12
360.256	107.12
360.483	96.12
360.709	90.12
360.936	95.12
361.163	96.12
361.39	103.12
361.616	86.12
361.843	89.12
362.07	100.12
362.296	88.12
362.523	92.12
362.749	89.12
362.976	89.12
363.203	97.12
363.429	78.12
363.656	71.12
363.882	81.12
364.109	93.12
364.335	92.12
364.562	92.12
364.788	86.12
365.015	96.12
365.241	94.12
365.468	105.12
365.694	87.12
365.92	98.12
366.147	91.12
366.373	99.12
366.599	110.12
366.826	79.12
367.052	85.12
367.278	97.12
367.505	88.12
367.731	85.12
367.957	84.12
368.184	88.12
368.41	96.12
368.636	108.12
368.862	112.12
369.089	104.12
369.315	89.12
369.541	102.12
369.767	94.12
369.993	99.12
370.219	80.12
370.445	83.12
370.672	97.12
370.898	89.12
371.124	94.12
371.35	79.12
371.576	87.12
371.802	74.12
372.028	94.12
372.254	78.12
372.48	84.12
372.706	92.12
372.932	98.12
373.158	89.12
373.384	103.12
373.61	84.12
373.835	78.12
374.061	74.12
374.287	86.12
374.513	95.12
374.739	75.12
374.965	88.12
375.191	92.12
375.416	87.12
375.642	96.12
375.868	86.12
376.094	82.12
376.319	84.12
376.545	76.12
376.771	74.12
376.997	111.12
377.222	91.12
377.448	89.12
377.674	78.12
377.899	95.12
378.125	94.12
378.35	93.12
378.576	95.12
378.802	83.12
379.027	94.12
379.253	83.12
379.478	87.12
379.704	94.12
379.929	92.12
380.155	99.12
380.38	98.12
380.606	101.12
380.831	89.12
381.057	91.12
381.282	103.12
381.507	96.12
381.733	88.12
381.958	96.12
382.184	100.12
382.409	109.12
382.634	105.12
382.86	106.12
383.085	104.12
383.31	112.12
383.535	89.12
383.761	101.12
383.986	107.12
384.211	92.12
384.436	88.12
384.662	96.12
384.887	108.12
385.112	97.12
385.337	104.12
385.562	101.12
385.787	99.12
386.013	116.12
386.238	117.12
386.463	107.12
386.688	114.12
386.913	103.12
387.138	102.12
387.363	101.12
387.588	90.12
387.813	96.12
388.038	104.12
388.263	106.12
388.488	99.12
388.713	89.12
388.938	88.12
389.163	92.12
389.387	96.12
389.612	91.12
389.837	88.12
390.062	80.12
390.287	85.12
390.512	94.12
390.736	94.12
390.961	83.12
391.186	102.12
391.411	86.12
391.636	89.12
391.86	85.12
392.085	87.12
392.31	85.12
392.534	85.12
392.759	89.12
392.984	84.12
393.208	82.12
393.433	101.12
393.658	94.12
393.882	90.12
394.107	83.12
394.331	85.12
394.556	94.12
394.78	95.12
395.005	90.12
395.229	77.12
395.454	93.12
395.678	88.12
395.903	94.12
396.127	80.12
396.352	69.12
396.576	80.12
396.801	87.12
397.025	77.12
397.249	93.12
397.474	86.12
397.698	82.12
397.922	84.12
398.147	78.12
398.371	94.12
398.595	87.12
398.82	89.12
399.044	86.12
399.268	80.12
399.492	80.12
399.717	89.12
399.941	88.12
400.165	90.12
400.389	97.12
400.613	85.12
400.837	84.12
401.062	85.12
401.286	87.12
401.51	81.12
401.734	95.12
401.958	101.12
402.182	134.12
402.406	158.12
402.63	115.12
402.854	97.12
403.078	79.12
403.302	95.12
403.526	93.12
403.75	82.12
403.974	79.12
404.198	85.12
404.422	100.12
404.645	94.12
404.869	71.12
405.093	98.12
405.317	105.12
405.541	88.12
405.765	109.12
405.988	125.12
406.212	180.12
406.436	222.12
406.66	142.12
406.883	96.12
407.107	90.12
407.331	84.12
407.555	92.12
407.778	99.12
408.002	93.12
408.226	74.12
408.449	91.12
408.673	99.12
408.896	100.12
409.12	105.12
409.344	75.12
409.567	89.12
409.791	90.12
410.014	95.12
410.238	96.12
410.461	88.12
410.685	105.12
410.908	103.12
411.132	111.12
411.355	94.12
411.578	97.12
411.802	87.12
412.025	85.12
412.249	79.12
412.472	83.12
412.695	103.12
412.919	84.12
413.142	82.12
413.365	83.12
413.589	84.12
413.812	80.12
414.035	102.12
414.258	94.12
414.482	82.12
414.705	89.12
414.928	73.12
415.151	84.12
415.374	83.12
415.597	87.12
415.821	76.12
416.044	93.12
416.267	87.12
416.49	94.12
416.713	84.12
416.936	79.12
417.159	77.12
417.382	95.12
417.605	92.12
417.828	83.12
418.051	83.12
418.274	86.12
418.497	89.12
418.72	81.12
418.943	83.12
419.166	77.12
419.389	94.12
419.611	98.12
419.834	90.12
420.057	99.12
420.28	85.12
420.503	79.12
420.726	93.12
420.948	99.12
421.171	95.12
421.394	80.12
421.617	92.12
421.839	87.12
422.062	98.12
422.285	94.12
422.507	98.12
422.73	106.12
422.953	101.12
423.175	88.12
423.398	81.12
423.621	88.12
423.843	87.12
424.066	78.12
424.288	90.12
424.511	93.12
424.733	87.12
424.956	102.12
425.178	79.12
425.401	90.12
425.623	100.12
425.846	97.12
426.068	95.12
426.291	91.12
426.513	81.12
426.735	80.12
426.958	88.12
427.18	106.12
427.402	138.12
427.625	169.12
427.847	109.12
428.069	96.12
428.292	71.12
428.514	81.12
428.736	82.12
428.958	79.12
429.181	87.12
429.403	81.12
429.625	91.12
429.847	75.12
430.069	111.12
430.292	92.12
430.514	69.12
430.736	94.12
430.958	89.12
431.18	80.12
431.402	88.12
431.624	100.12
431.846	93.12
432.068	86.12
432.29	87.12
432.512	88.12
432.734	96.12
432.956	92.12
433.178	94.12
433.4	103.12
433.622	91.12
433.844	84.12
434.066	104.12
434.287	98.12
434.509	86.12
434.731	91.12
434.953	77.12
435.175	78.12
435.397	95.12
435.618	83.12
435.84	96.12
436.062	114.12
436.284	116.12
436.505	92.12
436.727	96.12
436.949	98.12
437.17	97.12
437.392	87.12
437.614	86.12
437.835	100.12
438.057	104.12
438.278	105.12
438.5	103.12
438.721	127.12
438.943	103.12
439.165	97.12
439.386	102.12
439.608	90.12
439.829	110.12
440.05	109.12
440.272	128.12
440.493	91.12
440.715	93.12
440.936	83.12
441.158	79.12
441.379	81.12
441.6	102.12
441.822	98.12
442.043	92.12
442.264	103.12
442.486	96.12
442.707	75.12
442.928	108.12
443.149	114.12
443.371	126.12
443.592	100.12
443.813	107.12
444.034	109.12
444.255	100.12
444.476	79.12
444.698	72.12
444.919	91.12
445.14	140.12
445.361	130.12
445.582	116.12
445.803	115.12
446.024	120.12
446.245	131.12
446.466	131.12
446.687	95.12
446.908	78.12
447.129	101.12
447.35	90.12
447.571	92.12
447.792	84.12
448.013	94.12
448.234	111.12
448.455	99.12
448.675	103.12
448.896	103.12
449.117	100.12
449.338	105.12
449.559	123.12
449.779	131.12
450	99.12
450.221	95.12
450.442	94.12
450.662	91.12
450.883	115.12
451.104	115.12
451.324	83.12
451.545	80.12
451.766	89.12
451.986	68.12
452.207	96.12
452.428	99.12
452.648	96.12
452.869	96.12
453.089	112.12
453.31	104.12
453.53	76.12
453.751	90.12
453.971	103.12
454.192	98.12
454.412	85.12
454.633	81.12
454.853	75.12
455.073	76.12
455.294	68.12
455.514	99.12
455.734	85.12
455.955	63.12
456.175	86.12
456.395	83.12
456.616	77.12
456.836	81.12
457.056	81.12
457.276	79.12
457.497	94.12
457.717	83.12
457.937	88.12
458.157	87.12
458.377	85.12
458.598	102.12
458.818	143.12
459.038	170.12
459.258	92.12
459.478	93.12
459.698	82.12
459.918	102.12
460.138	82.12
460.358	87.12
460.578	70.12
460.798	87.12
461.018	84.12
461.238	84.12
461.458	95.12
461.678	94.12
461.898	79.12
462.118	91.12
462.338	89.12
462.558	84.12
462.777	98.12
462.997	71.12
463.217	75.12
463.437	76.12
463.657	87.12
463.876	78.12
464.096	95.12
464.316	96.12
464.536	102.12
464.755	85.12
464.975	119.12
465.195	172.12
465.414	149.12
465.634	87.12
465.854	90.12
466.073	89.12
466.293	103.12
466.512	77.12
466.732	95.12
466.951	95.12
467.171	82.12
467.391	85.12
467.61	109.12
467.829	101.12
468.049	86.12
468.268	81.12
468.488	78.12
468.707	74.12
468.927	98.12
469.146	91.12
469.365	89.12
469.585	102.12
469.804	92.12
470.023	86.12
470.243	97.12
470.462	107.12
470.681	113.12
470.901	104.12
471.12	91.12
471.339	81.12
471.558	83.12
471.777	83.12
471.997	88.12
472.216	72.12
472.435	95.12
472.654	79.12
472.873	98.12
473.092	95.12
473.311	90.12
473.53	75.12
473.749	86.12
473.968	105.12
474.187	100.12
474.406	94.12
474.625	81.12
474.844	86.12
475.063	104.12
475.282	94.12
475.501	91.12
475.72	86.12
475.939	89.12
476.158	75.12
476.377	95.12
476.596	88.12
476.814	85.12
477.033	82.12
477.252	72.12
477.471	81.12
477.69	89.12
477.908	88.12
478.127	77.12
478.346	86.12
478.564	80.12
478.783	103.12
479.002	88.12
479.22	95.12
479.439	95.12
479.658	96.12
479.876	102.12
480.095	82.12
480.313	93.12
480.532	86.12
480.751	80.12
480.969	91.12
481.188	92.12
481.406	86.12
481.624	93.12
481.843	85.12
482.061	91.12
482.28	78.12
482.498	86.12
482.717	82.12
482.935	98.12
483.153	90.12
483.372	84.12
483.59	96.12
483.808	91.12
484.027	84.12
484.245	93.12
484.463	86.12
484.681	89.12
484.9	82.12
485.118	93.12
485.336	105.12
485.554	100.12
485.772	111.12
485.99	110.12
486.209	86.12
486.427	112.12
486.645	101.12
486.863	111.12
487.081	107.12
487.299	95.12
487.517	85.12
487.735	97.12
487.953	96.12
488.171	96.12
488.389	80.12
488.607	95.12
488.825	97.12
489.043	79.12
489.261	96.12
489.479	89.12
489.696	71.12
489.914	97.12
490.132	102.12
490.35	76.12
490.568	90.12
490.786	83.12
491.003	88.12
491.221	84.12
491.439	83.12
491.657	83.12
491.874	98.12
492.092	77.12
492.31	87.12
492.527	96.12
492.745	86.12
492.963	84.12
493.18	91.12
493.398	94.12
493.615	74.12
493.833	103.12
494.05	80.12
494.268	85.12
494.485	81.12
494.703	85.12
494.92	89.12
495.138	90.12
495.355	78.12
495.573	103.12
495.79	94.12
496.008	91.12
496.225	88.12
496.442	99.12
496.66	81.12
496.877	78.12
497.094	104.12
497.312	100.12
497.529	79.12
497.746	92.12
497.963	93.12
498.181	88.12
498.398	95.12
498.615	114.12
498.832	100.12
499.049	86.12
499.267	91.12
499.484	92.12
499.701	93.12
499.918	92.12
500.135	92.12
500.352	94.12
500.569	81.12
500.786	87.12
501.003	84.12
501.22	84.12
501.437	72.12
501.654	84.12
501.871	115.12
502.088	87.12
502.305	84.12
502.522	97.12
502.739	96.12
502.956	96.12
503.172	87.12
503.389	66.12
503.606	105.12
503.823	99.12
504.04	107.12
504.256	88.12
504.473	89.12
504.69	99.12
504.907	99.12
505.123	79.12
505.34	88.12
505.557	88.12
505.773	88.12
505.99	102.12
506.207	100.12
506.423	81.12
506.64	86.12
506.856	91.12
507.073	95.12
507.289	103.12
507.506	91.12
507.722	111.12
507.939	102.12
508.155	92.12
508.372	89.12
508.588	87.12
508.805	92.12
509.021	104.12
509.238	97.12
509.454	88.12
509.67	109.12
509.887	114.12
510.103	132.12
510.319	212.12
510.536	780.12
510.752	2575.12
510.968	725.12
511.184	154.12
511.401	127.12
511.617	101.12
511.833	90.12
512.049	87.12
512.265	87.12
512.481	102.12
512.698	84.12
512.914	91.12
513.13	84.12
513.346	90.12
513.562	99.12
513.778	101.12
513.994	94.12
514.21	108.12
514.426	124.12
514.642	126.12
514.858	118.12
515.074	152.12
515.29	461.12
515.506	1520.12
515.721	549.12
515.937	144.12
