Data from Uncirc_2003_H10_HRD10591_00046.txt Node
Date: Wed Jan 03 10:35:57 EST 2024
User: Yrep
Spectrometer: HR+D1059
Trigger mode: 1
Integration Time (sec): 1.000000E-1
Scans to average: 1
Electric dark correction enabled: true
Nonlinearity correction enabled: false
Boxcar width: 0
XAxis mode: Wavelengths
Number of Pixels in Spectrum: 2048
>>>>>Begin Spectral Data<<<<<
223.165	-6.94
223.4	-6.94
223.635	-6.94
223.869	-28.94
224.104	-24.94
224.338	-20.94
224.573	-12.94
224.808	-4.94
225.042	-2.94
225.277	-15.94
225.511	-12.94
225.746	-4.94
225.98	7.06
226.215	19.06
226.449	22.06
226.683	28.06
226.918	27.06
227.152	33.06
227.387	19.06
227.621	44.06
227.856	53.06
228.09	46.06
228.324	50.06
228.559	61.06
228.793	58.06
229.027	67.06
229.262	75.06
229.496	76.06
229.73	82.06
229.964	79.06
230.199	86.06
230.433	83.06
230.667	82.06
230.901	92.06
231.136	61.06
231.37	83.06
231.604	75.06
231.838	81.06
232.072	74.06
232.306	79.06
232.541	77.06
232.775	78.06
233.009	86.06
233.243	76.06
233.477	83.06
233.711	89.06
233.945	64.06
234.179	79.06
234.413	79.06
234.647	72.06
234.881	68.06
235.115	71.06
235.349	57.06
235.583	66.06
235.817	69.06
236.051	76.06
236.285	92.06
236.519	73.06
236.753	68.06
236.987	70.06
237.221	78.06
237.455	86.06
237.689	70.06
237.922	85.06
238.156	72.06
238.39	71.06
238.624	68.06
238.858	63.06
239.091	82.06
239.325	74.06
239.559	77.06
239.793	64.06
240.027	100.06
240.26	78.06
240.494	82.06
240.728	80.06
240.961	75.06
241.195	81.06
241.429	74.06
241.662	76.06
241.896	72.06
242.13	73.06
242.363	72.06
242.597	75.06
242.83	83.06
243.064	77.06
243.298	72.06
243.531	61.06
243.765	69.06
243.998	80.06
244.232	68.06
244.465	80.06
244.699	87.06
244.932	72.06
245.166	77.06
245.399	96.06
245.633	68.06
245.866	68.06
246.099	75.06
246.333	86.06
246.566	78.06
246.8	70.06
247.033	70.06
247.266	73.06
247.5	84.06
247.733	76.06
247.966	91.06
248.2	69.06
248.433	83.06
248.666	89.06
248.899	84.06
249.133	89.06
249.366	90.06
249.599	83.06
249.832	64.06
250.066	74.06
250.299	73.06
250.532	75.06
250.765	103.06
250.998	82.06
251.231	67.06
251.465	78.06
251.698	80.06
251.931	86.06
252.164	88.06
252.397	81.06
252.63	80.06
252.863	70.06
253.096	87.06
253.329	96.06
253.562	85.06
253.795	84.06
254.028	87.06
254.261	74.06
254.494	80.06
254.727	82.06
254.96	75.06
255.193	76.06
255.426	75.06
255.659	86.06
255.892	64.06
256.124	88.06
256.357	83.06
256.59	85.06
256.823	70.06
257.056	83.06
257.289	87.06
257.521	81.06
257.754	72.06
257.987	70.06
258.22	81.06
258.452	85.06
258.685	69.06
258.918	79.06
259.151	72.06
259.383	79.06
259.616	89.06
259.849	82.06
260.081	88.06
260.314	71.06
260.547	93.06
260.779	80.06
261.012	89.06
261.244	81.06
261.477	90.06
261.71	83.06
261.942	109.06
262.175	103.06
262.407	96.06
262.64	74.06
262.872	77.06
263.105	92.06
263.337	80.06
263.57	75.06
263.802	80.06
264.035	75.06
264.267	91.06
264.499	72.06
264.732	88.06
264.964	81.06
265.197	92.06
265.429	80.06
265.661	86.06
265.894	71.06
266.126	84.06
266.358	88.06
266.591	77.06
266.823	82.06
267.055	71.06
267.287	79.06
267.52	83.06
267.752	89.06
267.984	68.06
268.216	69.06
268.448	73.06
268.681	92.06
268.913	95.06
269.145	82.06
269.377	81.06
269.609	70.06
269.841	98.06
270.073	84.06
270.306	76.06
270.538	87.06
270.77	85.06
271.002	72.06
271.234	83.06
271.466	84.06
271.698	91.06
271.93	75.06
272.162	69.06
272.394	85.06
272.626	81.06
272.858	88.06
273.09	95.06
273.322	96.06
273.553	83.06
273.785	87.06
274.017	81.06
274.249	90.06
274.481	81.06
274.713	90.06
274.945	71.06
275.176	78.06
275.408	93.06
275.64	79.06
275.872	98.06
276.104	70.06
276.335	63.06
276.567	94.06
276.799	101.06
277.031	101.06
277.262	97.06
277.494	90.06
277.726	75.06
277.957	74.06
278.189	81.06
278.421	78.06
278.652	88.06
278.884	83.06
279.115	92.06
279.347	89.06
279.579	83.06
279.81	84.06
280.042	77.06
280.273	73.06
280.505	75.06
280.736	86.06
280.968	80.06
281.199	90.06
281.431	94.06
281.662	87.06
281.894	88.06
282.125	83.06
282.356	110.06
282.588	131.06
282.819	105.06
283.051	87.06
283.282	72.06
283.513	95.06
283.745	82.06
283.976	103.06
284.207	94.06
284.439	82.06
284.67	85.06
284.901	90.06
285.132	89.06
285.364	75.06
285.595	86.06
285.826	85.06
286.057	73.06
286.288	87.06
286.52	104.06
286.751	85.06
286.982	89.06
287.213	83.06
287.444	82.06
287.675	98.06
287.906	79.06
288.138	93.06
288.369	108.06
288.6	77.06
288.831	80.06
289.062	97.06
289.293	81.06
289.524	75.06
289.755	88.06
289.986	91.06
290.217	92.06
290.448	88.06
290.679	75.06
290.91	99.06
291.141	82.06
291.371	85.06
291.602	92.06
291.833	78.06
292.064	97.06
292.295	86.06
292.526	87.06
292.757	91.06
292.987	88.06
293.218	89.06
293.449	79.06
293.68	98.06
293.91	88.06
294.141	97.06
294.372	68.06
294.603	80.06
294.833	95.06
295.064	91.06
295.295	71.06
295.525	93.06
295.756	105.06
295.987	105.06
296.217	136.06
296.448	114.06
296.679	96.06
296.909	85.06
297.14	80.06
297.37	85.06
297.601	98.06
297.831	81.06
298.062	89.06
298.292	88.06
298.523	102.06
298.753	97.06
298.984	112.06
299.214	90.06
299.445	81.06
299.675	89.06
299.905	101.06
300.136	91.06
300.366	75.06
300.597	104.06
300.827	100.06
301.057	97.06
301.288	101.06
301.518	89.06
301.748	89.06
301.979	87.06
302.209	85.06
302.439	85.06
302.669	92.06
302.9	89.06
303.13	87.06
303.36	99.06
303.59	95.06
303.82	97.06
304.051	86.06
304.281	89.06
304.511	85.06
304.741	96.06
304.971	74.06
305.201	77.06
305.431	100.06
305.661	84.06
305.891	89.06
306.121	91.06
306.352	104.06
306.582	110.06
306.812	95.06
307.042	83.06
307.272	97.06
307.502	90.06
307.731	93.06
307.961	98.06
308.191	82.06
308.421	82.06
308.651	98.06
308.881	82.06
309.111	101.06
309.341	102.06
309.571	110.06
309.8	89.06
310.03	93.06
310.26	68.06
310.49	87.06
310.72	84.06
310.949	112.06
311.179	89.06
311.409	95.06
311.639	97.06
311.868	101.06
312.098	91.06
312.328	105.06
312.557	102.06
312.787	99.06
313.017	98.06
313.246	93.06
313.476	88.06
313.706	101.06
313.935	85.06
314.165	88.06
314.394	91.06
314.624	104.06
314.853	91.06
315.083	91.06
315.312	88.06
315.542	85.06
315.771	89.06
316.001	85.06
316.23	95.06
316.46	95.06
316.689	87.06
316.919	95.06
317.148	95.06
317.377	96.06
317.607	84.06
317.836	110.06
318.065	86.06
318.295	112.06
318.524	100.06
318.753	93.06
318.983	85.06
319.212	109.06
319.441	101.06
319.67	114.06
319.9	83.06
320.129	84.06
320.358	82.06
320.587	92.06
320.816	79.06
321.046	102.06
321.275	94.06
321.504	99.06
321.733	93.06
321.962	102.06
322.191	93.06
322.42	87.06
322.649	110.06
322.878	128.06
323.108	123.06
323.337	127.06
323.566	141.06
323.795	157.06
324.024	227.06
324.253	443.06
324.482	903.06
324.71	1900.06
324.939	2544.06
325.168	875.06
325.397	261.06
325.626	158.06
325.855	143.06
326.084	134.06
326.313	127.06
326.542	170.06
326.77	253.06
326.999	513.06
327.228	1071.06
327.457	1924.06
327.686	1471.06
327.914	395.06
328.143	209.06
328.372	153.06
328.6	129.06
328.829	107.06
329.058	117.06
329.287	112.06
329.515	113.06
329.744	104.06
329.972	112.06
330.201	107.06
330.43	110.06
330.658	117.06
330.887	153.06
331.115	123.06
331.344	98.06
331.572	97.06
331.801	118.06
332.03	105.06
332.258	92.06
332.486	93.06
332.715	110.06
332.943	85.06
333.172	80.06
333.4	91.06
333.629	94.06
333.857	109.06
334.085	101.06
334.314	87.06
334.542	110.06
334.771	106.06
334.999	100.06
335.227	106.06
335.455	79.06
335.684	88.06
335.912	102.06
336.14	104.06
336.369	87.06
336.597	93.06
336.825	99.06
337.053	95.06
337.281	83.06
337.51	93.06
337.738	98.06
337.966	83.06
338.194	99.06
338.422	103.06
338.65	97.06
338.878	86.06
339.106	93.06
339.334	89.06
339.562	83.06
339.79	99.06
340.018	89.06
340.246	84.06
340.474	96.06
340.702	88.06
340.93	88.06
341.158	88.06
341.386	88.06
341.614	93.06
341.842	89.06
342.07	88.06
342.298	76.06
342.526	91.06
342.754	101.06
342.981	102.06
343.209	89.06
343.437	94.06
343.665	85.06
343.893	104.06
344.12	91.06
344.348	72.06
344.576	89.06
344.804	89.06
345.031	96.06
345.259	96.06
345.487	89.06
345.714	79.06
345.942	86.06
346.17	99.06
346.397	93.06
346.625	100.06
346.853	92.06
347.08	88.06
347.308	98.06
347.535	94.06
347.763	95.06
347.99	101.06
348.218	93.06
348.445	106.06
348.673	93.06
348.9	87.06
349.128	99.06
349.355	94.06
349.583	99.06
349.81	88.06
350.037	100.06
350.265	107.06
350.492	73.06
350.72	82.06
350.947	104.06
351.174	103.06
351.402	113.06
351.629	100.06
351.856	112.06
352.083	107.06
352.311	109.06
352.538	101.06
352.765	85.06
352.992	107.06
353.22	106.06
353.447	96.06
353.674	108.06
353.901	101.06
354.128	86.06
354.355	93.06
354.583	95.06
354.81	94.06
355.037	86.06
355.264	99.06
355.491	95.06
355.718	100.06
355.945	94.06
356.172	96.06
356.399	94.06
356.626	98.06
356.853	86.06
357.08	78.06
357.307	85.06
357.534	85.06
357.761	92.06
357.988	95.06
358.215	101.06
358.441	99.06
358.668	103.06
358.895	87.06
359.122	95.06
359.349	80.06
359.576	85.06
359.802	108.06
360.029	112.06
360.256	96.06
360.483	89.06
360.709	95.06
360.936	90.06
361.163	87.06
361.39	83.06
361.616	87.06
361.843	92.06
362.07	94.06
362.296	84.06
362.523	94.06
362.749	101.06
362.976	93.06
363.203	92.06
363.429	90.06
363.656	87.06
363.882	84.06
364.109	88.06
364.335	95.06
364.562	89.06
364.788	91.06
365.015	86.06
365.241	100.06
365.468	102.06
365.694	111.06
365.92	99.06
366.147	90.06
366.373	96.06
366.599	95.06
366.826	92.06
367.052	80.06
367.278	91.06
367.505	85.06
367.731	95.06
367.957	86.06
368.184	76.06
368.41	84.06
368.636	119.06
368.862	128.06
369.089	106.06
369.315	95.06
369.541	87.06
369.767	85.06
369.993	89.06
370.219	87.06
370.445	110.06
370.672	72.06
370.898	85.06
371.124	100.06
371.35	89.06
371.576	101.06
371.802	92.06
372.028	85.06
372.254	70.06
372.48	81.06
372.706	93.06
372.932	100.06
373.158	95.06
373.384	102.06
373.61	98.06
373.835	79.06
374.061	82.06
374.287	91.06
374.513	67.06
374.739	90.06
374.965	100.06
375.191	94.06
375.416	105.06
375.642	88.06
375.868	101.06
376.094	92.06
376.319	91.06
376.545	85.06
376.771	88.06
376.997	94.06
377.222	76.06
377.448	82.06
377.674	80.06
377.899	84.06
378.125	95.06
378.35	86.06
378.576	76.06
378.802	78.06
379.027	90.06
379.253	77.06
379.478	93.06
379.704	99.06
379.929	88.06
380.155	94.06
380.38	85.06
380.606	97.06
380.831	82.06
381.057	97.06
381.282	83.06
381.507	104.06
381.733	91.06
381.958	87.06
382.184	94.06
382.409	86.06
382.634	102.06
382.86	104.06
383.085	87.06
383.31	105.06
383.535	118.06
383.761	99.06
383.986	103.06
384.211	82.06
384.436	92.06
384.662	89.06
384.887	100.06
385.112	86.06
385.337	111.06
385.562	111.06
385.787	109.06
386.013	104.06
386.238	125.06
386.463	101.06
386.688	109.06
386.913	96.06
387.138	116.06
387.363	112.06
387.588	96.06
387.813	112.06
388.038	90.06
388.263	115.06
388.488	109.06
388.713	101.06
388.938	84.06
389.163	93.06
389.387	86.06
389.612	93.06
389.837	99.06
390.062	109.06
390.287	94.06
390.512	89.06
390.736	97.06
390.961	94.06
391.186	98.06
391.411	99.06
391.636	92.06
391.86	83.06
392.085	74.06
392.31	82.06
392.534	77.06
392.759	75.06
392.984	83.06
393.208	78.06
393.433	89.06
393.658	81.06
393.882	80.06
394.107	82.06
394.331	95.06
394.556	89.06
394.78	96.06
395.005	93.06
395.229	98.06
395.454	86.06
395.678	87.06
395.903	102.06
396.127	100.06
396.352	93.06
396.576	89.06
396.801	88.06
397.025	84.06
397.249	84.06
397.474	103.06
397.698	76.06
397.922	91.06
398.147	70.06
398.371	101.06
398.595	91.06
398.82	76.06
399.044	93.06
399.268	100.06
399.492	71.06
399.717	83.06
399.941	86.06
400.165	101.06
400.389	91.06
400.613	78.06
400.837	88.06
401.062	93.06
401.286	85.06
401.51	77.06
401.734	89.06
401.958	115.06
402.182	133.06
402.406	158.06
402.63	112.06
402.854	89.06
403.078	88.06
403.302	86.06
403.526	77.06
403.75	87.06
403.974	84.06
404.198	79.06
404.422	85.06
404.645	82.06
404.869	93.06
405.093	107.06
405.317	101.06
405.541	96.06
405.765	97.06
405.988	126.06
406.212	171.06
406.436	234.06
406.66	149.06
406.883	109.06
407.107	96.06
407.331	111.06
407.555	100.06
407.778	97.06
408.002	103.06
408.226	96.06
408.449	84.06
408.673	90.06
408.896	95.06
409.12	100.06
409.344	100.06
409.567	87.06
409.791	79.06
410.014	88.06
410.238	93.06
410.461	95.06
410.685	94.06
410.908	103.06
411.132	105.06
411.355	87.06
411.578	99.06
411.802	79.06
412.025	77.06
412.249	101.06
412.472	95.06
412.695	92.06
412.919	87.06
413.142	79.06
413.365	81.06
413.589	83.06
413.812	80.06
414.035	82.06
414.258	87.06
414.482	84.06
414.705	78.06
414.928	95.06
415.151	87.06
415.374	84.06
415.597	91.06
415.821	87.06
416.044	83.06
416.267	78.06
416.49	82.06
416.713	94.06
416.936	95.06
417.159	88.06
417.382	87.06
417.605	94.06
417.828	95.06
418.051	87.06
418.274	80.06
418.497	93.06
418.72	76.06
418.943	89.06
419.166	99.06
419.389	88.06
419.611	94.06
419.834	103.06
420.057	94.06
420.28	79.06
420.503	93.06
420.726	90.06
420.948	87.06
421.171	93.06
421.394	78.06
421.617	96.06
421.839	92.06
422.062	78.06
422.285	95.06
422.507	97.06
422.73	105.06
422.953	97.06
423.175	84.06
423.398	68.06
423.621	85.06
423.843	79.06
424.066	82.06
424.288	75.06
424.511	83.06
424.733	93.06
424.956	97.06
425.178	76.06
425.401	100.06
425.623	86.06
425.846	80.06
426.068	87.06
426.291	88.06
426.513	96.06
426.735	92.06
426.958	89.06
427.18	103.06
427.402	136.06
427.625	148.06
427.847	129.06
428.069	105.06
428.292	89.06
428.514	99.06
428.736	87.06
428.958	70.06
429.181	70.06
429.403	95.06
429.625	76.06
429.847	104.06
430.069	111.06
430.292	94.06
430.514	87.06
430.736	85.06
430.958	91.06
431.18	99.06
431.402	79.06
431.624	73.06
431.846	89.06
432.068	87.06
432.29	81.06
432.512	85.06
432.734	94.06
432.956	97.06
433.178	92.06
433.4	90.06
433.622	95.06
433.844	74.06
434.066	95.06
434.287	95.06
434.509	89.06
434.731	80.06
434.953	94.06
435.175	84.06
435.397	86.06
435.618	102.06
435.84	106.06
436.062	135.06
436.284	116.06
436.505	101.06
436.727	100.06
436.949	88.06
437.17	85.06
437.392	93.06
437.614	99.06
437.835	97.06
438.057	114.06
438.278	99.06
438.5	109.06
438.721	121.06
438.943	89.06
439.165	87.06
439.386	88.06
439.608	89.06
439.829	105.06
440.05	112.06
440.272	128.06
440.493	95.06
440.715	89.06
440.936	86.06
441.158	87.06
441.379	87.06
441.6	81.06
441.822	99.06
442.043	97.06
442.264	87.06
442.486	101.06
442.707	85.06
442.928	100.06
443.149	115.06
443.371	127.06
443.592	104.06
443.813	109.06
444.034	98.06
444.255	91.06
444.476	93.06
444.698	92.06
444.919	82.06
445.14	144.06
445.361	137.06
445.582	110.06
445.803	143.06
446.024	127.06
446.245	121.06
446.466	100.06
446.687	87.06
446.908	90.06
447.129	83.06
447.35	83.06
447.571	101.06
447.792	95.06
448.013	102.06
448.234	104.06
448.455	96.06
448.675	87.06
448.896	109.06
449.117	96.06
449.338	96.06
449.559	120.06
449.779	111.06
450	98.06
450.221	89.06
450.442	91.06
450.662	101.06
450.883	108.06
451.104	107.06
451.324	99.06
451.545	99.06
451.766	83.06
451.986	86.06
452.207	91.06
452.428	93.06
452.648	89.06
452.869	105.06
453.089	112.06
453.31	107.06
453.53	105.06
453.751	99.06
453.971	102.06
454.192	119.06
454.412	92.06
454.633	83.06
454.853	86.06
455.073	95.06
455.294	81.06
455.514	92.06
455.734	100.06
455.955	74.06
456.175	83.06
456.395	97.06
456.616	87.06
456.836	80.06
457.056	86.06
457.276	93.06
457.497	92.06
457.717	89.06
457.937	79.06
458.157	92.06
458.377	84.06
458.598	113.06
458.818	167.06
459.038	147.06
459.258	111.06
459.478	101.06
459.698	82.06
459.918	93.06
460.138	70.06
460.358	81.06
460.578	80.06
460.798	84.06
461.018	94.06
461.238	85.06
461.458	90.06
461.678	84.06
461.898	80.06
462.118	77.06
462.338	101.06
462.558	78.06
462.777	78.06
462.997	94.06
463.217	92.06
463.437	94.06
463.657	87.06
463.876	91.06
464.096	70.06
464.316	86.06
464.536	92.06
464.755	112.06
464.975	97.06
465.195	147.06
465.414	145.06
465.634	96.06
465.854	81.06
466.073	76.06
466.293	82.06
466.512	89.06
466.732	75.06
466.951	87.06
467.171	96.06
467.391	88.06
467.61	110.06
467.829	86.06
468.049	83.06
468.268	81.06
468.488	85.06
468.707	85.06
468.927	76.06
469.146	88.06
469.365	71.06
469.585	73.06
469.804	90.06
470.023	96.06
470.243	99.06
470.462	102.06
470.681	116.06
470.901	88.06
471.12	73.06
471.339	93.06
471.558	88.06
471.777	93.06
471.997	91.06
472.216	80.06
472.435	84.06
472.654	81.06
472.873	82.06
473.092	94.06
473.311	94.06
473.53	81.06
473.749	98.06
473.968	103.06
474.187	94.06
474.406	86.06
474.625	82.06
474.844	89.06
475.063	90.06
475.282	99.06
475.501	94.06
475.72	95.06
475.939	92.06
476.158	93.06
476.377	98.06
476.596	89.06
476.814	75.06
477.033	87.06
477.252	91.06
477.471	107.06
477.69	96.06
477.908	85.06
478.127	78.06
478.346	75.06
478.564	89.06
478.783	98.06
479.002	85.06
479.22	103.06
479.439	87.06
479.658	97.06
479.876	96.06
480.095	78.06
480.313	76.06
480.532	87.06
480.751	84.06
480.969	81.06
481.188	110.06
481.406	112.06
481.624	102.06
481.843	84.06
482.061	86.06
482.28	76.06
482.498	94.06
482.717	95.06
482.935	78.06
483.153	78.06
483.372	78.06
483.59	100.06
483.808	102.06
484.027	89.06
484.245	81.06
484.463	100.06
484.681	102.06
484.9	94.06
485.118	97.06
485.336	89.06
485.554	107.06
485.772	112.06
485.99	96.06
486.209	105.06
486.427	99.06
486.645	103.06
486.863	117.06
487.081	91.06
487.299	114.06
487.517	106.06
487.735	99.06
487.953	96.06
488.171	87.06
488.389	103.06
488.607	94.06
488.825	83.06
489.043	89.06
489.261	97.06
489.479	87.06
489.696	84.06
489.914	77.06
490.132	81.06
490.35	90.06
490.568	101.06
490.786	93.06
491.003	90.06
491.221	97.06
491.439	73.06
491.657	87.06
491.874	91.06
492.092	100.06
492.31	91.06
492.527	88.06
492.745	78.06
492.963	88.06
493.18	93.06
493.398	83.06
493.615	96.06
493.833	83.06
494.05	75.06
494.268	75.06
494.485	94.06
494.703	83.06
494.92	89.06
495.138	89.06
495.355	86.06
495.573	100.06
495.79	105.06
496.008	93.06
496.225	75.06
496.442	84.06
496.66	91.06
496.877	92.06
497.094	84.06
497.312	93.06
497.529	84.06
497.746	84.06
497.963	92.06
498.181	101.06
498.398	101.06
498.615	111.06
498.832	98.06
499.049	78.06
499.267	97.06
499.484	93.06
499.701	85.06
499.918	92.06
500.135	83.06
500.352	91.06
500.569	97.06
500.786	86.06
501.003	91.06
501.22	97.06
501.437	82.06
501.654	98.06
501.871	123.06
502.088	99.06
502.305	75.06
502.522	87.06
502.739	72.06
502.956	89.06
503.172	86.06
503.389	88.06
503.606	105.06
503.823	99.06
504.04	89.06
504.256	100.06
504.473	90.06
504.69	92.06
504.907	84.06
505.123	79.06
505.34	92.06
505.557	86.06
505.773	102.06
505.99	92.06
506.207	96.06
506.423	101.06
506.64	81.06
506.856	92.06
507.073	93.06
507.289	92.06
507.506	90.06
507.722	124.06
507.939	128.06
508.155	107.06
508.372	94.06
508.588	99.06
508.805	94.06
509.021	97.06
509.238	95.06
509.454	93.06
509.67	100.06
509.887	108.06
510.103	126.06
510.319	223.06
510.536	837.06
510.752	2557.06
510.968	709.06
511.184	159.06
511.401	112.06
511.617	102.06
511.833	107.06
512.049	83.06
512.265	104.06
512.481	91.06
512.698	96.06
512.914	71.06
513.13	86.06
513.346	100.06
513.562	98.06
513.778	107.06
513.994	85.06
514.21	107.06
514.426	109.06
514.642	118.06
514.858	133.06
515.074	171.06
515.29	486.06
515.506	1564.06
515.721	556.06
