Data from Uncirc_2003_H10_HRD10591_00097.txt Node
Date: Wed Jan 03 10:36:07 EST 2024
User: Yrep
Spectrometer: HR+D1059
Trigger mode: 1
Integration Time (sec): 1.000000E-1
Scans to average: 1
Electric dark correction enabled: true
Nonlinearity correction enabled: false
Boxcar width: 0
XAxis mode: Wavelengths
Number of Pixels in Spectrum: 2048
>>>>>Begin Spectral Data<<<<<
223.165	-13.81
223.4	-13.81
223.635	-13.81
223.869	-23.81
224.104	-23.81
224.338	-4.81
224.573	-15.81
224.808	-16.81
225.042	-18.81
225.277	1.19
225.511	8.19
225.746	3.19
225.98	-6.81
226.215	11.19
226.449	33.19
226.683	27.19
226.918	15.19
227.152	25.19
227.387	39.19
227.621	38.19
227.856	53.19
228.09	53.19
228.324	53.19
228.559	65.19
228.793	54.19
229.027	73.19
229.262	70.19
229.496	77.19
229.73	82.19
229.964	93.19
230.199	73.19
230.433	67.19
230.667	88.19
230.901	78.19
231.136	87.19
231.37	78.19
231.604	80.19
231.838	74.19
232.072	76.19
232.306	80.19
232.541	85.19
232.775	73.19
233.009	74.19
233.243	78.19
233.477	73.19
233.711	73.19
233.945	86.19
234.179	80.19
234.413	78.19
234.647	80.19
234.881	78.19
235.115	79.19
235.349	71.19
235.583	81.19
235.817	75.19
236.051	80.19
236.285	84.19
236.519	90.19
236.753	74.19
236.987	72.19
237.221	95.19
237.455	85.19
237.689	82.19
237.922	73.19
238.156	70.19
238.39	77.19
238.624	76.19
238.858	63.19
239.091	81.19
239.325	83.19
239.559	87.19
239.793	83.19
240.027	83.19
240.26	68.19
240.494	72.19
240.728	66.19
240.961	77.19
241.195	79.19
241.429	91.19
241.662	82.19
241.896	71.19
242.13	71.19
242.363	83.19
242.597	90.19
242.83	82.19
243.064	80.19
243.298	82.19
243.531	82.19
243.765	82.19
243.998	65.19
244.232	87.19
244.465	84.19
244.699	74.19
244.932	79.19
245.166	75.19
245.399	84.19
245.633	89.19
245.866	78.19
246.099	75.19
246.333	74.19
246.566	84.19
246.8	82.19
247.033	67.19
247.266	68.19
247.5	77.19
247.733	87.19
247.966	80.19
248.2	82.19
248.433	83.19
248.666	87.19
248.899	90.19
249.133	82.19
249.366	90.19
249.599	83.19
249.832	90.19
250.066	96.19
250.299	90.19
250.532	89.19
250.765	67.19
250.998	97.19
251.231	74.19
251.465	69.19
251.698	84.19
251.931	77.19
252.164	90.19
252.397	91.19
252.63	84.19
252.863	80.19
253.096	85.19
253.329	79.19
253.562	92.19
253.795	74.19
254.028	74.19
254.261	79.19
254.494	77.19
254.727	86.19
254.96	78.19
255.193	94.19
255.426	69.19
255.659	72.19
255.892	84.19
256.124	74.19
256.357	72.19
256.59	83.19
256.823	67.19
257.056	80.19
257.289	104.19
257.521	85.19
257.754	92.19
257.987	91.19
258.22	97.19
258.452	79.19
258.685	70.19
258.918	71.19
259.151	80.19
259.383	73.19
259.616	81.19
259.849	71.19
260.081	72.19
260.314	96.19
260.547	88.19
260.779	87.19
261.012	85.19
261.244	83.19
261.477	75.19
261.71	97.19
261.942	97.19
262.175	113.19
262.407	74.19
262.64	77.19
262.872	87.19
263.105	92.19
263.337	83.19
263.57	105.19
263.802	96.19
264.035	91.19
264.267	83.19
264.499	78.19
264.732	80.19
264.964	70.19
265.197	86.19
265.429	86.19
265.661	82.19
265.894	69.19
266.126	77.19
266.358	87.19
266.591	97.19
266.823	90.19
267.055	79.19
267.287	101.19
267.52	73.19
267.752	93.19
267.984	94.19
268.216	66.19
268.448	85.19
268.681	83.19
268.913	78.19
269.145	97.19
269.377	80.19
269.609	85.19
269.841	87.19
270.073	78.19
270.306	95.19
270.538	78.19
270.77	91.19
271.002	81.19
271.234	81.19
271.466	93.19
271.698	88.19
271.93	87.19
272.162	88.19
272.394	85.19
272.626	90.19
272.858	85.19
273.09	90.19
273.322	78.19
273.553	83.19
273.785	93.19
274.017	97.19
274.249	85.19
274.481	90.19
274.713	97.19
274.945	93.19
275.176	90.19
275.408	90.19
275.64	81.19
275.872	104.19
276.104	81.19
276.335	90.19
276.567	95.19
276.799	113.19
277.031	104.19
277.262	98.19
277.494	101.19
277.726	102.19
277.957	84.19
278.189	88.19
278.421	85.19
278.652	81.19
278.884	90.19
279.115	83.19
279.347	92.19
279.579	85.19
279.81	84.19
280.042	88.19
280.273	79.19
280.505	100.19
280.736	81.19
280.968	83.19
281.199	88.19
281.431	85.19
281.662	82.19
281.894	103.19
282.125	89.19
282.356	112.19
282.588	143.19
282.819	117.19
283.051	91.19
283.282	85.19
283.513	86.19
283.745	96.19
283.976	85.19
284.207	91.19
284.439	83.19
284.67	82.19
284.901	95.19
285.132	86.19
285.364	91.19
285.595	96.19
285.826	90.19
286.057	94.19
286.288	83.19
286.52	93.19
286.751	97.19
286.982	90.19
287.213	80.19
287.444	109.19
287.675	95.19
287.906	74.19
288.138	92.19
288.369	95.19
288.6	92.19
288.831	95.19
289.062	92.19
289.293	85.19
289.524	84.19
289.755	94.19
289.986	86.19
290.217	82.19
290.448	93.19
290.679	77.19
290.91	76.19
291.141	94.19
291.371	86.19
291.602	96.19
291.833	76.19
292.064	95.19
292.295	83.19
292.526	85.19
292.757	66.19
292.987	83.19
293.218	91.19
293.449	101.19
293.68	87.19
293.91	93.19
294.141	90.19
294.372	87.19
294.603	79.19
294.833	88.19
295.064	87.19
295.295	94.19
295.525	98.19
295.756	109.19
295.987	117.19
296.217	132.19
296.448	126.19
296.679	96.19
296.909	98.19
297.14	91.19
297.37	80.19
297.601	81.19
297.831	91.19
298.062	85.19
298.292	95.19
298.523	94.19
298.753	95.19
298.984	98.19
299.214	101.19
299.445	102.19
299.675	94.19
299.905	106.19
300.136	95.19
300.366	86.19
300.597	100.19
300.827	100.19
301.057	91.19
301.288	100.19
301.518	85.19
301.748	89.19
301.979	99.19
302.209	87.19
302.439	90.19
302.669	84.19
302.9	78.19
303.13	90.19
303.36	100.19
303.59	104.19
303.82	108.19
304.051	92.19
304.281	100.19
304.511	97.19
304.741	91.19
304.971	81.19
305.201	93.19
305.431	90.19
305.661	92.19
305.891	88.19
306.121	105.19
306.352	106.19
306.582	94.19
306.812	94.19
307.042	88.19
307.272	97.19
307.502	95.19
307.731	88.19
307.961	97.19
308.191	106.19
308.421	92.19
308.651	95.19
308.881	92.19
309.111	89.19
309.341	97.19
309.571	80.19
309.8	100.19
310.03	97.19
310.26	95.19
310.49	99.19
310.72	91.19
310.949	110.19
311.179	93.19
311.409	85.19
311.639	97.19
311.868	95.19
312.098	102.19
312.328	97.19
312.557	114.19
312.787	106.19
313.017	101.19
313.246	89.19
313.476	100.19
313.706	99.19
313.935	102.19
314.165	91.19
314.394	104.19
314.624	89.19
314.853	90.19
315.083	91.19
315.312	89.19
315.542	93.19
315.771	95.19
316.001	104.19
316.23	91.19
316.46	87.19
316.689	77.19
316.919	81.19
317.148	89.19
317.377	95.19
317.607	110.19
317.836	94.19
318.065	88.19
318.295	91.19
318.524	87.19
318.753	90.19
318.983	89.19
319.212	107.19
319.441	97.19
319.67	109.19
319.9	96.19
320.129	99.19
320.358	100.19
320.587	86.19
320.816	97.19
321.046	91.19
321.275	101.19
321.504	97.19
321.733	108.19
321.962	110.19
322.191	102.19
322.42	114.19
322.649	104.19
322.878	112.19
323.108	105.19
323.337	127.19
323.566	133.19
323.795	169.19
324.024	229.19
324.253	416.19
324.482	881.19
324.71	1838.19
324.939	2410.19
325.168	886.19
325.397	253.19
325.626	162.19
325.855	132.19
326.084	130.19
326.313	130.19
326.542	148.19
326.77	225.19
326.999	497.19
327.228	1053.19
327.457	1850.19
327.686	1458.19
327.914	416.19
328.143	198.19
328.372	146.19
328.6	122.19
328.829	123.19
329.058	143.19
329.287	133.19
329.515	107.19
329.744	103.19
329.972	117.19
330.201	90.19
330.43	119.19
330.658	126.19
330.887	129.19
331.115	112.19
331.344	107.19
331.572	92.19
331.801	109.19
332.03	109.19
332.258	103.19
332.486	95.19
332.715	95.19
332.943	95.19
333.172	91.19
333.4	99.19
333.629	101.19
333.857	101.19
334.085	98.19
334.314	100.19
334.542	115.19
334.771	101.19
334.999	106.19
335.227	93.19
335.455	91.19
335.684	93.19
335.912	98.19
336.14	91.19
336.369	103.19
336.597	90.19
336.825	90.19
337.053	104.19
337.281	95.19
337.51	99.19
337.738	102.19
337.966	91.19
338.194	106.19
338.422	82.19
338.65	91.19
338.878	106.19
339.106	92.19
339.334	94.19
339.562	88.19
339.79	99.19
340.018	90.19
340.246	89.19
340.474	97.19
340.702	95.19
340.93	84.19
341.158	97.19
341.386	107.19
341.614	96.19
341.842	91.19
342.07	95.19
342.298	88.19
342.526	96.19
342.754	83.19
342.981	88.19
343.209	94.19
343.437	101.19
343.665	98.19
343.893	89.19
344.12	97.19
344.348	91.19
344.576	89.19
344.804	89.19
345.031	104.19
345.259	101.19
345.487	99.19
345.714	97.19
345.942	90.19
346.17	90.19
346.397	98.19
346.625	116.19
346.853	96.19
347.08	89.19
347.308	100.19
347.535	103.19
347.763	98.19
347.99	103.19
348.218	105.19
348.445	101.19
348.673	104.19
348.9	96.19
349.128	91.19
349.355	93.19
349.583	102.19
349.81	95.19
350.037	75.19
350.265	83.19
350.492	78.19
350.72	91.19
350.947	96.19
351.174	105.19
351.402	111.19
351.629	100.19
351.856	98.19
352.083	105.19
352.311	103.19
352.538	106.19
352.765	102.19
352.992	115.19
353.22	107.19
353.447	102.19
353.674	105.19
353.901	110.19
354.128	101.19
354.355	105.19
354.583	96.19
354.81	104.19
355.037	113.19
355.264	103.19
355.491	95.19
355.718	101.19
355.945	92.19
356.172	101.19
356.399	111.19
356.626	95.19
356.853	98.19
357.08	91.19
357.307	93.19
357.534	89.19
357.761	98.19
357.988	84.19
358.215	94.19
358.441	89.19
358.668	88.19
358.895	79.19
359.122	109.19
359.349	99.19
359.576	87.19
359.802	93.19
360.029	112.19
360.256	117.19
360.483	95.19
360.709	92.19
360.936	93.19
361.163	86.19
361.39	102.19
361.616	79.19
361.843	97.19
362.07	98.19
362.296	99.19
362.523	102.19
362.749	106.19
362.976	93.19
363.203	82.19
363.429	77.19
363.656	87.19
363.882	87.19
364.109	84.19
364.335	91.19
364.562	93.19
364.788	71.19
365.015	94.19
365.241	99.19
365.468	102.19
365.694	110.19
365.92	103.19
366.147	98.19
366.373	74.19
366.599	93.19
366.826	83.19
367.052	88.19
367.278	80.19
367.505	103.19
367.731	100.19
367.957	67.19
368.184	91.19
368.41	99.19
368.636	98.19
368.862	130.19
369.089	122.19
369.315	95.19
369.541	86.19
369.767	84.19
369.993	79.19
370.219	99.19
370.445	101.19
370.672	95.19
370.898	109.19
371.124	99.19
371.35	100.19
371.576	108.19
371.802	109.19
372.028	102.19
372.254	81.19
372.48	90.19
372.706	82.19
372.932	94.19
373.158	102.19
373.384	96.19
373.61	91.19
373.835	85.19
374.061	81.19
374.287	82.19
374.513	86.19
374.739	76.19
374.965	93.19
375.191	96.19
375.416	91.19
375.642	93.19
375.868	90.19
376.094	83.19
376.319	80.19
376.545	94.19
376.771	92.19
376.997	94.19
377.222	102.19
377.448	95.19
377.674	88.19
377.899	88.19
378.125	89.19
378.35	91.19
378.576	95.19
378.802	99.19
379.027	94.19
379.253	95.19
379.478	88.19
379.704	81.19
379.929	93.19
380.155	83.19
380.38	105.19
380.606	109.19
380.831	97.19
381.057	97.19
381.282	86.19
381.507	81.19
381.733	89.19
381.958	98.19
382.184	81.19
382.409	105.19
382.634	115.19
382.86	95.19
383.085	99.19
383.31	98.19
383.535	97.19
383.761	102.19
383.986	92.19
384.211	105.19
384.436	114.19
384.662	97.19
384.887	97.19
385.112	100.19
385.337	106.19
385.562	123.19
385.787	104.19
386.013	106.19
386.238	110.19
386.463	105.19
386.688	110.19
386.913	108.19
387.138	116.19
387.363	118.19
387.588	110.19
387.813	102.19
388.038	112.19
388.263	109.19
388.488	105.19
388.713	99.19
388.938	105.19
389.163	105.19
389.387	87.19
389.612	106.19
389.837	95.19
390.062	81.19
390.287	97.19
390.512	88.19
390.736	83.19
390.961	95.19
391.186	94.19
391.411	90.19
391.636	111.19
391.86	87.19
392.085	88.19
392.31	87.19
392.534	70.19
392.759	89.19
392.984	88.19
393.208	94.19
393.433	91.19
393.658	81.19
393.882	74.19
394.107	87.19
394.331	107.19
394.556	83.19
394.78	88.19
395.005	98.19
395.229	102.19
395.454	85.19
395.678	102.19
395.903	100.19
396.127	70.19
396.352	80.19
396.576	98.19
396.801	88.19
397.025	80.19
397.249	91.19
397.474	81.19
397.698	79.19
397.922	87.19
398.147	92.19
398.371	93.19
398.595	89.19
398.82	82.19
399.044	78.19
399.268	93.19
399.492	87.19
399.717	69.19
399.941	97.19
400.165	98.19
400.389	86.19
400.613	82.19
400.837	88.19
401.062	92.19
401.286	93.19
401.51	99.19
401.734	87.19
401.958	101.19
402.182	145.19
402.406	161.19
402.63	123.19
402.854	86.19
403.078	86.19
403.302	86.19
403.526	89.19
403.75	87.19
403.974	81.19
404.198	94.19
404.422	84.19
404.645	88.19
404.869	99.19
405.093	95.19
405.317	96.19
405.541	90.19
405.765	93.19
405.988	113.19
406.212	165.19
406.436	232.19
406.66	142.19
406.883	107.19
407.107	87.19
407.331	106.19
407.555	93.19
407.778	95.19
408.002	79.19
408.226	88.19
408.449	85.19
408.673	104.19
408.896	96.19
409.12	94.19
409.344	93.19
409.567	91.19
409.791	98.19
410.014	97.19
410.238	108.19
410.461	88.19
410.685	92.19
410.908	118.19
411.132	90.19
411.355	101.19
411.578	95.19
411.802	92.19
412.025	85.19
412.249	91.19
412.472	99.19
412.695	82.19
412.919	83.19
413.142	88.19
413.365	91.19
413.589	87.19
413.812	91.19
414.035	99.19
414.258	90.19
414.482	82.19
414.705	81.19
414.928	79.19
415.151	99.19
415.374	105.19
415.597	95.19
415.821	98.19
416.044	95.19
416.267	96.19
416.49	88.19
416.713	94.19
416.936	82.19
417.159	88.19
417.382	90.19
417.605	109.19
417.828	103.19
418.051	96.19
418.274	89.19
418.497	88.19
418.72	87.19
418.943	88.19
419.166	77.19
419.389	84.19
419.611	83.19
419.834	83.19
420.057	84.19
420.28	101.19
420.503	79.19
420.726	81.19
420.948	88.19
421.171	85.19
421.394	95.19
421.617	90.19
421.839	93.19
422.062	86.19
422.285	93.19
422.507	112.19
422.73	97.19
422.953	93.19
423.175	93.19
423.398	94.19
423.621	85.19
423.843	97.19
424.066	81.19
424.288	91.19
424.511	97.19
424.733	96.19
424.956	104.19
425.178	91.19
425.401	90.19
425.623	101.19
425.846	93.19
426.068	96.19
426.291	91.19
426.513	85.19
426.735	77.19
426.958	90.19
427.18	111.19
427.402	143.19
427.625	167.19
427.847	120.19
428.069	106.19
428.292	75.19
428.514	93.19
428.736	84.19
428.958	79.19
429.181	77.19
429.403	78.19
429.625	97.19
429.847	110.19
430.069	95.19
430.292	89.19
430.514	100.19
430.736	81.19
430.958	89.19
431.18	84.19
431.402	105.19
431.624	98.19
431.846	89.19
432.068	91.19
432.29	87.19
432.512	99.19
432.734	85.19
432.956	97.19
433.178	88.19
433.4	96.19
433.622	81.19
433.844	83.19
434.066	91.19
434.287	86.19
434.509	89.19
434.731	85.19
434.953	84.19
435.175	88.19
435.397	88.19
435.618	102.19
435.84	99.19
436.062	111.19
436.284	112.19
436.505	94.19
436.727	98.19
436.949	96.19
437.17	91.19
437.392	91.19
437.614	90.19
437.835	100.19
438.057	104.19
438.278	102.19
438.5	101.19
438.721	129.19
438.943	100.19
439.165	89.19
439.386	94.19
439.608	94.19
439.829	93.19
440.05	118.19
440.272	140.19
440.493	101.19
440.715	85.19
440.936	88.19
441.158	90.19
441.379	99.19
441.6	94.19
441.822	79.19
442.043	114.19
442.264	110.19
442.486	86.19
442.707	98.19
442.928	106.19
443.149	132.19
443.371	142.19
443.592	104.19
443.813	86.19
444.034	120.19
444.255	107.19
444.476	83.19
444.698	95.19
444.919	93.19
445.14	133.19
445.361	107.19
445.582	111.19
445.803	133.19
446.024	128.19
446.245	130.19
446.466	97.19
446.687	102.19
446.908	78.19
447.129	84.19
447.35	91.19
447.571	97.19
447.792	88.19
448.013	95.19
448.234	112.19
448.455	95.19
448.675	107.19
448.896	109.19
449.117	115.19
449.338	111.19
449.559	123.19
449.779	118.19
450	98.19
450.221	97.19
450.442	85.19
450.662	88.19
450.883	115.19
451.104	123.19
451.324	91.19
451.545	89.19
451.766	72.19
451.986	85.19
452.207	91.19
452.428	100.19
452.648	99.19
452.869	104.19
453.089	102.19
453.31	106.19
453.53	86.19
453.751	83.19
453.971	99.19
454.192	99.19
454.412	83.19
454.633	86.19
454.853	90.19
455.073	91.19
455.294	88.19
455.514	113.19
455.734	94.19
455.955	90.19
456.175	93.19
456.395	86.19
456.616	85.19
456.836	95.19
457.056	91.19
457.276	87.19
457.497	100.19
457.717	83.19
457.937	90.19
458.157	91.19
458.377	99.19
458.598	112.19
458.818	144.19
459.038	153.19
459.258	104.19
459.478	77.19
459.698	72.19
459.918	90.19
460.138	81.19
460.358	94.19
460.578	98.19
460.798	89.19
461.018	92.19
461.238	85.19
461.458	95.19
461.678	93.19
461.898	83.19
462.118	91.19
462.338	85.19
462.558	78.19
462.777	80.19
462.997	93.19
463.217	76.19
463.437	90.19
463.657	90.19
463.876	76.19
464.096	103.19
464.316	105.19
464.536	94.19
464.755	106.19
464.975	111.19
465.195	144.19
465.414	165.19
465.634	102.19
465.854	81.19
466.073	86.19
466.293	93.19
466.512	87.19
466.732	78.19
466.951	89.19
467.171	87.19
467.391	92.19
467.61	103.19
467.829	107.19
468.049	87.19
468.268	82.19
468.488	95.19
468.707	79.19
468.927	91.19
469.146	95.19
469.365	76.19
469.585	82.19
469.804	91.19
470.023	114.19
470.243	83.19
470.462	95.19
470.681	98.19
470.901	97.19
471.12	94.19
471.339	86.19
471.558	75.19
471.777	95.19
471.997	93.19
472.216	83.19
472.435	107.19
472.654	86.19
472.873	88.19
473.092	88.19
473.311	80.19
473.53	87.19
473.749	89.19
473.968	100.19
474.187	99.19
474.406	102.19
474.625	80.19
474.844	98.19
475.063	89.19
475.282	91.19
475.501	85.19
475.72	93.19
475.939	95.19
476.158	90.19
476.377	91.19
476.596	89.19
476.814	92.19
477.033	96.19
477.252	78.19
477.471	73.19
477.69	87.19
477.908	95.19
478.127	93.19
478.346	88.19
478.564	96.19
478.783	93.19
479.002	93.19
479.22	83.19
479.439	96.19
479.658	114.19
479.876	105.19
480.095	89.19
480.313	85.19
480.532	95.19
480.751	96.19
480.969	85.19
481.188	99.19
481.406	105.19
481.624	92.19
481.843	79.19
482.061	88.19
482.28	104.19
482.498	89.19
482.717	91.19
482.935	82.19
483.153	94.19
483.372	84.19
483.59	93.19
483.808	83.19
484.027	90.19
484.245	94.19
484.463	97.19
484.681	100.19
484.9	76.19
485.118	100.19
485.336	97.19
485.554	86.19
485.772	101.19
485.99	106.19
486.209	107.19
486.427	110.19
486.645	126.19
486.863	104.19
487.081	91.19
487.299	96.19
487.517	97.19
487.735	95.19
487.953	85.19
488.171	88.19
488.389	96.19
488.607	98.19
488.825	84.19
489.043	86.19
489.261	97.19
489.479	85.19
489.696	91.19
489.914	93.19
490.132	94.19
490.35	105.19
490.568	102.19
490.786	98.19
491.003	96.19
491.221	90.19
491.439	86.19
491.657	88.19
491.874	95.19
492.092	87.19
492.31	107.19
492.527	94.19
492.745	96.19
492.963	95.19
493.18	83.19
493.398	99.19
493.615	97.19
493.833	85.19
494.05	89.19
494.268	99.19
494.485	99.19
494.703	95.19
494.92	88.19
495.138	94.19
495.355	79.19
495.573	100.19
495.79	108.19
496.008	105.19
496.225	117.19
496.442	98.19
496.66	87.19
496.877	97.19
497.094	94.19
497.312	87.19
497.529	95.19
497.746	102.19
497.963	74.19
498.181	99.19
498.398	102.19
498.615	117.19
498.832	106.19
499.049	92.19
499.267	90.19
499.484	87.19
499.701	94.19
499.918	88.19
500.135	96.19
500.352	95.19
500.569	87.19
500.786	95.19
501.003	89.19
501.22	96.19
501.437	88.19
501.654	101.19
501.871	113.19
502.088	81.19
502.305	88.19
502.522	96.19
502.739	99.19
502.956	103.19
503.172	91.19
503.389	100.19
503.606	112.19
503.823	92.19
504.04	98.19
504.256	93.19
504.473	85.19
504.69	79.19
504.907	107.19
505.123	79.19
505.34	103.19
505.557	100.19
505.773	98.19
505.99	74.19
506.207	91.19
506.423	81.19
506.64	106.19
506.856	88.19
507.073	85.19
507.289	94.19
507.506	80.19
507.722	114.19
507.939	118.19
508.155	106.19
508.372	87.19
508.588	85.19
508.805	86.19
509.021	110.19
509.238	96.19
509.454	93.19
509.67	110.19
509.887	111.19
510.103	116.19
510.319	211.19
510.536	823.19
510.752	2502.19
510.968	688.19
511.184	158.19
511.401	110.19
511.617	108.19
511.833	91.19
512.049	82.19
512.265	85.19
512.481	104.19
512.698	95.19
512.914	97.19
513.13	83.19
513.346	84.19
513.562	97.19
513.778	90.19
513.994	106.19
514.21	106.19
514.426	117.19
514.642	125.19
514.858	120.19
515.074	159.19
515.29	441.19
