Data from Uncirc_2003_H10_HRD10591_00085.txt Node
Date: Wed Jan 03 10:36:04 EST 2024
User: Yrep
Spectrometer: HR+D1059
Trigger mode: 1
Integration Time (sec): 1.000000E-1
Scans to average: 1
Electric dark correction enabled: true
Nonlinearity correction enabled: false
Boxcar width: 0
XAxis mode: Wavelengths
Number of Pixels in Spectrum: 2048
>>>>>Begin Spectral Data<<<<<
223.165	-27.12
223.4	-27.12
223.635	-27.12
223.869	-24.12
224.104	-4.12
224.338	-5.12
224.573	-9.12
224.808	-11.12
225.042	-6.12
225.277	0.88
225.511	6.88
225.746	1.88
225.98	-2.12
226.215	11.88
226.449	10.88
226.683	11.88
226.918	21.88
227.152	22.88
227.387	26.88
227.621	41.88
227.856	44.88
228.09	36.88
228.324	42.88
228.559	52.88
228.793	49.88
229.027	62.88
229.262	55.88
229.496	62.88
229.73	89.88
229.964	78.88
230.199	70.88
230.433	67.88
230.667	96.88
230.901	78.88
231.136	91.88
231.37	77.88
231.604	70.88
231.838	70.88
232.072	67.88
232.306	83.88
232.541	73.88
232.775	64.88
233.009	71.88
233.243	74.88
233.477	78.88
233.711	58.88
233.945	82.88
234.179	75.88
234.413	75.88
234.647	71.88
234.881	81.88
235.115	74.88
235.349	75.88
235.583	79.88
235.817	84.88
236.051	68.88
236.285	74.88
236.519	77.88
236.753	76.88
236.987	72.88
237.221	88.88
237.455	62.88
237.689	70.88
237.922	70.88
238.156	72.88
238.39	69.88
238.624	79.88
238.858	68.88
239.091	91.88
239.325	79.88
239.559	73.88
239.793	94.88
240.027	76.88
240.26	87.88
240.494	61.88
240.728	76.88
240.961	84.88
241.195	86.88
241.429	77.88
241.662	69.88
241.896	75.88
242.13	62.88
242.363	81.88
242.597	63.88
242.83	74.88
243.064	54.88
243.298	74.88
243.531	84.88
243.765	82.88
243.998	81.88
244.232	71.88
244.465	84.88
244.699	84.88
244.932	62.88
245.166	72.88
245.399	69.88
245.633	66.88
245.866	79.88
246.099	69.88
246.333	85.88
246.566	63.88
246.8	85.88
247.033	87.88
247.266	69.88
247.5	72.88
247.733	79.88
247.966	80.88
248.2	88.88
248.433	70.88
248.666	83.88
248.899	75.88
249.133	82.88
249.366	79.88
249.599	100.88
249.832	78.88
250.066	89.88
250.299	76.88
250.532	77.88
250.765	74.88
250.998	76.88
251.231	73.88
251.465	85.88
251.698	55.88
251.931	72.88
252.164	90.88
252.397	71.88
252.63	76.88
252.863	67.88
253.096	76.88
253.329	83.88
253.562	76.88
253.795	69.88
254.028	86.88
254.261	78.88
254.494	67.88
254.727	93.88
254.96	80.88
255.193	81.88
255.426	58.88
255.659	71.88
255.892	95.88
256.124	81.88
256.357	78.88
256.59	80.88
256.823	87.88
257.056	80.88
257.289	76.88
257.521	85.88
257.754	80.88
257.987	77.88
258.22	86.88
258.452	72.88
258.685	85.88
258.918	93.88
259.151	78.88
259.383	80.88
259.616	79.88
259.849	88.88
260.081	95.88
260.314	78.88
260.547	73.88
260.779	71.88
261.012	84.88
261.244	78.88
261.477	95.88
261.71	88.88
261.942	103.88
262.175	123.88
262.407	84.88
262.64	74.88
262.872	80.88
263.105	84.88
263.337	67.88
263.57	71.88
263.802	67.88
264.035	78.88
264.267	79.88
264.499	74.88
264.732	95.88
264.964	76.88
265.197	87.88
265.429	80.88
265.661	85.88
265.894	79.88
266.126	87.88
266.358	76.88
266.591	94.88
266.823	82.88
267.055	82.88
267.287	88.88
267.52	75.88
267.752	72.88
267.984	86.88
268.216	74.88
268.448	75.88
268.681	93.88
268.913	82.88
269.145	82.88
269.377	82.88
269.609	95.88
269.841	88.88
270.073	76.88
270.306	82.88
270.538	89.88
270.77	85.88
271.002	86.88
271.234	77.88
271.466	83.88
271.698	91.88
271.93	76.88
272.162	75.88
272.394	88.88
272.626	100.88
272.858	84.88
273.09	92.88
273.322	83.88
273.553	87.88
273.785	86.88
274.017	84.88
274.249	95.88
274.481	67.88
274.713	74.88
274.945	81.88
275.176	79.88
275.408	96.88
275.64	80.88
275.872	78.88
276.104	83.88
276.335	84.88
276.567	98.88
276.799	103.88
277.031	102.88
277.262	97.88
277.494	91.88
277.726	88.88
277.957	81.88
278.189	83.88
278.421	87.88
278.652	90.88
278.884	86.88
279.115	85.88
279.347	91.88
279.579	80.88
279.81	79.88
280.042	81.88
280.273	65.88
280.505	89.88
280.736	91.88
280.968	91.88
281.199	82.88
281.431	81.88
281.662	86.88
281.894	87.88
282.125	96.88
282.356	118.88
282.588	148.88
282.819	119.88
283.051	87.88
283.282	89.88
283.513	83.88
283.745	83.88
283.976	85.88
284.207	83.88
284.439	74.88
284.67	90.88
284.901	93.88
285.132	72.88
285.364	76.88
285.595	74.88
285.826	66.88
286.057	82.88
286.288	82.88
286.52	97.88
286.751	88.88
286.982	84.88
287.213	94.88
287.444	93.88
287.675	88.88
287.906	69.88
288.138	89.88
288.369	97.88
288.6	90.88
288.831	80.88
289.062	75.88
289.293	92.88
289.524	92.88
289.755	83.88
289.986	83.88
290.217	66.88
290.448	77.88
290.679	83.88
290.91	93.88
291.141	87.88
291.371	101.88
291.602	89.88
291.833	94.88
292.064	77.88
292.295	90.88
292.526	84.88
292.757	84.88
292.987	97.88
293.218	79.88
293.449	81.88
293.68	87.88
293.91	86.88
294.141	88.88
294.372	62.88
294.603	97.88
294.833	84.88
295.064	91.88
295.295	93.88
295.525	92.88
295.756	88.88
295.987	109.88
296.217	149.88
296.448	126.88
296.679	87.88
296.909	101.88
297.14	91.88
297.37	82.88
297.601	82.88
297.831	99.88
298.062	96.88
298.292	94.88
298.523	88.88
298.753	85.88
298.984	91.88
299.214	87.88
299.445	91.88
299.675	96.88
299.905	83.88
300.136	88.88
300.366	75.88
300.597	82.88
300.827	89.88
301.057	84.88
301.288	104.88
301.518	89.88
301.748	72.88
301.979	107.88
302.209	98.88
302.439	96.88
302.669	93.88
302.9	85.88
303.13	81.88
303.36	78.88
303.59	104.88
303.82	92.88
304.051	94.88
304.281	100.88
304.511	99.88
304.741	94.88
304.971	78.88
305.201	94.88
305.431	87.88
305.661	85.88
305.891	78.88
306.121	91.88
306.352	106.88
306.582	119.88
306.812	87.88
307.042	87.88
307.272	95.88
307.502	101.88
307.731	91.88
307.961	99.88
308.191	91.88
308.421	83.88
308.651	102.88
308.881	94.88
309.111	94.88
309.341	107.88
309.571	97.88
309.8	99.88
310.03	95.88
310.26	80.88
310.49	93.88
310.72	100.88
310.949	94.88
311.179	96.88
311.409	97.88
311.639	85.88
311.868	90.88
312.098	99.88
312.328	93.88
312.557	95.88
312.787	105.88
313.017	99.88
313.246	91.88
313.476	94.88
313.706	93.88
313.935	88.88
314.165	93.88
314.394	110.88
314.624	103.88
314.853	103.88
315.083	114.88
315.312	77.88
315.542	82.88
315.771	81.88
316.001	79.88
316.23	81.88
316.46	87.88
316.689	90.88
316.919	99.88
317.148	96.88
317.377	86.88
317.607	78.88
317.836	88.88
318.065	87.88
318.295	96.88
318.524	95.88
318.753	85.88
318.983	101.88
319.212	109.88
319.441	110.88
319.67	111.88
319.9	99.88
320.129	92.88
320.358	98.88
320.587	91.88
320.816	84.88
321.046	106.88
321.275	95.88
321.504	94.88
321.733	92.88
321.962	108.88
322.191	102.88
322.42	103.88
322.649	99.88
322.878	120.88
323.108	136.88
323.337	138.88
323.566	132.88
323.795	160.88
324.024	241.88
324.253	492.88
324.482	1086.88
324.71	2264.88
324.939	2964.88
325.168	1061.88
325.397	310.88
325.626	166.88
325.855	153.88
326.084	147.88
326.313	144.88
326.542	163.88
326.77	276.88
326.999	589.88
327.228	1196.88
327.457	2234.88
327.686	1766.88
327.914	444.88
328.143	220.88
328.372	159.88
328.6	117.88
328.829	117.88
329.058	123.88
329.287	123.88
329.515	108.88
329.744	91.88
329.972	110.88
330.201	93.88
330.43	106.88
330.658	121.88
330.887	149.88
331.115	120.88
331.344	98.88
331.572	106.88
331.801	120.88
332.03	112.88
332.258	82.88
332.486	100.88
332.715	90.88
332.943	100.88
333.172	93.88
333.4	93.88
333.629	90.88
333.857	123.88
334.085	111.88
334.314	101.88
334.542	87.88
334.771	111.88
334.999	95.88
335.227	109.88
335.455	89.88
335.684	93.88
335.912	88.88
336.14	99.88
336.369	95.88
336.597	100.88
336.825	96.88
337.053	90.88
337.281	86.88
337.51	88.88
337.738	89.88
337.966	91.88
338.194	87.88
338.422	85.88
338.65	92.88
338.878	89.88
339.106	85.88
339.334	102.88
339.562	83.88
339.79	81.88
340.018	98.88
340.246	101.88
340.474	91.88
340.702	87.88
340.93	99.88
341.158	79.88
341.386	97.88
341.614	73.88
341.842	90.88
342.07	108.88
342.298	103.88
342.526	79.88
342.754	99.88
342.981	92.88
343.209	94.88
343.437	97.88
343.665	78.88
343.893	95.88
344.12	100.88
344.348	89.88
344.576	89.88
344.804	89.88
345.031	95.88
345.259	103.88
345.487	94.88
345.714	95.88
345.942	95.88
346.17	92.88
346.397	92.88
346.625	90.88
346.853	82.88
347.08	89.88
347.308	88.88
347.535	87.88
347.763	87.88
347.99	104.88
348.218	117.88
348.445	98.88
348.673	95.88
348.9	99.88
349.128	101.88
349.355	124.88
349.583	98.88
349.81	91.88
350.037	93.88
350.265	99.88
350.492	84.88
350.72	102.88
350.947	110.88
351.174	116.88
351.402	119.88
351.629	104.88
351.856	93.88
352.083	103.88
352.311	109.88
352.538	113.88
352.765	102.88
352.992	127.88
353.22	105.88
353.447	99.88
353.674	89.88
353.901	96.88
354.128	77.88
354.355	83.88
354.583	110.88
354.81	106.88
355.037	97.88
355.264	92.88
355.491	96.88
355.718	96.88
355.945	87.88
356.172	93.88
356.399	97.88
356.626	94.88
356.853	99.88
357.08	75.88
357.307	79.88
357.534	95.88
357.761	87.88
357.988	94.88
358.215	89.88
358.441	95.88
358.668	97.88
358.895	87.88
359.122	93.88
359.349	94.88
359.576	84.88
359.802	101.88
360.029	117.88
360.256	102.88
360.483	96.88
360.709	90.88
360.936	94.88
361.163	83.88
361.39	99.88
361.616	101.88
361.843	103.88
362.07	84.88
362.296	69.88
362.523	88.88
362.749	95.88
362.976	78.88
363.203	100.88
363.429	95.88
363.656	99.88
363.882	99.88
364.109	83.88
364.335	97.88
364.562	82.88
364.788	83.88
365.015	94.88
365.241	96.88
365.468	109.88
365.694	105.88
365.92	90.88
366.147	85.88
366.373	87.88
366.599	88.88
366.826	79.88
367.052	82.88
367.278	79.88
367.505	86.88
367.731	86.88
367.957	83.88
368.184	91.88
368.41	95.88
368.636	110.88
368.862	124.88
369.089	109.88
369.315	94.88
369.541	95.88
369.767	104.88
369.993	78.88
370.219	88.88
370.445	90.88
370.672	81.88
370.898	87.88
371.124	83.88
371.35	100.88
371.576	85.88
371.802	109.88
372.028	83.88
372.254	93.88
372.48	84.88
372.706	81.88
372.932	85.88
373.158	85.88
373.384	94.88
373.61	89.88
373.835	99.88
374.061	98.88
374.287	87.88
374.513	88.88
374.739	87.88
374.965	86.88
375.191	79.88
375.416	85.88
375.642	87.88
375.868	91.88
376.094	95.88
376.319	94.88
376.545	93.88
376.771	86.88
376.997	89.88
377.222	83.88
377.448	84.88
377.674	87.88
377.899	104.88
378.125	76.88
378.35	85.88
378.576	87.88
378.802	97.88
379.027	91.88
379.253	90.88
379.478	78.88
379.704	91.88
379.929	89.88
380.155	80.88
380.38	84.88
380.606	98.88
380.831	70.88
381.057	97.88
381.282	103.88
381.507	107.88
381.733	100.88
381.958	95.88
382.184	107.88
382.409	108.88
382.634	98.88
382.86	93.88
383.085	106.88
383.31	97.88
383.535	99.88
383.761	91.88
383.986	98.88
384.211	91.88
384.436	98.88
384.662	99.88
384.887	86.88
385.112	91.88
385.337	102.88
385.562	100.88
385.787	111.88
386.013	114.88
386.238	104.88
386.463	104.88
386.688	99.88
386.913	96.88
387.138	102.88
387.363	110.88
387.588	98.88
387.813	110.88
388.038	103.88
388.263	118.88
388.488	98.88
388.713	94.88
388.938	82.88
389.163	83.88
389.387	101.88
389.612	79.88
389.837	88.88
390.062	105.88
390.287	84.88
390.512	88.88
390.736	90.88
390.961	85.88
391.186	89.88
391.411	88.88
391.636	80.88
391.86	83.88
392.085	76.88
392.31	98.88
392.534	84.88
392.759	85.88
392.984	88.88
393.208	85.88
393.433	83.88
393.658	87.88
393.882	85.88
394.107	74.88
394.331	85.88
394.556	81.88
394.78	102.88
395.005	66.88
395.229	78.88
395.454	72.88
395.678	96.88
395.903	87.88
396.127	87.88
396.352	95.88
396.576	80.88
396.801	86.88
397.025	85.88
397.249	97.88
397.474	82.88
397.698	77.88
397.922	80.88
398.147	86.88
398.371	87.88
398.595	80.88
398.82	103.88
399.044	79.88
399.268	82.88
399.492	77.88
399.717	97.88
399.941	81.88
400.165	82.88
400.389	110.88
400.613	81.88
400.837	91.88
401.062	87.88
401.286	86.88
401.51	93.88
401.734	95.88
401.958	86.88
402.182	122.88
402.406	180.88
402.63	132.88
402.854	84.88
403.078	99.88
403.302	96.88
403.526	73.88
403.75	76.88
403.974	95.88
404.198	84.88
404.422	86.88
404.645	84.88
404.869	96.88
405.093	94.88
405.317	104.88
405.541	93.88
405.765	100.88
405.988	115.88
406.212	203.88
406.436	260.88
406.66	156.88
406.883	100.88
407.107	101.88
407.331	90.88
407.555	102.88
407.778	82.88
408.002	96.88
408.226	97.88
408.449	82.88
408.673	90.88
408.896	110.88
409.12	82.88
409.344	84.88
409.567	85.88
409.791	80.88
410.014	84.88
410.238	87.88
410.461	99.88
410.685	91.88
410.908	87.88
411.132	115.88
411.355	107.88
411.578	95.88
411.802	98.88
412.025	96.88
412.249	83.88
412.472	84.88
412.695	86.88
412.919	87.88
413.142	93.88
413.365	71.88
413.589	91.88
413.812	91.88
414.035	88.88
414.258	91.88
414.482	85.88
414.705	76.88
414.928	63.88
415.151	83.88
415.374	92.88
415.597	90.88
415.821	87.88
416.044	74.88
416.267	74.88
416.49	87.88
416.713	96.88
416.936	92.88
417.159	85.88
417.382	72.88
417.605	84.88
417.828	84.88
418.051	89.88
418.274	78.88
418.497	94.88
418.72	96.88
418.943	96.88
419.166	76.88
419.389	79.88
419.611	82.88
419.834	77.88
420.057	97.88
420.28	94.88
420.503	83.88
420.726	79.88
420.948	85.88
421.171	82.88
421.394	95.88
421.617	92.88
421.839	94.88
422.062	97.88
422.285	93.88
422.507	88.88
422.73	90.88
422.953	80.88
423.175	87.88
423.398	91.88
423.621	91.88
423.843	81.88
424.066	76.88
424.288	82.88
424.511	91.88
424.733	97.88
424.956	88.88
425.178	91.88
425.401	96.88
425.623	120.88
425.846	98.88
426.068	97.88
426.291	87.88
426.513	89.88
426.735	89.88
426.958	102.88
427.18	102.88
427.402	135.88
427.625	157.88
427.847	140.88
428.069	104.88
428.292	94.88
428.514	94.88
428.736	59.88
428.958	77.88
429.181	87.88
429.403	76.88
429.625	76.88
429.847	94.88
430.069	92.88
430.292	99.88
430.514	71.88
430.736	80.88
430.958	89.88
431.18	87.88
431.402	74.88
431.624	88.88
431.846	81.88
432.068	93.88
432.29	98.88
432.512	90.88
432.734	91.88
432.956	89.88
433.178	95.88
433.4	115.88
433.622	100.88
433.844	99.88
434.066	84.88
434.287	105.88
434.509	88.88
434.731	87.88
434.953	96.88
435.175	81.88
435.397	96.88
435.618	107.88
435.84	105.88
436.062	125.88
436.284	126.88
436.505	84.88
436.727	95.88
436.949	72.88
437.17	91.88
437.392	83.88
437.614	102.88
437.835	115.88
438.057	114.88
438.278	110.88
438.5	97.88
438.721	133.88
438.943	101.88
439.165	100.88
439.386	81.88
439.608	81.88
439.829	92.88
440.05	115.88
440.272	152.88
440.493	107.88
440.715	84.88
440.936	88.88
441.158	75.88
441.379	80.88
441.6	98.88
441.822	84.88
442.043	106.88
442.264	98.88
442.486	98.88
442.707	95.88
442.928	90.88
443.149	136.88
443.371	127.88
443.592	118.88
443.813	107.88
444.034	112.88
444.255	84.88
444.476	80.88
444.698	83.88
444.919	84.88
445.14	123.88
445.361	117.88
445.582	113.88
445.803	127.88
446.024	126.88
446.245	146.88
446.466	123.88
446.687	91.88
446.908	79.88
447.129	83.88
447.35	85.88
447.571	96.88
447.792	97.88
448.013	94.88
448.234	105.88
448.455	107.88
448.675	115.88
448.896	118.88
449.117	117.88
449.338	88.88
449.559	131.88
449.779	149.88
450	102.88
450.221	81.88
450.442	83.88
450.662	90.88
450.883	104.88
451.104	110.88
451.324	79.88
451.545	88.88
451.766	80.88
451.986	83.88
452.207	88.88
452.428	84.88
452.648	94.88
452.869	117.88
453.089	115.88
453.31	117.88
453.53	102.88
453.751	95.88
453.971	94.88
454.192	124.88
454.412	96.88
454.633	71.88
454.853	82.88
455.073	83.88
455.294	91.88
455.514	88.88
455.734	80.88
455.955	96.88
456.175	95.88
456.395	80.88
456.616	82.88
456.836	78.88
457.056	90.88
457.276	71.88
457.497	73.88
457.717	78.88
457.937	86.88
458.157	85.88
458.377	87.88
458.598	103.88
458.818	164.88
459.038	153.88
459.258	126.88
459.478	90.88
459.698	90.88
459.918	82.88
460.138	90.88
460.358	90.88
460.578	77.88
460.798	94.88
461.018	103.88
461.238	85.88
461.458	92.88
461.678	81.88
461.898	84.88
462.118	79.88
462.338	72.88
462.558	71.88
462.777	85.88
462.997	75.88
463.217	93.88
463.437	88.88
463.657	88.88
463.876	85.88
464.096	102.88
464.316	87.88
464.536	94.88
464.755	81.88
464.975	120.88
465.195	193.88
465.414	168.88
465.634	88.88
465.854	81.88
466.073	83.88
466.293	79.88
466.512	94.88
466.732	90.88
466.951	79.88
467.171	90.88
467.391	93.88
467.61	107.88
467.829	89.88
468.049	91.88
468.268	102.88
468.488	89.88
468.707	74.88
468.927	86.88
469.146	81.88
469.365	82.88
469.585	87.88
469.804	91.88
470.023	93.88
470.243	87.88
470.462	103.88
470.681	104.88
470.901	89.88
471.12	85.88
471.339	76.88
471.558	75.88
471.777	97.88
471.997	88.88
472.216	81.88
472.435	91.88
472.654	93.88
472.873	88.88
473.092	90.88
473.311	71.88
473.53	85.88
473.749	86.88
473.968	95.88
474.187	93.88
474.406	95.88
474.625	97.88
474.844	78.88
475.063	70.88
475.282	80.88
475.501	93.88
475.72	83.88
475.939	75.88
476.158	87.88
476.377	74.88
476.596	79.88
476.814	83.88
477.033	97.88
477.252	92.88
477.471	85.88
477.69	82.88
477.908	74.88
478.127	86.88
478.346	78.88
478.564	91.88
478.783	106.88
479.002	76.88
479.22	84.88
479.439	94.88
479.658	102.88
479.876	84.88
480.095	83.88
480.313	99.88
480.532	87.88
480.751	84.88
480.969	89.88
481.188	108.88
481.406	100.88
481.624	98.88
481.843	83.88
482.061	76.88
482.28	80.88
482.498	74.88
482.717	82.88
482.935	88.88
483.153	97.88
483.372	99.88
483.59	88.88
483.808	91.88
484.027	88.88
484.245	87.88
484.463	100.88
484.681	103.88
484.9	97.88
485.118	82.88
485.336	80.88
485.554	83.88
485.772	93.88
485.99	99.88
486.209	87.88
486.427	100.88
486.645	101.88
486.863	110.88
487.081	107.88
487.299	97.88
487.517	87.88
487.735	97.88
487.953	100.88
488.171	98.88
488.389	87.88
488.607	85.88
488.825	93.88
489.043	84.88
489.261	91.88
489.479	89.88
489.696	88.88
489.914	88.88
490.132	80.88
490.35	91.88
490.568	91.88
490.786	87.88
491.003	84.88
491.221	88.88
491.439	91.88
491.657	84.88
491.874	96.88
492.092	79.88
492.31	88.88
492.527	79.88
492.745	82.88
492.963	94.88
493.18	73.88
493.398	76.88
493.615	91.88
493.833	83.88
494.05	76.88
494.268	80.88
494.485	84.88
494.703	96.88
494.92	104.88
495.138	97.88
495.355	81.88
495.573	83.88
495.79	86.88
496.008	86.88
496.225	84.88
496.442	97.88
496.66	95.88
496.877	86.88
497.094	95.88
497.312	79.88
497.529	92.88
497.746	94.88
497.963	89.88
498.181	86.88
498.398	76.88
498.615	114.88
498.832	101.88
499.049	80.88
499.267	91.88
499.484	84.88
499.701	83.88
499.918	77.88
500.135	79.88
500.352	96.88
500.569	84.88
500.786	87.88
501.003	96.88
501.22	92.88
501.437	93.88
501.654	78.88
501.871	97.88
502.088	88.88
502.305	87.88
502.522	100.88
502.739	84.88
502.956	84.88
503.172	107.88
503.389	108.88
503.606	98.88
503.823	105.88
504.04	83.88
504.256	95.88
504.473	91.88
504.69	90.88
504.907	102.88
505.123	91.88
505.34	92.88
505.557	75.88
505.773	76.88
505.99	95.88
506.207	81.88
506.423	95.88
506.64	80.88
506.856	104.88
507.073	99.88
507.289	91.88
507.506	99.88
507.722	110.88
507.939	102.88
508.155	94.88
508.372	91.88
508.588	92.88
508.805	92.88
509.021	112.88
509.238	94.88
509.454	101.88
509.67	102.88
509.887	110.88
510.103	149.88
510.319	252.88
510.536	977.88
510.752	3214.88
510.968	845.88
511.184	172.88
511.401	107.88
511.617	96.88
511.833	92.88
512.049	79.88
512.265	103.88
512.481	89.88
512.698	92.88
512.914	94.88
513.13	92.88
513.346	77.88
513.562	96.88
513.778	96.88
513.994	95.88
514.21	99.88
514.426	122.88
514.642	140.88
514.858	135.88
515.074	196.88
515.29	564.88
515.506	1931.88
515.721	669.88
515.937	171.88
516.153	116.88
516.369	107.88
