Data from Uncirc_2003_H10_HRD10591_00055.txt Node
Date: Wed Jan 03 10:35:58 EST 2024
User: Yrep
Spectrometer: HR+D1059
Trigger mode: 1
Integration Time (sec): 1.000000E-1
Scans to average: 1
Electric dark correction enabled: true
Nonlinearity correction enabled: false
Boxcar width: 0
XAxis mode: Wavelengths
Number of Pixels in Spectrum: 2048
>>>>>Begin Spectral Data<<<<<
223.165	-17.88
223.4	-17.88
223.635	-17.88
223.869	-9.88
224.104	-25.88
224.338	-16.88
224.573	-9.88
224.808	-4.88
225.042	-5.88
225.277	-6.88
225.511	-11.88
225.746	5.12
225.98	13.12
226.215	7.12
226.449	21.12
226.683	28.12
226.918	23.12
227.152	12.12
227.387	22.12
227.621	48.12
227.856	48.12
228.09	58.12
228.324	47.12
228.559	50.12
228.793	72.12
229.027	79.12
229.262	59.12
229.496	71.12
229.73	87.12
229.964	58.12
230.199	72.12
230.433	93.12
230.667	76.12
230.901	81.12
231.136	66.12
231.37	74.12
231.604	59.12
231.838	76.12
232.072	76.12
232.306	96.12
232.541	81.12
232.775	85.12
233.009	73.12
233.243	85.12
233.477	82.12
233.711	84.12
233.945	77.12
234.179	81.12
234.413	81.12
234.647	87.12
234.881	87.12
235.115	69.12
235.349	66.12
235.583	85.12
235.817	74.12
236.051	74.12
236.285	88.12
236.519	92.12
236.753	72.12
236.987	80.12
237.221	81.12
237.455	82.12
237.689	76.12
237.922	75.12
238.156	74.12
238.39	77.12
238.624	82.12
238.858	82.12
239.091	82.12
239.325	79.12
239.559	94.12
239.793	80.12
240.027	86.12
240.26	75.12
240.494	91.12
240.728	78.12
240.961	77.12
241.195	100.12
241.429	80.12
241.662	66.12
241.896	62.12
242.13	84.12
242.363	78.12
242.597	57.12
242.83	79.12
243.064	91.12
243.298	92.12
243.531	81.12
243.765	85.12
243.998	88.12
244.232	76.12
244.465	84.12
244.699	72.12
244.932	75.12
245.166	71.12
245.399	77.12
245.633	83.12
245.866	68.12
246.099	83.12
246.333	90.12
246.566	75.12
246.8	91.12
247.033	85.12
247.266	82.12
247.5	88.12
247.733	79.12
247.966	84.12
248.2	69.12
248.433	81.12
248.666	90.12
248.899	86.12
249.133	91.12
249.366	109.12
249.599	72.12
249.832	86.12
250.066	90.12
250.299	87.12
250.532	83.12
250.765	86.12
250.998	85.12
251.231	87.12
251.465	92.12
251.698	70.12
251.931	71.12
252.164	83.12
252.397	87.12
252.63	87.12
252.863	91.12
253.096	76.12
253.329	95.12
253.562	102.12
253.795	82.12
254.028	76.12
254.261	87.12
254.494	88.12
254.727	86.12
254.96	91.12
255.193	90.12
255.426	89.12
255.659	92.12
255.892	83.12
256.124	82.12
256.357	93.12
256.59	92.12
256.823	80.12
257.056	75.12
257.289	85.12
257.521	77.12
257.754	81.12
257.987	82.12
258.22	86.12
258.452	100.12
258.685	86.12
258.918	69.12
259.151	95.12
259.383	81.12
259.616	83.12
259.849	74.12
260.081	87.12
260.314	75.12
260.547	64.12
260.779	88.12
261.012	81.12
261.244	81.12
261.477	90.12
261.71	104.12
261.942	102.12
262.175	102.12
262.407	90.12
262.64	98.12
262.872	87.12
263.105	78.12
263.337	98.12
263.57	78.12
263.802	87.12
264.035	97.12
264.267	76.12
264.499	71.12
264.732	90.12
264.964	91.12
265.197	91.12
265.429	94.12
265.661	90.12
265.894	88.12
266.126	89.12
266.358	67.12
266.591	84.12
266.823	89.12
267.055	90.12
267.287	84.12
267.52	96.12
267.752	103.12
267.984	103.12
268.216	80.12
268.448	92.12
268.681	94.12
268.913	107.12
269.145	83.12
269.377	87.12
269.609	86.12
269.841	87.12
270.073	103.12
270.306	84.12
270.538	85.12
270.77	82.12
271.002	84.12
271.234	82.12
271.466	86.12
271.698	91.12
271.93	91.12
272.162	100.12
272.394	87.12
272.626	89.12
272.858	96.12
273.09	74.12
273.322	96.12
273.553	81.12
273.785	74.12
274.017	79.12
274.249	88.12
274.481	91.12
274.713	97.12
274.945	99.12
275.176	89.12
275.408	89.12
275.64	67.12
275.872	88.12
276.104	72.12
276.335	100.12
276.567	95.12
276.799	115.12
277.031	103.12
277.262	92.12
277.494	106.12
277.726	90.12
277.957	82.12
278.189	85.12
278.421	68.12
278.652	89.12
278.884	77.12
279.115	96.12
279.347	83.12
279.579	81.12
279.81	91.12
280.042	84.12
280.273	91.12
280.505	75.12
280.736	73.12
280.968	93.12
281.199	83.12
281.431	84.12
281.662	84.12
281.894	96.12
282.125	115.12
282.356	115.12
282.588	132.12
282.819	95.12
283.051	92.12
283.282	104.12
283.513	80.12
283.745	81.12
283.976	95.12
284.207	83.12
284.439	92.12
284.67	110.12
284.901	81.12
285.132	75.12
285.364	92.12
285.595	84.12
285.826	97.12
286.057	84.12
286.288	93.12
286.52	98.12
286.751	84.12
286.982	80.12
287.213	90.12
287.444	102.12
287.675	72.12
287.906	73.12
288.138	85.12
288.369	83.12
288.6	90.12
288.831	97.12
289.062	87.12
289.293	88.12
289.524	84.12
289.755	98.12
289.986	77.12
290.217	93.12
290.448	91.12
290.679	76.12
290.91	90.12
291.141	79.12
291.371	88.12
291.602	99.12
291.833	88.12
292.064	95.12
292.295	97.12
292.526	100.12
292.757	96.12
292.987	88.12
293.218	101.12
293.449	97.12
293.68	88.12
293.91	97.12
294.141	94.12
294.372	101.12
294.603	98.12
294.833	91.12
295.064	88.12
295.295	98.12
295.525	95.12
295.756	99.12
295.987	103.12
296.217	133.12
296.448	106.12
296.679	105.12
296.909	92.12
297.14	107.12
297.37	90.12
297.601	88.12
297.831	90.12
298.062	99.12
298.292	79.12
298.523	85.12
298.753	97.12
298.984	85.12
299.214	88.12
299.445	81.12
299.675	93.12
299.905	90.12
300.136	89.12
300.366	97.12
300.597	86.12
300.827	97.12
301.057	99.12
301.288	120.12
301.518	96.12
301.748	88.12
301.979	93.12
302.209	90.12
302.439	89.12
302.669	105.12
302.9	75.12
303.13	90.12
303.36	98.12
303.59	106.12
303.82	103.12
304.051	85.12
304.281	87.12
304.511	95.12
304.741	100.12
304.971	87.12
305.201	104.12
305.431	91.12
305.661	79.12
305.891	91.12
306.121	96.12
306.352	114.12
306.582	100.12
306.812	90.12
307.042	103.12
307.272	108.12
307.502	94.12
307.731	109.12
307.961	101.12
308.191	106.12
308.421	91.12
308.651	83.12
308.881	92.12
309.111	83.12
309.341	91.12
309.571	99.12
309.8	92.12
310.03	102.12
310.26	100.12
310.49	100.12
310.72	119.12
310.949	106.12
311.179	107.12
311.409	99.12
311.639	88.12
311.868	81.12
312.098	98.12
312.328	97.12
312.557	94.12
312.787	105.12
313.017	99.12
313.246	96.12
313.476	98.12
313.706	83.12
313.935	84.12
314.165	96.12
314.394	108.12
314.624	98.12
314.853	83.12
315.083	102.12
315.312	93.12
315.542	88.12
315.771	101.12
316.001	92.12
316.23	97.12
316.46	90.12
316.689	87.12
316.919	100.12
317.148	99.12
317.377	107.12
317.607	89.12
317.836	108.12
318.065	76.12
318.295	78.12
318.524	92.12
318.753	96.12
318.983	91.12
319.212	112.12
319.441	103.12
319.67	94.12
319.9	86.12
320.129	97.12
320.358	102.12
320.587	100.12
320.816	101.12
321.046	102.12
321.275	92.12
321.504	84.12
321.733	108.12
321.962	111.12
322.191	90.12
322.42	111.12
322.649	118.12
322.878	116.12
323.108	124.12
323.337	124.12
323.566	132.12
323.795	152.12
324.024	218.12
324.253	402.12
324.482	828.12
324.71	1729.12
324.939	2291.12
325.168	810.12
325.397	242.12
325.626	153.12
325.855	137.12
326.084	129.12
326.313	143.12
326.542	148.12
326.77	236.12
326.999	483.12
327.228	976.12
327.457	1762.12
327.686	1381.12
327.914	377.12
328.143	203.12
328.372	139.12
328.6	122.12
328.829	117.12
329.058	125.12
329.287	113.12
329.515	105.12
329.744	101.12
329.972	105.12
330.201	109.12
330.43	123.12
330.658	120.12
330.887	143.12
331.115	131.12
331.344	102.12
331.572	89.12
331.801	100.12
332.03	93.12
332.258	97.12
332.486	90.12
332.715	91.12
332.943	105.12
333.172	105.12
333.4	89.12
333.629	106.12
333.857	103.12
334.085	126.12
334.314	99.12
334.542	100.12
334.771	98.12
334.999	108.12
335.227	109.12
335.455	104.12
335.684	82.12
335.912	97.12
336.14	87.12
336.369	114.12
336.597	107.12
336.825	120.12
337.053	98.12
337.281	101.12
337.51	90.12
337.738	115.12
337.966	91.12
338.194	91.12
338.422	92.12
338.65	101.12
338.878	94.12
339.106	80.12
339.334	93.12
339.562	88.12
339.79	88.12
340.018	96.12
340.246	87.12
340.474	92.12
340.702	95.12
340.93	95.12
341.158	91.12
341.386	90.12
341.614	95.12
341.842	78.12
342.07	93.12
342.298	103.12
342.526	101.12
342.754	93.12
342.981	89.12
343.209	93.12
343.437	104.12
343.665	100.12
343.893	90.12
344.12	87.12
344.348	94.12
344.576	92.12
344.804	93.12
345.031	109.12
345.259	104.12
345.487	96.12
345.714	88.12
345.942	91.12
346.17	89.12
346.397	95.12
346.625	89.12
346.853	80.12
347.08	93.12
347.308	86.12
347.535	79.12
347.763	84.12
347.99	100.12
348.218	95.12
348.445	104.12
348.673	116.12
348.9	97.12
349.128	97.12
349.355	93.12
349.583	93.12
349.81	104.12
350.037	101.12
350.265	96.12
350.492	113.12
350.72	85.12
350.947	96.12
351.174	101.12
351.402	111.12
351.629	91.12
351.856	111.12
352.083	104.12
352.311	128.12
352.538	107.12
352.765	111.12
352.992	122.12
353.22	109.12
353.447	108.12
353.674	100.12
353.901	93.12
354.128	96.12
354.355	102.12
354.583	102.12
354.81	97.12
355.037	97.12
355.264	103.12
355.491	96.12
355.718	100.12
355.945	92.12
356.172	97.12
356.399	91.12
356.626	100.12
356.853	95.12
357.08	97.12
357.307	95.12
357.534	101.12
357.761	106.12
357.988	97.12
358.215	107.12
358.441	96.12
358.668	86.12
358.895	84.12
359.122	93.12
359.349	79.12
359.576	99.12
359.802	105.12
360.029	106.12
360.256	131.12
360.483	97.12
360.709	88.12
360.936	88.12
361.163	104.12
361.39	90.12
361.616	95.12
361.843	90.12
362.07	91.12
362.296	107.12
362.523	82.12
362.749	101.12
362.976	93.12
363.203	92.12
363.429	99.12
363.656	89.12
363.882	90.12
364.109	80.12
364.335	87.12
364.562	89.12
364.788	88.12
365.015	97.12
365.241	101.12
365.468	113.12
365.694	122.12
365.92	100.12
366.147	88.12
366.373	100.12
366.599	91.12
366.826	88.12
367.052	100.12
367.278	94.12
367.505	97.12
367.731	81.12
367.957	100.12
368.184	104.12
368.41	87.12
368.636	105.12
368.862	108.12
369.089	111.12
369.315	103.12
369.541	82.12
369.767	92.12
369.993	86.12
370.219	76.12
370.445	86.12
370.672	92.12
370.898	85.12
371.124	87.12
371.35	77.12
371.576	91.12
371.802	75.12
372.028	85.12
372.254	91.12
372.48	102.12
372.706	89.12
372.932	83.12
373.158	82.12
373.384	98.12
373.61	84.12
373.835	85.12
374.061	98.12
374.287	100.12
374.513	88.12
374.739	99.12
374.965	91.12
375.191	90.12
375.416	92.12
375.642	82.12
375.868	100.12
376.094	79.12
376.319	82.12
376.545	91.12
376.771	87.12
376.997	95.12
377.222	96.12
377.448	100.12
377.674	104.12
377.899	102.12
378.125	93.12
378.35	104.12
378.576	110.12
378.802	105.12
379.027	95.12
379.253	100.12
379.478	90.12
379.704	94.12
379.929	90.12
380.155	96.12
380.38	99.12
380.606	98.12
380.831	120.12
381.057	84.12
381.282	91.12
381.507	100.12
381.733	107.12
381.958	103.12
382.184	109.12
382.409	91.12
382.634	96.12
382.86	76.12
383.085	104.12
383.31	105.12
383.535	91.12
383.761	87.12
383.986	98.12
384.211	101.12
384.436	93.12
384.662	108.12
384.887	106.12
385.112	109.12
385.337	119.12
385.562	100.12
385.787	109.12
386.013	120.12
386.238	101.12
386.463	120.12
386.688	115.12
386.913	95.12
387.138	109.12
387.363	103.12
387.588	106.12
387.813	104.12
388.038	114.12
388.263	117.12
388.488	119.12
388.713	109.12
388.938	97.12
389.163	100.12
389.387	80.12
389.612	108.12
389.837	92.12
390.062	94.12
390.287	88.12
390.512	100.12
390.736	107.12
390.961	106.12
391.186	92.12
391.411	100.12
391.636	111.12
391.86	94.12
392.085	88.12
392.31	92.12
392.534	91.12
392.759	87.12
392.984	87.12
393.208	104.12
393.433	104.12
393.658	97.12
393.882	74.12
394.107	93.12
394.331	96.12
394.556	88.12
394.78	85.12
395.005	91.12
395.229	100.12
395.454	99.12
395.678	77.12
395.903	97.12
396.127	90.12
396.352	88.12
396.576	76.12
396.801	98.12
397.025	84.12
397.249	71.12
397.474	82.12
397.698	96.12
397.922	84.12
398.147	92.12
398.371	89.12
398.595	85.12
398.82	91.12
399.044	80.12
399.268	86.12
399.492	85.12
399.717	95.12
399.941	105.12
400.165	97.12
400.389	84.12
400.613	79.12
400.837	86.12
401.062	91.12
401.286	98.12
401.51	79.12
401.734	92.12
401.958	115.12
402.182	134.12
402.406	156.12
402.63	125.12
402.854	88.12
403.078	93.12
403.302	82.12
403.526	86.12
403.75	83.12
403.974	93.12
404.198	88.12
404.422	99.12
404.645	101.12
404.869	86.12
405.093	87.12
405.317	87.12
405.541	98.12
405.765	99.12
405.988	114.12
406.212	172.12
406.436	220.12
406.66	146.12
406.883	106.12
407.107	103.12
407.331	103.12
407.555	98.12
407.778	109.12
408.002	92.12
408.226	93.12
408.449	97.12
408.673	100.12
408.896	99.12
409.12	93.12
409.344	87.12
409.567	80.12
409.791	108.12
410.014	102.12
410.238	93.12
410.461	84.12
410.685	104.12
410.908	93.12
411.132	108.12
411.355	106.12
411.578	90.12
411.802	92.12
412.025	94.12
412.249	80.12
412.472	93.12
412.695	97.12
412.919	89.12
413.142	112.12
413.365	93.12
413.589	84.12
413.812	84.12
414.035	98.12
414.258	79.12
414.482	82.12
414.705	96.12
414.928	96.12
415.151	90.12
415.374	98.12
415.597	91.12
415.821	88.12
416.044	101.12
416.267	93.12
416.49	79.12
416.713	99.12
416.936	118.12
417.159	96.12
417.382	90.12
417.605	90.12
417.828	100.12
418.051	99.12
418.274	81.12
418.497	85.12
418.72	94.12
418.943	97.12
419.166	91.12
419.389	84.12
419.611	73.12
419.834	66.12
420.057	91.12
420.28	82.12
420.503	86.12
420.726	88.12
420.948	81.12
421.171	88.12
421.394	87.12
421.617	84.12
421.839	89.12
422.062	93.12
422.285	106.12
422.507	105.12
422.73	100.12
422.953	93.12
423.175	93.12
423.398	90.12
423.621	99.12
423.843	89.12
424.066	77.12
424.288	105.12
424.511	102.12
424.733	95.12
424.956	105.12
425.178	105.12
425.401	104.12
425.623	104.12
425.846	94.12
426.068	93.12
426.291	87.12
426.513	93.12
426.735	91.12
426.958	108.12
427.18	98.12
427.402	132.12
427.625	157.12
427.847	129.12
428.069	103.12
428.292	93.12
428.514	92.12
428.736	71.12
428.958	86.12
429.181	71.12
429.403	89.12
429.625	90.12
429.847	101.12
430.069	96.12
430.292	96.12
430.514	89.12
430.736	85.12
430.958	89.12
431.18	92.12
431.402	74.12
431.624	87.12
431.846	85.12
432.068	75.12
432.29	93.12
432.512	79.12
432.734	89.12
432.956	93.12
433.178	109.12
433.4	91.12
433.622	101.12
433.844	89.12
434.066	103.12
434.287	99.12
434.509	91.12
434.731	90.12
434.953	84.12
435.175	103.12
435.397	95.12
435.618	88.12
435.84	115.12
436.062	131.12
436.284	126.12
436.505	106.12
436.727	89.12
436.949	97.12
437.17	95.12
437.392	81.12
437.614	97.12
437.835	111.12
438.057	120.12
438.278	104.12
438.5	116.12
438.721	124.12
438.943	95.12
439.165	83.12
439.386	90.12
439.608	108.12
439.829	106.12
440.05	125.12
440.272	151.12
440.493	100.12
440.715	81.12
440.936	89.12
441.158	91.12
441.379	87.12
441.6	108.12
441.822	97.12
442.043	96.12
442.264	109.12
442.486	101.12
442.707	105.12
442.928	95.12
443.149	116.12
443.371	120.12
443.592	118.12
443.813	108.12
444.034	121.12
444.255	83.12
444.476	84.12
444.698	88.12
444.919	87.12
445.14	144.12
445.361	120.12
445.582	109.12
445.803	127.12
446.024	143.12
446.245	124.12
446.466	113.12
446.687	105.12
446.908	89.12
447.129	86.12
447.35	92.12
447.571	95.12
447.792	102.12
448.013	101.12
448.234	99.12
448.455	101.12
448.675	109.12
448.896	113.12
449.117	93.12
449.338	103.12
449.559	136.12
449.779	115.12
450	104.12
450.221	102.12
450.442	71.12
450.662	90.12
450.883	97.12
451.104	114.12
451.324	87.12
451.545	84.12
451.766	96.12
451.986	89.12
452.207	86.12
452.428	86.12
452.648	110.12
452.869	106.12
453.089	111.12
453.31	107.12
453.53	94.12
453.751	96.12
453.971	97.12
454.192	110.12
454.412	117.12
454.633	92.12
454.853	85.12
455.073	82.12
455.294	103.12
455.514	111.12
455.734	86.12
455.955	87.12
456.175	85.12
456.395	85.12
456.616	68.12
456.836	97.12
457.056	91.12
457.276	98.12
457.497	91.12
457.717	91.12
457.937	81.12
458.157	93.12
458.377	106.12
458.598	101.12
458.818	146.12
459.038	155.12
459.258	107.12
459.478	100.12
459.698	87.12
459.918	95.12
460.138	96.12
460.358	89.12
460.578	89.12
460.798	87.12
461.018	88.12
461.238	81.12
461.458	99.12
461.678	95.12
461.898	83.12
462.118	92.12
462.338	79.12
462.558	86.12
462.777	85.12
462.997	105.12
463.217	101.12
463.437	84.12
463.657	91.12
463.876	100.12
464.096	81.12
464.316	86.12
464.536	83.12
464.755	86.12
464.975	102.12
465.195	168.12
465.414	162.12
465.634	112.12
465.854	64.12
466.073	81.12
466.293	82.12
466.512	99.12
466.732	88.12
466.951	106.12
467.171	86.12
467.391	94.12
467.61	100.12
467.829	86.12
468.049	86.12
468.268	104.12
468.488	100.12
468.707	90.12
468.927	100.12
469.146	99.12
469.365	80.12
469.585	78.12
469.804	97.12
470.023	92.12
470.243	80.12
470.462	98.12
470.681	93.12
470.901	99.12
471.12	91.12
471.339	91.12
471.558	99.12
471.777	91.12
471.997	93.12
472.216	79.12
472.435	101.12
472.654	83.12
472.873	93.12
473.092	86.12
473.311	88.12
473.53	73.12
473.749	94.12
473.968	93.12
474.187	103.12
474.406	90.12
474.625	89.12
474.844	81.12
475.063	86.12
475.282	85.12
475.501	95.12
475.72	86.12
475.939	90.12
476.158	83.12
476.377	84.12
476.596	83.12
476.814	101.12
477.033	92.12
477.252	81.12
477.471	82.12
477.69	103.12
477.908	86.12
478.127	88.12
478.346	89.12
478.564	98.12
478.783	97.12
479.002	92.12
479.22	75.12
479.439	108.12
479.658	93.12
479.876	106.12
480.095	97.12
480.313	84.12
480.532	82.12
480.751	77.12
480.969	103.12
481.188	98.12
481.406	108.12
481.624	87.12
481.843	96.12
482.061	91.12
482.28	83.12
482.498	90.12
482.717	78.12
482.935	95.12
483.153	86.12
483.372	96.12
483.59	97.12
483.808	95.12
484.027	116.12
484.245	114.12
484.463	104.12
484.681	98.12
484.9	99.12
485.118	87.12
485.336	92.12
485.554	92.12
485.772	109.12
485.99	119.12
486.209	100.12
486.427	102.12
486.645	98.12
486.863	103.12
487.081	95.12
487.299	91.12
487.517	97.12
487.735	84.12
487.953	105.12
488.171	100.12
488.389	84.12
488.607	88.12
488.825	108.12
489.043	86.12
489.261	78.12
489.479	100.12
489.696	115.12
489.914	92.12
490.132	84.12
490.35	95.12
490.568	97.12
490.786	91.12
491.003	87.12
491.221	88.12
491.439	91.12
491.657	102.12
491.874	103.12
492.092	85.12
492.31	87.12
492.527	90.12
492.745	93.12
492.963	92.12
493.18	106.12
493.398	87.12
493.615	91.12
493.833	87.12
494.05	92.12
494.268	81.12
494.485	93.12
494.703	87.12
494.92	101.12
495.138	91.12
495.355	95.12
495.573	94.12
495.79	97.12
496.008	77.12
496.225	91.12
496.442	110.12
496.66	87.12
496.877	99.12
497.094	109.12
497.312	90.12
497.529	97.12
497.746	93.12
497.963	89.12
498.181	90.12
498.398	109.12
498.615	121.12
498.832	102.12
499.049	92.12
499.267	105.12
499.484	100.12
499.701	91.12
499.918	91.12
500.135	78.12
500.352	89.12
500.569	84.12
500.786	77.12
501.003	96.12
501.22	110.12
501.437	92.12
501.654	90.12
501.871	105.12
502.088	93.12
502.305	92.12
502.522	99.12
502.739	92.12
502.956	85.12
503.172	88.12
503.389	121.12
503.606	104.12
503.823	95.12
504.04	109.12
504.256	92.12
504.473	87.12
504.69	93.12
504.907	98.12
505.123	84.12
505.34	95.12
505.557	97.12
505.773	88.12
505.99	91.12
506.207	95.12
506.423	102.12
506.64	86.12
506.856	104.12
507.073	104.12
507.289	91.12
507.506	103.12
507.722	111.12
507.939	117.12
508.155	87.12
508.372	92.12
508.588	93.12
508.805	106.12
509.021	97.12
509.238	104.12
509.454	105.12
509.67	93.12
509.887	97.12
510.103	127.12
510.319	224.12
510.536	783.12
510.752	2437.12
510.968	676.12
511.184	158.12
511.401	119.12
511.617	113.12
511.833	106.12
512.049	96.12
512.265	93.12
512.481	99.12
512.698	105.12
512.914	79.12
513.13	98.12
513.346	90.12
513.562	108.12
513.778	106.12
513.994	98.12
514.21	109.12
514.426	113.12
514.642	132.12
