Data from Uncirc_2003_H10_HRD10591_00031.txt Node
Date: Wed Jan 03 10:35:54 EST 2024
User: Yrep
Spectrometer: HR+D1059
Trigger mode: 1
Integration Time (sec): 1.000000E-1
Scans to average: 1
Electric dark correction enabled: true
Nonlinearity correction enabled: false
Boxcar width: 0
XAxis mode: Wavelengths
Number of Pixels in Spectrum: 2048
>>>>>Begin Spectral Data<<<<<
223.165	-9.81
223.4	-9.81
223.635	-9.81
223.869	-11.81
224.104	-6.81
224.338	-24.81
224.573	-5.81
224.808	-20.81
225.042	2.19
225.277	-1.81
225.511	-2.81
225.746	4.19
225.98	3.19
226.215	4.19
226.449	10.19
226.683	10.19
226.918	23.19
227.152	27.19
227.387	44.19
227.621	51.19
227.856	45.19
228.09	50.19
228.324	51.19
228.559	53.19
228.793	49.19
229.027	53.19
229.262	70.19
229.496	71.19
229.73	85.19
229.964	83.19
230.199	75.19
230.433	83.19
230.667	74.19
230.901	79.19
231.136	77.19
231.37	74.19
231.604	86.19
231.838	76.19
232.072	76.19
232.306	91.19
232.541	81.19
232.775	76.19
233.009	72.19
233.243	87.19
233.477	92.19
233.711	82.19
233.945	95.19
234.179	75.19
234.413	83.19
234.647	68.19
234.881	79.19
235.115	71.19
235.349	84.19
235.583	83.19
235.817	72.19
236.051	83.19
236.285	77.19
236.519	87.19
236.753	70.19
236.987	85.19
237.221	76.19
237.455	84.19
237.689	77.19
237.922	63.19
238.156	80.19
238.39	83.19
238.624	69.19
238.858	73.19
239.091	92.19
239.325	85.19
239.559	87.19
239.793	82.19
240.027	92.19
240.26	83.19
240.494	96.19
240.728	75.19
240.961	72.19
241.195	76.19
241.429	61.19
241.662	86.19
241.896	80.19
242.13	76.19
242.363	72.19
242.597	75.19
242.83	83.19
243.064	72.19
243.298	79.19
243.531	80.19
243.765	81.19
243.998	83.19
244.232	67.19
244.465	78.19
244.699	91.19
244.932	79.19
245.166	70.19
245.399	83.19
245.633	75.19
245.866	85.19
246.099	72.19
246.333	82.19
246.566	85.19
246.8	91.19
247.033	89.19
247.266	85.19
247.5	77.19
247.733	85.19
247.966	84.19
248.2	90.19
248.433	76.19
248.666	92.19
248.899	103.19
249.133	89.19
249.366	83.19
249.599	101.19
249.832	89.19
250.066	88.19
250.299	94.19
250.532	87.19
250.765	88.19
250.998	97.19
251.231	85.19
251.465	79.19
251.698	67.19
251.931	81.19
252.164	70.19
252.397	82.19
252.63	77.19
252.863	80.19
253.096	89.19
253.329	77.19
253.562	78.19
253.795	86.19
254.028	81.19
254.261	81.19
254.494	73.19
254.727	76.19
254.96	88.19
255.193	86.19
255.426	67.19
255.659	81.19
255.892	85.19
256.124	75.19
256.357	83.19
256.59	79.19
256.823	88.19
257.056	70.19
257.289	84.19
257.521	95.19
257.754	83.19
257.987	97.19
258.22	90.19
258.452	92.19
258.685	68.19
258.918	84.19
259.151	91.19
259.383	73.19
259.616	77.19
259.849	92.19
260.081	91.19
260.314	84.19
260.547	71.19
260.779	79.19
261.012	93.19
261.244	76.19
261.477	81.19
261.71	91.19
261.942	103.19
262.175	107.19
262.407	105.19
262.64	98.19
262.872	83.19
263.105	88.19
263.337	90.19
263.57	79.19
263.802	84.19
264.035	86.19
264.267	90.19
264.499	88.19
264.732	97.19
264.964	93.19
265.197	77.19
265.429	90.19
265.661	79.19
265.894	90.19
266.126	91.19
266.358	85.19
266.591	73.19
266.823	83.19
267.055	90.19
267.287	83.19
267.52	87.19
267.752	86.19
267.984	90.19
268.216	87.19
268.448	80.19
268.681	93.19
268.913	86.19
269.145	89.19
269.377	82.19
269.609	76.19
269.841	82.19
270.073	83.19
270.306	100.19
270.538	76.19
270.77	81.19
271.002	98.19
271.234	81.19
271.466	101.19
271.698	78.19
271.93	83.19
272.162	106.19
272.394	80.19
272.626	79.19
272.858	86.19
273.09	90.19
273.322	99.19
273.553	82.19
273.785	93.19
274.017	83.19
274.249	79.19
274.481	87.19
274.713	89.19
274.945	83.19
275.176	90.19
275.408	85.19
275.64	94.19
275.872	83.19
276.104	95.19
276.335	89.19
276.567	99.19
276.799	85.19
277.031	96.19
277.262	89.19
277.494	82.19
277.726	83.19
277.957	89.19
278.189	97.19
278.421	88.19
278.652	81.19
278.884	86.19
279.115	87.19
279.347	85.19
279.579	91.19
279.81	88.19
280.042	92.19
280.273	100.19
280.505	92.19
280.736	88.19
280.968	94.19
281.199	95.19
281.431	102.19
281.662	93.19
281.894	85.19
282.125	101.19
282.356	105.19
282.588	140.19
282.819	114.19
283.051	105.19
283.282	99.19
283.513	100.19
283.745	85.19
283.976	82.19
284.207	93.19
284.439	89.19
284.67	81.19
284.901	102.19
285.132	83.19
285.364	75.19
285.595	82.19
285.826	98.19
286.057	74.19
286.288	96.19
286.52	96.19
286.751	91.19
286.982	80.19
287.213	74.19
287.444	88.19
287.675	85.19
287.906	90.19
288.138	97.19
288.369	106.19
288.6	93.19
288.831	91.19
289.062	96.19
289.293	91.19
289.524	89.19
289.755	66.19
289.986	77.19
290.217	92.19
290.448	90.19
290.679	82.19
290.91	94.19
291.141	77.19
291.371	81.19
291.602	79.19
291.833	89.19
292.064	80.19
292.295	90.19
292.526	82.19
292.757	91.19
292.987	96.19
293.218	89.19
293.449	98.19
293.68	90.19
293.91	96.19
294.141	85.19
294.372	90.19
294.603	83.19
294.833	97.19
295.064	89.19
295.295	84.19
295.525	88.19
295.756	105.19
295.987	121.19
296.217	129.19
296.448	106.19
296.679	90.19
296.909	98.19
297.14	105.19
297.37	100.19
297.601	101.19
297.831	90.19
298.062	97.19
298.292	76.19
298.523	102.19
298.753	92.19
298.984	95.19
299.214	85.19
299.445	75.19
299.675	84.19
299.905	106.19
300.136	89.19
300.366	81.19
300.597	99.19
300.827	103.19
301.057	92.19
301.288	115.19
301.518	99.19
301.748	97.19
301.979	105.19
302.209	81.19
302.439	94.19
302.669	84.19
302.9	103.19
303.13	91.19
303.36	91.19
303.59	96.19
303.82	97.19
304.051	85.19
304.281	100.19
304.511	102.19
304.741	86.19
304.971	90.19
305.201	86.19
305.431	91.19
305.661	92.19
305.891	87.19
306.121	82.19
306.352	101.19
306.582	105.19
306.812	112.19
307.042	98.19
307.272	101.19
307.502	91.19
307.731	91.19
307.961	83.19
308.191	92.19
308.421	101.19
308.651	97.19
308.881	93.19
309.111	96.19
309.341	110.19
309.571	87.19
309.8	84.19
310.03	100.19
310.26	92.19
310.49	88.19
310.72	104.19
310.949	107.19
311.179	94.19
311.409	105.19
311.639	105.19
311.868	96.19
312.098	99.19
312.328	98.19
312.557	100.19
312.787	97.19
313.017	112.19
313.246	95.19
313.476	96.19
313.706	88.19
313.935	82.19
314.165	90.19
314.394	92.19
314.624	103.19
314.853	96.19
315.083	98.19
315.312	113.19
315.542	90.19
315.771	85.19
316.001	85.19
316.23	86.19
316.46	77.19
316.689	81.19
316.919	98.19
317.148	84.19
317.377	91.19
317.607	111.19
317.836	88.19
318.065	93.19
318.295	93.19
318.524	95.19
318.753	101.19
318.983	107.19
319.212	99.19
319.441	108.19
319.67	98.19
319.9	109.19
320.129	96.19
320.358	96.19
320.587	97.19
320.816	98.19
321.046	98.19
321.275	99.19
321.504	107.19
321.733	89.19
321.962	86.19
322.191	114.19
322.42	110.19
322.649	102.19
322.878	121.19
323.108	118.19
323.337	116.19
323.566	135.19
323.795	150.19
324.024	197.19
324.253	425.19
324.482	844.19
324.71	1780.19
324.939	2362.19
325.168	864.19
325.397	255.19
325.626	155.19
325.855	135.19
326.084	118.19
326.313	142.19
326.542	165.19
326.77	220.19
326.999	457.19
327.228	1021.19
327.457	1831.19
327.686	1426.19
327.914	380.19
328.143	195.19
328.372	144.19
328.6	117.19
328.829	115.19
329.058	108.19
329.287	133.19
329.515	97.19
329.744	99.19
329.972	92.19
330.201	109.19
330.43	114.19
330.658	111.19
330.887	128.19
331.115	123.19
331.344	109.19
331.572	100.19
331.801	112.19
332.03	103.19
332.258	99.19
332.486	100.19
332.715	92.19
332.943	85.19
333.172	89.19
333.4	86.19
333.629	111.19
333.857	118.19
334.085	100.19
334.314	94.19
334.542	94.19
334.771	96.19
334.999	111.19
335.227	91.19
335.455	90.19
335.684	100.19
335.912	92.19
336.14	93.19
336.369	96.19
336.597	109.19
336.825	112.19
337.053	92.19
337.281	86.19
337.51	87.19
337.738	100.19
337.966	95.19
338.194	90.19
338.422	91.19
338.65	93.19
338.878	105.19
339.106	87.19
339.334	88.19
339.562	101.19
339.79	100.19
340.018	89.19
340.246	102.19
340.474	91.19
340.702	93.19
340.93	85.19
341.158	107.19
341.386	106.19
341.614	103.19
341.842	105.19
342.07	110.19
342.298	90.19
342.526	95.19
342.754	91.19
342.981	82.19
343.209	90.19
343.437	102.19
343.665	94.19
343.893	92.19
344.12	98.19
344.348	82.19
344.576	88.19
344.804	94.19
345.031	76.19
345.259	96.19
345.487	95.19
345.714	93.19
345.942	99.19
346.17	94.19
346.397	95.19
346.625	99.19
346.853	89.19
347.08	109.19
347.308	103.19
347.535	92.19
347.763	94.19
347.99	97.19
348.218	103.19
348.445	112.19
348.673	112.19
348.9	103.19
349.128	107.19
349.355	105.19
349.583	97.19
349.81	90.19
350.037	98.19
350.265	93.19
350.492	96.19
350.72	97.19
350.947	79.19
351.174	101.19
351.402	120.19
351.629	104.19
351.856	100.19
352.083	105.19
352.311	108.19
352.538	106.19
352.765	100.19
352.992	108.19
353.22	120.19
353.447	104.19
353.674	101.19
353.901	98.19
354.128	95.19
354.355	108.19
354.583	94.19
354.81	111.19
355.037	113.19
355.264	95.19
355.491	97.19
355.718	91.19
355.945	101.19
356.172	101.19
356.399	106.19
356.626	90.19
356.853	109.19
357.08	93.19
357.307	105.19
357.534	85.19
357.761	106.19
357.988	99.19
358.215	114.19
358.441	104.19
358.668	100.19
358.895	88.19
359.122	90.19
359.349	93.19
359.576	95.19
359.802	114.19
360.029	114.19
360.256	102.19
360.483	105.19
360.709	101.19
360.936	102.19
361.163	99.19
361.39	101.19
361.616	100.19
361.843	89.19
362.07	92.19
362.296	102.19
362.523	93.19
362.749	109.19
362.976	101.19
363.203	92.19
363.429	90.19
363.656	91.19
363.882	88.19
364.109	101.19
364.335	101.19
364.562	87.19
364.788	88.19
365.015	111.19
365.241	107.19
365.468	94.19
365.694	103.19
365.92	102.19
366.147	101.19
366.373	101.19
366.599	84.19
366.826	92.19
367.052	92.19
367.278	100.19
367.505	97.19
367.731	92.19
367.957	89.19
368.184	87.19
368.41	100.19
368.636	112.19
368.862	97.19
369.089	125.19
369.315	111.19
369.541	96.19
369.767	102.19
369.993	106.19
370.219	101.19
370.445	97.19
370.672	101.19
370.898	87.19
371.124	95.19
371.35	103.19
371.576	97.19
371.802	85.19
372.028	93.19
372.254	85.19
372.48	94.19
372.706	98.19
372.932	99.19
373.158	81.19
373.384	85.19
373.61	84.19
373.835	80.19
374.061	90.19
374.287	83.19
374.513	101.19
374.739	90.19
374.965	95.19
375.191	85.19
375.416	88.19
375.642	95.19
375.868	92.19
376.094	102.19
376.319	87.19
376.545	77.19
376.771	103.19
376.997	75.19
377.222	91.19
377.448	107.19
377.674	93.19
377.899	90.19
378.125	85.19
378.35	101.19
378.576	77.19
378.802	94.19
379.027	119.19
379.253	104.19
379.478	93.19
379.704	103.19
379.929	101.19
380.155	88.19
380.38	91.19
380.606	93.19
380.831	112.19
381.057	96.19
381.282	100.19
381.507	95.19
381.733	93.19
381.958	104.19
382.184	112.19
382.409	90.19
382.634	112.19
382.86	109.19
383.085	107.19
383.31	102.19
383.535	113.19
383.761	115.19
383.986	103.19
384.211	101.19
384.436	104.19
384.662	95.19
384.887	118.19
385.112	109.19
385.337	109.19
385.562	103.19
385.787	100.19
386.013	107.19
386.238	115.19
386.463	100.19
386.688	113.19
386.913	105.19
387.138	94.19
387.363	109.19
387.588	113.19
387.813	105.19
388.038	102.19
388.263	103.19
388.488	126.19
388.713	102.19
388.938	99.19
389.163	100.19
389.387	103.19
389.612	106.19
389.837	97.19
390.062	90.19
390.287	78.19
390.512	102.19
390.736	102.19
390.961	93.19
391.186	116.19
391.411	102.19
391.636	108.19
391.86	80.19
392.085	89.19
392.31	97.19
392.534	88.19
392.759	83.19
392.984	82.19
393.208	97.19
393.433	91.19
393.658	89.19
393.882	88.19
394.107	81.19
394.331	89.19
394.556	87.19
394.78	107.19
395.005	104.19
395.229	95.19
395.454	88.19
395.678	70.19
395.903	93.19
396.127	82.19
396.352	99.19
396.576	79.19
396.801	75.19
397.025	94.19
397.249	101.19
397.474	102.19
397.698	84.19
397.922	79.19
398.147	100.19
398.371	90.19
398.595	85.19
398.82	86.19
399.044	100.19
399.268	91.19
399.492	95.19
399.717	84.19
399.941	104.19
400.165	100.19
400.389	114.19
400.613	80.19
400.837	93.19
401.062	91.19
401.286	96.19
401.51	98.19
401.734	91.19
401.958	97.19
402.182	129.19
402.406	148.19
402.63	114.19
402.854	107.19
403.078	90.19
403.302	91.19
403.526	90.19
403.75	98.19
403.974	95.19
404.198	83.19
404.422	97.19
404.645	80.19
404.869	94.19
405.093	108.19
405.317	105.19
405.541	108.19
405.765	93.19
405.988	112.19
406.212	169.19
406.436	217.19
406.66	155.19
406.883	101.19
407.107	105.19
407.331	98.19
407.555	103.19
407.778	111.19
408.002	95.19
408.226	101.19
408.449	85.19
408.673	99.19
408.896	100.19
409.12	91.19
409.344	86.19
409.567	89.19
409.791	82.19
410.014	99.19
410.238	106.19
410.461	100.19
410.685	86.19
410.908	97.19
411.132	102.19
411.355	99.19
411.578	99.19
411.802	87.19
412.025	90.19
412.249	80.19
412.472	105.19
412.695	90.19
412.919	92.19
413.142	95.19
413.365	98.19
413.589	89.19
413.812	103.19
414.035	87.19
414.258	99.19
414.482	86.19
414.705	96.19
414.928	103.19
415.151	95.19
415.374	96.19
415.597	89.19
415.821	90.19
416.044	96.19
416.267	97.19
416.49	91.19
416.713	95.19
416.936	83.19
417.159	99.19
417.382	93.19
417.605	102.19
417.828	96.19
418.051	95.19
418.274	96.19
418.497	86.19
418.72	99.19
418.943	90.19
419.166	84.19
419.389	102.19
419.611	107.19
419.834	91.19
420.057	88.19
420.28	91.19
420.503	84.19
420.726	86.19
420.948	103.19
421.171	94.19
421.394	99.19
421.617	78.19
421.839	97.19
422.062	91.19
422.285	93.19
422.507	103.19
422.73	89.19
422.953	102.19
423.175	81.19
423.398	88.19
423.621	108.19
423.843	96.19
424.066	85.19
424.288	100.19
424.511	90.19
424.733	90.19
424.956	97.19
425.178	107.19
425.401	112.19
425.623	103.19
425.846	105.19
426.068	101.19
426.291	91.19
426.513	95.19
426.735	105.19
426.958	97.19
427.18	101.19
427.402	115.19
427.625	146.19
427.847	121.19
428.069	104.19
428.292	91.19
428.514	91.19
428.736	81.19
428.958	85.19
429.181	83.19
429.403	88.19
429.625	103.19
429.847	107.19
430.069	103.19
430.292	85.19
430.514	82.19
430.736	93.19
430.958	94.19
431.18	79.19
431.402	87.19
431.624	99.19
431.846	70.19
432.068	92.19
432.29	97.19
432.512	89.19
432.734	103.19
432.956	102.19
433.178	88.19
433.4	98.19
433.622	90.19
433.844	97.19
434.066	106.19
434.287	105.19
434.509	101.19
434.731	111.19
434.953	86.19
435.175	89.19
435.397	95.19
435.618	101.19
435.84	121.19
436.062	106.19
436.284	118.19
436.505	117.19
436.727	112.19
436.949	91.19
437.17	93.19
437.392	97.19
437.614	92.19
437.835	99.19
438.057	101.19
438.278	109.19
438.5	111.19
438.721	101.19
438.943	101.19
439.165	90.19
439.386	85.19
439.608	107.19
439.829	103.19
440.05	113.19
440.272	132.19
440.493	98.19
440.715	91.19
440.936	84.19
441.158	85.19
441.379	80.19
441.6	101.19
441.822	91.19
442.043	99.19
442.264	101.19
442.486	93.19
442.707	86.19
442.928	97.19
443.149	129.19
443.371	116.19
443.592	107.19
443.813	95.19
444.034	110.19
444.255	83.19
444.476	84.19
444.698	86.19
444.919	111.19
445.14	134.19
445.361	127.19
445.582	119.19
445.803	148.19
446.024	132.19
446.245	133.19
446.466	108.19
446.687	73.19
446.908	81.19
447.129	96.19
447.35	86.19
447.571	91.19
447.792	107.19
448.013	110.19
448.234	103.19
448.455	98.19
448.675	115.19
448.896	116.19
449.117	97.19
449.338	101.19
449.559	121.19
449.779	122.19
450	115.19
450.221	82.19
450.442	100.19
450.662	83.19
450.883	99.19
451.104	102.19
451.324	88.19
451.545	74.19
451.766	83.19
451.986	85.19
452.207	91.19
452.428	98.19
452.648	97.19
452.869	127.19
453.089	109.19
453.31	116.19
453.53	97.19
453.751	96.19
453.971	109.19
454.192	98.19
454.412	99.19
454.633	97.19
454.853	98.19
455.073	89.19
455.294	89.19
455.514	79.19
455.734	107.19
455.955	95.19
456.175	68.19
456.395	89.19
456.616	88.19
456.836	92.19
457.056	92.19
457.276	91.19
457.497	97.19
457.717	92.19
457.937	97.19
458.157	91.19
458.377	79.19
458.598	108.19
458.818	138.19
459.038	149.19
459.258	113.19
459.478	93.19
459.698	88.19
459.918	74.19
460.138	78.19
460.358	83.19
460.578	80.19
460.798	87.19
461.018	83.19
461.238	98.19
461.458	88.19
461.678	80.19
461.898	82.19
462.118	91.19
462.338	91.19
462.558	97.19
462.777	97.19
462.997	107.19
463.217	93.19
463.437	90.19
463.657	81.19
463.876	88.19
464.096	90.19
464.316	98.19
464.536	108.19
464.755	85.19
464.975	116.19
465.195	151.19
465.414	153.19
465.634	103.19
465.854	100.19
466.073	91.19
466.293	92.19
466.512	84.19
466.732	93.19
466.951	90.19
467.171	98.19
467.391	103.19
467.61	110.19
467.829	98.19
468.049	91.19
468.268	88.19
468.488	83.19
468.707	89.19
468.927	77.19
469.146	82.19
469.365	105.19
469.585	83.19
469.804	101.19
470.023	92.19
470.243	89.19
470.462	90.19
470.681	112.19
470.901	82.19
471.12	106.19
471.339	81.19
471.558	85.19
471.777	99.19
471.997	85.19
472.216	96.19
472.435	94.19
472.654	83.19
472.873	81.19
473.092	88.19
473.311	91.19
473.53	86.19
473.749	84.19
473.968	96.19
474.187	108.19
474.406	90.19
474.625	80.19
474.844	94.19
475.063	90.19
475.282	96.19
475.501	92.19
475.72	97.19
475.939	84.19
476.158	90.19
476.377	90.19
476.596	91.19
476.814	105.19
477.033	83.19
477.252	94.19
477.471	83.19
477.69	89.19
477.908	89.19
478.127	89.19
478.346	81.19
478.564	96.19
478.783	96.19
479.002	87.19
479.22	95.19
479.439	97.19
479.658	97.19
479.876	90.19
480.095	99.19
480.313	97.19
480.532	94.19
480.751	79.19
480.969	88.19
481.188	102.19
481.406	90.19
481.624	88.19
481.843	101.19
482.061	89.19
482.28	93.19
482.498	95.19
482.717	90.19
482.935	89.19
483.153	82.19
483.372	100.19
483.59	100.19
483.808	98.19
484.027	103.19
484.245	102.19
484.463	90.19
484.681	91.19
484.9	96.19
485.118	95.19
485.336	105.19
485.554	100.19
485.772	107.19
485.99	113.19
486.209	104.19
486.427	90.19
486.645	104.19
486.863	100.19
487.081	109.19
487.299	99.19
487.517	99.19
487.735	93.19
487.953	88.19
488.171	92.19
488.389	101.19
488.607	110.19
488.825	92.19
489.043	92.19
489.261	99.19
489.479	111.19
489.696	95.19
489.914	101.19
490.132	100.19
490.35	86.19
490.568	97.19
490.786	90.19
491.003	83.19
491.221	106.19
491.439	92.19
491.657	89.19
491.874	83.19
492.092	93.19
492.31	91.19
492.527	86.19
492.745	107.19
492.963	92.19
493.18	100.19
493.398	106.19
493.615	98.19
493.833	105.19
494.05	87.19
494.268	99.19
494.485	100.19
494.703	93.19
494.92	106.19
495.138	97.19
495.355	102.19
495.573	103.19
495.79	86.19
496.008	97.19
496.225	91.19
496.442	89.19
496.66	102.19
496.877	103.19
497.094	105.19
497.312	104.19
497.529	100.19
497.746	97.19
497.963	97.19
498.181	96.19
498.398	90.19
498.615	98.19
498.832	99.19
499.049	90.19
499.267	90.19
499.484	101.19
499.701	92.19
499.918	104.19
500.135	100.19
500.352	78.19
500.569	105.19
500.786	99.19
501.003	107.19
501.22	88.19
501.437	103.19
501.654	83.19
501.871	100.19
502.088	102.19
502.305	107.19
502.522	101.19
502.739	94.19
502.956	97.19
503.172	104.19
503.389	100.19
503.606	98.19
503.823	104.19
504.04	85.19
504.256	102.19
504.473	93.19
504.69	100.19
504.907	107.19
505.123	100.19
505.34	81.19
505.557	93.19
505.773	101.19
505.99	96.19
506.207	103.19
506.423	83.19
506.64	85.19
506.856	80.19
507.073	92.19
507.289	101.19
507.506	109.19
507.722	99.19
507.939	110.19
508.155	96.19
508.372	96.19
508.588	83.19
508.805	100.19
509.021	99.19
509.238	98.19
509.454	117.19
509.67	111.19
509.887	103.19
510.103	123.19
510.319	226.19
510.536	777.19
510.752	2422.19
510.968	664.19
511.184	160.19
511.401	106.19
511.617	111.19
511.833	108.19
512.049	92.19
512.265	89.19
512.481	86.19
512.698	89.19
512.914	87.19
513.13	95.19
513.346	96.19
513.562	106.19
513.778	104.19
513.994	106.19
514.21	94.19
