Data from Uncirc_2003_H10_HRD10591_00086.txt Node
Date: Wed Jan 03 10:36:05 EST 2024
User: Yrep
Spectrometer: HR+D1059
Trigger mode: 1
Integration Time (sec): 1.000000E-1
Scans to average: 1
Electric dark correction enabled: true
Nonlinearity correction enabled: false
Boxcar width: 0
XAxis mode: Wavelengths
Number of Pixels in Spectrum: 2048
>>>>>Begin Spectral Data<<<<<
223.165	-10.06
223.4	-10.06
223.635	-10.06
223.869	-0.06
224.104	-12.06
224.338	-27.06
224.573	-25.06
224.808	-24.06
225.042	-3.06
225.277	-8.06
225.511	-3.06
225.746	6.94
225.98	12.94
226.215	11.94
226.449	9.94
226.683	19.94
226.918	18.94
227.152	31.94
227.387	42.94
227.621	39.94
227.856	32.94
228.09	47.94
228.324	53.94
228.559	46.94
228.793	59.94
229.027	60.94
229.262	70.94
229.496	68.94
229.73	78.94
229.964	91.94
230.199	78.94
230.433	71.94
230.667	73.94
230.901	85.94
231.136	78.94
231.37	82.94
231.604	84.94
231.838	80.94
232.072	82.94
232.306	91.94
232.541	89.94
232.775	79.94
233.009	79.94
233.243	81.94
233.477	92.94
233.711	83.94
233.945	80.94
234.179	81.94
234.413	89.94
234.647	91.94
234.881	73.94
235.115	75.94
235.349	70.94
235.583	95.94
235.817	100.94
236.051	91.94
236.285	76.94
236.519	82.94
236.753	85.94
236.987	85.94
237.221	85.94
237.455	91.94
237.689	86.94
237.922	79.94
238.156	90.94
238.39	83.94
238.624	80.94
238.858	86.94
239.091	73.94
239.325	71.94
239.559	79.94
239.793	98.94
240.027	84.94
240.26	91.94
240.494	87.94
240.728	70.94
240.961	70.94
241.195	81.94
241.429	84.94
241.662	87.94
241.896	97.94
242.13	78.94
242.363	92.94
242.597	96.94
242.83	71.94
243.064	81.94
243.298	72.94
243.531	91.94
243.765	78.94
243.998	98.94
244.232	88.94
244.465	98.94
244.699	83.94
244.932	71.94
245.166	96.94
245.399	88.94
245.633	73.94
245.866	90.94
246.099	82.94
246.333	86.94
246.566	80.94
246.8	86.94
247.033	77.94
247.266	84.94
247.5	88.94
247.733	84.94
247.966	71.94
248.2	83.94
248.433	92.94
248.666	73.94
248.899	74.94
249.133	84.94
249.366	91.94
249.599	94.94
249.832	95.94
250.066	74.94
250.299	92.94
250.532	80.94
250.765	82.94
250.998	97.94
251.231	78.94
251.465	64.94
251.698	107.94
251.931	73.94
252.164	91.94
252.397	86.94
252.63	74.94
252.863	88.94
253.096	86.94
253.329	83.94
253.562	73.94
253.795	78.94
254.028	74.94
254.261	97.94
254.494	82.94
254.727	86.94
254.96	76.94
255.193	79.94
255.426	80.94
255.659	87.94
255.892	84.94
256.124	85.94
256.357	76.94
256.59	76.94
256.823	73.94
257.056	84.94
257.289	80.94
257.521	83.94
257.754	77.94
257.987	83.94
258.22	91.94
258.452	78.94
258.685	80.94
258.918	76.94
259.151	81.94
259.383	94.94
259.616	72.94
259.849	82.94
260.081	84.94
260.314	75.94
260.547	70.94
260.779	72.94
261.012	81.94
261.244	92.94
261.477	83.94
261.71	89.94
261.942	115.94
262.175	122.94
262.407	92.94
262.64	79.94
262.872	75.94
263.105	89.94
263.337	88.94
263.57	89.94
263.802	77.94
264.035	74.94
264.267	80.94
264.499	82.94
264.732	88.94
264.964	87.94
265.197	78.94
265.429	91.94
265.661	70.94
265.894	73.94
266.126	99.94
266.358	88.94
266.591	84.94
266.823	77.94
267.055	72.94
267.287	88.94
267.52	82.94
267.752	87.94
267.984	93.94
268.216	98.94
268.448	89.94
268.681	69.94
268.913	91.94
269.145	81.94
269.377	86.94
269.609	73.94
269.841	88.94
270.073	94.94
270.306	84.94
270.538	79.94
270.77	72.94
271.002	65.94
271.234	74.94
271.466	79.94
271.698	100.94
271.93	82.94
272.162	69.94
272.394	87.94
272.626	94.94
272.858	99.94
273.09	103.94
273.322	86.94
273.553	74.94
273.785	101.94
274.017	100.94
274.249	78.94
274.481	78.94
274.713	82.94
274.945	91.94
275.176	75.94
275.408	88.94
275.64	89.94
275.872	81.94
276.104	95.94
276.335	77.94
276.567	112.94
276.799	93.94
277.031	106.94
277.262	92.94
277.494	72.94
277.726	75.94
277.957	89.94
278.189	77.94
278.421	82.94
278.652	83.94
278.884	87.94
279.115	96.94
279.347	98.94
279.579	86.94
279.81	87.94
280.042	90.94
280.273	93.94
280.505	90.94
280.736	88.94
280.968	85.94
281.199	84.94
281.431	81.94
281.662	85.94
281.894	98.94
282.125	99.94
282.356	116.94
282.588	133.94
282.819	120.94
283.051	91.94
283.282	89.94
283.513	86.94
283.745	92.94
283.976	86.94
284.207	97.94
284.439	94.94
284.67	73.94
284.901	86.94
285.132	93.94
285.364	95.94
285.595	92.94
285.826	82.94
286.057	107.94
286.288	87.94
286.52	96.94
286.751	93.94
286.982	92.94
287.213	91.94
287.444	93.94
287.675	92.94
287.906	91.94
288.138	98.94
288.369	93.94
288.6	97.94
288.831	88.94
289.062	88.94
289.293	88.94
289.524	85.94
289.755	96.94
289.986	102.94
290.217	82.94
290.448	89.94
290.679	86.94
290.91	90.94
291.141	86.94
291.371	87.94
291.602	94.94
291.833	80.94
292.064	95.94
292.295	91.94
292.526	78.94
292.757	95.94
292.987	80.94
293.218	86.94
293.449	85.94
293.68	81.94
293.91	80.94
294.141	94.94
294.372	98.94
294.603	83.94
294.833	81.94
295.064	93.94
295.295	91.94
295.525	94.94
295.756	98.94
295.987	105.94
296.217	145.94
296.448	130.94
296.679	96.94
296.909	96.94
297.14	94.94
297.37	85.94
297.601	85.94
297.831	93.94
298.062	88.94
298.292	92.94
298.523	92.94
298.753	82.94
298.984	91.94
299.214	108.94
299.445	98.94
299.675	87.94
299.905	98.94
300.136	93.94
300.366	86.94
300.597	98.94
300.827	103.94
301.057	90.94
301.288	98.94
301.518	89.94
301.748	86.94
301.979	97.94
302.209	79.94
302.439	83.94
302.669	93.94
302.9	92.94
303.13	81.94
303.36	91.94
303.59	94.94
303.82	90.94
304.051	98.94
304.281	90.94
304.511	81.94
304.741	85.94
304.971	79.94
305.201	80.94
305.431	95.94
305.661	89.94
305.891	90.94
306.121	97.94
306.352	109.94
306.582	94.94
306.812	92.94
307.042	86.94
307.272	82.94
307.502	112.94
307.731	92.94
307.961	101.94
308.191	94.94
308.421	99.94
308.651	107.94
308.881	95.94
309.111	96.94
309.341	106.94
309.571	103.94
309.8	92.94
310.03	81.94
310.26	95.94
310.49	96.94
310.72	107.94
310.949	105.94
311.179	103.94
311.409	88.94
311.639	112.94
311.868	102.94
312.098	100.94
312.328	80.94
312.557	118.94
312.787	98.94
313.017	106.94
313.246	91.94
313.476	107.94
313.706	74.94
313.935	99.94
314.165	108.94
314.394	91.94
314.624	105.94
314.853	90.94
315.083	78.94
315.312	101.94
315.542	98.94
315.771	95.94
316.001	103.94
316.23	90.94
316.46	87.94
316.689	91.94
316.919	87.94
317.148	90.94
317.377	113.94
317.607	85.94
317.836	102.94
318.065	92.94
318.295	80.94
318.524	84.94
318.753	105.94
318.983	101.94
319.212	100.94
319.441	103.94
319.67	99.94
319.9	93.94
320.129	95.94
320.358	102.94
320.587	92.94
320.816	102.94
321.046	84.94
321.275	87.94
321.504	94.94
321.733	108.94
321.962	103.94
322.191	106.94
322.42	111.94
322.649	111.94
322.878	101.94
323.108	113.94
323.337	134.94
323.566	127.94
323.795	171.94
324.024	235.94
324.253	427.94
324.482	916.94
324.71	1858.94
324.939	2536.94
325.168	928.94
325.397	263.94
325.626	164.94
325.855	144.94
326.084	134.94
326.313	134.94
326.542	154.94
326.77	252.94
326.999	499.94
327.228	1043.94
327.457	1915.94
327.686	1515.94
327.914	410.94
328.143	204.94
328.372	142.94
328.6	119.94
328.829	123.94
329.058	116.94
329.287	132.94
329.515	107.94
329.744	123.94
329.972	101.94
330.201	91.94
330.43	112.94
330.658	121.94
330.887	131.94
331.115	122.94
331.344	97.94
331.572	105.94
331.801	101.94
332.03	101.94
332.258	91.94
332.486	98.94
332.715	102.94
332.943	111.94
333.172	92.94
333.4	105.94
333.629	100.94
333.857	94.94
334.085	122.94
334.314	109.94
334.542	103.94
334.771	121.94
334.999	99.94
335.227	108.94
335.455	105.94
335.684	107.94
335.912	106.94
336.14	103.94
336.369	99.94
336.597	79.94
336.825	106.94
337.053	85.94
337.281	85.94
337.51	88.94
337.738	97.94
337.966	100.94
338.194	97.94
338.422	99.94
338.65	89.94
338.878	89.94
339.106	97.94
339.334	102.94
339.562	91.94
339.79	102.94
340.018	106.94
340.246	105.94
340.474	100.94
340.702	90.94
340.93	82.94
341.158	99.94
341.386	91.94
341.614	95.94
341.842	102.94
342.07	91.94
342.298	87.94
342.526	100.94
342.754	105.94
342.981	101.94
343.209	100.94
343.437	111.94
343.665	87.94
343.893	85.94
344.12	97.94
344.348	90.94
344.576	97.94
344.804	92.94
345.031	86.94
345.259	99.94
345.487	80.94
345.714	100.94
345.942	104.94
346.17	96.94
346.397	82.94
346.625	88.94
346.853	92.94
347.08	116.94
347.308	85.94
347.535	101.94
347.763	102.94
347.99	102.94
348.218	107.94
348.445	114.94
348.673	96.94
348.9	95.94
349.128	99.94
349.355	94.94
349.583	111.94
349.81	107.94
350.037	104.94
350.265	105.94
350.492	98.94
350.72	92.94
350.947	110.94
351.174	102.94
351.402	126.94
351.629	103.94
351.856	104.94
352.083	93.94
352.311	98.94
352.538	103.94
352.765	92.94
352.992	111.94
353.22	119.94
353.447	98.94
353.674	94.94
353.901	108.94
354.128	92.94
354.355	90.94
354.583	125.94
354.81	90.94
355.037	91.94
355.264	91.94
355.491	98.94
355.718	86.94
355.945	92.94
356.172	96.94
356.399	103.94
356.626	97.94
356.853	78.94
357.08	98.94
357.307	90.94
357.534	105.94
357.761	95.94
357.988	102.94
358.215	101.94
358.441	101.94
358.668	102.94
358.895	88.94
359.122	98.94
359.349	97.94
359.576	100.94
359.802	98.94
360.029	119.94
360.256	110.94
360.483	94.94
360.709	86.94
360.936	98.94
361.163	100.94
361.39	90.94
361.616	87.94
361.843	92.94
362.07	89.94
362.296	91.94
362.523	103.94
362.749	102.94
362.976	92.94
363.203	108.94
363.429	97.94
363.656	96.94
363.882	91.94
364.109	86.94
364.335	90.94
364.562	87.94
364.788	96.94
365.015	97.94
365.241	95.94
365.468	102.94
365.694	119.94
365.92	100.94
366.147	95.94
366.373	98.94
366.599	86.94
366.826	87.94
367.052	83.94
367.278	101.94
367.505	90.94
367.731	102.94
367.957	97.94
368.184	98.94
368.41	108.94
368.636	97.94
368.862	123.94
369.089	104.94
369.315	90.94
369.541	84.94
369.767	105.94
369.993	93.94
370.219	99.94
370.445	83.94
370.672	89.94
370.898	94.94
371.124	96.94
371.35	87.94
371.576	103.94
371.802	99.94
372.028	89.94
372.254	101.94
372.48	87.94
372.706	88.94
372.932	103.94
373.158	79.94
373.384	99.94
373.61	97.94
373.835	107.94
374.061	84.94
374.287	90.94
374.513	91.94
374.739	69.94
374.965	94.94
375.191	94.94
375.416	90.94
375.642	103.94
375.868	101.94
376.094	99.94
376.319	87.94
376.545	98.94
376.771	92.94
376.997	86.94
377.222	95.94
377.448	89.94
377.674	83.94
377.899	92.94
378.125	88.94
378.35	81.94
378.576	91.94
378.802	81.94
379.027	100.94
379.253	100.94
379.478	97.94
379.704	102.94
379.929	97.94
380.155	104.94
380.38	95.94
380.606	101.94
380.831	102.94
381.057	90.94
381.282	88.94
381.507	91.94
381.733	94.94
381.958	88.94
382.184	101.94
382.409	100.94
382.634	114.94
382.86	98.94
383.085	90.94
383.31	112.94
383.535	97.94
383.761	93.94
383.986	103.94
384.211	107.94
384.436	103.94
384.662	106.94
384.887	101.94
385.112	110.94
385.337	99.94
385.562	114.94
385.787	106.94
386.013	101.94
386.238	119.94
386.463	104.94
386.688	102.94
386.913	103.94
387.138	99.94
387.363	104.94
387.588	103.94
387.813	117.94
388.038	89.94
388.263	107.94
388.488	107.94
388.713	95.94
388.938	98.94
389.163	100.94
389.387	89.94
389.612	90.94
389.837	99.94
390.062	98.94
390.287	78.94
390.512	87.94
390.736	78.94
390.961	97.94
391.186	100.94
391.411	86.94
391.636	95.94
391.86	96.94
392.085	84.94
392.31	90.94
392.534	92.94
392.759	87.94
392.984	89.94
393.208	86.94
393.433	74.94
393.658	84.94
393.882	96.94
394.107	84.94
394.331	94.94
394.556	87.94
394.78	75.94
395.005	91.94
395.229	91.94
395.454	89.94
395.678	91.94
395.903	80.94
396.127	91.94
396.352	81.94
396.576	91.94
396.801	83.94
397.025	92.94
397.249	91.94
397.474	92.94
397.698	79.94
397.922	78.94
398.147	90.94
398.371	87.94
398.595	80.94
398.82	93.94
399.044	86.94
399.268	94.94
399.492	93.94
399.717	93.94
399.941	75.94
400.165	93.94
400.389	96.94
400.613	93.94
400.837	90.94
401.062	82.94
401.286	93.94
401.51	81.94
401.734	77.94
401.958	110.94
402.182	112.94
402.406	162.94
402.63	105.94
402.854	98.94
403.078	84.94
403.302	95.94
403.526	82.94
403.75	108.94
403.974	87.94
404.198	90.94
404.422	85.94
404.645	90.94
404.869	100.94
405.093	95.94
405.317	106.94
405.541	105.94
405.765	102.94
405.988	113.94
406.212	180.94
406.436	217.94
406.66	152.94
406.883	100.94
407.107	76.94
407.331	79.94
407.555	85.94
407.778	92.94
408.002	89.94
408.226	92.94
408.449	80.94
408.673	83.94
408.896	83.94
409.12	89.94
409.344	88.94
409.567	84.94
409.791	86.94
410.014	102.94
410.238	93.94
410.461	93.94
410.685	109.94
410.908	100.94
411.132	105.94
411.355	105.94
411.578	85.94
411.802	86.94
412.025	82.94
412.249	102.94
412.472	102.94
412.695	95.94
412.919	96.94
413.142	88.94
413.365	81.94
413.589	89.94
413.812	99.94
414.035	87.94
414.258	83.94
414.482	90.94
414.705	101.94
414.928	83.94
415.151	90.94
415.374	91.94
415.597	99.94
415.821	92.94
416.044	87.94
416.267	87.94
416.49	103.94
416.713	95.94
416.936	89.94
417.159	92.94
417.382	87.94
417.605	92.94
417.828	78.94
418.051	98.94
418.274	88.94
418.497	85.94
418.72	74.94
418.943	93.94
419.166	88.94
419.389	88.94
419.611	83.94
419.834	99.94
420.057	85.94
420.28	87.94
420.503	91.94
420.726	96.94
420.948	98.94
421.171	101.94
421.394	100.94
421.617	92.94
421.839	91.94
422.062	88.94
422.285	89.94
422.507	105.94
422.73	90.94
422.953	88.94
423.175	104.94
423.398	95.94
423.621	95.94
423.843	81.94
424.066	86.94
424.288	97.94
424.511	102.94
424.733	78.94
424.956	91.94
425.178	104.94
425.401	100.94
425.623	96.94
425.846	87.94
426.068	88.94
426.291	80.94
426.513	96.94
426.735	102.94
426.958	88.94
427.18	110.94
427.402	142.94
427.625	165.94
427.847	130.94
428.069	118.94
428.292	94.94
428.514	95.94
428.736	103.94
428.958	79.94
429.181	97.94
429.403	88.94
429.625	88.94
429.847	100.94
430.069	94.94
430.292	94.94
430.514	75.94
430.736	77.94
430.958	84.94
431.18	85.94
431.402	76.94
431.624	86.94
431.846	81.94
432.068	98.94
432.29	89.94
432.512	76.94
432.734	89.94
432.956	96.94
433.178	91.94
433.4	87.94
433.622	99.94
433.844	94.94
434.066	88.94
434.287	98.94
434.509	96.94
434.731	91.94
434.953	97.94
435.175	102.94
435.397	86.94
435.618	91.94
435.84	82.94
436.062	110.94
436.284	99.94
436.505	107.94
436.727	106.94
436.949	100.94
437.17	88.94
437.392	87.94
437.614	103.94
437.835	107.94
438.057	116.94
438.278	128.94
438.5	94.94
438.721	110.94
438.943	96.94
439.165	92.94
439.386	99.94
439.608	104.94
439.829	108.94
440.05	115.94
440.272	127.94
440.493	99.94
440.715	90.94
440.936	102.94
441.158	81.94
441.379	112.94
441.6	89.94
441.822	99.94
442.043	90.94
442.264	102.94
442.486	105.94
442.707	84.94
442.928	108.94
443.149	117.94
443.371	120.94
443.592	103.94
443.813	114.94
444.034	99.94
444.255	95.94
444.476	91.94
444.698	91.94
444.919	86.94
445.14	143.94
445.361	117.94
445.582	102.94
445.803	127.94
446.024	122.94
446.245	136.94
446.466	103.94
446.687	102.94
446.908	110.94
447.129	106.94
447.35	84.94
447.571	97.94
447.792	95.94
448.013	94.94
448.234	109.94
448.455	103.94
448.675	114.94
448.896	111.94
449.117	105.94
449.338	111.94
449.559	123.94
449.779	136.94
450	109.94
450.221	90.94
450.442	92.94
450.662	87.94
450.883	106.94
451.104	110.94
451.324	114.94
451.545	82.94
451.766	87.94
451.986	99.94
452.207	89.94
452.428	102.94
452.648	98.94
452.869	115.94
453.089	103.94
453.31	126.94
453.53	79.94
453.751	99.94
453.971	113.94
454.192	126.94
454.412	106.94
454.633	89.94
454.853	81.94
455.073	90.94
455.294	91.94
455.514	91.94
455.734	85.94
455.955	94.94
456.175	82.94
456.395	86.94
456.616	97.94
456.836	84.94
457.056	101.94
457.276	74.94
457.497	94.94
457.717	99.94
457.937	90.94
458.157	91.94
458.377	98.94
458.598	112.94
458.818	146.94
459.038	151.94
459.258	122.94
459.478	90.94
459.698	71.94
459.918	81.94
460.138	92.94
460.358	96.94
460.578	83.94
460.798	101.94
461.018	92.94
461.238	97.94
461.458	86.94
461.678	95.94
461.898	84.94
462.118	72.94
462.338	89.94
462.558	80.94
462.777	81.94
462.997	94.94
463.217	84.94
463.437	78.94
463.657	95.94
463.876	94.94
464.096	86.94
464.316	90.94
464.536	105.94
464.755	95.94
464.975	103.94
465.195	166.94
465.414	157.94
465.634	99.94
465.854	96.94
466.073	87.94
466.293	95.94
466.512	94.94
466.732	93.94
466.951	87.94
467.171	100.94
467.391	97.94
467.61	92.94
467.829	108.94
468.049	92.94
468.268	85.94
468.488	90.94
468.707	92.94
468.927	90.94
469.146	98.94
469.365	88.94
469.585	78.94
469.804	90.94
470.023	102.94
470.243	97.94
470.462	106.94
470.681	99.94
470.901	93.94
471.12	77.94
471.339	75.94
471.558	87.94
471.777	84.94
471.997	95.94
472.216	103.94
472.435	92.94
472.654	95.94
472.873	88.94
473.092	86.94
473.311	95.94
473.53	83.94
473.749	88.94
473.968	99.94
474.187	101.94
474.406	103.94
474.625	92.94
474.844	83.94
475.063	89.94
475.282	90.94
475.501	80.94
475.72	93.94
475.939	85.94
476.158	85.94
476.377	91.94
476.596	98.94
476.814	85.94
477.033	97.94
477.252	97.94
477.471	88.94
477.69	82.94
477.908	100.94
478.127	88.94
478.346	87.94
478.564	92.94
478.783	88.94
479.002	85.94
479.22	101.94
479.439	103.94
479.658	106.94
479.876	105.94
480.095	91.94
480.313	81.94
480.532	76.94
480.751	95.94
480.969	85.94
481.188	118.94
481.406	112.94
481.624	89.94
481.843	104.94
482.061	84.94
482.28	104.94
482.498	82.94
482.717	82.94
482.935	103.94
483.153	85.94
483.372	83.94
483.59	79.94
483.808	95.94
484.027	88.94
484.245	93.94
484.463	85.94
484.681	102.94
484.9	99.94
485.118	99.94
485.336	95.94
485.554	84.94
485.772	100.94
485.99	90.94
486.209	89.94
486.427	89.94
486.645	104.94
486.863	113.94
487.081	89.94
487.299	92.94
487.517	101.94
487.735	81.94
487.953	93.94
488.171	92.94
488.389	102.94
488.607	92.94
488.825	95.94
489.043	87.94
489.261	103.94
489.479	98.94
489.696	108.94
489.914	87.94
490.132	99.94
490.35	93.94
490.568	80.94
490.786	92.94
491.003	94.94
491.221	93.94
491.439	91.94
491.657	95.94
491.874	96.94
492.092	95.94
492.31	88.94
492.527	95.94
492.745	96.94
492.963	90.94
493.18	89.94
493.398	92.94
493.615	99.94
493.833	91.94
494.05	87.94
494.268	82.94
494.485	89.94
494.703	69.94
494.92	89.94
495.138	92.94
495.355	103.94
495.573	88.94
495.79	85.94
496.008	100.94
496.225	90.94
496.442	85.94
496.66	117.94
496.877	94.94
497.094	95.94
497.312	92.94
497.529	88.94
497.746	73.94
497.963	83.94
498.181	80.94
498.398	96.94
498.615	103.94
498.832	107.94
499.049	72.94
499.267	97.94
499.484	86.94
499.701	82.94
499.918	95.94
500.135	89.94
500.352	82.94
500.569	87.94
500.786	100.94
501.003	101.94
501.22	97.94
501.437	95.94
501.654	105.94
501.871	99.94
502.088	103.94
502.305	90.94
502.522	104.94
502.739	98.94
502.956	102.94
503.172	91.94
503.389	95.94
503.606	105.94
503.823	92.94
504.04	103.94
504.256	90.94
504.473	104.94
504.69	94.94
504.907	94.94
505.123	98.94
505.34	84.94
505.557	90.94
505.773	89.94
505.99	95.94
506.207	84.94
506.423	98.94
506.64	87.94
506.856	90.94
507.073	83.94
507.289	81.94
507.506	86.94
507.722	115.94
507.939	108.94
508.155	84.94
508.372	81.94
508.588	103.94
508.805	85.94
509.021	94.94
509.238	106.94
509.454	103.94
509.67	92.94
509.887	109.94
510.103	129.94
510.319	222.94
510.536	798.94
510.752	2541.94
510.968	693.94
511.184	172.94
511.401	116.94
511.617	97.94
511.833	92.94
512.049	89.94
512.265	83.94
512.481	90.94
512.698	84.94
512.914	90.94
513.13	90.94
513.346	92.94
513.562	102.94
513.778	98.94
513.994	89.94
514.21	90.94
514.426	121.94
514.642	139.94
514.858	127.94
515.074	175.94
