Data from Uncirc_2003_H10_HRD10591_00072.txt Node
Date: Wed Jan 03 10:36:02 EST 2024
User: Yrep
Spectrometer: HR+D1059
Trigger mode: 1
Integration Time (sec): 1.000000E-1
Scans to average: 1
Electric dark correction enabled: true
Nonlinearity correction enabled: false
Boxcar width: 0
XAxis mode: Wavelengths
Number of Pixels in Spectrum: 2048
>>>>>Begin Spectral Data<<<<<
223.165	-26.19
223.4	-26.19
223.635	-26.19
223.869	-13.19
224.104	-15.19
224.338	-10.19
224.573	-19.19
224.808	-9.19
225.042	-12.19
225.277	-9.19
225.511	-11.19
225.746	-0.19
225.98	-7.19
226.215	23.81
226.449	14.81
226.683	30.81
226.918	30.81
227.152	32.81
227.387	21.81
227.621	34.81
227.856	43.81
228.09	44.81
228.324	44.81
228.559	51.81
228.793	58.81
229.027	52.81
229.262	63.81
229.496	77.81
229.73	86.81
229.964	79.81
230.199	66.81
230.433	90.81
230.667	94.81
230.901	71.81
231.136	70.81
231.37	73.81
231.604	83.81
231.838	79.81
232.072	91.81
232.306	95.81
232.541	72.81
232.775	71.81
233.009	86.81
233.243	90.81
233.477	97.81
233.711	72.81
233.945	82.81
234.179	88.81
234.413	82.81
234.647	85.81
234.881	75.81
235.115	80.81
235.349	78.81
235.583	82.81
235.817	77.81
236.051	77.81
236.285	89.81
236.519	81.81
236.753	82.81
236.987	77.81
237.221	91.81
237.455	83.81
237.689	83.81
237.922	75.81
238.156	78.81
238.39	72.81
238.624	73.81
238.858	66.81
239.091	83.81
239.325	79.81
239.559	82.81
239.793	78.81
240.027	73.81
240.26	90.81
240.494	97.81
240.728	61.81
240.961	84.81
241.195	78.81
241.429	71.81
241.662	84.81
241.896	81.81
242.13	83.81
242.363	72.81
242.597	80.81
242.83	77.81
243.064	75.81
243.298	85.81
243.531	77.81
243.765	77.81
243.998	86.81
244.232	81.81
244.465	88.81
244.699	98.81
244.932	74.81
245.166	78.81
245.399	89.81
245.633	70.81
245.866	86.81
246.099	76.81
246.333	79.81
246.566	76.81
246.8	80.81
247.033	70.81
247.266	83.81
247.5	82.81
247.733	84.81
247.966	72.81
248.2	69.81
248.433	89.81
248.666	80.81
248.899	76.81
249.133	90.81
249.366	91.81
249.599	94.81
249.832	85.81
250.066	70.81
250.299	74.81
250.532	74.81
250.765	82.81
250.998	81.81
251.231	79.81
251.465	65.81
251.698	71.81
251.931	95.81
252.164	81.81
252.397	88.81
252.63	92.81
252.863	80.81
253.096	82.81
253.329	77.81
253.562	83.81
253.795	69.81
254.028	82.81
254.261	79.81
254.494	84.81
254.727	79.81
254.96	82.81
255.193	85.81
255.426	87.81
255.659	84.81
255.892	86.81
256.124	77.81
256.357	80.81
256.59	79.81
256.823	87.81
257.056	78.81
257.289	68.81
257.521	95.81
257.754	79.81
257.987	82.81
258.22	73.81
258.452	78.81
258.685	83.81
258.918	86.81
259.151	86.81
259.383	69.81
259.616	89.81
259.849	81.81
260.081	87.81
260.314	93.81
260.547	76.81
260.779	80.81
261.012	75.81
261.244	79.81
261.477	72.81
261.71	100.81
261.942	103.81
262.175	125.81
262.407	90.81
262.64	97.81
262.872	93.81
263.105	81.81
263.337	67.81
263.57	71.81
263.802	91.81
264.035	94.81
264.267	82.81
264.499	77.81
264.732	87.81
264.964	71.81
265.197	88.81
265.429	77.81
265.661	95.81
265.894	89.81
266.126	87.81
266.358	86.81
266.591	99.81
266.823	95.81
267.055	95.81
267.287	68.81
267.52	91.81
267.752	93.81
267.984	95.81
268.216	93.81
268.448	107.81
268.681	90.81
268.913	92.81
269.145	86.81
269.377	83.81
269.609	84.81
269.841	94.81
270.073	80.81
270.306	88.81
270.538	94.81
270.77	75.81
271.002	90.81
271.234	77.81
271.466	82.81
271.698	84.81
271.93	81.81
272.162	100.81
272.394	88.81
272.626	82.81
272.858	81.81
273.09	92.81
273.322	105.81
273.553	84.81
273.785	91.81
274.017	73.81
274.249	94.81
274.481	86.81
274.713	78.81
274.945	90.81
275.176	93.81
275.408	85.81
275.64	79.81
275.872	85.81
276.104	98.81
276.335	92.81
276.567	97.81
276.799	91.81
277.031	93.81
277.262	81.81
277.494	98.81
277.726	82.81
277.957	91.81
278.189	93.81
278.421	81.81
278.652	85.81
278.884	87.81
279.115	86.81
279.347	84.81
279.579	85.81
279.81	82.81
280.042	96.81
280.273	91.81
280.505	90.81
280.736	91.81
280.968	83.81
281.199	91.81
281.431	80.81
281.662	94.81
281.894	86.81
282.125	92.81
282.356	127.81
282.588	129.81
282.819	105.81
283.051	92.81
283.282	87.81
283.513	78.81
283.745	86.81
283.976	85.81
284.207	93.81
284.439	77.81
284.67	81.81
284.901	77.81
285.132	81.81
285.364	79.81
285.595	85.81
285.826	91.81
286.057	97.81
286.288	88.81
286.52	84.81
286.751	88.81
286.982	94.81
287.213	82.81
287.444	72.81
287.675	97.81
287.906	83.81
288.138	96.81
288.369	96.81
288.6	97.81
288.831	87.81
289.062	94.81
289.293	85.81
289.524	86.81
289.755	88.81
289.986	102.81
290.217	85.81
290.448	80.81
290.679	80.81
290.91	85.81
291.141	86.81
291.371	85.81
291.602	89.81
291.833	94.81
292.064	81.81
292.295	98.81
292.526	90.81
292.757	79.81
292.987	96.81
293.218	93.81
293.449	98.81
293.68	91.81
293.91	89.81
294.141	86.81
294.372	90.81
294.603	82.81
294.833	87.81
295.064	82.81
295.295	90.81
295.525	78.81
295.756	84.81
295.987	107.81
296.217	132.81
296.448	120.81
296.679	95.81
296.909	90.81
297.14	93.81
297.37	77.81
297.601	98.81
297.831	86.81
298.062	81.81
298.292	91.81
298.523	95.81
298.753	87.81
298.984	79.81
299.214	88.81
299.445	84.81
299.675	106.81
299.905	91.81
300.136	78.81
300.366	82.81
300.597	90.81
300.827	93.81
301.057	98.81
301.288	104.81
301.518	113.81
301.748	99.81
301.979	102.81
302.209	97.81
302.439	101.81
302.669	89.81
302.9	98.81
303.13	88.81
303.36	90.81
303.59	93.81
303.82	91.81
304.051	112.81
304.281	87.81
304.511	92.81
304.741	89.81
304.971	93.81
305.201	89.81
305.431	80.81
305.661	91.81
305.891	95.81
306.121	86.81
306.352	105.81
306.582	107.81
306.812	82.81
307.042	106.81
307.272	92.81
307.502	82.81
307.731	80.81
307.961	88.81
308.191	80.81
308.421	96.81
308.651	94.81
308.881	92.81
309.111	79.81
309.341	94.81
309.571	91.81
309.8	87.81
310.03	98.81
310.26	88.81
310.49	96.81
310.72	102.81
310.949	113.81
311.179	90.81
311.409	91.81
311.639	88.81
311.868	78.81
312.098	89.81
312.328	93.81
312.557	101.81
312.787	111.81
313.017	116.81
313.246	102.81
313.476	77.81
313.706	92.81
313.935	94.81
314.165	104.81
314.394	97.81
314.624	93.81
314.853	91.81
315.083	100.81
315.312	81.81
315.542	86.81
315.771	100.81
316.001	106.81
316.23	91.81
316.46	98.81
316.689	77.81
316.919	106.81
317.148	91.81
317.377	93.81
317.607	97.81
317.836	105.81
318.065	89.81
318.295	90.81
318.524	85.81
318.753	79.81
318.983	90.81
319.212	103.81
319.441	101.81
319.67	107.81
319.9	100.81
320.129	87.81
320.358	88.81
320.587	92.81
320.816	107.81
321.046	99.81
321.275	105.81
321.504	96.81
321.733	103.81
321.962	103.81
322.191	105.81
322.42	119.81
322.649	105.81
322.878	115.81
323.108	117.81
323.337	112.81
323.566	123.81
323.795	147.81
324.024	208.81
324.253	414.81
324.482	883.81
324.71	1839.81
324.939	2486.81
325.168	892.81
325.397	265.81
325.626	153.81
325.855	145.81
326.084	127.81
326.313	130.81
326.542	167.81
326.77	232.81
326.999	485.81
327.228	1033.81
327.457	1927.81
327.686	1492.81
327.914	392.81
328.143	185.81
328.372	118.81
328.6	114.81
328.829	115.81
329.058	116.81
329.287	148.81
329.515	127.81
329.744	114.81
329.972	104.81
330.201	93.81
330.43	111.81
330.658	122.81
330.887	116.81
331.115	109.81
331.344	100.81
331.572	96.81
331.801	100.81
332.03	108.81
332.258	96.81
332.486	87.81
332.715	80.81
332.943	109.81
333.172	99.81
333.4	99.81
333.629	106.81
333.857	113.81
334.085	103.81
334.314	98.81
334.542	106.81
334.771	99.81
334.999	95.81
335.227	93.81
335.455	86.81
335.684	85.81
335.912	103.81
336.14	101.81
336.369	100.81
336.597	88.81
336.825	93.81
337.053	86.81
337.281	86.81
337.51	96.81
337.738	89.81
337.966	97.81
338.194	94.81
338.422	86.81
338.65	90.81
338.878	87.81
339.106	89.81
339.334	98.81
339.562	102.81
339.79	85.81
340.018	98.81
340.246	94.81
340.474	96.81
340.702	94.81
340.93	79.81
341.158	88.81
341.386	104.81
341.614	85.81
341.842	107.81
342.07	83.81
342.298	78.81
342.526	92.81
342.754	100.81
342.981	86.81
343.209	91.81
343.437	98.81
343.665	74.81
343.893	92.81
344.12	91.81
344.348	87.81
344.576	91.81
344.804	84.81
345.031	96.81
345.259	104.81
345.487	103.81
345.714	96.81
345.942	92.81
346.17	97.81
346.397	91.81
346.625	109.81
346.853	95.81
347.08	100.81
347.308	99.81
347.535	86.81
347.763	107.81
347.99	90.81
348.218	98.81
348.445	119.81
348.673	91.81
348.9	87.81
349.128	94.81
349.355	89.81
349.583	101.81
349.81	91.81
350.037	105.81
350.265	104.81
350.492	98.81
350.72	96.81
350.947	101.81
351.174	102.81
351.402	111.81
351.629	118.81
351.856	101.81
352.083	94.81
352.311	114.81
352.538	107.81
352.765	112.81
352.992	123.81
353.22	108.81
353.447	111.81
353.674	117.81
353.901	100.81
354.128	105.81
354.355	106.81
354.583	96.81
354.81	98.81
355.037	97.81
355.264	98.81
355.491	76.81
355.718	98.81
355.945	99.81
356.172	97.81
356.399	115.81
356.626	95.81
356.853	99.81
357.08	94.81
357.307	101.81
357.534	87.81
357.761	102.81
357.988	92.81
358.215	99.81
358.441	102.81
358.668	93.81
358.895	92.81
359.122	97.81
359.349	99.81
359.576	94.81
359.802	93.81
360.029	110.81
360.256	122.81
360.483	102.81
360.709	81.81
360.936	109.81
361.163	98.81
361.39	109.81
361.616	97.81
361.843	99.81
362.07	90.81
362.296	94.81
362.523	93.81
362.749	85.81
362.976	91.81
363.203	89.81
363.429	85.81
363.656	109.81
363.882	83.81
364.109	92.81
364.335	98.81
364.562	91.81
364.788	90.81
365.015	81.81
365.241	96.81
365.468	110.81
365.694	104.81
365.92	98.81
366.147	93.81
366.373	92.81
366.599	92.81
366.826	95.81
367.052	91.81
367.278	93.81
367.505	82.81
367.731	79.81
367.957	83.81
368.184	84.81
368.41	92.81
368.636	106.81
368.862	106.81
369.089	93.81
369.315	103.81
369.541	95.81
369.767	96.81
369.993	87.81
370.219	88.81
370.445	96.81
370.672	90.81
370.898	85.81
371.124	95.81
371.35	98.81
371.576	85.81
371.802	67.81
372.028	78.81
372.254	77.81
372.48	89.81
372.706	92.81
372.932	81.81
373.158	96.81
373.384	92.81
373.61	90.81
373.835	84.81
374.061	92.81
374.287	85.81
374.513	95.81
374.739	87.81
374.965	87.81
375.191	74.81
375.416	100.81
375.642	93.81
375.868	85.81
376.094	89.81
376.319	97.81
376.545	71.81
376.771	86.81
376.997	86.81
377.222	81.81
377.448	94.81
377.674	102.81
377.899	94.81
378.125	96.81
378.35	85.81
378.576	84.81
378.802	85.81
379.027	94.81
379.253	99.81
379.478	88.81
379.704	92.81
379.929	98.81
380.155	103.81
380.38	108.81
380.606	90.81
380.831	99.81
381.057	103.81
381.282	96.81
381.507	97.81
381.733	101.81
381.958	99.81
382.184	94.81
382.409	93.81
382.634	89.81
382.86	95.81
383.085	78.81
383.31	101.81
383.535	106.81
383.761	96.81
383.986	100.81
384.211	97.81
384.436	101.81
384.662	100.81
384.887	113.81
385.112	92.81
385.337	112.81
385.562	101.81
385.787	99.81
386.013	123.81
386.238	103.81
386.463	94.81
386.688	119.81
386.913	118.81
387.138	96.81
387.363	103.81
387.588	90.81
387.813	111.81
388.038	99.81
388.263	101.81
388.488	98.81
388.713	109.81
388.938	107.81
389.163	72.81
389.387	83.81
389.612	102.81
389.837	98.81
390.062	89.81
390.287	102.81
390.512	89.81
390.736	89.81
390.961	81.81
391.186	94.81
391.411	95.81
391.636	105.81
391.86	80.81
392.085	94.81
392.31	91.81
392.534	93.81
392.759	94.81
392.984	81.81
393.208	88.81
393.433	83.81
393.658	67.81
393.882	79.81
394.107	87.81
394.331	88.81
394.556	90.81
394.78	94.81
395.005	83.81
395.229	97.81
395.454	87.81
395.678	83.81
395.903	93.81
396.127	89.81
396.352	79.81
396.576	99.81
396.801	90.81
397.025	82.81
397.249	85.81
397.474	89.81
397.698	98.81
397.922	69.81
398.147	73.81
398.371	78.81
398.595	84.81
398.82	88.81
399.044	77.81
399.268	79.81
399.492	91.81
399.717	95.81
399.941	90.81
400.165	102.81
400.389	95.81
400.613	77.81
400.837	98.81
401.062	87.81
401.286	75.81
401.51	87.81
401.734	90.81
401.958	97.81
402.182	123.81
402.406	146.81
402.63	113.81
402.854	95.81
403.078	85.81
403.302	93.81
403.526	88.81
403.75	97.81
403.974	83.81
404.198	84.81
404.422	93.81
404.645	90.81
404.869	87.81
405.093	84.81
405.317	78.81
405.541	83.81
405.765	100.81
405.988	106.81
406.212	173.81
406.436	220.81
406.66	134.81
406.883	93.81
407.107	97.81
407.331	78.81
407.555	112.81
407.778	91.81
408.002	95.81
408.226	88.81
408.449	87.81
408.673	89.81
408.896	96.81
409.12	95.81
409.344	85.81
409.567	83.81
409.791	88.81
410.014	91.81
410.238	90.81
410.461	90.81
410.685	105.81
410.908	113.81
411.132	125.81
411.355	86.81
411.578	81.81
411.802	84.81
412.025	74.81
412.249	94.81
412.472	69.81
412.695	88.81
412.919	88.81
413.142	89.81
413.365	91.81
413.589	94.81
413.812	81.81
414.035	97.81
414.258	89.81
414.482	86.81
414.705	88.81
414.928	81.81
415.151	78.81
415.374	90.81
415.597	83.81
415.821	79.81
416.044	78.81
416.267	78.81
416.49	80.81
416.713	97.81
416.936	85.81
417.159	94.81
417.382	95.81
417.605	88.81
417.828	94.81
418.051	90.81
418.274	71.81
418.497	89.81
418.72	96.81
418.943	84.81
419.166	83.81
419.389	92.81
419.611	80.81
419.834	85.81
420.057	97.81
420.28	89.81
420.503	91.81
420.726	93.81
420.948	106.81
421.171	110.81
421.394	84.81
421.617	95.81
421.839	88.81
422.062	85.81
422.285	81.81
422.507	88.81
422.73	111.81
422.953	94.81
423.175	73.81
423.398	95.81
423.621	104.81
423.843	75.81
424.066	99.81
424.288	97.81
424.511	80.81
424.733	96.81
424.956	101.81
425.178	98.81
425.401	101.81
425.623	91.81
425.846	91.81
426.068	94.81
426.291	87.81
426.513	87.81
426.735	95.81
426.958	84.81
427.18	105.81
427.402	117.81
427.625	154.81
427.847	122.81
428.069	106.81
428.292	97.81
428.514	82.81
428.736	83.81
428.958	88.81
429.181	76.81
429.403	87.81
429.625	96.81
429.847	83.81
430.069	93.81
430.292	93.81
430.514	85.81
430.736	93.81
430.958	94.81
431.18	82.81
431.402	86.81
431.624	82.81
431.846	71.81
432.068	75.81
432.29	80.81
432.512	96.81
432.734	80.81
432.956	86.81
433.178	104.81
433.4	105.81
433.622	100.81
433.844	107.81
434.066	81.81
434.287	98.81
434.509	109.81
434.731	97.81
434.953	88.81
435.175	77.81
435.397	88.81
435.618	82.81
435.84	107.81
436.062	113.81
436.284	104.81
436.505	100.81
436.727	97.81
436.949	91.81
437.17	91.81
437.392	82.81
437.614	84.81
437.835	117.81
438.057	118.81
438.278	110.81
438.5	101.81
438.721	119.81
438.943	98.81
439.165	91.81
439.386	98.81
439.608	102.81
439.829	121.81
440.05	102.81
440.272	129.81
440.493	94.81
440.715	87.81
440.936	91.81
441.158	92.81
441.379	89.81
441.6	87.81
441.822	103.81
442.043	94.81
442.264	101.81
442.486	98.81
442.707	97.81
442.928	92.81
443.149	145.81
443.371	117.81
443.592	106.81
443.813	127.81
444.034	90.81
444.255	90.81
444.476	102.81
444.698	83.81
444.919	100.81
445.14	137.81
445.361	114.81
445.582	114.81
445.803	141.81
446.024	135.81
446.245	127.81
446.466	108.81
446.687	93.81
446.908	82.81
447.129	84.81
447.35	88.81
447.571	94.81
447.792	97.81
448.013	104.81
448.234	102.81
448.455	115.81
448.675	106.81
448.896	119.81
449.117	88.81
449.338	101.81
449.559	130.81
449.779	139.81
450	86.81
450.221	79.81
450.442	83.81
450.662	91.81
450.883	99.81
451.104	116.81
451.324	105.81
451.545	79.81
451.766	85.81
451.986	82.81
452.207	85.81
452.428	86.81
452.648	104.81
452.869	106.81
453.089	100.81
453.31	115.81
453.53	93.81
453.751	72.81
453.971	111.81
454.192	106.81
454.412	97.81
454.633	98.81
454.853	100.81
455.073	69.81
455.294	82.81
455.514	104.81
455.734	89.81
455.955	78.81
456.175	100.81
456.395	89.81
456.616	83.81
456.836	99.81
457.056	92.81
457.276	74.81
457.497	93.81
457.717	95.81
457.937	88.81
458.157	91.81
458.377	81.81
458.598	115.81
458.818	136.81
459.038	147.81
459.258	117.81
459.478	85.81
459.698	85.81
459.918	94.81
460.138	91.81
460.358	89.81
460.578	77.81
460.798	96.81
461.018	85.81
461.238	88.81
461.458	78.81
461.678	81.81
461.898	103.81
462.118	81.81
462.338	87.81
462.558	72.81
462.777	77.81
462.997	83.81
463.217	91.81
463.437	89.81
463.657	95.81
463.876	90.81
464.096	97.81
464.316	84.81
464.536	86.81
464.755	97.81
464.975	103.81
465.195	156.81
465.414	155.81
465.634	93.81
465.854	81.81
466.073	76.81
466.293	83.81
466.512	96.81
466.732	91.81
466.951	98.81
467.171	83.81
467.391	98.81
467.61	99.81
467.829	95.81
468.049	77.81
468.268	81.81
468.488	88.81
468.707	87.81
468.927	86.81
469.146	94.81
469.365	89.81
469.585	97.81
469.804	98.81
470.023	103.81
470.243	90.81
470.462	104.81
470.681	106.81
470.901	92.81
471.12	84.81
471.339	86.81
471.558	79.81
471.777	98.81
471.997	80.81
472.216	85.81
472.435	96.81
472.654	83.81
472.873	74.81
473.092	82.81
473.311	98.81
473.53	91.81
473.749	76.81
473.968	86.81
474.187	93.81
474.406	89.81
474.625	94.81
474.844	91.81
475.063	91.81
475.282	79.81
475.501	91.81
475.72	103.81
475.939	92.81
476.158	83.81
476.377	89.81
476.596	94.81
476.814	104.81
477.033	96.81
477.252	88.81
477.471	91.81
477.69	98.81
477.908	72.81
478.127	93.81
478.346	100.81
478.564	97.81
478.783	101.81
479.002	95.81
479.22	109.81
479.439	99.81
479.658	105.81
479.876	96.81
480.095	91.81
480.313	95.81
480.532	88.81
480.751	84.81
480.969	87.81
481.188	109.81
481.406	100.81
481.624	91.81
481.843	91.81
482.061	90.81
482.28	88.81
482.498	81.81
482.717	70.81
482.935	79.81
483.153	105.81
483.372	113.81
483.59	95.81
483.808	89.81
484.027	90.81
484.245	99.81
484.463	103.81
484.681	102.81
484.9	101.81
485.118	87.81
485.336	85.81
485.554	105.81
485.772	94.81
485.99	101.81
486.209	102.81
486.427	88.81
486.645	115.81
486.863	108.81
487.081	98.81
487.299	85.81
487.517	98.81
487.735	94.81
487.953	94.81
488.171	110.81
488.389	103.81
488.607	107.81
488.825	93.81
489.043	93.81
489.261	94.81
489.479	102.81
489.696	83.81
489.914	91.81
490.132	90.81
490.35	91.81
490.568	88.81
490.786	88.81
491.003	83.81
491.221	96.81
491.439	90.81
491.657	100.81
491.874	103.81
492.092	82.81
492.31	96.81
492.527	89.81
492.745	96.81
492.963	87.81
493.18	85.81
493.398	94.81
493.615	98.81
493.833	78.81
494.05	98.81
494.268	87.81
494.485	90.81
494.703	83.81
494.92	81.81
495.138	88.81
495.355	85.81
495.573	83.81
495.79	85.81
496.008	108.81
496.225	88.81
496.442	100.81
496.66	87.81
496.877	95.81
497.094	89.81
497.312	96.81
497.529	85.81
497.746	74.81
497.963	86.81
498.181	95.81
498.398	101.81
498.615	107.81
498.832	102.81
499.049	101.81
499.267	99.81
499.484	90.81
499.701	101.81
499.918	98.81
500.135	85.81
500.352	91.81
500.569	97.81
500.786	105.81
501.003	84.81
501.22	85.81
501.437	97.81
501.654	91.81
501.871	116.81
502.088	102.81
502.305	99.81
502.522	89.81
502.739	87.81
502.956	82.81
503.172	87.81
503.389	83.81
503.606	109.81
503.823	101.81
504.04	102.81
504.256	87.81
504.473	100.81
504.69	98.81
504.907	95.81
505.123	92.81
505.34	91.81
505.557	88.81
505.773	105.81
505.99	90.81
506.207	93.81
506.423	93.81
506.64	84.81
506.856	100.81
507.073	94.81
507.289	97.81
507.506	101.81
507.722	105.81
507.939	93.81
508.155	97.81
508.372	92.81
508.588	88.81
508.805	100.81
509.021	102.81
509.238	82.81
509.454	105.81
509.67	96.81
509.887	120.81
510.103	138.81
510.319	208.81
510.536	743.81
510.752	2436.81
510.968	681.81
511.184	168.81
511.401	114.81
511.617	88.81
511.833	97.81
512.049	98.81
512.265	93.81
512.481	94.81
512.698	81.81
512.914	97.81
513.13	90.81
513.346	72.81
513.562	101.81
513.778	104.81
513.994	96.81
514.21	111.81
514.426	116.81
514.642	133.81
514.858	124.81
515.074	168.81
515.29	446.81
515.506	1466.81
