Data from Uncirc_2003_H10_HRD10591_00057.txt Node
Date: Wed Jan 03 10:35:59 EST 2024
User: Yrep
Spectrometer: HR+D1059
Trigger mode: 1
Integration Time (sec): 1.000000E-1
Scans to average: 1
Electric dark correction enabled: true
Nonlinearity correction enabled: false
Boxcar width: 0
XAxis mode: Wavelengths
Number of Pixels in Spectrum: 2048
>>>>>Begin Spectral Data<<<<<
223.165	-9.88
223.4	-9.88
223.635	-9.88
223.869	-35.88
224.104	-29.88
224.338	-20.88
224.573	-16.88
224.808	-16.88
225.042	-9.88
225.277	0.12
225.511	8.12
225.746	4.12
225.98	8.12
226.215	13.12
226.449	13.12
226.683	30.12
226.918	22.12
227.152	41.12
227.387	45.12
227.621	45.12
227.856	38.12
228.09	45.12
228.324	58.12
228.559	48.12
228.793	54.12
229.027	63.12
229.262	67.12
229.496	68.12
229.73	88.12
229.964	75.12
230.199	63.12
230.433	62.12
230.667	77.12
230.901	73.12
231.136	64.12
231.37	87.12
231.604	87.12
231.838	76.12
232.072	67.12
232.306	62.12
232.541	78.12
232.775	79.12
233.009	72.12
233.243	77.12
233.477	93.12
233.711	82.12
233.945	68.12
234.179	78.12
234.413	87.12
234.647	79.12
234.881	69.12
235.115	81.12
235.349	77.12
235.583	74.12
235.817	92.12
236.051	76.12
236.285	78.12
236.519	75.12
236.753	70.12
236.987	80.12
237.221	81.12
237.455	81.12
237.689	70.12
237.922	71.12
238.156	73.12
238.39	69.12
238.624	83.12
238.858	91.12
239.091	75.12
239.325	78.12
239.559	82.12
239.793	83.12
240.027	61.12
240.26	61.12
240.494	87.12
240.728	65.12
240.961	83.12
241.195	70.12
241.429	66.12
241.662	79.12
241.896	77.12
242.13	79.12
242.363	80.12
242.597	70.12
242.83	76.12
243.064	87.12
243.298	79.12
243.531	64.12
243.765	82.12
243.998	70.12
244.232	66.12
244.465	80.12
244.699	82.12
244.932	77.12
245.166	85.12
245.399	71.12
245.633	85.12
245.866	71.12
246.099	80.12
246.333	75.12
246.566	81.12
246.8	83.12
247.033	66.12
247.266	82.12
247.5	90.12
247.733	70.12
247.966	68.12
248.2	77.12
248.433	84.12
248.666	71.12
248.899	81.12
249.133	72.12
249.366	91.12
249.599	92.12
249.832	70.12
250.066	77.12
250.299	81.12
250.532	73.12
250.765	63.12
250.998	72.12
251.231	63.12
251.465	74.12
251.698	71.12
251.931	78.12
252.164	69.12
252.397	79.12
252.63	70.12
252.863	87.12
253.096	83.12
253.329	70.12
253.562	82.12
253.795	82.12
254.028	72.12
254.261	76.12
254.494	88.12
254.727	80.12
254.96	87.12
255.193	94.12
255.426	78.12
255.659	78.12
255.892	73.12
256.124	80.12
256.357	84.12
256.59	66.12
256.823	76.12
257.056	78.12
257.289	84.12
257.521	55.12
257.754	76.12
257.987	80.12
258.22	68.12
258.452	90.12
258.685	71.12
258.918	83.12
259.151	80.12
259.383	93.12
259.616	77.12
259.849	78.12
260.081	71.12
260.314	81.12
260.547	74.12
260.779	77.12
261.012	69.12
261.244	71.12
261.477	94.12
261.71	85.12
261.942	114.12
262.175	120.12
262.407	79.12
262.64	79.12
262.872	85.12
263.105	87.12
263.337	74.12
263.57	81.12
263.802	74.12
264.035	72.12
264.267	85.12
264.499	76.12
264.732	87.12
264.964	93.12
265.197	72.12
265.429	70.12
265.661	71.12
265.894	69.12
266.126	84.12
266.358	88.12
266.591	73.12
266.823	84.12
267.055	95.12
267.287	89.12
267.52	72.12
267.752	89.12
267.984	86.12
268.216	68.12
268.448	75.12
268.681	73.12
268.913	74.12
269.145	81.12
269.377	74.12
269.609	72.12
269.841	69.12
270.073	74.12
270.306	85.12
270.538	83.12
270.77	92.12
271.002	88.12
271.234	83.12
271.466	87.12
271.698	88.12
271.93	74.12
272.162	76.12
272.394	98.12
272.626	82.12
272.858	77.12
273.09	67.12
273.322	92.12
273.553	78.12
273.785	80.12
274.017	79.12
274.249	80.12
274.481	78.12
274.713	100.12
274.945	81.12
275.176	92.12
275.408	94.12
275.64	75.12
275.872	91.12
276.104	82.12
276.335	87.12
276.567	96.12
276.799	111.12
277.031	108.12
277.262	92.12
277.494	88.12
277.726	72.12
277.957	88.12
278.189	74.12
278.421	84.12
278.652	69.12
278.884	85.12
279.115	82.12
279.347	79.12
279.579	70.12
279.81	84.12
280.042	84.12
280.273	93.12
280.505	86.12
280.736	75.12
280.968	81.12
281.199	89.12
281.431	80.12
281.662	77.12
281.894	87.12
282.125	103.12
282.356	97.12
282.588	126.12
282.819	113.12
283.051	94.12
283.282	94.12
283.513	92.12
283.745	92.12
283.976	69.12
284.207	83.12
284.439	84.12
284.67	80.12
284.901	76.12
285.132	80.12
285.364	87.12
285.595	90.12
285.826	78.12
286.057	94.12
286.288	84.12
286.52	90.12
286.751	87.12
286.982	89.12
287.213	93.12
287.444	75.12
287.675	88.12
287.906	97.12
288.138	94.12
288.369	91.12
288.6	88.12
288.831	85.12
289.062	83.12
289.293	90.12
289.524	74.12
289.755	94.12
289.986	86.12
290.217	100.12
290.448	101.12
290.679	91.12
290.91	69.12
291.141	88.12
291.371	77.12
291.602	74.12
291.833	77.12
292.064	84.12
292.295	85.12
292.526	65.12
292.757	82.12
292.987	95.12
293.218	88.12
293.449	87.12
293.68	87.12
293.91	79.12
294.141	89.12
294.372	91.12
294.603	87.12
294.833	93.12
295.064	78.12
295.295	85.12
295.525	93.12
295.756	80.12
295.987	115.12
296.217	125.12
296.448	124.12
296.679	92.12
296.909	91.12
297.14	91.12
297.37	92.12
297.601	97.12
297.831	90.12
298.062	83.12
298.292	69.12
298.523	87.12
298.753	84.12
298.984	94.12
299.214	90.12
299.445	88.12
299.675	100.12
299.905	85.12
300.136	85.12
300.366	87.12
300.597	89.12
300.827	97.12
301.057	115.12
301.288	97.12
301.518	114.12
301.748	98.12
301.979	95.12
302.209	68.12
302.439	87.12
302.669	78.12
302.9	81.12
303.13	88.12
303.36	96.12
303.59	78.12
303.82	98.12
304.051	95.12
304.281	86.12
304.511	92.12
304.741	93.12
304.971	74.12
305.201	71.12
305.431	105.12
305.661	89.12
305.891	88.12
306.121	92.12
306.352	87.12
306.582	84.12
306.812	88.12
307.042	98.12
307.272	106.12
307.502	93.12
307.731	92.12
307.961	91.12
308.191	81.12
308.421	98.12
308.651	88.12
308.881	95.12
309.111	94.12
309.341	90.12
309.571	100.12
309.8	96.12
310.03	107.12
310.26	100.12
310.49	95.12
310.72	93.12
310.949	98.12
311.179	100.12
311.409	108.12
311.639	81.12
311.868	76.12
312.098	87.12
312.328	83.12
312.557	92.12
312.787	102.12
313.017	94.12
313.246	85.12
313.476	82.12
313.706	97.12
313.935	94.12
314.165	102.12
314.394	96.12
314.624	89.12
314.853	94.12
315.083	86.12
315.312	88.12
315.542	77.12
315.771	98.12
316.001	91.12
316.23	79.12
316.46	83.12
316.689	86.12
316.919	87.12
317.148	93.12
317.377	98.12
317.607	100.12
317.836	94.12
318.065	74.12
318.295	101.12
318.524	94.12
318.753	87.12
318.983	96.12
319.212	110.12
319.441	105.12
319.67	108.12
319.9	85.12
320.129	87.12
320.358	91.12
320.587	85.12
320.816	93.12
321.046	104.12
321.275	101.12
321.504	103.12
321.733	97.12
321.962	103.12
322.191	113.12
322.42	109.12
322.649	112.12
322.878	104.12
323.108	116.12
323.337	126.12
323.566	129.12
323.795	163.12
324.024	207.12
324.253	436.12
324.482	956.12
324.71	1982.12
324.939	2593.12
325.168	964.12
325.397	273.12
325.626	158.12
325.855	138.12
326.084	116.12
326.313	126.12
326.542	150.12
326.77	246.12
326.999	514.12
327.228	1074.12
327.457	1939.12
327.686	1548.12
327.914	415.12
328.143	207.12
328.372	162.12
328.6	125.12
328.829	123.12
329.058	129.12
329.287	126.12
329.515	103.12
329.744	99.12
329.972	99.12
330.201	100.12
330.43	115.12
330.658	110.12
330.887	138.12
331.115	112.12
331.344	100.12
331.572	109.12
331.801	99.12
332.03	103.12
332.258	109.12
332.486	88.12
332.715	116.12
332.943	85.12
333.172	90.12
333.4	96.12
333.629	111.12
333.857	118.12
334.085	101.12
334.314	90.12
334.542	84.12
334.771	107.12
334.999	83.12
335.227	101.12
335.455	91.12
335.684	80.12
335.912	95.12
336.14	91.12
336.369	84.12
336.597	94.12
336.825	111.12
337.053	102.12
337.281	82.12
337.51	84.12
337.738	99.12
337.966	80.12
338.194	78.12
338.422	81.12
338.65	106.12
338.878	98.12
339.106	85.12
339.334	96.12
339.562	100.12
339.79	89.12
340.018	84.12
340.246	90.12
340.474	96.12
340.702	87.12
340.93	92.12
341.158	89.12
341.386	87.12
341.614	83.12
341.842	95.12
342.07	102.12
342.298	87.12
342.526	81.12
342.754	82.12
342.981	87.12
343.209	88.12
343.437	97.12
343.665	79.12
343.893	92.12
344.12	88.12
344.348	88.12
344.576	98.12
344.804	98.12
345.031	78.12
345.259	86.12
345.487	87.12
345.714	95.12
345.942	92.12
346.17	88.12
346.397	85.12
346.625	87.12
346.853	87.12
347.08	100.12
347.308	95.12
347.535	81.12
347.763	94.12
347.99	92.12
348.218	110.12
348.445	100.12
348.673	97.12
348.9	98.12
349.128	94.12
349.355	84.12
349.583	87.12
349.81	83.12
350.037	94.12
350.265	83.12
350.492	96.12
350.72	97.12
350.947	112.12
351.174	102.12
351.402	107.12
351.629	100.12
351.856	90.12
352.083	95.12
352.311	101.12
352.538	106.12
352.765	105.12
352.992	99.12
353.22	106.12
353.447	91.12
353.674	88.12
353.901	89.12
354.128	75.12
354.355	87.12
354.583	94.12
354.81	95.12
355.037	92.12
355.264	91.12
355.491	94.12
355.718	89.12
355.945	96.12
356.172	81.12
356.399	90.12
356.626	97.12
356.853	91.12
357.08	97.12
357.307	93.12
357.534	100.12
357.761	98.12
357.988	78.12
358.215	92.12
358.441	99.12
358.668	91.12
358.895	91.12
359.122	82.12
359.349	87.12
359.576	94.12
359.802	88.12
360.029	118.12
360.256	115.12
360.483	95.12
360.709	84.12
360.936	92.12
361.163	95.12
361.39	92.12
361.616	97.12
361.843	94.12
362.07	91.12
362.296	94.12
362.523	86.12
362.749	86.12
362.976	91.12
363.203	94.12
363.429	91.12
363.656	86.12
363.882	95.12
364.109	81.12
364.335	94.12
364.562	83.12
364.788	94.12
365.015	82.12
365.241	97.12
365.468	93.12
365.694	101.12
365.92	98.12
366.147	77.12
366.373	76.12
366.599	87.12
366.826	92.12
367.052	92.12
367.278	84.12
367.505	88.12
367.731	85.12
367.957	84.12
368.184	68.12
368.41	97.12
368.636	109.12
368.862	103.12
369.089	84.12
369.315	91.12
369.541	90.12
369.767	97.12
369.993	93.12
370.219	94.12
370.445	80.12
370.672	84.12
370.898	90.12
371.124	84.12
371.35	89.12
371.576	98.12
371.802	86.12
372.028	85.12
372.254	93.12
372.48	93.12
372.706	97.12
372.932	95.12
373.158	89.12
373.384	67.12
373.61	85.12
373.835	85.12
374.061	78.12
374.287	92.12
374.513	90.12
374.739	79.12
374.965	93.12
375.191	96.12
375.416	78.12
375.642	85.12
375.868	98.12
376.094	90.12
376.319	83.12
376.545	91.12
376.771	81.12
376.997	74.12
377.222	82.12
377.448	85.12
377.674	82.12
377.899	88.12
378.125	96.12
378.35	99.12
378.576	97.12
378.802	94.12
379.027	77.12
379.253	84.12
379.478	82.12
379.704	88.12
379.929	83.12
380.155	74.12
380.38	86.12
380.606	99.12
380.831	100.12
381.057	83.12
381.282	88.12
381.507	98.12
381.733	92.12
381.958	94.12
382.184	110.12
382.409	104.12
382.634	97.12
382.86	96.12
383.085	87.12
383.31	98.12
383.535	95.12
383.761	88.12
383.986	88.12
384.211	105.12
384.436	84.12
384.662	102.12
384.887	98.12
385.112	112.12
385.337	100.12
385.562	102.12
385.787	94.12
386.013	114.12
386.238	113.12
386.463	101.12
386.688	99.12
386.913	110.12
387.138	96.12
387.363	100.12
387.588	97.12
387.813	99.12
388.038	105.12
388.263	106.12
388.488	100.12
388.713	95.12
388.938	104.12
389.163	87.12
389.387	92.12
389.612	94.12
389.837	95.12
390.062	94.12
390.287	95.12
390.512	85.12
390.736	91.12
390.961	91.12
391.186	101.12
391.411	85.12
391.636	88.12
391.86	83.12
392.085	89.12
392.31	85.12
392.534	76.12
392.759	72.12
392.984	87.12
393.208	85.12
393.433	82.12
393.658	90.12
393.882	83.12
394.107	85.12
394.331	87.12
394.556	85.12
394.78	91.12
395.005	74.12
395.229	83.12
395.454	77.12
395.678	85.12
395.903	84.12
396.127	98.12
396.352	83.12
396.576	104.12
396.801	71.12
397.025	74.12
397.249	87.12
397.474	83.12
397.698	84.12
397.922	92.12
398.147	73.12
398.371	84.12
398.595	95.12
398.82	69.12
399.044	87.12
399.268	94.12
399.492	92.12
399.717	83.12
399.941	78.12
400.165	91.12
400.389	95.12
400.613	85.12
400.837	68.12
401.062	92.12
401.286	95.12
401.51	78.12
401.734	85.12
401.958	91.12
402.182	132.12
402.406	163.12
402.63	110.12
402.854	91.12
403.078	86.12
403.302	90.12
403.526	84.12
403.75	86.12
403.974	72.12
404.198	77.12
404.422	87.12
404.645	79.12
404.869	77.12
405.093	83.12
405.317	91.12
405.541	81.12
405.765	93.12
405.988	119.12
406.212	172.12
406.436	231.12
406.66	150.12
406.883	93.12
407.107	91.12
407.331	88.12
407.555	105.12
407.778	91.12
408.002	80.12
408.226	86.12
408.449	82.12
408.673	89.12
408.896	105.12
409.12	99.12
409.344	85.12
409.567	88.12
409.791	111.12
410.014	88.12
410.238	88.12
410.461	78.12
410.685	100.12
410.908	97.12
411.132	110.12
411.355	99.12
411.578	99.12
411.802	84.12
412.025	88.12
412.249	89.12
412.472	92.12
412.695	84.12
412.919	78.12
413.142	85.12
413.365	95.12
413.589	90.12
413.812	83.12
414.035	93.12
414.258	86.12
414.482	82.12
414.705	97.12
414.928	92.12
415.151	96.12
415.374	102.12
415.597	68.12
415.821	79.12
416.044	91.12
416.267	87.12
416.49	78.12
416.713	94.12
416.936	97.12
417.159	89.12
417.382	73.12
417.605	83.12
417.828	80.12
418.051	87.12
418.274	88.12
418.497	73.12
418.72	83.12
418.943	98.12
419.166	102.12
419.389	87.12
419.611	80.12
419.834	87.12
420.057	85.12
420.28	76.12
420.503	90.12
420.726	76.12
420.948	77.12
421.171	99.12
421.394	85.12
421.617	87.12
421.839	89.12
422.062	85.12
422.285	96.12
422.507	98.12
422.73	92.12
422.953	105.12
423.175	92.12
423.398	102.12
423.621	84.12
423.843	89.12
424.066	82.12
424.288	80.12
424.511	88.12
424.733	92.12
424.956	104.12
425.178	86.12
425.401	90.12
425.623	102.12
425.846	83.12
426.068	99.12
426.291	106.12
426.513	94.12
426.735	82.12
426.958	96.12
427.18	87.12
427.402	136.12
427.625	159.12
427.847	133.12
428.069	99.12
428.292	89.12
428.514	95.12
428.736	86.12
428.958	81.12
429.181	80.12
429.403	89.12
429.625	83.12
429.847	94.12
430.069	92.12
430.292	98.12
430.514	83.12
430.736	83.12
430.958	69.12
431.18	70.12
431.402	69.12
431.624	86.12
431.846	83.12
432.068	91.12
432.29	88.12
432.512	88.12
432.734	104.12
432.956	98.12
433.178	86.12
433.4	92.12
433.622	79.12
433.844	94.12
434.066	86.12
434.287	96.12
434.509	83.12
434.731	89.12
434.953	87.12
435.175	84.12
435.397	88.12
435.618	105.12
435.84	109.12
436.062	135.12
436.284	106.12
436.505	103.12
436.727	109.12
436.949	98.12
437.17	83.12
437.392	79.12
437.614	86.12
437.835	95.12
438.057	109.12
438.278	92.12
438.5	108.12
438.721	119.12
438.943	99.12
439.165	81.12
439.386	72.12
439.608	79.12
439.829	120.12
440.05	120.12
440.272	148.12
440.493	99.12
440.715	88.12
440.936	78.12
441.158	75.12
441.379	84.12
441.6	87.12
441.822	87.12
442.043	92.12
442.264	93.12
442.486	112.12
442.707	83.12
442.928	107.12
443.149	99.12
443.371	114.12
443.592	95.12
443.813	111.12
444.034	112.12
444.255	95.12
444.476	78.12
444.698	81.12
444.919	98.12
445.14	149.12
445.361	126.12
445.582	117.12
445.803	136.12
446.024	123.12
446.245	126.12
446.466	110.12
446.687	86.12
446.908	88.12
447.129	78.12
447.35	85.12
447.571	88.12
447.792	91.12
448.013	98.12
448.234	108.12
448.455	99.12
448.675	113.12
448.896	132.12
449.117	98.12
449.338	98.12
449.559	125.12
449.779	132.12
450	104.12
450.221	90.12
450.442	89.12
450.662	87.12
450.883	108.12
451.104	113.12
451.324	85.12
451.545	80.12
451.766	82.12
451.986	77.12
452.207	100.12
452.428	100.12
452.648	97.12
452.869	114.12
453.089	97.12
453.31	119.12
453.53	87.12
453.751	90.12
453.971	103.12
454.192	103.12
454.412	94.12
454.633	95.12
454.853	77.12
455.073	77.12
455.294	82.12
455.514	99.12
455.734	101.12
455.955	86.12
456.175	93.12
456.395	83.12
456.616	60.12
456.836	77.12
457.056	85.12
457.276	75.12
457.497	83.12
457.717	83.12
457.937	83.12
458.157	88.12
458.377	76.12
458.598	96.12
458.818	128.12
459.038	163.12
459.258	123.12
459.478	100.12
459.698	77.12
459.918	79.12
460.138	76.12
460.358	86.12
460.578	83.12
460.798	78.12
461.018	82.12
461.238	77.12
461.458	95.12
461.678	84.12
461.898	81.12
462.118	79.12
462.338	83.12
462.558	76.12
462.777	81.12
462.997	67.12
463.217	85.12
463.437	77.12
463.657	91.12
463.876	93.12
464.096	82.12
464.316	90.12
464.536	90.12
464.755	91.12
464.975	104.12
465.195	165.12
465.414	158.12
465.634	95.12
465.854	94.12
466.073	94.12
466.293	90.12
466.512	79.12
466.732	86.12
466.951	91.12
467.171	93.12
467.391	103.12
467.61	107.12
467.829	89.12
468.049	81.12
468.268	91.12
468.488	80.12
468.707	82.12
468.927	74.12
469.146	86.12
469.365	80.12
469.585	82.12
469.804	98.12
470.023	89.12
470.243	106.12
470.462	94.12
470.681	106.12
470.901	92.12
471.12	94.12
471.339	91.12
471.558	78.12
471.777	69.12
471.997	79.12
472.216	84.12
472.435	82.12
472.654	80.12
472.873	77.12
473.092	88.12
473.311	91.12
473.53	73.12
473.749	87.12
473.968	88.12
474.187	104.12
474.406	90.12
474.625	90.12
474.844	68.12
475.063	91.12
475.282	81.12
475.501	88.12
475.72	94.12
475.939	91.12
476.158	84.12
476.377	90.12
476.596	86.12
476.814	86.12
477.033	104.12
477.252	76.12
477.471	82.12
477.69	95.12
477.908	79.12
478.127	96.12
478.346	83.12
478.564	75.12
478.783	95.12
479.002	83.12
479.22	88.12
479.439	103.12
479.658	98.12
479.876	90.12
480.095	108.12
480.313	96.12
480.532	91.12
480.751	74.12
480.969	101.12
481.188	103.12
481.406	86.12
481.624	99.12
481.843	79.12
482.061	75.12
482.28	90.12
482.498	79.12
482.717	86.12
482.935	71.12
483.153	72.12
483.372	92.12
483.59	93.12
483.808	86.12
484.027	71.12
484.245	107.12
484.463	97.12
484.681	92.12
484.9	72.12
485.118	103.12
485.336	88.12
485.554	100.12
485.772	92.12
485.99	83.12
486.209	97.12
486.427	103.12
486.645	100.12
486.863	118.12
487.081	95.12
487.299	96.12
487.517	93.12
487.735	90.12
487.953	93.12
488.171	87.12
488.389	92.12
488.607	92.12
488.825	81.12
489.043	90.12
489.261	87.12
489.479	76.12
489.696	98.12
489.914	79.12
490.132	88.12
490.35	84.12
490.568	90.12
490.786	76.12
491.003	85.12
491.221	83.12
491.439	82.12
491.657	82.12
491.874	84.12
492.092	79.12
492.31	93.12
492.527	78.12
492.745	76.12
492.963	88.12
493.18	94.12
493.398	86.12
493.615	103.12
493.833	90.12
494.05	79.12
494.268	85.12
494.485	88.12
494.703	94.12
494.92	83.12
495.138	90.12
495.355	97.12
495.573	88.12
495.79	99.12
496.008	97.12
496.225	100.12
496.442	86.12
496.66	93.12
496.877	76.12
497.094	95.12
497.312	81.12
497.529	85.12
497.746	83.12
497.963	90.12
498.181	96.12
498.398	104.12
498.615	110.12
498.832	115.12
499.049	84.12
499.267	97.12
499.484	73.12
499.701	106.12
499.918	92.12
500.135	93.12
500.352	87.12
500.569	85.12
500.786	89.12
501.003	86.12
501.22	83.12
501.437	104.12
501.654	95.12
501.871	111.12
502.088	74.12
502.305	92.12
502.522	95.12
502.739	91.12
502.956	84.12
503.172	92.12
503.389	88.12
503.606	108.12
503.823	95.12
504.04	91.12
504.256	77.12
504.473	80.12
504.69	77.12
504.907	75.12
505.123	84.12
505.34	99.12
505.557	86.12
505.773	86.12
505.99	75.12
506.207	90.12
506.423	102.12
506.64	97.12
506.856	88.12
507.073	98.12
507.289	82.12
507.506	92.12
507.722	106.12
507.939	90.12
508.155	97.12
508.372	104.12
508.588	85.12
508.805	86.12
509.021	89.12
509.238	111.12
509.454	100.12
509.67	88.12
509.887	110.12
510.103	125.12
510.319	227.12
510.536	893.12
510.752	2886.12
510.968	759.12
511.184	181.12
511.401	113.12
511.617	106.12
511.833	98.12
512.049	90.12
512.265	95.12
512.481	88.12
512.698	87.12
512.914	104.12
513.13	95.12
513.346	100.12
513.562	89.12
513.778	96.12
513.994	99.12
514.21	109.12
514.426	122.12
514.642	146.12
514.858	131.12
515.074	177.12
515.29	514.12
515.506	1691.12
515.721	623.12
515.937	162.12
516.153	117.12
516.369	96.12
516.585	84.12
