Data from Uncirc_2003_H10_HRD10591_00065.txt Node
Date: Wed Jan 03 10:36:00 EST 2024
User: Yrep
Spectrometer: HR+D1059
Trigger mode: 1
Integration Time (sec): 1.000000E-1
Scans to average: 1
Electric dark correction enabled: true
Nonlinearity correction enabled: false
Boxcar width: 0
XAxis mode: Wavelengths
Number of Pixels in Spectrum: 2048
>>>>>Begin Spectral Data<<<<<
223.165	-19.75
223.4	-19.75
223.635	-19.75
223.869	-16.75
224.104	-19.75
224.338	-22.75
224.573	-15.75
224.808	-9.75
225.042	-8.75
225.277	-18.75
225.511	-1.75
225.746	-2.75
225.98	15.25
226.215	15.25
226.449	26.25
226.683	23.25
226.918	19.25
227.152	37.25
227.387	24.25
227.621	30.25
227.856	40.25
228.09	36.25
228.324	43.25
228.559	55.25
228.793	45.25
229.027	61.25
229.262	67.25
229.496	72.25
229.73	77.25
229.964	70.25
230.199	76.25
230.433	66.25
230.667	86.25
230.901	71.25
231.136	72.25
231.37	78.25
231.604	85.25
231.838	74.25
232.072	71.25
232.306	74.25
232.541	88.25
232.775	74.25
233.009	76.25
233.243	71.25
233.477	80.25
233.711	74.25
233.945	83.25
234.179	63.25
234.413	83.25
234.647	89.25
234.881	83.25
235.115	80.25
235.349	74.25
235.583	66.25
235.817	59.25
236.051	68.25
236.285	81.25
236.519	73.25
236.753	83.25
236.987	66.25
237.221	71.25
237.455	55.25
237.689	69.25
237.922	78.25
238.156	81.25
238.39	69.25
238.624	71.25
238.858	79.25
239.091	73.25
239.325	63.25
239.559	70.25
239.793	79.25
240.027	70.25
240.26	70.25
240.494	81.25
240.728	78.25
240.961	75.25
241.195	94.25
241.429	63.25
241.662	76.25
241.896	84.25
242.13	76.25
242.363	61.25
242.597	61.25
242.83	74.25
243.064	77.25
243.298	82.25
243.531	83.25
243.765	64.25
243.998	68.25
244.232	72.25
244.465	70.25
244.699	91.25
244.932	70.25
245.166	76.25
245.399	77.25
245.633	80.25
245.866	80.25
246.099	95.25
246.333	82.25
246.566	71.25
246.8	74.25
247.033	68.25
247.266	65.25
247.5	71.25
247.733	73.25
247.966	76.25
248.2	72.25
248.433	75.25
248.666	72.25
248.899	83.25
249.133	86.25
249.366	90.25
249.599	83.25
249.832	76.25
250.066	83.25
250.299	76.25
250.532	78.25
250.765	79.25
250.998	76.25
251.231	75.25
251.465	69.25
251.698	72.25
251.931	72.25
252.164	70.25
252.397	75.25
252.63	78.25
252.863	79.25
253.096	70.25
253.329	79.25
253.562	82.25
253.795	63.25
254.028	85.25
254.261	81.25
254.494	79.25
254.727	78.25
254.96	90.25
255.193	85.25
255.426	74.25
255.659	90.25
255.892	78.25
256.124	68.25
256.357	70.25
256.59	83.25
256.823	83.25
257.056	71.25
257.289	85.25
257.521	86.25
257.754	89.25
257.987	71.25
258.22	89.25
258.452	81.25
258.685	79.25
258.918	90.25
259.151	88.25
259.383	82.25
259.616	84.25
259.849	71.25
260.081	80.25
260.314	75.25
260.547	68.25
260.779	86.25
261.012	93.25
261.244	83.25
261.477	92.25
261.71	80.25
261.942	92.25
262.175	106.25
262.407	82.25
262.64	87.25
262.872	75.25
263.105	87.25
263.337	83.25
263.57	82.25
263.802	89.25
264.035	84.25
264.267	75.25
264.499	82.25
264.732	94.25
264.964	85.25
265.197	99.25
265.429	83.25
265.661	99.25
265.894	72.25
266.126	78.25
266.358	94.25
266.591	80.25
266.823	81.25
267.055	90.25
267.287	78.25
267.52	74.25
267.752	86.25
267.984	77.25
268.216	63.25
268.448	84.25
268.681	76.25
268.913	87.25
269.145	80.25
269.377	82.25
269.609	73.25
269.841	76.25
270.073	76.25
270.306	67.25
270.538	87.25
270.77	77.25
271.002	83.25
271.234	89.25
271.466	81.25
271.698	78.25
271.93	79.25
272.162	82.25
272.394	85.25
272.626	81.25
272.858	90.25
273.09	75.25
273.322	96.25
273.553	72.25
273.785	82.25
274.017	90.25
274.249	80.25
274.481	88.25
274.713	88.25
274.945	84.25
275.176	76.25
275.408	79.25
275.64	68.25
275.872	84.25
276.104	81.25
276.335	95.25
276.567	85.25
276.799	115.25
277.031	93.25
277.262	77.25
277.494	84.25
277.726	81.25
277.957	84.25
278.189	93.25
278.421	90.25
278.652	80.25
278.884	92.25
279.115	87.25
279.347	84.25
279.579	88.25
279.81	94.25
280.042	83.25
280.273	87.25
280.505	86.25
280.736	97.25
280.968	84.25
281.199	84.25
281.431	91.25
281.662	83.25
281.894	83.25
282.125	95.25
282.356	124.25
282.588	126.25
282.819	97.25
283.051	83.25
283.282	83.25
283.513	89.25
283.745	92.25
283.976	98.25
284.207	68.25
284.439	95.25
284.67	77.25
284.901	91.25
285.132	84.25
285.364	82.25
285.595	90.25
285.826	80.25
286.057	90.25
286.288	72.25
286.52	79.25
286.751	82.25
286.982	79.25
287.213	77.25
287.444	78.25
287.675	97.25
287.906	84.25
288.138	80.25
288.369	97.25
288.6	92.25
288.831	80.25
289.062	83.25
289.293	78.25
289.524	93.25
289.755	88.25
289.986	81.25
290.217	78.25
290.448	79.25
290.679	72.25
290.91	76.25
291.141	85.25
291.371	80.25
291.602	82.25
291.833	96.25
292.064	75.25
292.295	87.25
292.526	88.25
292.757	87.25
292.987	102.25
293.218	87.25
293.449	75.25
293.68	90.25
293.91	98.25
294.141	91.25
294.372	91.25
294.603	84.25
294.833	88.25
295.064	93.25
295.295	80.25
295.525	77.25
295.756	88.25
295.987	101.25
296.217	122.25
296.448	106.25
296.679	97.25
296.909	85.25
297.14	82.25
297.37	79.25
297.601	90.25
297.831	77.25
298.062	91.25
298.292	78.25
298.523	95.25
298.753	80.25
298.984	82.25
299.214	83.25
299.445	75.25
299.675	97.25
299.905	82.25
300.136	94.25
300.366	83.25
300.597	90.25
300.827	91.25
301.057	88.25
301.288	94.25
301.518	101.25
301.748	92.25
301.979	99.25
302.209	82.25
302.439	89.25
302.669	79.25
302.9	80.25
303.13	91.25
303.36	96.25
303.59	91.25
303.82	105.25
304.051	93.25
304.281	95.25
304.511	88.25
304.741	95.25
304.971	83.25
305.201	93.25
305.431	79.25
305.661	80.25
305.891	98.25
306.121	95.25
306.352	99.25
306.582	101.25
306.812	104.25
307.042	101.25
307.272	93.25
307.502	95.25
307.731	102.25
307.961	86.25
308.191	92.25
308.421	94.25
308.651	92.25
308.881	91.25
309.111	86.25
309.341	87.25
309.571	85.25
309.8	98.25
310.03	89.25
310.26	94.25
310.49	89.25
310.72	102.25
310.949	93.25
311.179	86.25
311.409	82.25
311.639	104.25
311.868	84.25
312.098	103.25
312.328	95.25
312.557	82.25
312.787	98.25
313.017	103.25
313.246	86.25
313.476	85.25
313.706	101.25
313.935	84.25
314.165	96.25
314.394	89.25
314.624	88.25
314.853	103.25
315.083	104.25
315.312	88.25
315.542	99.25
315.771	88.25
316.001	78.25
316.23	90.25
316.46	94.25
316.689	109.25
316.919	88.25
317.148	95.25
317.377	79.25
317.607	97.25
317.836	97.25
318.065	87.25
318.295	103.25
318.524	80.25
318.753	84.25
318.983	100.25
319.212	94.25
319.441	96.25
319.67	101.25
319.9	90.25
320.129	86.25
320.358	87.25
320.587	93.25
320.816	75.25
321.046	93.25
321.275	88.25
321.504	100.25
321.733	92.25
321.962	80.25
322.191	89.25
322.42	97.25
322.649	102.25
322.878	104.25
323.108	110.25
323.337	116.25
323.566	134.25
323.795	156.25
324.024	196.25
324.253	373.25
324.482	807.25
324.71	1714.25
324.939	2214.25
325.168	814.25
325.397	247.25
325.626	149.25
325.855	133.25
326.084	113.25
326.313	136.25
326.542	144.25
326.77	224.25
326.999	468.25
327.228	939.25
327.457	1722.25
327.686	1372.25
327.914	365.25
328.143	161.25
328.372	134.25
328.6	118.25
328.829	109.25
329.058	99.25
329.287	128.25
329.515	106.25
329.744	97.25
329.972	88.25
330.201	100.25
330.43	106.25
330.658	114.25
330.887	119.25
331.115	107.25
331.344	95.25
331.572	96.25
331.801	99.25
332.03	79.25
332.258	91.25
332.486	97.25
332.715	103.25
332.943	82.25
333.172	94.25
333.4	84.25
333.629	108.25
333.857	103.25
334.085	90.25
334.314	96.25
334.542	106.25
334.771	99.25
334.999	89.25
335.227	101.25
335.455	84.25
335.684	98.25
335.912	90.25
336.14	76.25
336.369	88.25
336.597	96.25
336.825	99.25
337.053	83.25
337.281	78.25
337.51	96.25
337.738	92.25
337.966	88.25
338.194	86.25
338.422	94.25
338.65	93.25
338.878	79.25
339.106	82.25
339.334	96.25
339.562	91.25
339.79	98.25
340.018	79.25
340.246	85.25
340.474	76.25
340.702	94.25
340.93	107.25
341.158	97.25
341.386	93.25
341.614	87.25
341.842	90.25
342.07	83.25
342.298	88.25
342.526	88.25
342.754	77.25
342.981	83.25
343.209	82.25
343.437	98.25
343.665	93.25
343.893	83.25
344.12	94.25
344.348	91.25
344.576	88.25
344.804	97.25
345.031	79.25
345.259	79.25
345.487	88.25
345.714	88.25
345.942	93.25
346.17	87.25
346.397	85.25
346.625	97.25
346.853	104.25
347.08	80.25
347.308	86.25
347.535	98.25
347.763	99.25
347.99	95.25
348.218	107.25
348.445	104.25
348.673	95.25
348.9	94.25
349.128	85.25
349.355	109.25
349.583	113.25
349.81	80.25
350.037	90.25
350.265	94.25
350.492	80.25
350.72	87.25
350.947	95.25
351.174	109.25
351.402	115.25
351.629	101.25
351.856	94.25
352.083	85.25
352.311	101.25
352.538	98.25
352.765	113.25
352.992	109.25
353.22	101.25
353.447	95.25
353.674	93.25
353.901	91.25
354.128	87.25
354.355	121.25
354.583	96.25
354.81	89.25
355.037	90.25
355.264	96.25
355.491	78.25
355.718	93.25
355.945	92.25
356.172	76.25
356.399	98.25
356.626	97.25
356.853	91.25
357.08	89.25
357.307	96.25
357.534	92.25
357.761	106.25
357.988	92.25
358.215	106.25
358.441	94.25
358.668	80.25
358.895	99.25
359.122	85.25
359.349	75.25
359.576	92.25
359.802	87.25
360.029	89.25
360.256	103.25
360.483	83.25
360.709	86.25
360.936	87.25
361.163	86.25
361.39	102.25
361.616	77.25
361.843	78.25
362.07	75.25
362.296	88.25
362.523	80.25
362.749	89.25
362.976	94.25
363.203	94.25
363.429	75.25
363.656	83.25
363.882	92.25
364.109	74.25
364.335	95.25
364.562	88.25
364.788	78.25
365.015	75.25
365.241	91.25
365.468	94.25
365.694	104.25
365.92	80.25
366.147	73.25
366.373	81.25
366.599	81.25
366.826	83.25
367.052	90.25
367.278	71.25
367.505	79.25
367.731	92.25
367.957	80.25
368.184	87.25
368.41	84.25
368.636	112.25
368.862	111.25
369.089	102.25
369.315	81.25
369.541	81.25
369.767	69.25
369.993	93.25
370.219	93.25
370.445	93.25
370.672	80.25
370.898	85.25
371.124	78.25
371.35	96.25
371.576	83.25
371.802	77.25
372.028	84.25
372.254	82.25
372.48	92.25
372.706	88.25
372.932	94.25
373.158	74.25
373.384	92.25
373.61	79.25
373.835	80.25
374.061	94.25
374.287	85.25
374.513	89.25
374.739	88.25
374.965	80.25
375.191	74.25
375.416	87.25
375.642	71.25
375.868	88.25
376.094	65.25
376.319	94.25
376.545	84.25
376.771	111.25
376.997	95.25
377.222	82.25
377.448	84.25
377.674	82.25
377.899	83.25
378.125	95.25
378.35	91.25
378.576	78.25
378.802	90.25
379.027	93.25
379.253	90.25
379.478	106.25
379.704	100.25
379.929	94.25
380.155	93.25
380.38	92.25
380.606	98.25
380.831	88.25
381.057	87.25
381.282	97.25
381.507	79.25
381.733	99.25
381.958	90.25
382.184	97.25
382.409	101.25
382.634	106.25
382.86	81.25
383.085	90.25
383.31	106.25
383.535	97.25
383.761	97.25
383.986	92.25
384.211	99.25
384.436	117.25
384.662	102.25
384.887	97.25
385.112	115.25
385.337	95.25
385.562	117.25
385.787	106.25
386.013	99.25
386.238	113.25
386.463	101.25
386.688	107.25
386.913	93.25
387.138	97.25
387.363	96.25
387.588	108.25
387.813	104.25
388.038	105.25
388.263	109.25
388.488	109.25
388.713	88.25
388.938	81.25
389.163	101.25
389.387	98.25
389.612	84.25
389.837	107.25
390.062	94.25
390.287	88.25
390.512	83.25
390.736	83.25
390.961	78.25
391.186	95.25
391.411	90.25
391.636	91.25
391.86	88.25
392.085	94.25
392.31	80.25
392.534	87.25
392.759	88.25
392.984	81.25
393.208	84.25
393.433	70.25
393.658	73.25
393.882	81.25
394.107	96.25
394.331	74.25
394.556	77.25
394.78	85.25
395.005	79.25
395.229	82.25
395.454	85.25
395.678	88.25
395.903	81.25
396.127	103.25
396.352	72.25
396.576	84.25
396.801	72.25
397.025	86.25
397.249	77.25
397.474	93.25
397.698	99.25
397.922	91.25
398.147	72.25
398.371	84.25
398.595	71.25
398.82	85.25
399.044	88.25
399.268	87.25
399.492	78.25
399.717	76.25
399.941	87.25
400.165	90.25
400.389	88.25
400.613	76.25
400.837	87.25
401.062	93.25
401.286	84.25
401.51	88.25
401.734	83.25
401.958	84.25
402.182	109.25
402.406	149.25
402.63	101.25
402.854	96.25
403.078	84.25
403.302	83.25
403.526	99.25
403.75	91.25
403.974	79.25
404.198	83.25
404.422	72.25
404.645	86.25
404.869	97.25
405.093	79.25
405.317	82.25
405.541	95.25
405.765	99.25
405.988	108.25
406.212	163.25
406.436	205.25
406.66	132.25
406.883	98.25
407.107	97.25
407.331	85.25
407.555	79.25
407.778	92.25
408.002	94.25
408.226	91.25
408.449	78.25
408.673	96.25
408.896	94.25
409.12	90.25
409.344	90.25
409.567	80.25
409.791	93.25
410.014	102.25
410.238	100.25
410.461	83.25
410.685	89.25
410.908	87.25
411.132	99.25
411.355	97.25
411.578	90.25
411.802	89.25
412.025	86.25
412.249	69.25
412.472	86.25
412.695	92.25
412.919	92.25
413.142	93.25
413.365	81.25
413.589	76.25
413.812	94.25
414.035	96.25
414.258	80.25
414.482	82.25
414.705	84.25
414.928	72.25
415.151	81.25
415.374	92.25
415.597	93.25
415.821	78.25
416.044	87.25
416.267	81.25
416.49	96.25
416.713	95.25
416.936	92.25
417.159	80.25
417.382	80.25
417.605	86.25
417.828	87.25
418.051	97.25
418.274	78.25
418.497	98.25
418.72	69.25
418.943	85.25
419.166	88.25
419.389	97.25
419.611	84.25
419.834	80.25
420.057	80.25
420.28	87.25
420.503	78.25
420.726	83.25
420.948	88.25
421.171	93.25
421.394	100.25
421.617	97.25
421.839	87.25
422.062	80.25
422.285	104.25
422.507	92.25
422.73	100.25
422.953	88.25
423.175	87.25
423.398	86.25
423.621	84.25
423.843	88.25
424.066	88.25
424.288	87.25
424.511	98.25
424.733	74.25
424.956	98.25
425.178	86.25
425.401	107.25
425.623	99.25
425.846	93.25
426.068	95.25
426.291	93.25
426.513	82.25
426.735	88.25
426.958	113.25
427.18	97.25
427.402	131.25
427.625	146.25
427.847	101.25
428.069	91.25
428.292	84.25
428.514	83.25
428.736	82.25
428.958	83.25
429.181	92.25
429.403	83.25
429.625	97.25
429.847	85.25
430.069	87.25
430.292	90.25
430.514	81.25
430.736	84.25
430.958	98.25
431.18	84.25
431.402	92.25
431.624	82.25
431.846	88.25
432.068	87.25
432.29	81.25
432.512	84.25
432.734	88.25
432.956	80.25
433.178	107.25
433.4	91.25
433.622	101.25
433.844	96.25
434.066	97.25
434.287	92.25
434.509	86.25
434.731	98.25
434.953	83.25
435.175	78.25
435.397	77.25
435.618	92.25
435.84	105.25
436.062	105.25
436.284	112.25
436.505	88.25
436.727	102.25
436.949	93.25
437.17	79.25
437.392	86.25
437.614	70.25
437.835	107.25
438.057	102.25
438.278	88.25
438.5	83.25
438.721	117.25
438.943	103.25
439.165	92.25
439.386	90.25
439.608	96.25
439.829	87.25
440.05	105.25
440.272	141.25
440.493	107.25
440.715	96.25
440.936	66.25
441.158	78.25
441.379	89.25
441.6	99.25
441.822	78.25
442.043	103.25
442.264	90.25
442.486	111.25
442.707	97.25
442.928	101.25
443.149	132.25
443.371	113.25
443.592	99.25
443.813	98.25
444.034	106.25
444.255	100.25
444.476	84.25
444.698	79.25
444.919	71.25
445.14	139.25
445.361	121.25
445.582	120.25
445.803	119.25
446.024	112.25
446.245	118.25
446.466	111.25
446.687	88.25
446.908	86.25
447.129	94.25
447.35	79.25
447.571	78.25
447.792	85.25
448.013	109.25
448.234	101.25
448.455	87.25
448.675	124.25
448.896	96.25
449.117	92.25
449.338	111.25
449.559	115.25
449.779	123.25
450	94.25
450.221	86.25
450.442	75.25
450.662	98.25
450.883	101.25
451.104	99.25
451.324	98.25
451.545	92.25
451.766	79.25
451.986	90.25
452.207	91.25
452.428	83.25
452.648	92.25
452.869	108.25
453.089	104.25
453.31	103.25
453.53	80.25
453.751	85.25
453.971	91.25
454.192	86.25
454.412	87.25
454.633	64.25
454.853	93.25
455.073	97.25
455.294	86.25
455.514	74.25
455.734	90.25
455.955	82.25
456.175	84.25
456.395	81.25
456.616	75.25
456.836	99.25
457.056	85.25
457.276	78.25
457.497	89.25
457.717	84.25
457.937	88.25
458.157	87.25
458.377	89.25
458.598	92.25
458.818	125.25
459.038	149.25
459.258	112.25
459.478	96.25
459.698	78.25
459.918	70.25
460.138	78.25
460.358	79.25
460.578	75.25
460.798	92.25
461.018	87.25
461.238	97.25
461.458	80.25
461.678	83.25
461.898	83.25
462.118	91.25
462.338	80.25
462.558	85.25
462.777	72.25
462.997	85.25
463.217	93.25
463.437	86.25
463.657	87.25
463.876	81.25
464.096	71.25
464.316	88.25
464.536	88.25
464.755	100.25
464.975	105.25
465.195	144.25
465.414	142.25
465.634	83.25
465.854	71.25
466.073	82.25
466.293	89.25
466.512	93.25
466.732	85.25
466.951	93.25
467.171	91.25
467.391	99.25
467.61	93.25
467.829	79.25
468.049	82.25
468.268	80.25
468.488	87.25
468.707	91.25
468.927	71.25
469.146	84.25
469.365	85.25
469.585	79.25
469.804	92.25
470.023	86.25
470.243	94.25
470.462	81.25
470.681	112.25
470.901	94.25
471.12	87.25
471.339	79.25
471.558	97.25
471.777	91.25
471.997	81.25
472.216	86.25
472.435	94.25
472.654	79.25
472.873	96.25
473.092	84.25
473.311	87.25
473.53	80.25
473.749	58.25
473.968	83.25
474.187	93.25
474.406	92.25
474.625	82.25
474.844	100.25
475.063	82.25
475.282	83.25
475.501	84.25
475.72	104.25
475.939	82.25
476.158	88.25
476.377	89.25
476.596	91.25
476.814	77.25
477.033	90.25
477.252	78.25
477.471	92.25
477.69	73.25
477.908	92.25
478.127	88.25
478.346	81.25
478.564	91.25
478.783	85.25
479.002	76.25
479.22	91.25
479.439	103.25
479.658	93.25
479.876	81.25
480.095	89.25
480.313	65.25
480.532	90.25
480.751	69.25
480.969	75.25
481.188	100.25
481.406	90.25
481.624	88.25
481.843	99.25
482.061	84.25
482.28	89.25
482.498	83.25
482.717	87.25
482.935	99.25
483.153	80.25
483.372	92.25
483.59	101.25
483.808	76.25
484.027	82.25
484.245	92.25
484.463	102.25
484.681	87.25
484.9	99.25
485.118	98.25
485.336	88.25
485.554	94.25
485.772	103.25
485.99	101.25
486.209	112.25
486.427	118.25
486.645	106.25
486.863	103.25
487.081	107.25
487.299	85.25
487.517	98.25
487.735	90.25
487.953	92.25
488.171	85.25
488.389	100.25
488.607	98.25
488.825	93.25
489.043	77.25
489.261	68.25
489.479	103.25
489.696	96.25
489.914	87.25
490.132	85.25
490.35	82.25
490.568	96.25
490.786	103.25
491.003	74.25
491.221	83.25
491.439	87.25
491.657	88.25
491.874	93.25
492.092	88.25
492.31	77.25
492.527	72.25
492.745	96.25
492.963	79.25
493.18	91.25
493.398	86.25
493.615	96.25
493.833	89.25
494.05	96.25
494.268	92.25
494.485	89.25
494.703	100.25
494.92	90.25
495.138	84.25
495.355	88.25
495.573	99.25
495.79	78.25
496.008	94.25
496.225	79.25
496.442	80.25
496.66	88.25
496.877	89.25
497.094	93.25
497.312	93.25
497.529	79.25
497.746	85.25
497.963	87.25
498.181	86.25
498.398	87.25
498.615	101.25
498.832	95.25
499.049	107.25
499.267	89.25
499.484	95.25
499.701	78.25
499.918	93.25
500.135	77.25
500.352	94.25
500.569	100.25
500.786	82.25
501.003	102.25
501.22	87.25
501.437	74.25
501.654	94.25
501.871	98.25
502.088	97.25
502.305	97.25
502.522	79.25
502.739	91.25
502.956	98.25
503.172	69.25
503.389	82.25
503.606	91.25
503.823	84.25
504.04	66.25
504.256	76.25
504.473	97.25
504.69	84.25
504.907	95.25
505.123	86.25
505.34	93.25
505.557	94.25
505.773	81.25
505.99	88.25
506.207	92.25
506.423	85.25
506.64	93.25
506.856	89.25
507.073	81.25
507.289	78.25
507.506	94.25
507.722	113.25
507.939	114.25
508.155	85.25
508.372	73.25
508.588	95.25
508.805	110.25
509.021	98.25
509.238	100.25
509.454	90.25
509.67	96.25
509.887	104.25
510.103	111.25
510.319	211.25
510.536	686.25
510.752	2179.25
510.968	624.25
511.184	156.25
511.401	111.25
511.617	94.25
511.833	98.25
512.049	91.25
512.265	95.25
512.481	95.25
512.698	78.25
512.914	98.25
513.13	77.25
513.346	84.25
513.562	89.25
513.778	94.25
513.994	93.25
514.21	111.25
514.426	102.25
514.642	131.25
514.858	113.25
515.074	158.25
515.29	406.25
515.506	1258.25
515.721	467.25
515.937	126.25
516.153	106.25
516.369	101.25
516.585	85.25
516.801	82.25
517.016	93.25
