Data from Uncirc_2003_H10_HRD10591_00003.txt Node
Date: Wed Jan 03 10:35:48 EST 2024
User: Yrep
Spectrometer: HR+D1059
Trigger mode: 1
Integration Time (sec): 1.000000E-1
Scans to average: 1
Electric dark correction enabled: true
Nonlinearity correction enabled: false
Boxcar width: 0
XAxis mode: Wavelengths
Number of Pixels in Spectrum: 2048
>>>>>Begin Spectral Data<<<<<
223.165	-29.5
223.4	-29.5
223.635	-29.5
223.869	-9.5
224.104	-22.5
224.338	-26.5
224.573	-2.5
224.808	-14.5
225.042	-8.5
225.277	-14.5
225.511	-12.5
225.746	12.5
225.98	12.5
226.215	12.5
226.449	18.5
226.683	27.5
226.918	30.5
227.152	26.5
227.387	45.5
227.621	41.5
227.856	52.5
228.09	32.5
228.324	63.5
228.559	43.5
228.793	50.5
229.027	48.5
229.262	57.5
229.496	83.5
229.73	71.5
229.964	87.5
230.199	84.5
230.433	77.5
230.667	72.5
230.901	73.5
231.136	78.5
231.37	77.5
231.604	80.5
231.838	84.5
232.072	67.5
232.306	75.5
232.541	84.5
232.775	83.5
233.009	73.5
233.243	86.5
233.477	90.5
233.711	82.5
233.945	74.5
234.179	77.5
234.413	70.5
234.647	77.5
234.881	58.5
235.115	75.5
235.349	94.5
235.583	89.5
235.817	63.5
236.051	68.5
236.285	74.5
236.519	71.5
236.753	74.5
236.987	66.5
237.221	70.5
237.455	72.5
237.689	85.5
237.922	81.5
238.156	66.5
238.39	81.5
238.624	66.5
238.858	79.5
239.091	74.5
239.325	58.5
239.559	85.5
239.793	69.5
240.027	89.5
240.26	74.5
240.494	75.5
240.728	81.5
240.961	83.5
241.195	81.5
241.429	73.5
241.662	73.5
241.896	86.5
242.13	69.5
242.363	80.5
242.597	73.5
242.83	62.5
243.064	56.5
243.298	74.5
243.531	79.5
243.765	81.5
243.998	81.5
244.232	94.5
244.465	87.5
244.699	80.5
244.932	71.5
245.166	71.5
245.399	83.5
245.633	70.5
245.866	63.5
246.099	84.5
246.333	68.5
246.566	81.5
246.8	72.5
247.033	80.5
247.266	86.5
247.5	77.5
247.733	76.5
247.966	82.5
248.2	84.5
248.433	60.5
248.666	80.5
248.899	80.5
249.133	79.5
249.366	88.5
249.599	78.5
249.832	77.5
250.066	70.5
250.299	83.5
250.532	78.5
250.765	68.5
250.998	83.5
251.231	66.5
251.465	66.5
251.698	68.5
251.931	84.5
252.164	77.5
252.397	64.5
252.63	79.5
252.863	93.5
253.096	80.5
253.329	70.5
253.562	83.5
253.795	78.5
254.028	96.5
254.261	78.5
254.494	70.5
254.727	87.5
254.96	71.5
255.193	82.5
255.426	81.5
255.659	80.5
255.892	84.5
256.124	84.5
256.357	74.5
256.59	82.5
256.823	80.5
257.056	63.5
257.289	69.5
257.521	76.5
257.754	57.5
257.987	94.5
258.22	93.5
258.452	77.5
258.685	99.5
258.918	78.5
259.151	68.5
259.383	86.5
259.616	81.5
259.849	86.5
260.081	93.5
260.314	81.5
260.547	101.5
260.779	86.5
261.012	82.5
261.244	86.5
261.477	79.5
261.71	107.5
261.942	101.5
262.175	102.5
262.407	83.5
262.64	80.5
262.872	78.5
263.105	76.5
263.337	74.5
263.57	81.5
263.802	76.5
264.035	80.5
264.267	68.5
264.499	74.5
264.732	86.5
264.964	68.5
265.197	77.5
265.429	79.5
265.661	82.5
265.894	78.5
266.126	79.5
266.358	78.5
266.591	79.5
266.823	95.5
267.055	93.5
267.287	73.5
267.52	81.5
267.752	87.5
267.984	79.5
268.216	82.5
268.448	92.5
268.681	74.5
268.913	96.5
269.145	82.5
269.377	69.5
269.609	82.5
269.841	70.5
270.073	77.5
270.306	76.5
270.538	86.5
270.77	85.5
271.002	69.5
271.234	79.5
271.466	81.5
271.698	81.5
271.93	95.5
272.162	76.5
272.394	88.5
272.626	65.5
272.858	74.5
273.09	81.5
273.322	83.5
273.553	74.5
273.785	90.5
274.017	81.5
274.249	83.5
274.481	76.5
274.713	82.5
274.945	91.5
275.176	86.5
275.408	90.5
275.64	84.5
275.872	76.5
276.104	88.5
276.335	72.5
276.567	95.5
276.799	108.5
277.031	82.5
277.262	81.5
277.494	79.5
277.726	94.5
277.957	82.5
278.189	84.5
278.421	76.5
278.652	85.5
278.884	89.5
279.115	77.5
279.347	76.5
279.579	82.5
279.81	79.5
280.042	66.5
280.273	94.5
280.505	85.5
280.736	92.5
280.968	103.5
281.199	73.5
281.431	70.5
281.662	75.5
281.894	76.5
282.125	81.5
282.356	108.5
282.588	121.5
282.819	104.5
283.051	83.5
283.282	65.5
283.513	86.5
283.745	82.5
283.976	87.5
284.207	89.5
284.439	86.5
284.67	103.5
284.901	91.5
285.132	89.5
285.364	74.5
285.595	87.5
285.826	100.5
286.057	96.5
286.288	91.5
286.52	85.5
286.751	86.5
286.982	70.5
287.213	78.5
287.444	76.5
287.675	88.5
287.906	96.5
288.138	101.5
288.369	81.5
288.6	78.5
288.831	77.5
289.062	87.5
289.293	88.5
289.524	92.5
289.755	69.5
289.986	85.5
290.217	93.5
290.448	85.5
290.679	86.5
290.91	82.5
291.141	85.5
291.371	95.5
291.602	98.5
291.833	96.5
292.064	90.5
292.295	96.5
292.526	89.5
292.757	83.5
292.987	80.5
293.218	95.5
293.449	89.5
293.68	79.5
293.91	89.5
294.141	86.5
294.372	95.5
294.603	86.5
294.833	108.5
295.064	94.5
295.295	77.5
295.525	83.5
295.756	101.5
295.987	112.5
296.217	129.5
296.448	123.5
296.679	88.5
296.909	87.5
297.14	85.5
297.37	89.5
297.601	85.5
297.831	91.5
298.062	106.5
298.292	90.5
298.523	97.5
298.753	89.5
298.984	84.5
299.214	98.5
299.445	94.5
299.675	88.5
299.905	103.5
300.136	90.5
300.366	89.5
300.597	95.5
300.827	88.5
301.057	78.5
301.288	105.5
301.518	92.5
301.748	100.5
301.979	97.5
302.209	87.5
302.439	86.5
302.669	84.5
302.9	88.5
303.13	78.5
303.36	90.5
303.59	96.5
303.82	95.5
304.051	103.5
304.281	103.5
304.511	90.5
304.741	85.5
304.971	86.5
305.201	82.5
305.431	94.5
305.661	95.5
305.891	92.5
306.121	89.5
306.352	101.5
306.582	95.5
306.812	72.5
307.042	78.5
307.272	108.5
307.502	101.5
307.731	94.5
307.961	91.5
308.191	82.5
308.421	98.5
308.651	84.5
308.881	86.5
309.111	96.5
309.341	101.5
309.571	98.5
309.8	107.5
310.03	94.5
310.26	96.5
310.49	85.5
310.72	91.5
310.949	83.5
311.179	93.5
311.409	81.5
311.639	90.5
311.868	93.5
312.098	93.5
312.328	95.5
312.557	113.5
312.787	93.5
313.017	102.5
313.246	87.5
313.476	97.5
313.706	84.5
313.935	78.5
314.165	111.5
314.394	109.5
314.624	99.5
314.853	84.5
315.083	83.5
315.312	87.5
315.542	90.5
315.771	104.5
316.001	94.5
316.23	91.5
316.46	106.5
316.689	91.5
316.919	94.5
317.148	82.5
317.377	101.5
317.607	97.5
317.836	90.5
318.065	94.5
318.295	85.5
318.524	86.5
318.753	81.5
318.983	88.5
319.212	92.5
319.441	102.5
319.67	99.5
319.9	85.5
320.129	95.5
320.358	95.5
320.587	87.5
320.816	104.5
321.046	95.5
321.275	83.5
321.504	100.5
321.733	93.5
321.962	95.5
322.191	96.5
322.42	98.5
322.649	101.5
322.878	105.5
323.108	111.5
323.337	116.5
323.566	126.5
323.795	132.5
324.024	201.5
324.253	383.5
324.482	803.5
324.71	1632.5
324.939	2100.5
325.168	796.5
325.397	235.5
325.626	156.5
325.855	133.5
326.084	129.5
326.313	117.5
326.542	134.5
326.77	208.5
326.999	472.5
327.228	906.5
327.457	1668.5
327.686	1297.5
327.914	366.5
328.143	188.5
328.372	130.5
328.6	119.5
328.829	129.5
329.058	118.5
329.287	115.5
329.515	109.5
329.744	101.5
329.972	102.5
330.201	112.5
330.43	97.5
330.658	111.5
330.887	127.5
331.115	93.5
331.344	105.5
331.572	103.5
331.801	108.5
332.03	94.5
332.258	97.5
332.486	88.5
332.715	96.5
332.943	85.5
333.172	94.5
333.4	80.5
333.629	98.5
333.857	98.5
334.085	112.5
334.314	100.5
334.542	102.5
334.771	84.5
334.999	105.5
335.227	90.5
335.455	92.5
335.684	87.5
335.912	100.5
336.14	99.5
336.369	108.5
336.597	103.5
336.825	100.5
337.053	104.5
337.281	99.5
337.51	93.5
337.738	86.5
337.966	89.5
338.194	99.5
338.422	88.5
338.65	97.5
338.878	102.5
339.106	82.5
339.334	91.5
339.562	79.5
339.79	79.5
340.018	93.5
340.246	70.5
340.474	94.5
340.702	97.5
340.93	92.5
341.158	85.5
341.386	106.5
341.614	104.5
341.842	105.5
342.07	89.5
342.298	97.5
342.526	96.5
342.754	95.5
342.981	97.5
343.209	93.5
343.437	100.5
343.665	80.5
343.893	101.5
344.12	90.5
344.348	94.5
344.576	97.5
344.804	88.5
345.031	100.5
345.259	106.5
345.487	93.5
345.714	85.5
345.942	93.5
346.17	90.5
346.397	86.5
346.625	90.5
346.853	93.5
347.08	97.5
347.308	80.5
347.535	93.5
347.763	93.5
347.99	109.5
348.218	108.5
348.445	109.5
348.673	96.5
348.9	108.5
349.128	97.5
349.355	93.5
349.583	98.5
349.81	98.5
350.037	83.5
350.265	89.5
350.492	95.5
350.72	100.5
350.947	104.5
351.174	109.5
351.402	119.5
351.629	87.5
351.856	96.5
352.083	101.5
352.311	96.5
352.538	100.5
352.765	107.5
352.992	111.5
353.22	108.5
353.447	115.5
353.674	112.5
353.901	110.5
354.128	108.5
354.355	84.5
354.583	100.5
354.81	91.5
355.037	100.5
355.264	85.5
355.491	96.5
355.718	97.5
355.945	105.5
356.172	111.5
356.399	97.5
356.626	88.5
356.853	100.5
357.08	79.5
357.307	104.5
357.534	88.5
357.761	90.5
357.988	110.5
358.215	103.5
358.441	87.5
358.668	105.5
358.895	99.5
359.122	93.5
359.349	84.5
359.576	80.5
359.802	77.5
360.029	110.5
360.256	108.5
360.483	98.5
360.709	89.5
360.936	87.5
361.163	100.5
361.39	107.5
361.616	92.5
361.843	81.5
362.07	100.5
362.296	109.5
362.523	89.5
362.749	94.5
362.976	95.5
363.203	86.5
363.429	105.5
363.656	78.5
363.882	93.5
364.109	88.5
364.335	94.5
364.562	90.5
364.788	96.5
365.015	92.5
365.241	90.5
365.468	99.5
365.694	112.5
365.92	92.5
366.147	86.5
366.373	108.5
366.599	95.5
366.826	86.5
367.052	81.5
367.278	81.5
367.505	92.5
367.731	95.5
367.957	85.5
368.184	82.5
368.41	109.5
368.636	124.5
368.862	103.5
369.089	84.5
369.315	101.5
369.541	74.5
369.767	85.5
369.993	93.5
370.219	79.5
370.445	95.5
370.672	89.5
370.898	76.5
371.124	85.5
371.35	86.5
371.576	90.5
371.802	81.5
372.028	87.5
372.254	87.5
372.48	98.5
372.706	88.5
372.932	98.5
373.158	87.5
373.384	84.5
373.61	82.5
373.835	98.5
374.061	98.5
374.287	97.5
374.513	100.5
374.739	84.5
374.965	95.5
375.191	79.5
375.416	80.5
375.642	82.5
375.868	96.5
376.094	80.5
376.319	85.5
376.545	69.5
376.771	71.5
376.997	88.5
377.222	91.5
377.448	98.5
377.674	93.5
377.899	92.5
378.125	93.5
378.35	103.5
378.576	97.5
378.802	112.5
379.027	93.5
379.253	95.5
379.478	94.5
379.704	99.5
379.929	100.5
380.155	98.5
380.38	97.5
380.606	102.5
380.831	95.5
381.057	99.5
381.282	103.5
381.507	89.5
381.733	95.5
381.958	107.5
382.184	92.5
382.409	107.5
382.634	109.5
382.86	105.5
383.085	95.5
383.31	99.5
383.535	112.5
383.761	106.5
383.986	104.5
384.211	100.5
384.436	84.5
384.662	113.5
384.887	98.5
385.112	94.5
385.337	108.5
385.562	114.5
385.787	126.5
386.013	112.5
386.238	106.5
386.463	113.5
386.688	128.5
386.913	119.5
387.138	112.5
387.363	95.5
387.588	99.5
387.813	116.5
388.038	109.5
388.263	112.5
388.488	131.5
388.713	115.5
388.938	100.5
389.163	101.5
389.387	100.5
389.612	83.5
389.837	83.5
390.062	109.5
390.287	105.5
390.512	111.5
390.736	84.5
390.961	91.5
391.186	98.5
391.411	91.5
391.636	87.5
391.86	76.5
392.085	93.5
392.31	84.5
392.534	88.5
392.759	90.5
392.984	92.5
393.208	90.5
393.433	85.5
393.658	86.5
393.882	90.5
394.107	90.5
394.331	74.5
394.556	93.5
394.78	101.5
395.005	103.5
395.229	82.5
395.454	93.5
395.678	76.5
395.903	94.5
396.127	89.5
396.352	77.5
396.576	85.5
396.801	85.5
397.025	94.5
397.249	84.5
397.474	85.5
397.698	90.5
397.922	90.5
398.147	77.5
398.371	97.5
398.595	90.5
398.82	89.5
399.044	88.5
399.268	80.5
399.492	92.5
399.717	85.5
399.941	99.5
400.165	79.5
400.389	74.5
400.613	95.5
400.837	84.5
401.062	85.5
401.286	79.5
401.51	64.5
401.734	82.5
401.958	94.5
402.182	129.5
402.406	133.5
402.63	102.5
402.854	100.5
403.078	98.5
403.302	93.5
403.526	82.5
403.75	84.5
403.974	88.5
404.198	89.5
404.422	82.5
404.645	95.5
404.869	87.5
405.093	100.5
405.317	91.5
405.541	94.5
405.765	99.5
405.988	100.5
406.212	170.5
406.436	204.5
406.66	128.5
406.883	95.5
407.107	96.5
407.331	87.5
407.555	95.5
407.778	93.5
408.002	97.5
408.226	81.5
408.449	102.5
408.673	89.5
408.896	84.5
409.12	105.5
409.344	94.5
409.567	93.5
409.791	81.5
410.014	114.5
410.238	95.5
410.461	99.5
410.685	79.5
410.908	90.5
411.132	95.5
411.355	100.5
411.578	94.5
411.802	88.5
412.025	86.5
412.249	73.5
412.472	85.5
412.695	85.5
412.919	91.5
413.142	83.5
413.365	103.5
413.589	94.5
413.812	88.5
414.035	87.5
414.258	96.5
414.482	88.5
414.705	72.5
414.928	82.5
415.151	93.5
415.374	96.5
415.597	79.5
415.821	91.5
416.044	96.5
416.267	83.5
416.49	83.5
416.713	97.5
416.936	84.5
417.159	92.5
417.382	77.5
417.605	89.5
417.828	89.5
418.051	84.5
418.274	89.5
418.497	79.5
418.72	79.5
418.943	77.5
419.166	91.5
419.389	90.5
419.611	83.5
419.834	76.5
420.057	107.5
420.28	84.5
420.503	80.5
420.726	81.5
420.948	87.5
421.171	90.5
421.394	90.5
421.617	89.5
421.839	81.5
422.062	83.5
422.285	96.5
422.507	108.5
422.73	109.5
422.953	104.5
423.175	94.5
423.398	72.5
423.621	94.5
423.843	93.5
424.066	80.5
424.288	93.5
424.511	80.5
424.733	102.5
424.956	93.5
425.178	97.5
425.401	94.5
425.623	105.5
425.846	76.5
426.068	85.5
426.291	80.5
426.513	88.5
426.735	81.5
426.958	86.5
427.18	105.5
427.402	133.5
427.625	147.5
427.847	121.5
428.069	96.5
428.292	90.5
428.514	79.5
428.736	74.5
428.958	75.5
429.181	85.5
429.403	93.5
429.625	92.5
429.847	91.5
430.069	87.5
430.292	85.5
430.514	87.5
430.736	76.5
430.958	90.5
431.18	84.5
431.402	89.5
431.624	77.5
431.846	74.5
432.068	73.5
432.29	81.5
432.512	77.5
432.734	90.5
432.956	78.5
433.178	94.5
433.4	101.5
433.622	99.5
433.844	101.5
434.066	105.5
434.287	90.5
434.509	90.5
434.731	86.5
434.953	90.5
435.175	90.5
435.397	91.5
435.618	81.5
435.84	92.5
436.062	106.5
436.284	102.5
436.505	108.5
436.727	93.5
436.949	96.5
437.17	89.5
437.392	93.5
437.614	88.5
437.835	96.5
438.057	95.5
438.278	95.5
438.5	73.5
438.721	109.5
438.943	84.5
439.165	86.5
439.386	82.5
439.608	86.5
439.829	98.5
440.05	108.5
440.272	119.5
440.493	93.5
440.715	99.5
440.936	78.5
441.158	85.5
441.379	97.5
441.6	96.5
441.822	87.5
442.043	81.5
442.264	98.5
442.486	85.5
442.707	79.5
442.928	93.5
443.149	103.5
443.371	106.5
443.592	99.5
443.813	101.5
444.034	103.5
444.255	89.5
444.476	93.5
444.698	82.5
444.919	78.5
445.14	118.5
445.361	110.5
445.582	93.5
445.803	135.5
446.024	122.5
446.245	137.5
446.466	113.5
446.687	93.5
446.908	99.5
447.129	95.5
447.35	90.5
447.571	86.5
447.792	99.5
448.013	92.5
448.234	98.5
448.455	97.5
448.675	109.5
448.896	98.5
449.117	80.5
449.338	97.5
449.559	119.5
449.779	129.5
450	100.5
450.221	74.5
450.442	105.5
450.662	87.5
450.883	103.5
451.104	108.5
451.324	101.5
451.545	81.5
451.766	71.5
451.986	87.5
452.207	71.5
452.428	99.5
452.648	92.5
452.869	103.5
453.089	95.5
453.31	106.5
453.53	81.5
453.751	83.5
453.971	94.5
454.192	98.5
454.412	83.5
454.633	87.5
454.853	101.5
455.073	89.5
455.294	93.5
455.514	81.5
455.734	72.5
455.955	89.5
456.175	72.5
456.395	85.5
456.616	89.5
456.836	84.5
457.056	80.5
457.276	87.5
457.497	81.5
457.717	83.5
457.937	80.5
458.157	87.5
458.377	89.5
458.598	103.5
458.818	138.5
459.038	150.5
459.258	103.5
459.478	89.5
459.698	87.5
459.918	99.5
460.138	83.5
460.358	87.5
460.578	95.5
460.798	78.5
461.018	96.5
461.238	96.5
461.458	80.5
461.678	92.5
461.898	89.5
462.118	85.5
462.338	90.5
462.558	81.5
462.777	92.5
462.997	88.5
463.217	85.5
463.437	85.5
463.657	71.5
463.876	84.5
464.096	79.5
464.316	85.5
464.536	93.5
464.755	90.5
464.975	94.5
465.195	127.5
465.414	110.5
465.634	91.5
465.854	93.5
466.073	85.5
466.293	85.5
466.512	81.5
466.732	103.5
466.951	85.5
467.171	98.5
467.391	89.5
467.61	92.5
467.829	98.5
468.049	86.5
468.268	92.5
468.488	70.5
468.707	90.5
468.927	81.5
469.146	82.5
469.365	83.5
469.585	91.5
469.804	100.5
470.023	71.5
470.243	107.5
470.462	101.5
470.681	83.5
470.901	91.5
471.12	90.5
471.339	80.5
471.558	77.5
471.777	96.5
471.997	82.5
472.216	90.5
472.435	97.5
472.654	68.5
472.873	85.5
473.092	81.5
473.311	84.5
473.53	94.5
473.749	85.5
473.968	94.5
474.187	102.5
474.406	93.5
474.625	79.5
474.844	71.5
475.063	91.5
475.282	98.5
475.501	86.5
475.72	88.5
475.939	80.5
476.158	77.5
476.377	80.5
476.596	90.5
476.814	87.5
477.033	98.5
477.252	90.5
477.471	86.5
477.69	88.5
477.908	73.5
478.127	99.5
478.346	78.5
478.564	95.5
478.783	96.5
479.002	94.5
479.22	94.5
479.439	97.5
479.658	90.5
479.876	78.5
480.095	93.5
480.313	90.5
480.532	86.5
480.751	81.5
480.969	94.5
481.188	80.5
481.406	81.5
481.624	86.5
481.843	77.5
482.061	91.5
482.28	96.5
482.498	90.5
482.717	82.5
482.935	84.5
483.153	88.5
483.372	100.5
483.59	84.5
483.808	79.5
484.027	86.5
484.245	89.5
484.463	78.5
484.681	106.5
484.9	97.5
485.118	96.5
485.336	89.5
485.554	99.5
485.772	108.5
485.99	114.5
486.209	97.5
486.427	96.5
486.645	103.5
486.863	108.5
487.081	88.5
487.299	90.5
487.517	93.5
487.735	92.5
487.953	97.5
488.171	85.5
488.389	94.5
488.607	88.5
488.825	110.5
489.043	86.5
489.261	83.5
489.479	90.5
489.696	96.5
489.914	80.5
490.132	90.5
490.35	100.5
490.568	85.5
490.786	87.5
491.003	85.5
491.221	89.5
491.439	88.5
491.657	104.5
491.874	88.5
492.092	85.5
492.31	108.5
492.527	92.5
492.745	95.5
492.963	85.5
493.18	77.5
493.398	98.5
493.615	101.5
493.833	90.5
494.05	87.5
494.268	83.5
494.485	108.5
494.703	78.5
494.92	75.5
495.138	89.5
495.355	90.5
495.573	87.5
495.79	94.5
496.008	84.5
496.225	101.5
496.442	95.5
496.66	94.5
496.877	101.5
497.094	75.5
497.312	93.5
497.529	79.5
497.746	88.5
497.963	81.5
498.181	87.5
498.398	91.5
498.615	120.5
498.832	110.5
499.049	93.5
499.267	83.5
499.484	90.5
499.701	84.5
499.918	93.5
500.135	82.5
500.352	71.5
500.569	76.5
500.786	100.5
501.003	101.5
501.22	85.5
501.437	87.5
501.654	97.5
501.871	93.5
502.088	80.5
502.305	103.5
502.522	88.5
502.739	94.5
502.956	89.5
503.172	91.5
503.389	109.5
503.606	96.5
503.823	95.5
504.04	89.5
504.256	87.5
504.473	85.5
504.69	84.5
504.907	87.5
505.123	100.5
505.34	79.5
505.557	95.5
505.773	86.5
505.99	95.5
506.207	95.5
506.423	93.5
506.64	106.5
506.856	103.5
507.073	95.5
507.289	93.5
507.506	85.5
507.722	96.5
507.939	119.5
508.155	106.5
508.372	97.5
508.588	96.5
508.805	102.5
509.021	76.5
509.238	107.5
509.454	97.5
509.67	111.5
509.887	109.5
510.103	129.5
510.319	198.5
510.536	693.5
510.752	2149.5
510.968	607.5
511.184	152.5
511.401	104.5
511.617	104.5
511.833	78.5
512.049	84.5
512.265	86.5
512.481	84.5
512.698	87.5
512.914	75.5
513.13	87.5
513.346	95.5
513.562	91.5
513.778	103.5
513.994	113.5
514.21	97.5
514.426	112.5
514.642	111.5
514.858	106.5
515.074	148.5
515.29	386.5
515.506	1236.5
515.721	468.5
515.937	153.5
516.153	102.5
516.369	98.5
516.585	101.5
516.801	72.5
517.016	92.5
517.232	98.5
517.448	96.5
517.664	92.5
517.879	83.5
518.095	80.5
518.311	84.5
518.527	112.5
518.742	97.5
518.958	100.5
519.173	92.5
519.389	99.5
519.605	65.5
519.82	106.5
520.036	102.5
520.251	102.5
520.467	114.5
520.682	107.5
520.898	117.5
521.113	108.5
521.329	127.5
521.544	172.5
521.76	504.5
521.975	2060.5
522.19	1225.5
522.406	266.5
522.621	120.5
522.836	103.5
523.052	94.5
523.267	88.5
523.482	90.5
523.698	111.5
523.913	113.5
524.128	89.5
524.343	83.5
524.559	89.5
524.774	93.5
524.989	96.5
525.204	106.5
525.419	93.5
525.634	95.5
525.849	85.5
526.064	84.5
526.28	99.5
526.495	95.5
526.71	93.5
526.925	85.5
527.14	78.5
527.355	97.5
527.57	97.5
527.785	81.5
527.999	88.5
528.214	88.5
528.429	98.5
528.644	94.5
528.859	87.5
529.074	94.5
529.289	121.5
529.503	146.5
529.718	105.5
529.933	84.5
530.148	87.5
530.363	89.5
530.577	93.5
530.792	98.5
531.007	89.5
531.221	94.5
531.436	85.5
531.651	80.5
531.865	92.5
532.08	87.5
532.295	92.5
532.509	81.5
532.724	90.5
532.938	88.5
533.153	101.5
533.367	90.5
533.582	100.5
533.796	81.5
534.011	91.5
534.225	88.5
534.44	76.5
534.654	89.5
534.868	95.5
535.083	92.5
535.297	87.5
535.511	107.5
535.726	111.5
