Data from Uncirc_2003_H10_HRD10591_00063.txt Node
Date: Wed Jan 03 10:36:00 EST 2024
User: Yrep
Spectrometer: HR+D1059
Trigger mode: 1
Integration Time (sec): 1.000000E-1
Scans to average: 1
Electric dark correction enabled: true
Nonlinearity correction enabled: false
Boxcar width: 0
XAxis mode: Wavelengths
Number of Pixels in Spectrum: 2048
>>>>>Begin Spectral Data<<<<<
223.165	-13.5
223.4	-13.5
223.635	-13.5
223.869	-33.5
224.104	-28.5
224.338	-19.5
224.573	-15.5
224.808	-5.5
225.042	8.5
225.277	-24.5
225.511	4.5
225.746	6.5
225.98	5.5
226.215	30.5
226.449	12.5
226.683	6.5
226.918	31.5
227.152	34.5
227.387	38.5
227.621	27.5
227.856	34.5
228.09	39.5
228.324	48.5
228.559	48.5
228.793	55.5
229.027	72.5
229.262	51.5
229.496	63.5
229.73	64.5
229.964	93.5
230.199	80.5
230.433	75.5
230.667	89.5
230.901	83.5
231.136	88.5
231.37	90.5
231.604	77.5
231.838	72.5
232.072	70.5
232.306	90.5
232.541	80.5
232.775	86.5
233.009	89.5
233.243	77.5
233.477	90.5
233.711	93.5
233.945	76.5
234.179	77.5
234.413	97.5
234.647	83.5
234.881	77.5
235.115	77.5
235.349	84.5
235.583	70.5
235.817	71.5
236.051	71.5
236.285	84.5
236.519	85.5
236.753	61.5
236.987	90.5
237.221	90.5
237.455	70.5
237.689	90.5
237.922	83.5
238.156	64.5
238.39	77.5
238.624	66.5
238.858	80.5
239.091	81.5
239.325	80.5
239.559	75.5
239.793	91.5
240.027	80.5
240.26	70.5
240.494	76.5
240.728	81.5
240.961	83.5
241.195	72.5
241.429	78.5
241.662	77.5
241.896	90.5
242.13	69.5
242.363	74.5
242.597	73.5
242.83	73.5
243.064	83.5
243.298	78.5
243.531	67.5
243.765	79.5
243.998	73.5
244.232	77.5
244.465	84.5
244.699	85.5
244.932	84.5
245.166	80.5
245.399	74.5
245.633	80.5
245.866	78.5
246.099	73.5
246.333	77.5
246.566	83.5
246.8	88.5
247.033	51.5
247.266	76.5
247.5	68.5
247.733	72.5
247.966	62.5
248.2	77.5
248.433	71.5
248.666	81.5
248.899	74.5
249.133	82.5
249.366	95.5
249.599	88.5
249.832	89.5
250.066	89.5
250.299	71.5
250.532	78.5
250.765	70.5
250.998	77.5
251.231	77.5
251.465	91.5
251.698	85.5
251.931	81.5
252.164	71.5
252.397	86.5
252.63	76.5
252.863	69.5
253.096	71.5
253.329	84.5
253.562	84.5
253.795	84.5
254.028	80.5
254.261	85.5
254.494	75.5
254.727	84.5
254.96	77.5
255.193	76.5
255.426	77.5
255.659	82.5
255.892	92.5
256.124	74.5
256.357	73.5
256.59	77.5
256.823	77.5
257.056	81.5
257.289	80.5
257.521	77.5
257.754	81.5
257.987	94.5
258.22	82.5
258.452	75.5
258.685	76.5
258.918	86.5
259.151	94.5
259.383	75.5
259.616	71.5
259.849	64.5
260.081	77.5
260.314	75.5
260.547	78.5
260.779	80.5
261.012	87.5
261.244	80.5
261.477	96.5
261.71	97.5
261.942	110.5
262.175	121.5
262.407	88.5
262.64	83.5
262.872	87.5
263.105	82.5
263.337	90.5
263.57	80.5
263.802	79.5
264.035	76.5
264.267	75.5
264.499	76.5
264.732	88.5
264.964	89.5
265.197	89.5
265.429	92.5
265.661	94.5
265.894	80.5
266.126	86.5
266.358	85.5
266.591	82.5
266.823	80.5
267.055	86.5
267.287	82.5
267.52	98.5
267.752	92.5
267.984	92.5
268.216	76.5
268.448	85.5
268.681	71.5
268.913	93.5
269.145	76.5
269.377	82.5
269.609	76.5
269.841	76.5
270.073	84.5
270.306	79.5
270.538	71.5
270.77	81.5
271.002	86.5
271.234	87.5
271.466	95.5
271.698	73.5
271.93	86.5
272.162	81.5
272.394	89.5
272.626	87.5
272.858	75.5
273.09	85.5
273.322	87.5
273.553	84.5
273.785	81.5
274.017	84.5
274.249	86.5
274.481	62.5
274.713	89.5
274.945	96.5
275.176	94.5
275.408	88.5
275.64	94.5
275.872	94.5
276.104	92.5
276.335	75.5
276.567	95.5
276.799	99.5
277.031	102.5
277.262	87.5
277.494	102.5
277.726	84.5
277.957	90.5
278.189	78.5
278.421	84.5
278.652	94.5
278.884	84.5
279.115	80.5
279.347	88.5
279.579	81.5
279.81	68.5
280.042	93.5
280.273	79.5
280.505	75.5
280.736	77.5
280.968	86.5
281.199	84.5
281.431	74.5
281.662	101.5
281.894	84.5
282.125	88.5
282.356	123.5
282.588	114.5
282.819	111.5
283.051	90.5
283.282	80.5
283.513	86.5
283.745	83.5
283.976	78.5
284.207	89.5
284.439	76.5
284.67	90.5
284.901	82.5
285.132	95.5
285.364	82.5
285.595	92.5
285.826	93.5
286.057	77.5
286.288	88.5
286.52	79.5
286.751	84.5
286.982	79.5
287.213	73.5
287.444	86.5
287.675	96.5
287.906	83.5
288.138	92.5
288.369	96.5
288.6	90.5
288.831	96.5
289.062	81.5
289.293	84.5
289.524	71.5
289.755	86.5
289.986	84.5
290.217	93.5
290.448	88.5
290.679	102.5
290.91	89.5
291.141	93.5
291.371	92.5
291.602	103.5
291.833	93.5
292.064	88.5
292.295	80.5
292.526	94.5
292.757	88.5
292.987	87.5
293.218	94.5
293.449	88.5
293.68	80.5
293.91	89.5
294.141	81.5
294.372	78.5
294.603	96.5
294.833	91.5
295.064	96.5
295.295	94.5
295.525	88.5
295.756	94.5
295.987	114.5
296.217	132.5
296.448	106.5
296.679	89.5
296.909	84.5
297.14	84.5
297.37	89.5
297.601	70.5
297.831	97.5
298.062	85.5
298.292	82.5
298.523	89.5
298.753	85.5
298.984	96.5
299.214	86.5
299.445	82.5
299.675	91.5
299.905	89.5
300.136	84.5
300.366	94.5
300.597	95.5
300.827	99.5
301.057	101.5
301.288	113.5
301.518	88.5
301.748	70.5
301.979	90.5
302.209	88.5
302.439	97.5
302.669	83.5
302.9	72.5
303.13	94.5
303.36	94.5
303.59	94.5
303.82	89.5
304.051	84.5
304.281	92.5
304.511	99.5
304.741	89.5
304.971	88.5
305.201	91.5
305.431	98.5
305.661	92.5
305.891	93.5
306.121	87.5
306.352	96.5
306.582	110.5
306.812	79.5
307.042	92.5
307.272	97.5
307.502	99.5
307.731	89.5
307.961	94.5
308.191	88.5
308.421	89.5
308.651	96.5
308.881	88.5
309.111	85.5
309.341	93.5
309.571	93.5
309.8	95.5
310.03	89.5
310.26	103.5
310.49	110.5
310.72	95.5
310.949	95.5
311.179	91.5
311.409	93.5
311.639	90.5
311.868	89.5
312.098	93.5
312.328	92.5
312.557	92.5
312.787	105.5
313.017	96.5
313.246	91.5
313.476	96.5
313.706	92.5
313.935	102.5
314.165	98.5
314.394	97.5
314.624	92.5
314.853	91.5
315.083	100.5
315.312	99.5
315.542	102.5
315.771	94.5
316.001	91.5
316.23	78.5
316.46	90.5
316.689	81.5
316.919	87.5
317.148	106.5
317.377	92.5
317.607	84.5
317.836	97.5
318.065	92.5
318.295	90.5
318.524	87.5
318.753	86.5
318.983	96.5
319.212	110.5
319.441	114.5
319.67	102.5
319.9	97.5
320.129	89.5
320.358	80.5
320.587	100.5
320.816	117.5
321.046	102.5
321.275	99.5
321.504	87.5
321.733	93.5
321.962	94.5
322.191	115.5
322.42	95.5
322.649	94.5
322.878	127.5
323.108	118.5
323.337	113.5
323.566	142.5
323.795	137.5
324.024	215.5
324.253	416.5
324.482	903.5
324.71	1864.5
324.939	2486.5
325.168	898.5
325.397	286.5
325.626	160.5
325.855	142.5
326.084	121.5
326.313	136.5
326.542	148.5
326.77	243.5
326.999	498.5
327.228	1019.5
327.457	1924.5
327.686	1510.5
327.914	411.5
328.143	188.5
328.372	151.5
328.6	136.5
328.829	126.5
329.058	130.5
329.287	116.5
329.515	113.5
329.744	100.5
329.972	98.5
330.201	97.5
330.43	114.5
330.658	122.5
330.887	129.5
331.115	97.5
331.344	99.5
331.572	93.5
331.801	94.5
332.03	100.5
332.258	93.5
332.486	95.5
332.715	96.5
332.943	97.5
333.172	99.5
333.4	116.5
333.629	115.5
333.857	106.5
334.085	111.5
334.314	91.5
334.542	112.5
334.771	100.5
334.999	96.5
335.227	92.5
335.455	83.5
335.684	100.5
335.912	88.5
336.14	110.5
336.369	101.5
336.597	97.5
336.825	101.5
337.053	98.5
337.281	91.5
337.51	97.5
337.738	97.5
337.966	96.5
338.194	85.5
338.422	104.5
338.65	88.5
338.878	80.5
339.106	89.5
339.334	98.5
339.562	89.5
339.79	87.5
340.018	89.5
340.246	99.5
340.474	83.5
340.702	94.5
340.93	86.5
341.158	93.5
341.386	94.5
341.614	94.5
341.842	95.5
342.07	96.5
342.298	85.5
342.526	92.5
342.754	93.5
342.981	93.5
343.209	88.5
343.437	90.5
343.665	87.5
343.893	97.5
344.12	78.5
344.348	96.5
344.576	80.5
344.804	89.5
345.031	97.5
345.259	104.5
345.487	90.5
345.714	95.5
345.942	89.5
346.17	83.5
346.397	83.5
346.625	91.5
346.853	96.5
347.08	93.5
347.308	98.5
347.535	98.5
347.763	76.5
347.99	100.5
348.218	112.5
348.445	98.5
348.673	94.5
348.9	96.5
349.128	89.5
349.355	102.5
349.583	87.5
349.81	86.5
350.037	88.5
350.265	90.5
350.492	87.5
350.72	92.5
350.947	105.5
351.174	114.5
351.402	102.5
351.629	96.5
351.856	108.5
352.083	103.5
352.311	103.5
352.538	106.5
352.765	99.5
352.992	128.5
353.22	112.5
353.447	91.5
353.674	97.5
353.901	85.5
354.128	97.5
354.355	102.5
354.583	103.5
354.81	99.5
355.037	86.5
355.264	82.5
355.491	100.5
355.718	93.5
355.945	100.5
356.172	81.5
356.399	93.5
356.626	100.5
356.853	103.5
357.08	88.5
357.307	94.5
357.534	85.5
357.761	94.5
357.988	93.5
358.215	90.5
358.441	88.5
358.668	102.5
358.895	93.5
359.122	76.5
359.349	82.5
359.576	103.5
359.802	102.5
360.029	117.5
360.256	97.5
360.483	99.5
360.709	80.5
360.936	104.5
361.163	104.5
361.39	89.5
361.616	88.5
361.843	85.5
362.07	81.5
362.296	93.5
362.523	86.5
362.749	109.5
362.976	94.5
363.203	92.5
363.429	86.5
363.656	89.5
363.882	88.5
364.109	95.5
364.335	88.5
364.562	85.5
364.788	89.5
365.015	97.5
365.241	99.5
365.468	90.5
365.694	112.5
365.92	94.5
366.147	97.5
366.373	109.5
366.599	90.5
366.826	90.5
367.052	78.5
367.278	92.5
367.505	105.5
367.731	82.5
367.957	91.5
368.184	96.5
368.41	96.5
368.636	114.5
368.862	118.5
369.089	113.5
369.315	110.5
369.541	91.5
369.767	84.5
369.993	91.5
370.219	87.5
370.445	86.5
370.672	94.5
370.898	90.5
371.124	92.5
371.35	102.5
371.576	100.5
371.802	84.5
372.028	77.5
372.254	96.5
372.48	90.5
372.706	81.5
372.932	96.5
373.158	95.5
373.384	84.5
373.61	101.5
373.835	81.5
374.061	99.5
374.287	102.5
374.513	96.5
374.739	84.5
374.965	85.5
375.191	102.5
375.416	87.5
375.642	89.5
375.868	100.5
376.094	92.5
376.319	92.5
376.545	85.5
376.771	93.5
376.997	84.5
377.222	95.5
377.448	80.5
377.674	105.5
377.899	93.5
378.125	94.5
378.35	85.5
378.576	100.5
378.802	89.5
379.027	105.5
379.253	103.5
379.478	98.5
379.704	103.5
379.929	96.5
380.155	111.5
380.38	76.5
380.606	91.5
380.831	94.5
381.057	112.5
381.282	94.5
381.507	108.5
381.733	93.5
381.958	89.5
382.184	81.5
382.409	102.5
382.634	89.5
382.86	94.5
383.085	86.5
383.31	101.5
383.535	92.5
383.761	96.5
383.986	99.5
384.211	103.5
384.436	78.5
384.662	96.5
384.887	95.5
385.112	99.5
385.337	105.5
385.562	97.5
385.787	105.5
386.013	116.5
386.238	100.5
386.463	109.5
386.688	101.5
386.913	102.5
387.138	125.5
387.363	106.5
387.588	104.5
387.813	101.5
388.038	101.5
388.263	95.5
388.488	104.5
388.713	95.5
388.938	94.5
389.163	102.5
389.387	103.5
389.612	93.5
389.837	89.5
390.062	87.5
390.287	110.5
390.512	99.5
390.736	88.5
390.961	100.5
391.186	90.5
391.411	101.5
391.636	100.5
391.86	93.5
392.085	84.5
392.31	89.5
392.534	78.5
392.759	87.5
392.984	84.5
393.208	81.5
393.433	92.5
393.658	97.5
393.882	91.5
394.107	74.5
394.331	88.5
394.556	93.5
394.78	79.5
395.005	92.5
395.229	90.5
395.454	86.5
395.678	88.5
395.903	95.5
396.127	84.5
396.352	75.5
396.576	76.5
396.801	76.5
397.025	83.5
397.249	92.5
397.474	98.5
397.698	92.5
397.922	89.5
398.147	88.5
398.371	93.5
398.595	86.5
398.82	82.5
399.044	92.5
399.268	82.5
399.492	102.5
399.717	91.5
399.941	78.5
400.165	94.5
400.389	97.5
400.613	85.5
400.837	89.5
401.062	97.5
401.286	97.5
401.51	93.5
401.734	100.5
401.958	98.5
402.182	119.5
402.406	145.5
402.63	106.5
402.854	94.5
403.078	93.5
403.302	94.5
403.526	77.5
403.75	88.5
403.974	85.5
404.198	99.5
404.422	76.5
404.645	89.5
404.869	80.5
405.093	101.5
405.317	89.5
405.541	85.5
405.765	98.5
405.988	116.5
406.212	172.5
406.436	219.5
406.66	140.5
406.883	94.5
407.107	112.5
407.331	85.5
407.555	112.5
407.778	94.5
408.002	92.5
408.226	81.5
408.449	88.5
408.673	81.5
408.896	92.5
409.12	98.5
409.344	89.5
409.567	107.5
409.791	88.5
410.014	101.5
410.238	96.5
410.461	96.5
410.685	91.5
410.908	89.5
411.132	104.5
411.355	99.5
411.578	100.5
411.802	95.5
412.025	94.5
412.249	85.5
412.472	85.5
412.695	89.5
412.919	97.5
413.142	76.5
413.365	84.5
413.589	92.5
413.812	97.5
414.035	88.5
414.258	100.5
414.482	95.5
414.705	106.5
414.928	98.5
415.151	97.5
415.374	112.5
415.597	103.5
415.821	95.5
416.044	105.5
416.267	84.5
416.49	80.5
416.713	87.5
416.936	91.5
417.159	88.5
417.382	89.5
417.605	102.5
417.828	97.5
418.051	81.5
418.274	89.5
418.497	82.5
418.72	80.5
418.943	88.5
419.166	83.5
419.389	87.5
419.611	92.5
419.834	84.5
420.057	99.5
420.28	98.5
420.503	85.5
420.726	87.5
420.948	85.5
421.171	100.5
421.394	90.5
421.617	96.5
421.839	96.5
422.062	101.5
422.285	93.5
422.507	92.5
422.73	100.5
422.953	95.5
423.175	99.5
423.398	82.5
423.621	82.5
423.843	76.5
424.066	87.5
424.288	96.5
424.511	86.5
424.733	87.5
424.956	110.5
425.178	110.5
425.401	105.5
425.623	97.5
425.846	86.5
426.068	85.5
426.291	89.5
426.513	102.5
426.735	89.5
426.958	87.5
427.18	112.5
427.402	128.5
427.625	159.5
427.847	134.5
428.069	94.5
428.292	90.5
428.514	87.5
428.736	92.5
428.958	82.5
429.181	97.5
429.403	100.5
429.625	84.5
429.847	94.5
430.069	84.5
430.292	93.5
430.514	86.5
430.736	93.5
430.958	99.5
431.18	77.5
431.402	84.5
431.624	72.5
431.846	88.5
432.068	79.5
432.29	88.5
432.512	95.5
432.734	99.5
432.956	89.5
433.178	92.5
433.4	102.5
433.622	79.5
433.844	101.5
434.066	88.5
434.287	80.5
434.509	95.5
434.731	90.5
434.953	84.5
435.175	106.5
435.397	86.5
435.618	85.5
435.84	99.5
436.062	138.5
436.284	113.5
436.505	100.5
436.727	106.5
436.949	102.5
437.17	88.5
437.392	92.5
437.614	73.5
437.835	102.5
438.057	114.5
438.278	102.5
438.5	98.5
438.721	113.5
438.943	98.5
439.165	100.5
439.386	95.5
439.608	96.5
439.829	97.5
440.05	121.5
440.272	136.5
440.493	99.5
440.715	90.5
440.936	89.5
441.158	80.5
441.379	98.5
441.6	93.5
441.822	88.5
442.043	83.5
442.264	101.5
442.486	105.5
442.707	100.5
442.928	94.5
443.149	146.5
443.371	128.5
443.592	99.5
443.813	102.5
444.034	104.5
444.255	94.5
444.476	82.5
444.698	87.5
444.919	87.5
445.14	144.5
445.361	120.5
445.582	106.5
445.803	130.5
446.024	133.5
446.245	121.5
446.466	118.5
446.687	97.5
446.908	72.5
447.129	100.5
447.35	84.5
447.571	90.5
447.792	86.5
448.013	104.5
448.234	102.5
448.455	103.5
448.675	116.5
448.896	113.5
449.117	104.5
449.338	108.5
449.559	132.5
449.779	137.5
450	103.5
450.221	98.5
450.442	102.5
450.662	97.5
450.883	106.5
451.104	97.5
451.324	95.5
451.545	76.5
451.766	84.5
451.986	89.5
452.207	82.5
452.428	88.5
452.648	91.5
452.869	120.5
453.089	107.5
453.31	103.5
453.53	89.5
453.751	78.5
453.971	102.5
454.192	100.5
454.412	89.5
454.633	95.5
454.853	81.5
455.073	79.5
455.294	98.5
455.514	106.5
455.734	92.5
455.955	94.5
456.175	80.5
456.395	68.5
456.616	84.5
456.836	89.5
457.056	90.5
457.276	79.5
457.497	74.5
457.717	76.5
457.937	90.5
458.157	71.5
458.377	87.5
458.598	106.5
458.818	133.5
459.038	154.5
459.258	104.5
459.478	87.5
459.698	96.5
459.918	87.5
460.138	89.5
460.358	97.5
460.578	81.5
460.798	69.5
461.018	94.5
461.238	73.5
461.458	85.5
461.678	97.5
461.898	88.5
462.118	92.5
462.338	86.5
462.558	83.5
462.777	83.5
462.997	98.5
463.217	78.5
463.437	72.5
463.657	90.5
463.876	93.5
464.096	83.5
464.316	100.5
464.536	92.5
464.755	93.5
464.975	108.5
465.195	153.5
465.414	160.5
465.634	101.5
465.854	86.5
466.073	90.5
466.293	83.5
466.512	89.5
466.732	85.5
466.951	91.5
467.171	83.5
467.391	107.5
467.61	105.5
467.829	95.5
468.049	89.5
468.268	72.5
468.488	87.5
468.707	77.5
468.927	81.5
469.146	74.5
469.365	77.5
469.585	90.5
469.804	93.5
470.023	97.5
470.243	90.5
470.462	103.5
470.681	103.5
470.901	95.5
471.12	94.5
471.339	80.5
471.558	91.5
471.777	91.5
471.997	85.5
472.216	89.5
472.435	93.5
472.654	88.5
472.873	94.5
473.092	88.5
473.311	84.5
473.53	87.5
473.749	83.5
473.968	77.5
474.187	101.5
474.406	88.5
474.625	91.5
474.844	89.5
475.063	90.5
475.282	66.5
475.501	78.5
475.72	86.5
475.939	85.5
476.158	74.5
476.377	72.5
476.596	86.5
476.814	96.5
477.033	92.5
477.252	92.5
477.471	85.5
477.69	92.5
477.908	93.5
478.127	96.5
478.346	94.5
478.564	101.5
478.783	87.5
479.002	96.5
479.22	76.5
479.439	102.5
479.658	96.5
479.876	80.5
480.095	83.5
480.313	82.5
480.532	86.5
480.751	80.5
480.969	93.5
481.188	103.5
481.406	106.5
481.624	70.5
481.843	90.5
482.061	88.5
482.28	94.5
482.498	98.5
482.717	97.5
482.935	85.5
483.153	99.5
483.372	79.5
483.59	81.5
483.808	97.5
484.027	90.5
484.245	90.5
484.463	96.5
484.681	92.5
484.9	87.5
485.118	74.5
485.336	73.5
485.554	90.5
485.772	112.5
485.99	100.5
486.209	102.5
486.427	101.5
486.645	109.5
486.863	101.5
487.081	94.5
487.299	79.5
487.517	101.5
487.735	89.5
487.953	102.5
488.171	83.5
488.389	93.5
488.607	91.5
488.825	87.5
489.043	102.5
489.261	90.5
489.479	87.5
489.696	93.5
489.914	100.5
490.132	90.5
490.35	90.5
490.568	102.5
490.786	102.5
491.003	98.5
491.221	105.5
491.439	86.5
491.657	93.5
491.874	93.5
492.092	84.5
492.31	90.5
492.527	95.5
492.745	72.5
492.963	78.5
493.18	101.5
493.398	117.5
493.615	103.5
493.833	97.5
494.05	80.5
494.268	84.5
494.485	100.5
494.703	76.5
494.92	87.5
495.138	85.5
495.355	104.5
495.573	85.5
495.79	95.5
496.008	101.5
496.225	103.5
496.442	86.5
496.66	95.5
496.877	88.5
497.094	103.5
497.312	85.5
497.529	83.5
497.746	95.5
497.963	80.5
498.181	98.5
498.398	93.5
498.615	97.5
498.832	108.5
499.049	101.5
499.267	86.5
499.484	88.5
499.701	90.5
499.918	97.5
500.135	84.5
500.352	89.5
500.569	83.5
500.786	96.5
501.003	90.5
501.22	92.5
501.437	100.5
501.654	92.5
501.871	95.5
502.088	90.5
502.305	84.5
502.522	95.5
502.739	85.5
502.956	99.5
503.172	87.5
503.389	80.5
503.606	98.5
503.823	90.5
504.04	81.5
504.256	91.5
504.473	93.5
504.69	77.5
504.907	85.5
505.123	86.5
505.34	87.5
505.557	96.5
505.773	94.5
505.99	89.5
506.207	82.5
506.423	79.5
506.64	92.5
506.856	95.5
507.073	89.5
507.289	74.5
507.506	101.5
507.722	128.5
507.939	98.5
508.155	93.5
508.372	95.5
508.588	100.5
508.805	88.5
509.021	94.5
509.238	105.5
509.454	102.5
509.67	105.5
509.887	127.5
510.103	135.5
510.319	218.5
510.536	806.5
510.752	2522.5
510.968	700.5
511.184	162.5
511.401	108.5
511.617	86.5
511.833	93.5
512.049	94.5
512.265	86.5
512.481	81.5
512.698	98.5
512.914	85.5
513.13	94.5
513.346	92.5
513.562	103.5
513.778	92.5
513.994	90.5
514.21	116.5
514.426	129.5
514.642	121.5
514.858	129.5
515.074	158.5
515.29	458.5
515.506	1486.5
515.721	536.5
515.937	158.5
516.153	113.5
516.369	98.5
516.585	88.5
516.801	111.5
517.016	87.5
517.232	89.5
517.448	83.5
517.664	108.5
517.879	107.5
518.095	103.5
518.311	99.5
518.527	82.5
518.742	89.5
518.958	83.5
519.173	98.5
519.389	103.5
519.605	90.5
519.82	85.5
520.036	115.5
520.251	117.5
520.467	109.5
520.682	112.5
520.898	102.5
521.113	125.5
521.329	124.5
521.544	199.5
521.76	551.5
521.975	2426.5
522.19	1470.5
522.406	290.5
522.621	117.5
522.836	92.5
523.052	106.5
523.267	96.5
523.482	96.5
523.698	114.5
523.913	117.5
524.128	100.5
524.343	80.5
524.559	81.5
524.774	89.5
524.989	100.5
525.204	109.5
525.419	101.5
525.634	90.5
525.849	90.5
526.064	89.5
526.28	86.5
526.495	88.5
526.71	85.5
526.925	83.5
527.14	89.5
527.355	89.5
527.57	83.5
527.785	89.5
527.999	94.5
528.214	104.5
528.429	76.5
528.644	106.5
528.859	83.5
529.074	85.5
529.289	118.5
529.503	176.5
529.718	110.5
529.933	99.5
530.148	104.5
530.363	79.5
530.577	90.5
530.792	82.5
531.007	82.5
531.221	103.5
531.436	100.5
531.651	87.5
531.865	93.5
532.08	87.5
532.295	88.5
532.509	90.5
532.724	81.5
532.938	95.5
533.153	93.5
533.367	96.5
533.582	92.5
533.796	102.5
534.011	99.5
534.225	99.5
534.44	93.5
534.654	111.5
534.868	79.5
535.083	95.5
535.297	96.5
535.511	99.5
