Data from Uncirc_2003_H10_HRD10591_00042.txt Node
Date: Wed Jan 03 10:35:56 EST 2024
User: Yrep
Spectrometer: HR+D1059
Trigger mode: 1
Integration Time (sec): 1.000000E-1
Scans to average: 1
Electric dark correction enabled: true
Nonlinearity correction enabled: false
Boxcar width: 0
XAxis mode: Wavelengths
Number of Pixels in Spectrum: 2048
>>>>>Begin Spectral Data<<<<<
223.165	-22.06
223.4	-22.06
223.635	-22.06
223.869	-12.06
224.104	-17.06
224.338	-6.06
224.573	-21.06
224.808	-19.06
225.042	-19.06
225.277	-4.06
225.511	-10.06
225.746	7.94
225.98	7.94
226.215	19.94
226.449	24.94
226.683	17.94
226.918	26.94
227.152	24.94
227.387	52.94
227.621	40.94
227.856	34.94
228.09	38.94
228.324	54.94
228.559	58.94
228.793	58.94
229.027	61.94
229.262	71.94
229.496	79.94
229.73	81.94
229.964	77.94
230.199	66.94
230.433	74.94
230.667	77.94
230.901	92.94
231.136	76.94
231.37	78.94
231.604	76.94
231.838	67.94
232.072	78.94
232.306	86.94
232.541	90.94
232.775	90.94
233.009	71.94
233.243	87.94
233.477	78.94
233.711	82.94
233.945	86.94
234.179	79.94
234.413	74.94
234.647	89.94
234.881	93.94
235.115	70.94
235.349	85.94
235.583	84.94
235.817	66.94
236.051	82.94
236.285	76.94
236.519	78.94
236.753	71.94
236.987	74.94
237.221	88.94
237.455	98.94
237.689	80.94
237.922	76.94
238.156	75.94
238.39	84.94
238.624	83.94
238.858	76.94
239.091	80.94
239.325	71.94
239.559	94.94
239.793	91.94
240.027	78.94
240.26	77.94
240.494	80.94
240.728	89.94
240.961	75.94
241.195	81.94
241.429	84.94
241.662	107.94
241.896	80.94
242.13	73.94
242.363	80.94
242.597	85.94
242.83	71.94
243.064	96.94
243.298	72.94
243.531	82.94
243.765	70.94
243.998	89.94
244.232	80.94
244.465	88.94
244.699	75.94
244.932	88.94
245.166	76.94
245.399	79.94
245.633	77.94
245.866	76.94
246.099	77.94
246.333	69.94
246.566	68.94
246.8	67.94
247.033	83.94
247.266	92.94
247.5	75.94
247.733	88.94
247.966	74.94
248.2	83.94
248.433	81.94
248.666	87.94
248.899	69.94
249.133	76.94
249.366	99.94
249.599	92.94
249.832	82.94
250.066	87.94
250.299	81.94
250.532	78.94
250.765	67.94
250.998	89.94
251.231	78.94
251.465	85.94
251.698	81.94
251.931	78.94
252.164	75.94
252.397	78.94
252.63	74.94
252.863	82.94
253.096	76.94
253.329	93.94
253.562	82.94
253.795	75.94
254.028	88.94
254.261	84.94
254.494	76.94
254.727	96.94
254.96	72.94
255.193	84.94
255.426	88.94
255.659	74.94
255.892	80.94
256.124	85.94
256.357	76.94
256.59	72.94
256.823	82.94
257.056	91.94
257.289	83.94
257.521	82.94
257.754	76.94
257.987	67.94
258.22	92.94
258.452	82.94
258.685	75.94
258.918	76.94
259.151	73.94
259.383	84.94
259.616	79.94
259.849	74.94
260.081	76.94
260.314	81.94
260.547	82.94
260.779	83.94
261.012	88.94
261.244	75.94
261.477	81.94
261.71	100.94
261.942	104.94
262.175	114.94
262.407	88.94
262.64	68.94
262.872	85.94
263.105	87.94
263.337	91.94
263.57	82.94
263.802	82.94
264.035	97.94
264.267	78.94
264.499	72.94
264.732	74.94
264.964	94.94
265.197	88.94
265.429	77.94
265.661	77.94
265.894	84.94
266.126	79.94
266.358	83.94
266.591	87.94
266.823	86.94
267.055	80.94
267.287	80.94
267.52	83.94
267.752	101.94
267.984	80.94
268.216	68.94
268.448	84.94
268.681	83.94
268.913	79.94
269.145	91.94
269.377	83.94
269.609	75.94
269.841	80.94
270.073	90.94
270.306	82.94
270.538	106.94
270.77	80.94
271.002	85.94
271.234	79.94
271.466	101.94
271.698	100.94
271.93	75.94
272.162	99.94
272.394	81.94
272.626	79.94
272.858	83.94
273.09	86.94
273.322	104.94
273.553	76.94
273.785	94.94
274.017	72.94
274.249	87.94
274.481	84.94
274.713	87.94
274.945	93.94
275.176	97.94
275.408	101.94
275.64	99.94
275.872	89.94
276.104	77.94
276.335	87.94
276.567	97.94
276.799	79.94
277.031	84.94
277.262	84.94
277.494	75.94
277.726	87.94
277.957	87.94
278.189	87.94
278.421	75.94
278.652	77.94
278.884	86.94
279.115	90.94
279.347	93.94
279.579	77.94
279.81	85.94
280.042	89.94
280.273	89.94
280.505	82.94
280.736	87.94
280.968	103.94
281.199	99.94
281.431	89.94
281.662	84.94
281.894	90.94
282.125	102.94
282.356	105.94
282.588	142.94
282.819	112.94
283.051	102.94
283.282	89.94
283.513	88.94
283.745	93.94
283.976	90.94
284.207	92.94
284.439	90.94
284.67	94.94
284.901	90.94
285.132	105.94
285.364	91.94
285.595	82.94
285.826	82.94
286.057	78.94
286.288	83.94
286.52	83.94
286.751	87.94
286.982	94.94
287.213	87.94
287.444	78.94
287.675	90.94
287.906	94.94
288.138	97.94
288.369	89.94
288.6	85.94
288.831	80.94
289.062	93.94
289.293	86.94
289.524	86.94
289.755	83.94
289.986	95.94
290.217	76.94
290.448	92.94
290.679	92.94
290.91	109.94
291.141	101.94
291.371	84.94
291.602	93.94
291.833	91.94
292.064	96.94
292.295	75.94
292.526	93.94
292.757	83.94
292.987	95.94
293.218	88.94
293.449	91.94
293.68	103.94
293.91	100.94
294.141	93.94
294.372	86.94
294.603	87.94
294.833	90.94
295.064	86.94
295.295	98.94
295.525	104.94
295.756	107.94
295.987	107.94
296.217	146.94
296.448	114.94
296.679	91.94
296.909	94.94
297.14	91.94
297.37	82.94
297.601	87.94
297.831	74.94
298.062	78.94
298.292	78.94
298.523	92.94
298.753	87.94
298.984	83.94
299.214	95.94
299.445	91.94
299.675	92.94
299.905	83.94
300.136	98.94
300.366	83.94
300.597	91.94
300.827	89.94
301.057	110.94
301.288	114.94
301.518	103.94
301.748	92.94
301.979	88.94
302.209	81.94
302.439	90.94
302.669	103.94
302.9	84.94
303.13	89.94
303.36	87.94
303.59	105.94
303.82	107.94
304.051	86.94
304.281	86.94
304.511	98.94
304.741	96.94
304.971	92.94
305.201	95.94
305.431	102.94
305.661	97.94
305.891	80.94
306.121	83.94
306.352	105.94
306.582	105.94
306.812	90.94
307.042	95.94
307.272	104.94
307.502	94.94
307.731	94.94
307.961	80.94
308.191	88.94
308.421	98.94
308.651	95.94
308.881	102.94
309.111	103.94
309.341	88.94
309.571	100.94
309.8	87.94
310.03	95.94
310.26	98.94
310.49	104.94
310.72	90.94
310.949	84.94
311.179	98.94
311.409	105.94
311.639	103.94
311.868	92.94
312.098	90.94
312.328	87.94
312.557	94.94
312.787	95.94
313.017	94.94
313.246	80.94
313.476	94.94
313.706	90.94
313.935	89.94
314.165	99.94
314.394	97.94
314.624	86.94
314.853	90.94
315.083	95.94
315.312	93.94
315.542	90.94
315.771	105.94
316.001	93.94
316.23	96.94
316.46	95.94
316.689	91.94
316.919	84.94
317.148	111.94
317.377	99.94
317.607	96.94
317.836	96.94
318.065	90.94
318.295	114.94
318.524	90.94
318.753	96.94
318.983	104.94
319.212	99.94
319.441	102.94
319.67	114.94
319.9	100.94
320.129	74.94
320.358	87.94
320.587	83.94
320.816	81.94
321.046	95.94
321.275	87.94
321.504	90.94
321.733	91.94
321.962	90.94
322.191	101.94
322.42	105.94
322.649	115.94
322.878	98.94
323.108	123.94
323.337	122.94
323.566	135.94
323.795	155.94
324.024	211.94
324.253	420.94
324.482	900.94
324.71	1861.94
324.939	2423.94
325.168	865.94
325.397	259.94
325.626	164.94
325.855	127.94
326.084	127.94
326.313	139.94
326.542	153.94
326.77	248.94
326.999	520.94
327.228	1050.94
327.457	1861.94
327.686	1470.94
327.914	387.94
328.143	190.94
328.372	139.94
328.6	111.94
328.829	124.94
329.058	129.94
329.287	145.94
329.515	108.94
329.744	105.94
329.972	101.94
330.201	118.94
330.43	101.94
330.658	117.94
330.887	150.94
331.115	119.94
331.344	102.94
331.572	89.94
331.801	114.94
332.03	96.94
332.258	95.94
332.486	91.94
332.715	93.94
332.943	99.94
333.172	102.94
333.4	96.94
333.629	105.94
333.857	101.94
334.085	91.94
334.314	108.94
334.542	106.94
334.771	94.94
334.999	95.94
335.227	96.94
335.455	95.94
335.684	104.94
335.912	97.94
336.14	111.94
336.369	106.94
336.597	103.94
336.825	112.94
337.053	102.94
337.281	99.94
337.51	77.94
337.738	96.94
337.966	99.94
338.194	93.94
338.422	87.94
338.65	92.94
338.878	86.94
339.106	83.94
339.334	100.94
339.562	94.94
339.79	95.94
340.018	83.94
340.246	96.94
340.474	95.94
340.702	97.94
340.93	86.94
341.158	89.94
341.386	97.94
341.614	89.94
341.842	86.94
342.07	94.94
342.298	96.94
342.526	99.94
342.754	89.94
342.981	87.94
343.209	84.94
343.437	102.94
343.665	81.94
343.893	94.94
344.12	88.94
344.348	84.94
344.576	96.94
344.804	87.94
345.031	114.94
345.259	92.94
345.487	97.94
345.714	92.94
345.942	102.94
346.17	87.94
346.397	96.94
346.625	92.94
346.853	114.94
347.08	105.94
347.308	99.94
347.535	105.94
347.763	105.94
347.99	79.94
348.218	101.94
348.445	103.94
348.673	110.94
348.9	92.94
349.128	88.94
349.355	83.94
349.583	103.94
349.81	100.94
350.037	94.94
350.265	93.94
350.492	97.94
350.72	90.94
350.947	101.94
351.174	110.94
351.402	110.94
351.629	107.94
351.856	96.94
352.083	98.94
352.311	103.94
352.538	112.94
352.765	114.94
352.992	107.94
353.22	103.94
353.447	99.94
353.674	101.94
353.901	100.94
354.128	116.94
354.355	99.94
354.583	106.94
354.81	105.94
355.037	100.94
355.264	99.94
355.491	91.94
355.718	89.94
355.945	97.94
356.172	100.94
356.399	90.94
356.626	103.94
356.853	107.94
357.08	93.94
357.307	88.94
357.534	108.94
357.761	83.94
357.988	104.94
358.215	98.94
358.441	81.94
358.668	81.94
358.895	90.94
359.122	95.94
359.349	89.94
359.576	98.94
359.802	103.94
360.029	101.94
360.256	97.94
360.483	77.94
360.709	94.94
360.936	114.94
361.163	103.94
361.39	105.94
361.616	81.94
361.843	95.94
362.07	107.94
362.296	94.94
362.523	97.94
362.749	90.94
362.976	89.94
363.203	90.94
363.429	90.94
363.656	97.94
363.882	89.94
364.109	89.94
364.335	97.94
364.562	84.94
364.788	96.94
365.015	97.94
365.241	92.94
365.468	98.94
365.694	122.94
365.92	77.94
366.147	85.94
366.373	78.94
366.599	103.94
366.826	103.94
367.052	97.94
367.278	89.94
367.505	98.94
367.731	84.94
367.957	85.94
368.184	88.94
368.41	106.94
368.636	115.94
368.862	120.94
369.089	98.94
369.315	103.94
369.541	113.94
369.767	100.94
369.993	95.94
370.219	96.94
370.445	98.94
370.672	90.94
370.898	92.94
371.124	93.94
371.35	103.94
371.576	91.94
371.802	80.94
372.028	82.94
372.254	88.94
372.48	94.94
372.706	96.94
372.932	83.94
373.158	100.94
373.384	88.94
373.61	90.94
373.835	81.94
374.061	86.94
374.287	81.94
374.513	92.94
374.739	85.94
374.965	84.94
375.191	86.94
375.416	92.94
375.642	79.94
375.868	86.94
376.094	86.94
376.319	96.94
376.545	102.94
376.771	83.94
376.997	102.94
377.222	102.94
377.448	82.94
377.674	91.94
377.899	94.94
378.125	94.94
378.35	102.94
378.576	99.94
378.802	102.94
379.027	85.94
379.253	106.94
379.478	84.94
379.704	103.94
379.929	87.94
380.155	80.94
380.38	94.94
380.606	87.94
380.831	105.94
381.057	94.94
381.282	83.94
381.507	97.94
381.733	96.94
381.958	95.94
382.184	75.94
382.409	97.94
382.634	87.94
382.86	97.94
383.085	103.94
383.31	97.94
383.535	112.94
383.761	96.94
383.986	92.94
384.211	95.94
384.436	90.94
384.662	97.94
384.887	106.94
385.112	115.94
385.337	93.94
385.562	108.94
385.787	101.94
386.013	119.94
386.238	118.94
386.463	109.94
386.688	122.94
386.913	100.94
387.138	114.94
387.363	108.94
387.588	107.94
387.813	117.94
388.038	99.94
388.263	111.94
388.488	111.94
388.713	95.94
388.938	100.94
389.163	95.94
389.387	84.94
389.612	89.94
389.837	95.94
390.062	92.94
390.287	86.94
390.512	105.94
390.736	114.94
390.961	92.94
391.186	103.94
391.411	92.94
391.636	92.94
391.86	82.94
392.085	87.94
392.31	96.94
392.534	87.94
392.759	94.94
392.984	82.94
393.208	89.94
393.433	97.94
393.658	106.94
393.882	86.94
394.107	76.94
394.331	105.94
394.556	92.94
394.78	101.94
395.005	87.94
395.229	85.94
395.454	81.94
395.678	88.94
395.903	97.94
396.127	83.94
396.352	95.94
396.576	94.94
396.801	91.94
397.025	78.94
397.249	83.94
397.474	91.94
397.698	94.94
397.922	89.94
398.147	91.94
398.371	87.94
398.595	84.94
398.82	91.94
399.044	89.94
399.268	92.94
399.492	81.94
399.717	119.94
399.941	101.94
400.165	82.94
400.389	88.94
400.613	96.94
400.837	94.94
401.062	87.94
401.286	94.94
401.51	94.94
401.734	91.94
401.958	103.94
402.182	134.94
402.406	157.94
402.63	110.94
402.854	94.94
403.078	88.94
403.302	89.94
403.526	88.94
403.75	83.94
403.974	94.94
404.198	87.94
404.422	87.94
404.645	86.94
404.869	85.94
405.093	90.94
405.317	79.94
405.541	98.94
405.765	83.94
405.988	128.94
406.212	174.94
406.436	225.94
406.66	151.94
406.883	95.94
407.107	83.94
407.331	99.94
407.555	88.94
407.778	99.94
408.002	85.94
408.226	108.94
408.449	92.94
408.673	94.94
408.896	95.94
409.12	93.94
409.344	75.94
409.567	97.94
409.791	113.94
410.014	80.94
410.238	85.94
410.461	92.94
410.685	82.94
410.908	110.94
411.132	115.94
411.355	94.94
411.578	86.94
411.802	86.94
412.025	86.94
412.249	81.94
412.472	99.94
412.695	89.94
412.919	94.94
413.142	93.94
413.365	86.94
413.589	96.94
413.812	86.94
414.035	105.94
414.258	85.94
414.482	102.94
414.705	88.94
414.928	86.94
415.151	90.94
415.374	83.94
415.597	91.94
415.821	90.94
416.044	93.94
416.267	89.94
416.49	92.94
416.713	95.94
416.936	100.94
417.159	85.94
417.382	96.94
417.605	77.94
417.828	94.94
418.051	90.94
418.274	90.94
418.497	91.94
418.72	93.94
418.943	86.94
419.166	86.94
419.389	95.94
419.611	90.94
419.834	84.94
420.057	98.94
420.28	100.94
420.503	83.94
420.726	90.94
420.948	87.94
421.171	101.94
421.394	86.94
421.617	101.94
421.839	99.94
422.062	92.94
422.285	81.94
422.507	98.94
422.73	104.94
422.953	85.94
423.175	91.94
423.398	83.94
423.621	104.94
423.843	93.94
424.066	102.94
424.288	90.94
424.511	95.94
424.733	90.94
424.956	108.94
425.178	92.94
425.401	106.94
425.623	100.94
425.846	91.94
426.068	98.94
426.291	83.94
426.513	96.94
426.735	91.94
426.958	84.94
427.18	92.94
427.402	145.94
427.625	164.94
427.847	119.94
428.069	95.94
428.292	80.94
428.514	81.94
428.736	75.94
428.958	84.94
429.181	89.94
429.403	85.94
429.625	79.94
429.847	90.94
430.069	89.94
430.292	113.94
430.514	87.94
430.736	86.94
430.958	96.94
431.18	74.94
431.402	85.94
431.624	74.94
431.846	70.94
432.068	80.94
432.29	91.94
432.512	89.94
432.734	93.94
432.956	88.94
433.178	97.94
433.4	89.94
433.622	84.94
433.844	98.94
434.066	79.94
434.287	102.94
434.509	100.94
434.731	87.94
434.953	95.94
435.175	95.94
435.397	104.94
435.618	110.94
435.84	94.94
436.062	117.94
436.284	114.94
436.505	88.94
436.727	111.94
436.949	99.94
437.17	92.94
437.392	78.94
437.614	88.94
437.835	100.94
438.057	119.94
438.278	111.94
438.5	102.94
438.721	121.94
438.943	100.94
439.165	86.94
439.386	92.94
439.608	100.94
439.829	101.94
440.05	128.94
440.272	132.94
440.493	95.94
440.715	78.94
440.936	89.94
441.158	73.94
441.379	78.94
441.6	98.94
441.822	96.94
442.043	92.94
442.264	99.94
442.486	107.94
442.707	93.94
442.928	95.94
443.149	136.94
443.371	134.94
443.592	103.94
443.813	107.94
444.034	98.94
444.255	94.94
444.476	94.94
444.698	85.94
444.919	91.94
445.14	137.94
445.361	130.94
445.582	110.94
445.803	112.94
446.024	113.94
446.245	122.94
446.466	108.94
446.687	103.94
446.908	94.94
447.129	89.94
447.35	94.94
447.571	79.94
447.792	104.94
448.013	93.94
448.234	102.94
448.455	110.94
448.675	107.94
448.896	107.94
449.117	102.94
449.338	88.94
449.559	135.94
449.779	146.94
450	100.94
450.221	97.94
450.442	88.94
450.662	92.94
450.883	104.94
451.104	98.94
451.324	105.94
451.545	93.94
451.766	77.94
451.986	93.94
452.207	83.94
452.428	88.94
452.648	92.94
452.869	108.94
453.089	126.94
453.31	104.94
453.53	86.94
453.751	90.94
453.971	87.94
454.192	96.94
454.412	82.94
454.633	75.94
454.853	90.94
455.073	98.94
455.294	86.94
455.514	92.94
455.734	81.94
455.955	82.94
456.175	92.94
456.395	80.94
456.616	86.94
456.836	76.94
457.056	92.94
457.276	88.94
457.497	87.94
457.717	97.94
457.937	80.94
458.157	88.94
458.377	88.94
458.598	115.94
458.818	143.94
459.038	150.94
459.258	107.94
459.478	92.94
459.698	93.94
459.918	92.94
460.138	88.94
460.358	89.94
460.578	89.94
460.798	95.94
461.018	96.94
461.238	79.94
461.458	82.94
461.678	84.94
461.898	97.94
462.118	77.94
462.338	83.94
462.558	86.94
462.777	78.94
462.997	89.94
463.217	79.94
463.437	105.94
463.657	93.94
463.876	85.94
464.096	84.94
464.316	86.94
464.536	86.94
464.755	91.94
464.975	94.94
465.195	168.94
465.414	151.94
465.634	90.94
465.854	80.94
466.073	81.94
466.293	97.94
466.512	88.94
466.732	81.94
466.951	96.94
467.171	98.94
467.391	95.94
467.61	94.94
467.829	89.94
468.049	98.94
468.268	85.94
468.488	83.94
468.707	97.94
468.927	83.94
469.146	95.94
469.365	84.94
469.585	91.94
469.804	78.94
470.023	100.94
470.243	89.94
470.462	81.94
470.681	111.94
470.901	94.94
471.12	81.94
471.339	81.94
471.558	79.94
471.777	89.94
471.997	73.94
472.216	94.94
472.435	91.94
472.654	84.94
472.873	104.94
473.092	89.94
473.311	98.94
473.53	94.94
473.749	89.94
473.968	102.94
474.187	97.94
474.406	83.94
474.625	85.94
474.844	88.94
475.063	84.94
475.282	90.94
475.501	74.94
475.72	90.94
475.939	91.94
476.158	85.94
476.377	85.94
476.596	92.94
476.814	103.94
477.033	89.94
477.252	74.94
477.471	81.94
477.69	89.94
477.908	87.94
478.127	86.94
478.346	102.94
478.564	90.94
478.783	103.94
479.002	78.94
479.22	89.94
479.439	103.94
479.658	102.94
479.876	103.94
480.095	110.94
480.313	88.94
480.532	106.94
480.751	99.94
480.969	111.94
481.188	99.94
481.406	95.94
481.624	80.94
481.843	78.94
482.061	87.94
482.28	83.94
482.498	90.94
482.717	94.94
482.935	94.94
483.153	92.94
483.372	97.94
483.59	98.94
483.808	82.94
484.027	104.94
484.245	86.94
484.463	104.94
484.681	89.94
484.9	90.94
485.118	93.94
485.336	104.94
485.554	90.94
485.772	95.94
485.99	103.94
486.209	111.94
486.427	106.94
486.645	106.94
486.863	112.94
487.081	107.94
487.299	109.94
487.517	103.94
487.735	92.94
487.953	88.94
488.171	91.94
488.389	89.94
488.607	98.94
488.825	82.94
489.043	82.94
489.261	83.94
489.479	91.94
489.696	101.94
489.914	77.94
490.132	91.94
490.35	102.94
490.568	89.94
490.786	90.94
491.003	93.94
491.221	97.94
491.439	79.94
491.657	92.94
491.874	106.94
492.092	95.94
492.31	89.94
492.527	78.94
492.745	86.94
492.963	85.94
493.18	102.94
493.398	88.94
493.615	110.94
493.833	114.94
494.05	88.94
494.268	95.94
494.485	98.94
494.703	83.94
494.92	94.94
495.138	86.94
495.355	96.94
495.573	96.94
495.79	81.94
496.008	90.94
496.225	88.94
496.442	88.94
496.66	104.94
496.877	92.94
497.094	112.94
497.312	110.94
497.529	97.94
497.746	87.94
497.963	96.94
498.181	100.94
498.398	92.94
498.615	98.94
498.832	102.94
499.049	94.94
499.267	94.94
499.484	96.94
499.701	96.94
499.918	95.94
500.135	78.94
500.352	84.94
500.569	96.94
500.786	96.94
501.003	92.94
501.22	86.94
501.437	98.94
501.654	97.94
501.871	97.94
502.088	80.94
502.305	92.94
502.522	107.94
502.739	80.94
502.956	88.94
503.172	88.94
503.389	91.94
503.606	108.94
503.823	99.94
504.04	102.94
504.256	86.94
504.473	92.94
504.69	90.94
504.907	84.94
505.123	99.94
505.34	92.94
505.557	92.94
505.773	103.94
505.99	88.94
506.207	98.94
506.423	86.94
506.64	89.94
506.856	92.94
507.073	76.94
507.289	91.94
507.506	94.94
507.722	113.94
507.939	98.94
508.155	114.94
508.372	104.94
508.588	99.94
508.805	97.94
509.021	99.94
509.238	90.94
509.454	93.94
509.67	92.94
509.887	103.94
510.103	132.94
510.319	221.94
510.536	804.94
510.752	2498.94
510.968	702.94
511.184	165.94
511.401	122.94
511.617	86.94
511.833	98.94
512.049	106.94
512.265	89.94
512.481	108.94
512.698	87.94
512.914	82.94
513.13	86.94
513.346	90.94
513.562	83.94
513.778	103.94
513.994	87.94
514.21	98.94
514.426	127.94
514.642	134.94
514.858	122.94
515.074	166.94
515.29	462.94
515.506	1470.94
