Data from Uncirc_2003_H10_HRD10591_00018.txt Node
Date: Wed Jan 03 10:35:51 EST 2024
User: Yrep
Spectrometer: HR+D1059
Trigger mode: 1
Integration Time (sec): 1.000000E-1
Scans to average: 1
Electric dark correction enabled: true
Nonlinearity correction enabled: false
Boxcar width: 0
XAxis mode: Wavelengths
Number of Pixels in Spectrum: 2048
>>>>>Begin Spectral Data<<<<<
223.165	-15.12
223.4	-15.12
223.635	-15.12
223.869	-21.12
224.104	-15.12
224.338	-12.12
224.573	-15.12
224.808	-20.12
225.042	-20.12
225.277	2.88
225.511	5.88
225.746	-6.12
225.98	1.88
226.215	11.88
226.449	12.88
226.683	25.88
226.918	22.88
227.152	40.88
227.387	39.88
227.621	41.88
227.856	25.88
228.09	48.88
228.324	39.88
228.559	69.88
228.793	75.88
229.027	67.88
229.262	65.88
229.496	61.88
229.73	87.88
229.964	72.88
230.199	74.88
230.433	80.88
230.667	97.88
230.901	78.88
231.136	87.88
231.37	71.88
231.604	89.88
231.838	69.88
232.072	84.88
232.306	77.88
232.541	84.88
232.775	68.88
233.009	79.88
233.243	76.88
233.477	81.88
233.711	83.88
233.945	73.88
234.179	82.88
234.413	65.88
234.647	72.88
234.881	75.88
235.115	82.88
235.349	72.88
235.583	91.88
235.817	73.88
236.051	86.88
236.285	78.88
236.519	77.88
236.753	68.88
236.987	78.88
237.221	95.88
237.455	81.88
237.689	73.88
237.922	74.88
238.156	62.88
238.39	88.88
238.624	87.88
238.858	80.88
239.091	87.88
239.325	82.88
239.559	82.88
239.793	70.88
240.027	81.88
240.26	84.88
240.494	75.88
240.728	86.88
240.961	59.88
241.195	90.88
241.429	77.88
241.662	73.88
241.896	71.88
242.13	83.88
242.363	92.88
242.597	73.88
242.83	69.88
243.064	70.88
243.298	75.88
243.531	80.88
243.765	86.88
243.998	71.88
244.232	83.88
244.465	79.88
244.699	80.88
244.932	79.88
245.166	75.88
245.399	80.88
245.633	92.88
245.866	80.88
246.099	89.88
246.333	68.88
246.566	83.88
246.8	71.88
247.033	86.88
247.266	79.88
247.5	80.88
247.733	75.88
247.966	76.88
248.2	90.88
248.433	79.88
248.666	72.88
248.899	85.88
249.133	83.88
249.366	86.88
249.599	84.88
249.832	73.88
250.066	70.88
250.299	78.88
250.532	78.88
250.765	82.88
250.998	81.88
251.231	75.88
251.465	76.88
251.698	73.88
251.931	73.88
252.164	90.88
252.397	84.88
252.63	75.88
252.863	69.88
253.096	77.88
253.329	71.88
253.562	83.88
253.795	75.88
254.028	84.88
254.261	81.88
254.494	80.88
254.727	84.88
254.96	80.88
255.193	92.88
255.426	71.88
255.659	70.88
255.892	89.88
256.124	97.88
256.357	84.88
256.59	104.88
256.823	74.88
257.056	77.88
257.289	79.88
257.521	66.88
257.754	79.88
257.987	86.88
258.22	99.88
258.452	85.88
258.685	82.88
258.918	86.88
259.151	79.88
259.383	81.88
259.616	89.88
259.849	86.88
260.081	74.88
260.314	83.88
260.547	69.88
260.779	73.88
261.012	75.88
261.244	82.88
261.477	87.88
261.71	97.88
261.942	111.88
262.175	115.88
262.407	83.88
262.64	88.88
262.872	93.88
263.105	83.88
263.337	85.88
263.57	82.88
263.802	77.88
264.035	96.88
264.267	77.88
264.499	75.88
264.732	88.88
264.964	86.88
265.197	106.88
265.429	86.88
265.661	78.88
265.894	78.88
266.126	90.88
266.358	87.88
266.591	105.88
266.823	88.88
267.055	82.88
267.287	107.88
267.52	88.88
267.752	94.88
267.984	80.88
268.216	82.88
268.448	87.88
268.681	80.88
268.913	107.88
269.145	91.88
269.377	82.88
269.609	75.88
269.841	69.88
270.073	84.88
270.306	81.88
270.538	86.88
270.77	93.88
271.002	89.88
271.234	97.88
271.466	91.88
271.698	78.88
271.93	59.88
272.162	96.88
272.394	77.88
272.626	83.88
272.858	90.88
273.09	85.88
273.322	81.88
273.553	86.88
273.785	82.88
274.017	78.88
274.249	91.88
274.481	79.88
274.713	69.88
274.945	100.88
275.176	85.88
275.408	83.88
275.64	89.88
275.872	72.88
276.104	97.88
276.335	86.88
276.567	95.88
276.799	107.88
277.031	106.88
277.262	79.88
277.494	92.88
277.726	80.88
277.957	89.88
278.189	64.88
278.421	72.88
278.652	96.88
278.884	90.88
279.115	93.88
279.347	99.88
279.579	94.88
279.81	77.88
280.042	77.88
280.273	82.88
280.505	83.88
280.736	88.88
280.968	93.88
281.199	82.88
281.431	89.88
281.662	89.88
281.894	77.88
282.125	99.88
282.356	118.88
282.588	154.88
282.819	115.88
283.051	79.88
283.282	89.88
283.513	85.88
283.745	81.88
283.976	85.88
284.207	94.88
284.439	85.88
284.67	73.88
284.901	95.88
285.132	82.88
285.364	87.88
285.595	82.88
285.826	88.88
286.057	86.88
286.288	89.88
286.52	81.88
286.751	66.88
286.982	82.88
287.213	86.88
287.444	89.88
287.675	88.88
287.906	86.88
288.138	79.88
288.369	89.88
288.6	91.88
288.831	83.88
289.062	83.88
289.293	82.88
289.524	85.88
289.755	83.88
289.986	76.88
290.217	87.88
290.448	97.88
290.679	93.88
290.91	94.88
291.141	87.88
291.371	98.88
291.602	86.88
291.833	77.88
292.064	84.88
292.295	85.88
292.526	81.88
292.757	86.88
292.987	74.88
293.218	85.88
293.449	90.88
293.68	98.88
293.91	86.88
294.141	93.88
294.372	88.88
294.603	87.88
294.833	81.88
295.064	85.88
295.295	96.88
295.525	107.88
295.756	103.88
295.987	126.88
296.217	144.88
296.448	129.88
296.679	103.88
296.909	90.88
297.14	89.88
297.37	87.88
297.601	90.88
297.831	100.88
298.062	87.88
298.292	89.88
298.523	98.88
298.753	88.88
298.984	87.88
299.214	84.88
299.445	89.88
299.675	100.88
299.905	97.88
300.136	90.88
300.366	102.88
300.597	99.88
300.827	95.88
301.057	94.88
301.288	88.88
301.518	86.88
301.748	85.88
301.979	110.88
302.209	77.88
302.439	81.88
302.669	82.88
302.9	93.88
303.13	89.88
303.36	95.88
303.59	91.88
303.82	111.88
304.051	95.88
304.281	85.88
304.511	88.88
304.741	85.88
304.971	86.88
305.201	83.88
305.431	84.88
305.661	106.88
305.891	87.88
306.121	83.88
306.352	105.88
306.582	109.88
306.812	90.88
307.042	81.88
307.272	98.88
307.502	102.88
307.731	90.88
307.961	95.88
308.191	82.88
308.421	82.88
308.651	86.88
308.881	91.88
309.111	95.88
309.341	88.88
309.571	101.88
309.8	110.88
310.03	81.88
310.26	101.88
310.49	85.88
310.72	113.88
310.949	115.88
311.179	110.88
311.409	91.88
311.639	92.88
311.868	92.88
312.098	100.88
312.328	99.88
312.557	94.88
312.787	101.88
313.017	101.88
313.246	96.88
313.476	89.88
313.706	95.88
313.935	94.88
314.165	95.88
314.394	99.88
314.624	91.88
314.853	79.88
315.083	91.88
315.312	97.88
315.542	83.88
315.771	84.88
316.001	89.88
316.23	89.88
316.46	91.88
316.689	94.88
316.919	96.88
317.148	114.88
317.377	100.88
317.607	82.88
317.836	95.88
318.065	91.88
318.295	91.88
318.524	95.88
318.753	102.88
318.983	106.88
319.212	107.88
319.441	109.88
319.67	104.88
319.9	100.88
320.129	96.88
320.358	91.88
320.587	85.88
320.816	106.88
321.046	104.88
321.275	114.88
321.504	113.88
321.733	89.88
321.962	93.88
322.191	106.88
322.42	98.88
322.649	110.88
322.878	111.88
323.108	120.88
323.337	121.88
323.566	148.88
323.795	157.88
324.024	225.88
324.253	432.88
324.482	985.88
324.71	2035.88
324.939	2693.88
325.168	970.88
325.397	282.88
325.626	165.88
325.855	125.88
326.084	126.88
326.313	145.88
326.542	179.88
326.77	245.88
326.999	525.88
327.228	1105.88
327.457	2041.88
327.686	1617.88
327.914	423.88
328.143	201.88
328.372	160.88
328.6	135.88
328.829	113.88
329.058	116.88
329.287	130.88
329.515	118.88
329.744	116.88
329.972	97.88
330.201	99.88
330.43	105.88
330.658	118.88
330.887	145.88
331.115	113.88
331.344	100.88
331.572	80.88
331.801	91.88
332.03	117.88
332.258	95.88
332.486	89.88
332.715	100.88
332.943	98.88
333.172	98.88
333.4	103.88
333.629	114.88
333.857	96.88
334.085	114.88
334.314	104.88
334.542	104.88
334.771	109.88
334.999	102.88
335.227	102.88
335.455	111.88
335.684	99.88
335.912	108.88
336.14	89.88
336.369	101.88
336.597	91.88
336.825	88.88
337.053	104.88
337.281	89.88
337.51	88.88
337.738	95.88
337.966	97.88
338.194	95.88
338.422	88.88
338.65	95.88
338.878	88.88
339.106	81.88
339.334	89.88
339.562	95.88
339.79	90.88
340.018	87.88
340.246	87.88
340.474	101.88
340.702	88.88
340.93	98.88
341.158	88.88
341.386	88.88
341.614	104.88
341.842	91.88
342.07	91.88
342.298	98.88
342.526	97.88
342.754	81.88
342.981	81.88
343.209	98.88
343.437	99.88
343.665	101.88
343.893	89.88
344.12	96.88
344.348	93.88
344.576	90.88
344.804	100.88
345.031	103.88
345.259	102.88
345.487	99.88
345.714	101.88
345.942	84.88
346.17	87.88
346.397	103.88
346.625	78.88
346.853	100.88
347.08	86.88
347.308	96.88
347.535	106.88
347.763	95.88
347.99	108.88
348.218	106.88
348.445	105.88
348.673	109.88
348.9	97.88
349.128	104.88
349.355	101.88
349.583	91.88
349.81	109.88
350.037	107.88
350.265	100.88
350.492	101.88
350.72	103.88
350.947	101.88
351.174	105.88
351.402	105.88
351.629	106.88
351.856	94.88
352.083	106.88
352.311	91.88
352.538	104.88
352.765	108.88
352.992	107.88
353.22	105.88
353.447	96.88
353.674	103.88
353.901	88.88
354.128	99.88
354.355	87.88
354.583	92.88
354.81	96.88
355.037	86.88
355.264	101.88
355.491	105.88
355.718	97.88
355.945	94.88
356.172	102.88
356.399	98.88
356.626	102.88
356.853	90.88
357.08	82.88
357.307	85.88
357.534	87.88
357.761	104.88
357.988	73.88
358.215	98.88
358.441	94.88
358.668	100.88
358.895	96.88
359.122	106.88
359.349	92.88
359.576	104.88
359.802	109.88
360.029	115.88
360.256	120.88
360.483	82.88
360.709	84.88
360.936	97.88
361.163	91.88
361.39	86.88
361.616	110.88
361.843	91.88
362.07	106.88
362.296	98.88
362.523	104.88
362.749	96.88
362.976	83.88
363.203	84.88
363.429	80.88
363.656	70.88
363.882	91.88
364.109	86.88
364.335	93.88
364.562	96.88
364.788	97.88
365.015	92.88
365.241	98.88
365.468	130.88
365.694	110.88
365.92	105.88
366.147	74.88
366.373	77.88
366.599	89.88
366.826	86.88
367.052	105.88
367.278	88.88
367.505	87.88
367.731	93.88
367.957	103.88
368.184	85.88
368.41	109.88
368.636	119.88
368.862	122.88
369.089	109.88
369.315	91.88
369.541	105.88
369.767	85.88
369.993	103.88
370.219	104.88
370.445	89.88
370.672	89.88
370.898	72.88
371.124	72.88
371.35	83.88
371.576	84.88
371.802	87.88
372.028	94.88
372.254	95.88
372.48	87.88
372.706	85.88
372.932	94.88
373.158	85.88
373.384	82.88
373.61	83.88
373.835	89.88
374.061	93.88
374.287	89.88
374.513	91.88
374.739	82.88
374.965	92.88
375.191	89.88
375.416	79.88
375.642	94.88
375.868	91.88
376.094	93.88
376.319	80.88
376.545	84.88
376.771	94.88
376.997	83.88
377.222	99.88
377.448	80.88
377.674	102.88
377.899	87.88
378.125	85.88
378.35	86.88
378.576	101.88
378.802	95.88
379.027	84.88
379.253	101.88
379.478	100.88
379.704	99.88
379.929	87.88
380.155	85.88
380.38	91.88
380.606	105.88
380.831	82.88
381.057	101.88
381.282	98.88
381.507	92.88
381.733	105.88
381.958	92.88
382.184	102.88
382.409	85.88
382.634	101.88
382.86	109.88
383.085	104.88
383.31	87.88
383.535	91.88
383.761	103.88
383.986	101.88
384.211	109.88
384.436	90.88
384.662	106.88
384.887	105.88
385.112	101.88
385.337	103.88
385.562	110.88
385.787	96.88
386.013	122.88
386.238	105.88
386.463	103.88
386.688	102.88
386.913	102.88
387.138	99.88
387.363	107.88
387.588	101.88
387.813	95.88
388.038	115.88
388.263	131.88
388.488	113.88
388.713	95.88
388.938	97.88
389.163	104.88
389.387	90.88
389.612	98.88
389.837	89.88
390.062	83.88
390.287	87.88
390.512	88.88
390.736	89.88
390.961	91.88
391.186	89.88
391.411	98.88
391.636	88.88
391.86	79.88
392.085	93.88
392.31	96.88
392.534	94.88
392.759	83.88
392.984	84.88
393.208	90.88
393.433	87.88
393.658	97.88
393.882	74.88
394.107	86.88
394.331	104.88
394.556	76.88
394.78	87.88
395.005	93.88
395.229	92.88
395.454	93.88
395.678	96.88
395.903	100.88
396.127	106.88
396.352	86.88
396.576	87.88
396.801	95.88
397.025	99.88
397.249	86.88
397.474	86.88
397.698	79.88
397.922	91.88
398.147	96.88
398.371	88.88
398.595	78.88
398.82	80.88
399.044	98.88
399.268	92.88
399.492	80.88
399.717	88.88
399.941	95.88
400.165	89.88
400.389	92.88
400.613	70.88
400.837	81.88
401.062	106.88
401.286	86.88
401.51	92.88
401.734	92.88
401.958	103.88
402.182	137.88
402.406	165.88
402.63	130.88
402.854	92.88
403.078	103.88
403.302	92.88
403.526	77.88
403.75	92.88
403.974	99.88
404.198	97.88
404.422	93.88
404.645	95.88
404.869	81.88
405.093	95.88
405.317	105.88
405.541	110.88
405.765	110.88
405.988	117.88
406.212	177.88
406.436	245.88
406.66	145.88
406.883	116.88
407.107	96.88
407.331	105.88
407.555	116.88
407.778	88.88
408.002	94.88
408.226	85.88
408.449	88.88
408.673	83.88
408.896	101.88
409.12	98.88
409.344	98.88
409.567	102.88
409.791	103.88
410.014	103.88
410.238	97.88
410.461	73.88
410.685	106.88
410.908	99.88
411.132	107.88
411.355	98.88
411.578	102.88
411.802	91.88
412.025	93.88
412.249	107.88
412.472	98.88
412.695	92.88
412.919	85.88
413.142	94.88
413.365	90.88
413.589	100.88
413.812	85.88
414.035	90.88
414.258	98.88
414.482	79.88
414.705	86.88
414.928	94.88
415.151	85.88
415.374	104.88
415.597	91.88
415.821	89.88
416.044	80.88
416.267	94.88
416.49	80.88
416.713	90.88
416.936	89.88
417.159	101.88
417.382	107.88
417.605	85.88
417.828	99.88
418.051	106.88
418.274	91.88
418.497	97.88
418.72	86.88
418.943	87.88
419.166	98.88
419.389	96.88
419.611	99.88
419.834	93.88
420.057	83.88
420.28	81.88
420.503	87.88
420.726	90.88
420.948	100.88
421.171	82.88
421.394	99.88
421.617	76.88
421.839	88.88
422.062	88.88
422.285	110.88
422.507	107.88
422.73	91.88
422.953	94.88
423.175	91.88
423.398	80.88
423.621	78.88
423.843	82.88
424.066	89.88
424.288	102.88
424.511	104.88
424.733	102.88
424.956	98.88
425.178	110.88
425.401	115.88
425.623	99.88
425.846	89.88
426.068	104.88
426.291	98.88
426.513	102.88
426.735	102.88
426.958	89.88
427.18	102.88
427.402	144.88
427.625	170.88
427.847	145.88
428.069	105.88
428.292	77.88
428.514	90.88
428.736	88.88
428.958	94.88
429.181	94.88
429.403	83.88
429.625	72.88
429.847	101.88
430.069	97.88
430.292	95.88
430.514	75.88
430.736	75.88
430.958	84.88
431.18	84.88
431.402	80.88
431.624	85.88
431.846	83.88
432.068	84.88
432.29	87.88
432.512	87.88
432.734	79.88
432.956	94.88
433.178	100.88
433.4	97.88
433.622	81.88
433.844	86.88
434.066	110.88
434.287	89.88
434.509	85.88
434.731	75.88
434.953	88.88
435.175	98.88
435.397	90.88
435.618	98.88
435.84	100.88
436.062	127.88
436.284	126.88
436.505	101.88
436.727	101.88
436.949	101.88
437.17	87.88
437.392	82.88
437.614	84.88
437.835	118.88
438.057	114.88
438.278	123.88
438.5	100.88
438.721	119.88
438.943	99.88
439.165	87.88
439.386	96.88
439.608	79.88
439.829	105.88
440.05	129.88
440.272	150.88
440.493	104.88
440.715	80.88
440.936	87.88
441.158	87.88
441.379	95.88
441.6	95.88
441.822	106.88
442.043	94.88
442.264	88.88
442.486	109.88
442.707	91.88
442.928	114.88
443.149	128.88
443.371	126.88
443.592	103.88
443.813	115.88
444.034	105.88
444.255	96.88
444.476	87.88
444.698	91.88
444.919	93.88
445.14	141.88
445.361	116.88
445.582	116.88
445.803	122.88
446.024	130.88
446.245	129.88
446.466	116.88
446.687	96.88
446.908	100.88
447.129	81.88
447.35	101.88
447.571	96.88
447.792	94.88
448.013	105.88
448.234	99.88
448.455	114.88
448.675	129.88
448.896	130.88
449.117	103.88
449.338	110.88
449.559	124.88
449.779	120.88
450	93.88
450.221	92.88
450.442	92.88
450.662	96.88
450.883	119.88
451.104	115.88
451.324	101.88
451.545	78.88
451.766	91.88
451.986	81.88
452.207	100.88
452.428	88.88
452.648	94.88
452.869	101.88
453.089	112.88
453.31	118.88
453.53	97.88
453.751	108.88
453.971	101.88
454.192	108.88
454.412	87.88
454.633	101.88
454.853	87.88
455.073	87.88
455.294	79.88
455.514	104.88
455.734	91.88
455.955	80.88
456.175	89.88
456.395	80.88
456.616	73.88
456.836	79.88
457.056	81.88
457.276	87.88
457.497	86.88
457.717	84.88
457.937	87.88
458.157	80.88
458.377	97.88
458.598	112.88
458.818	153.88
459.038	173.88
459.258	121.88
459.478	100.88
459.698	96.88
459.918	89.88
460.138	91.88
460.358	90.88
460.578	89.88
460.798	89.88
461.018	88.88
461.238	90.88
461.458	87.88
461.678	93.88
461.898	73.88
462.118	80.88
462.338	94.88
462.558	83.88
462.777	87.88
462.997	86.88
463.217	84.88
463.437	85.88
463.657	87.88
463.876	95.88
464.096	85.88
464.316	86.88
464.536	102.88
464.755	88.88
464.975	99.88
465.195	167.88
465.414	173.88
465.634	87.88
465.854	95.88
466.073	97.88
466.293	90.88
466.512	95.88
466.732	94.88
466.951	83.88
467.171	95.88
467.391	96.88
467.61	100.88
467.829	102.88
468.049	88.88
468.268	78.88
468.488	86.88
468.707	84.88
468.927	86.88
469.146	92.88
469.365	93.88
469.585	79.88
469.804	97.88
470.023	100.88
470.243	95.88
470.462	97.88
470.681	105.88
470.901	96.88
471.12	90.88
471.339	77.88
471.558	78.88
471.777	89.88
471.997	86.88
472.216	100.88
472.435	92.88
472.654	85.88
472.873	89.88
473.092	102.88
473.311	76.88
473.53	92.88
473.749	90.88
473.968	97.88
474.187	104.88
474.406	107.88
474.625	82.88
474.844	99.88
475.063	90.88
475.282	77.88
475.501	80.88
475.72	82.88
475.939	89.88
476.158	77.88
476.377	85.88
476.596	91.88
476.814	79.88
477.033	93.88
477.252	85.88
477.471	97.88
477.69	91.88
477.908	93.88
478.127	91.88
478.346	104.88
478.564	102.88
478.783	103.88
479.002	94.88
479.22	101.88
479.439	94.88
479.658	109.88
479.876	96.88
480.095	98.88
480.313	96.88
480.532	91.88
480.751	86.88
480.969	100.88
481.188	104.88
481.406	100.88
481.624	97.88
481.843	90.88
482.061	85.88
482.28	87.88
482.498	100.88
482.717	101.88
482.935	100.88
483.153	86.88
483.372	84.88
483.59	82.88
483.808	99.88
484.027	104.88
484.245	97.88
484.463	96.88
484.681	81.88
484.9	89.88
485.118	91.88
485.336	108.88
485.554	106.88
485.772	89.88
485.99	96.88
486.209	102.88
486.427	100.88
486.645	94.88
486.863	102.88
487.081	103.88
487.299	93.88
487.517	105.88
487.735	99.88
487.953	96.88
488.171	103.88
488.389	95.88
488.607	96.88
488.825	94.88
489.043	90.88
489.261	91.88
489.479	93.88
489.696	91.88
489.914	90.88
490.132	84.88
490.35	100.88
490.568	107.88
490.786	85.88
491.003	86.88
491.221	95.88
491.439	92.88
491.657	95.88
491.874	81.88
492.092	95.88
492.31	90.88
492.527	85.88
492.745	75.88
492.963	99.88
493.18	77.88
493.398	79.88
493.615	98.88
493.833	96.88
494.05	78.88
494.268	83.88
494.485	98.88
494.703	89.88
494.92	86.88
495.138	100.88
495.355	84.88
495.573	74.88
495.79	91.88
496.008	85.88
496.225	92.88
496.442	95.88
496.66	99.88
496.877	91.88
497.094	84.88
497.312	93.88
497.529	84.88
497.746	97.88
497.963	77.88
498.181	98.88
498.398	90.88
498.615	101.88
498.832	114.88
499.049	97.88
499.267	86.88
499.484	80.88
499.701	104.88
499.918	105.88
500.135	86.88
500.352	110.88
500.569	91.88
500.786	84.88
501.003	97.88
501.22	79.88
501.437	99.88
501.654	108.88
501.871	122.88
502.088	103.88
502.305	82.88
502.522	89.88
502.739	90.88
502.956	89.88
503.172	97.88
503.389	101.88
503.606	96.88
503.823	92.88
504.04	94.88
504.256	83.88
504.473	89.88
504.69	88.88
504.907	106.88
505.123	89.88
505.34	85.88
505.557	89.88
505.773	85.88
505.99	82.88
506.207	77.88
506.423	99.88
506.64	99.88
506.856	98.88
507.073	89.88
507.289	86.88
507.506	101.88
507.722	107.88
507.939	106.88
508.155	100.88
508.372	87.88
508.588	104.88
508.805	99.88
509.021	97.88
509.238	109.88
509.454	97.88
509.67	105.88
509.887	107.88
510.103	140.88
510.319	249.88
510.536	848.88
510.752	2773.88
510.968	765.88
511.184	174.88
511.401	116.88
511.617	102.88
511.833	109.88
512.049	91.88
512.265	95.88
512.481	87.88
512.698	85.88
512.914	100.88
513.13	85.88
513.346	99.88
513.562	98.88
513.778	106.88
513.994	103.88
514.21	84.88
514.426	107.88
514.642	163.88
514.858	127.88
