Data from Uncirc_2003_H10_HRD10591_00033.txt Node
Date: Wed Jan 03 10:35:54 EST 2024
User: Yrep
Spectrometer: HR+D1059
Trigger mode: 1
Integration Time (sec): 1.000000E-1
Scans to average: 1
Electric dark correction enabled: true
Nonlinearity correction enabled: false
Boxcar width: 0
XAxis mode: Wavelengths
Number of Pixels in Spectrum: 2048
>>>>>Begin Spectral Data<<<<<
223.165	-13.38
223.4	-13.38
223.635	-13.38
223.869	-20.38
224.104	-15.38
224.338	-32.38
224.573	-24.38
224.808	-5.38
225.042	-7.38
225.277	-0.38
225.511	6.62
225.746	3.62
225.98	-7.38
226.215	11.62
226.449	15.62
226.683	27.62
226.918	32.62
227.152	28.62
227.387	44.62
227.621	33.62
227.856	47.62
228.09	55.62
228.324	45.62
228.559	57.62
228.793	63.62
229.027	60.62
229.262	64.62
229.496	79.62
229.73	88.62
229.964	77.62
230.199	74.62
230.433	79.62
230.667	92.62
230.901	82.62
231.136	76.62
231.37	80.62
231.604	69.62
231.838	84.62
232.072	76.62
232.306	82.62
232.541	84.62
232.775	85.62
233.009	89.62
233.243	78.62
233.477	75.62
233.711	84.62
233.945	72.62
234.179	77.62
234.413	81.62
234.647	92.62
234.881	81.62
235.115	80.62
235.349	87.62
235.583	80.62
235.817	80.62
236.051	75.62
236.285	84.62
236.519	73.62
236.753	84.62
236.987	85.62
237.221	90.62
237.455	76.62
237.689	87.62
237.922	88.62
238.156	79.62
238.39	79.62
238.624	75.62
238.858	70.62
239.091	88.62
239.325	82.62
239.559	83.62
239.793	83.62
240.027	81.62
240.26	80.62
240.494	81.62
240.728	79.62
240.961	80.62
241.195	74.62
241.429	73.62
241.662	73.62
241.896	76.62
242.13	51.62
242.363	72.62
242.597	89.62
242.83	83.62
243.064	69.62
243.298	74.62
243.531	75.62
243.765	91.62
243.998	73.62
244.232	93.62
244.465	87.62
244.699	91.62
244.932	79.62
245.166	74.62
245.399	84.62
245.633	92.62
245.866	86.62
246.099	71.62
246.333	81.62
246.566	76.62
246.8	84.62
247.033	81.62
247.266	72.62
247.5	76.62
247.733	91.62
247.966	88.62
248.2	97.62
248.433	93.62
248.666	79.62
248.899	67.62
249.133	84.62
249.366	98.62
249.599	96.62
249.832	80.62
250.066	91.62
250.299	86.62
250.532	97.62
250.765	76.62
250.998	99.62
251.231	97.62
251.465	92.62
251.698	83.62
251.931	77.62
252.164	81.62
252.397	78.62
252.63	90.62
252.863	85.62
253.096	87.62
253.329	95.62
253.562	81.62
253.795	69.62
254.028	91.62
254.261	84.62
254.494	76.62
254.727	75.62
254.96	78.62
255.193	68.62
255.426	89.62
255.659	75.62
255.892	92.62
256.124	82.62
256.357	73.62
256.59	98.62
256.823	87.62
257.056	91.62
257.289	89.62
257.521	88.62
257.754	73.62
257.987	85.62
258.22	89.62
258.452	74.62
258.685	88.62
258.918	88.62
259.151	81.62
259.383	88.62
259.616	87.62
259.849	92.62
260.081	86.62
260.314	77.62
260.547	83.62
260.779	68.62
261.012	73.62
261.244	93.62
261.477	81.62
261.71	86.62
261.942	101.62
262.175	99.62
262.407	105.62
262.64	91.62
262.872	81.62
263.105	69.62
263.337	75.62
263.57	75.62
263.802	88.62
264.035	94.62
264.267	83.62
264.499	93.62
264.732	84.62
264.964	83.62
265.197	87.62
265.429	89.62
265.661	79.62
265.894	68.62
266.126	84.62
266.358	85.62
266.591	97.62
266.823	82.62
267.055	79.62
267.287	84.62
267.52	92.62
267.752	99.62
267.984	83.62
268.216	80.62
268.448	97.62
268.681	88.62
268.913	81.62
269.145	91.62
269.377	80.62
269.609	86.62
269.841	72.62
270.073	85.62
270.306	86.62
270.538	79.62
270.77	93.62
271.002	100.62
271.234	93.62
271.466	96.62
271.698	87.62
271.93	93.62
272.162	90.62
272.394	87.62
272.626	88.62
272.858	79.62
273.09	78.62
273.322	86.62
273.553	85.62
273.785	92.62
274.017	90.62
274.249	96.62
274.481	83.62
274.713	91.62
274.945	93.62
275.176	85.62
275.408	83.62
275.64	95.62
275.872	77.62
276.104	87.62
276.335	92.62
276.567	97.62
276.799	94.62
277.031	96.62
277.262	90.62
277.494	94.62
277.726	84.62
277.957	90.62
278.189	94.62
278.421	70.62
278.652	83.62
278.884	94.62
279.115	90.62
279.347	93.62
279.579	86.62
279.81	88.62
280.042	84.62
280.273	86.62
280.505	87.62
280.736	92.62
280.968	88.62
281.199	99.62
281.431	89.62
281.662	73.62
281.894	105.62
282.125	105.62
282.356	119.62
282.588	122.62
282.819	102.62
283.051	87.62
283.282	91.62
283.513	93.62
283.745	96.62
283.976	93.62
284.207	84.62
284.439	93.62
284.67	93.62
284.901	78.62
285.132	80.62
285.364	93.62
285.595	93.62
285.826	77.62
286.057	106.62
286.288	90.62
286.52	90.62
286.751	93.62
286.982	81.62
287.213	73.62
287.444	96.62
287.675	101.62
287.906	89.62
288.138	92.62
288.369	89.62
288.6	95.62
288.831	93.62
289.062	89.62
289.293	87.62
289.524	83.62
289.755	80.62
289.986	87.62
290.217	74.62
290.448	95.62
290.679	91.62
290.91	79.62
291.141	81.62
291.371	87.62
291.602	74.62
291.833	94.62
292.064	87.62
292.295	79.62
292.526	100.62
292.757	85.62
292.987	103.62
293.218	100.62
293.449	71.62
293.68	80.62
293.91	83.62
294.141	71.62
294.372	83.62
294.603	92.62
294.833	79.62
295.064	87.62
295.295	89.62
295.525	100.62
295.756	90.62
295.987	106.62
296.217	127.62
296.448	101.62
296.679	95.62
296.909	84.62
297.14	89.62
297.37	91.62
297.601	85.62
297.831	77.62
298.062	87.62
298.292	88.62
298.523	104.62
298.753	99.62
298.984	92.62
299.214	88.62
299.445	99.62
299.675	87.62
299.905	86.62
300.136	97.62
300.366	77.62
300.597	95.62
300.827	102.62
301.057	100.62
301.288	103.62
301.518	98.62
301.748	90.62
301.979	99.62
302.209	84.62
302.439	86.62
302.669	91.62
302.9	95.62
303.13	96.62
303.36	91.62
303.59	88.62
303.82	100.62
304.051	84.62
304.281	77.62
304.511	95.62
304.741	90.62
304.971	90.62
305.201	102.62
305.431	87.62
305.661	95.62
305.891	82.62
306.121	99.62
306.352	104.62
306.582	114.62
306.812	102.62
307.042	88.62
307.272	84.62
307.502	87.62
307.731	86.62
307.961	93.62
308.191	83.62
308.421	103.62
308.651	83.62
308.881	91.62
309.111	114.62
309.341	108.62
309.571	102.62
309.8	96.62
310.03	90.62
310.26	95.62
310.49	90.62
310.72	88.62
310.949	93.62
311.179	104.62
311.409	101.62
311.639	91.62
311.868	93.62
312.098	93.62
312.328	99.62
312.557	97.62
312.787	103.62
313.017	100.62
313.246	100.62
313.476	96.62
313.706	102.62
313.935	92.62
314.165	100.62
314.394	95.62
314.624	102.62
314.853	99.62
315.083	99.62
315.312	104.62
315.542	101.62
315.771	93.62
316.001	101.62
316.23	86.62
316.46	101.62
316.689	99.62
316.919	87.62
317.148	107.62
317.377	86.62
317.607	92.62
317.836	95.62
318.065	91.62
318.295	104.62
318.524	92.62
318.753	89.62
318.983	107.62
319.212	100.62
319.441	104.62
319.67	112.62
319.9	91.62
320.129	91.62
320.358	112.62
320.587	83.62
320.816	93.62
321.046	92.62
321.275	102.62
321.504	98.62
321.733	96.62
321.962	104.62
322.191	108.62
322.42	110.62
322.649	112.62
322.878	112.62
323.108	132.62
323.337	117.62
323.566	138.62
323.795	150.62
324.024	204.62
324.253	410.62
324.482	867.62
324.71	1719.62
324.939	2259.62
325.168	826.62
325.397	234.62
325.626	161.62
325.855	137.62
326.084	116.62
326.313	130.62
326.542	171.62
326.77	228.62
326.999	475.62
327.228	966.62
327.457	1739.62
327.686	1401.62
327.914	346.62
328.143	181.62
328.372	156.62
328.6	118.62
328.829	143.62
329.058	115.62
329.287	139.62
329.515	100.62
329.744	100.62
329.972	89.62
330.201	106.62
330.43	118.62
330.658	118.62
330.887	128.62
331.115	122.62
331.344	99.62
331.572	107.62
331.801	99.62
332.03	106.62
332.258	102.62
332.486	91.62
332.715	88.62
332.943	99.62
333.172	100.62
333.4	108.62
333.629	106.62
333.857	100.62
334.085	109.62
334.314	113.62
334.542	100.62
334.771	100.62
334.999	89.62
335.227	87.62
335.455	94.62
335.684	108.62
335.912	93.62
336.14	102.62
336.369	106.62
336.597	108.62
336.825	100.62
337.053	96.62
337.281	92.62
337.51	87.62
337.738	73.62
337.966	91.62
338.194	104.62
338.422	103.62
338.65	93.62
338.878	76.62
339.106	94.62
339.334	104.62
339.562	94.62
339.79	90.62
340.018	97.62
340.246	92.62
340.474	81.62
340.702	102.62
340.93	98.62
341.158	90.62
341.386	80.62
341.614	79.62
341.842	89.62
342.07	78.62
342.298	112.62
342.526	90.62
342.754	82.62
342.981	93.62
343.209	94.62
343.437	104.62
343.665	86.62
343.893	85.62
344.12	97.62
344.348	105.62
344.576	90.62
344.804	90.62
345.031	99.62
345.259	90.62
345.487	80.62
345.714	100.62
345.942	93.62
346.17	95.62
346.397	88.62
346.625	96.62
346.853	98.62
347.08	94.62
347.308	97.62
347.535	105.62
347.763	107.62
347.99	114.62
348.218	102.62
348.445	98.62
348.673	103.62
348.9	109.62
349.128	104.62
349.355	98.62
349.583	93.62
349.81	105.62
350.037	92.62
350.265	107.62
350.492	105.62
350.72	102.62
350.947	104.62
351.174	101.62
351.402	104.62
351.629	99.62
351.856	99.62
352.083	88.62
352.311	108.62
352.538	102.62
352.765	107.62
352.992	107.62
353.22	103.62
353.447	96.62
353.674	77.62
353.901	83.62
354.128	101.62
354.355	98.62
354.583	97.62
354.81	105.62
355.037	91.62
355.264	76.62
355.491	104.62
355.718	97.62
355.945	91.62
356.172	87.62
356.399	93.62
356.626	104.62
356.853	96.62
357.08	98.62
357.307	89.62
357.534	98.62
357.761	85.62
357.988	97.62
358.215	110.62
358.441	84.62
358.668	88.62
358.895	112.62
359.122	103.62
359.349	97.62
359.576	104.62
359.802	101.62
360.029	99.62
360.256	101.62
360.483	98.62
360.709	84.62
360.936	97.62
361.163	98.62
361.39	91.62
361.616	103.62
361.843	89.62
362.07	99.62
362.296	85.62
362.523	104.62
362.749	87.62
362.976	90.62
363.203	99.62
363.429	84.62
363.656	92.62
363.882	102.62
364.109	84.62
364.335	91.62
364.562	91.62
364.788	73.62
365.015	103.62
365.241	87.62
365.468	93.62
365.694	107.62
365.92	93.62
366.147	93.62
366.373	89.62
366.599	101.62
366.826	93.62
367.052	93.62
367.278	92.62
367.505	80.62
367.731	81.62
367.957	103.62
368.184	93.62
368.41	99.62
368.636	100.62
368.862	116.62
369.089	110.62
369.315	108.62
369.541	93.62
369.767	88.62
369.993	98.62
370.219	90.62
370.445	94.62
370.672	87.62
370.898	94.62
371.124	87.62
371.35	90.62
371.576	102.62
371.802	88.62
372.028	94.62
372.254	102.62
372.48	98.62
372.706	80.62
372.932	78.62
373.158	96.62
373.384	94.62
373.61	93.62
373.835	102.62
374.061	74.62
374.287	93.62
374.513	82.62
374.739	87.62
374.965	79.62
375.191	81.62
375.416	98.62
375.642	83.62
375.868	88.62
376.094	81.62
376.319	87.62
376.545	100.62
376.771	81.62
376.997	96.62
377.222	89.62
377.448	89.62
377.674	105.62
377.899	93.62
378.125	97.62
378.35	102.62
378.576	81.62
378.802	90.62
379.027	93.62
379.253	88.62
379.478	89.62
379.704	95.62
379.929	99.62
380.155	93.62
380.38	103.62
380.606	91.62
380.831	107.62
381.057	88.62
381.282	104.62
381.507	98.62
381.733	90.62
381.958	94.62
382.184	85.62
382.409	97.62
382.634	109.62
382.86	95.62
383.085	94.62
383.31	105.62
383.535	99.62
383.761	107.62
383.986	114.62
384.211	97.62
384.436	93.62
384.662	97.62
384.887	83.62
385.112	99.62
385.337	108.62
385.562	117.62
385.787	104.62
386.013	117.62
386.238	120.62
386.463	104.62
386.688	107.62
386.913	107.62
387.138	116.62
387.363	102.62
387.588	98.62
387.813	98.62
388.038	97.62
388.263	112.62
388.488	106.62
388.713	100.62
388.938	98.62
389.163	100.62
389.387	88.62
389.612	95.62
389.837	98.62
390.062	83.62
390.287	91.62
390.512	101.62
390.736	100.62
390.961	86.62
391.186	83.62
391.411	86.62
391.636	99.62
391.86	90.62
392.085	100.62
392.31	84.62
392.534	84.62
392.759	79.62
392.984	87.62
393.208	82.62
393.433	80.62
393.658	87.62
393.882	96.62
394.107	84.62
394.331	91.62
394.556	94.62
394.78	100.62
395.005	94.62
395.229	75.62
395.454	106.62
395.678	86.62
395.903	80.62
396.127	104.62
396.352	78.62
396.576	87.62
396.801	87.62
397.025	81.62
397.249	93.62
397.474	85.62
397.698	86.62
397.922	92.62
398.147	97.62
398.371	90.62
398.595	88.62
398.82	80.62
399.044	93.62
399.268	90.62
399.492	79.62
399.717	86.62
399.941	81.62
400.165	89.62
400.389	79.62
400.613	82.62
400.837	92.62
401.062	83.62
401.286	87.62
401.51	101.62
401.734	107.62
401.958	113.62
402.182	116.62
402.406	140.62
402.63	113.62
402.854	91.62
403.078	84.62
403.302	92.62
403.526	94.62
403.75	78.62
403.974	76.62
404.198	83.62
404.422	96.62
404.645	78.62
404.869	93.62
405.093	98.62
405.317	105.62
405.541	96.62
405.765	97.62
405.988	119.62
406.212	160.62
406.436	209.62
406.66	140.62
406.883	100.62
407.107	89.62
407.331	96.62
407.555	81.62
407.778	116.62
408.002	98.62
408.226	75.62
408.449	95.62
408.673	96.62
408.896	101.62
409.12	98.62
409.344	93.62
409.567	89.62
409.791	85.62
410.014	114.62
410.238	95.62
410.461	98.62
410.685	103.62
410.908	92.62
411.132	101.62
411.355	103.62
411.578	99.62
411.802	90.62
412.025	92.62
412.249	96.62
412.472	92.62
412.695	90.62
412.919	82.62
413.142	78.62
413.365	102.62
413.589	80.62
413.812	103.62
414.035	78.62
414.258	78.62
414.482	89.62
414.705	79.62
414.928	88.62
415.151	96.62
415.374	100.62
415.597	96.62
415.821	93.62
416.044	87.62
416.267	85.62
416.49	87.62
416.713	100.62
416.936	97.62
417.159	99.62
417.382	101.62
417.605	93.62
417.828	82.62
418.051	88.62
418.274	90.62
418.497	91.62
418.72	84.62
418.943	101.62
419.166	89.62
419.389	101.62
419.611	89.62
419.834	71.62
420.057	97.62
420.28	88.62
420.503	82.62
420.726	93.62
420.948	97.62
421.171	98.62
421.394	88.62
421.617	95.62
421.839	83.62
422.062	87.62
422.285	86.62
422.507	106.62
422.73	98.62
422.953	97.62
423.175	91.62
423.398	75.62
423.621	83.62
423.843	91.62
424.066	92.62
424.288	102.62
424.511	96.62
424.733	103.62
424.956	95.62
425.178	98.62
425.401	96.62
425.623	103.62
425.846	92.62
426.068	86.62
426.291	94.62
426.513	91.62
426.735	96.62
426.958	84.62
427.18	108.62
427.402	138.62
427.625	147.62
427.847	138.62
428.069	102.62
428.292	97.62
428.514	89.62
428.736	86.62
428.958	79.62
429.181	90.62
429.403	89.62
429.625	95.62
429.847	99.62
430.069	96.62
430.292	91.62
430.514	99.62
430.736	89.62
430.958	92.62
431.18	107.62
431.402	84.62
431.624	100.62
431.846	93.62
432.068	90.62
432.29	83.62
432.512	95.62
432.734	94.62
432.956	89.62
433.178	95.62
433.4	100.62
433.622	86.62
433.844	90.62
434.066	105.62
434.287	87.62
434.509	92.62
434.731	91.62
434.953	97.62
435.175	88.62
435.397	116.62
435.618	92.62
435.84	99.62
436.062	127.62
436.284	120.62
436.505	104.62
436.727	91.62
436.949	95.62
437.17	95.62
437.392	91.62
437.614	102.62
437.835	101.62
438.057	114.62
438.278	100.62
438.5	97.62
438.721	106.62
438.943	92.62
439.165	92.62
439.386	87.62
439.608	91.62
439.829	117.62
440.05	120.62
440.272	148.62
440.493	105.62
440.715	98.62
440.936	82.62
441.158	90.62
441.379	75.62
441.6	91.62
441.822	91.62
442.043	88.62
442.264	98.62
442.486	97.62
442.707	92.62
442.928	94.62
443.149	127.62
443.371	115.62
443.592	103.62
443.813	115.62
444.034	99.62
444.255	89.62
444.476	97.62
444.698	84.62
444.919	82.62
445.14	127.62
445.361	118.62
445.582	97.62
445.803	144.62
446.024	129.62
446.245	136.62
446.466	94.62
446.687	99.62
446.908	90.62
447.129	91.62
447.35	88.62
447.571	97.62
447.792	90.62
448.013	97.62
448.234	107.62
448.455	116.62
448.675	105.62
448.896	110.62
449.117	95.62
449.338	92.62
449.559	143.62
449.779	137.62
450	99.62
450.221	80.62
450.442	84.62
450.662	83.62
450.883	94.62
451.104	91.62
451.324	98.62
451.545	98.62
451.766	96.62
451.986	88.62
452.207	91.62
452.428	97.62
452.648	105.62
452.869	108.62
453.089	96.62
453.31	116.62
453.53	91.62
453.751	89.62
453.971	94.62
454.192	115.62
454.412	83.62
454.633	102.62
454.853	97.62
455.073	104.62
455.294	99.62
455.514	98.62
455.734	87.62
455.955	95.62
456.175	86.62
456.395	88.62
456.616	91.62
456.836	97.62
457.056	86.62
457.276	83.62
457.497	90.62
457.717	96.62
457.937	107.62
458.157	96.62
458.377	91.62
458.598	102.62
458.818	137.62
459.038	162.62
459.258	104.62
459.478	91.62
459.698	75.62
459.918	77.62
460.138	84.62
460.358	91.62
460.578	87.62
460.798	101.62
461.018	93.62
461.238	82.62
461.458	86.62
461.678	85.62
461.898	91.62
462.118	90.62
462.338	92.62
462.558	84.62
462.777	108.62
462.997	100.62
463.217	97.62
463.437	104.62
463.657	92.62
463.876	91.62
464.096	97.62
464.316	90.62
464.536	107.62
464.755	97.62
464.975	99.62
465.195	155.62
465.414	148.62
465.634	86.62
465.854	89.62
466.073	84.62
466.293	86.62
466.512	100.62
466.732	103.62
466.951	102.62
467.171	99.62
467.391	96.62
467.61	103.62
467.829	89.62
468.049	90.62
468.268	91.62
468.488	88.62
468.707	81.62
468.927	82.62
469.146	92.62
469.365	83.62
469.585	88.62
469.804	100.62
470.023	97.62
470.243	92.62
470.462	87.62
470.681	99.62
470.901	105.62
471.12	95.62
471.339	89.62
471.558	98.62
471.777	83.62
471.997	100.62
472.216	104.62
472.435	95.62
472.654	93.62
472.873	92.62
473.092	92.62
473.311	79.62
473.53	82.62
473.749	99.62
473.968	91.62
474.187	86.62
474.406	98.62
474.625	96.62
474.844	112.62
475.063	88.62
475.282	92.62
475.501	107.62
475.72	94.62
475.939	91.62
476.158	97.62
476.377	96.62
476.596	93.62
476.814	87.62
477.033	88.62
477.252	72.62
477.471	93.62
477.69	81.62
477.908	88.62
478.127	100.62
478.346	87.62
478.564	91.62
478.783	91.62
479.002	84.62
479.22	94.62
479.439	106.62
479.658	109.62
479.876	93.62
480.095	80.62
480.313	89.62
480.532	90.62
480.751	86.62
480.969	92.62
481.188	108.62
481.406	115.62
481.624	111.62
481.843	94.62
482.061	99.62
482.28	103.62
482.498	83.62
482.717	96.62
482.935	65.62
483.153	111.62
483.372	95.62
483.59	100.62
483.808	89.62
484.027	99.62
484.245	97.62
484.463	90.62
484.681	105.62
484.9	93.62
485.118	96.62
485.336	93.62
485.554	105.62
485.772	114.62
485.99	119.62
486.209	106.62
486.427	99.62
486.645	118.62
486.863	109.62
487.081	99.62
487.299	100.62
487.517	102.62
487.735	91.62
487.953	90.62
488.171	96.62
488.389	104.62
488.607	96.62
488.825	104.62
489.043	98.62
489.261	97.62
489.479	91.62
489.696	90.62
489.914	91.62
490.132	97.62
490.35	91.62
490.568	93.62
490.786	102.62
491.003	90.62
491.221	99.62
491.439	88.62
491.657	105.62
491.874	96.62
492.092	92.62
492.31	89.62
492.527	91.62
492.745	87.62
492.963	80.62
493.18	100.62
493.398	87.62
493.615	90.62
493.833	105.62
494.05	80.62
494.268	90.62
494.485	107.62
494.703	95.62
494.92	82.62
495.138	96.62
495.355	93.62
495.573	95.62
495.79	82.62
496.008	87.62
496.225	100.62
496.442	91.62
496.66	100.62
496.877	90.62
497.094	96.62
497.312	94.62
497.529	83.62
497.746	98.62
497.963	87.62
498.181	95.62
498.398	91.62
498.615	101.62
498.832	107.62
499.049	96.62
499.267	88.62
499.484	83.62
499.701	90.62
499.918	74.62
500.135	91.62
500.352	109.62
500.569	87.62
500.786	94.62
501.003	101.62
501.22	89.62
501.437	92.62
501.654	106.62
501.871	101.62
502.088	98.62
502.305	91.62
502.522	84.62
502.739	98.62
502.956	101.62
503.172	95.62
503.389	102.62
503.606	102.62
503.823	87.62
504.04	99.62
504.256	90.62
504.473	82.62
504.69	81.62
504.907	100.62
505.123	102.62
505.34	88.62
505.557	91.62
505.773	87.62
505.99	100.62
506.207	96.62
506.423	109.62
506.64	103.62
506.856	82.62
507.073	114.62
507.289	94.62
507.506	98.62
507.722	97.62
507.939	99.62
508.155	104.62
508.372	98.62
508.588	92.62
508.805	92.62
509.021	93.62
509.238	95.62
509.454	104.62
509.67	110.62
509.887	105.62
510.103	151.62
510.319	209.62
510.536	777.62
510.752	2387.62
510.968	674.62
511.184	163.62
511.401	120.62
511.617	113.62
511.833	85.62
512.049	113.62
512.265	97.62
512.481	90.62
512.698	97.62
512.914	113.62
513.13	86.62
513.346	108.62
513.562	90.62
513.778	105.62
513.994	105.62
514.21	107.62
514.426	106.62
514.642	125.62
514.858	126.62
515.074	155.62
