Data from Uncirc_2003_H10_HRD10591_00058.txt Node
Date: Wed Jan 03 10:35:59 EST 2024
User: Yrep
Spectrometer: HR+D1059
Trigger mode: 1
Integration Time (sec): 1.000000E-1
Scans to average: 1
Electric dark correction enabled: true
Nonlinearity correction enabled: false
Boxcar width: 0
XAxis mode: Wavelengths
Number of Pixels in Spectrum: 2048
>>>>>Begin Spectral Data<<<<<
223.165	-3.12
223.4	-3.12
223.635	-3.12
223.869	-10.12
224.104	-8.12
224.338	-9.12
224.573	-21.12
224.808	-33.12
225.042	-8.12
225.277	-10.12
225.511	3.88
225.746	14.88
225.98	14.88
226.215	9.88
226.449	14.88
226.683	-1.12
226.918	21.88
227.152	23.88
227.387	26.88
227.621	41.88
227.856	54.88
228.09	52.88
228.324	59.88
228.559	58.88
228.793	53.88
229.027	69.88
229.262	67.88
229.496	74.88
229.73	91.88
229.964	101.88
230.199	74.88
230.433	83.88
230.667	90.88
230.901	78.88
231.136	79.88
231.37	69.88
231.604	77.88
231.838	88.88
232.072	87.88
232.306	81.88
232.541	98.88
232.775	91.88
233.009	83.88
233.243	87.88
233.477	87.88
233.711	90.88
233.945	79.88
234.179	82.88
234.413	80.88
234.647	75.88
234.881	82.88
235.115	68.88
235.349	75.88
235.583	91.88
235.817	77.88
236.051	89.88
236.285	80.88
236.519	83.88
236.753	93.88
236.987	84.88
237.221	99.88
237.455	93.88
237.689	81.88
237.922	87.88
238.156	68.88
238.39	77.88
238.624	82.88
238.858	74.88
239.091	76.88
239.325	70.88
239.559	87.88
239.793	81.88
240.027	90.88
240.26	74.88
240.494	93.88
240.728	85.88
240.961	72.88
241.195	97.88
241.429	90.88
241.662	84.88
241.896	82.88
242.13	71.88
242.363	91.88
242.597	99.88
242.83	97.88
243.064	72.88
243.298	82.88
243.531	77.88
243.765	78.88
243.998	77.88
244.232	98.88
244.465	100.88
244.699	84.88
244.932	83.88
245.166	74.88
245.399	76.88
245.633	92.88
245.866	87.88
246.099	73.88
246.333	78.88
246.566	88.88
246.8	92.88
247.033	78.88
247.266	83.88
247.5	81.88
247.733	84.88
247.966	86.88
248.2	78.88
248.433	89.88
248.666	85.88
248.899	89.88
249.133	83.88
249.366	94.88
249.599	87.88
249.832	102.88
250.066	94.88
250.299	89.88
250.532	90.88
250.765	102.88
250.998	85.88
251.231	94.88
251.465	100.88
251.698	88.88
251.931	83.88
252.164	73.88
252.397	87.88
252.63	83.88
252.863	75.88
253.096	79.88
253.329	89.88
253.562	82.88
253.795	69.88
254.028	81.88
254.261	88.88
254.494	81.88
254.727	93.88
254.96	81.88
255.193	83.88
255.426	75.88
255.659	89.88
255.892	86.88
256.124	86.88
256.357	83.88
256.59	84.88
256.823	81.88
257.056	89.88
257.289	73.88
257.521	84.88
257.754	83.88
257.987	83.88
258.22	82.88
258.452	84.88
258.685	74.88
258.918	86.88
259.151	77.88
259.383	77.88
259.616	87.88
259.849	85.88
260.081	84.88
260.314	85.88
260.547	81.88
260.779	94.88
261.012	81.88
261.244	90.88
261.477	97.88
261.71	104.88
261.942	121.88
262.175	114.88
262.407	93.88
262.64	89.88
262.872	88.88
263.105	92.88
263.337	88.88
263.57	84.88
263.802	73.88
264.035	92.88
264.267	92.88
264.499	79.88
264.732	88.88
264.964	86.88
265.197	72.88
265.429	92.88
265.661	99.88
265.894	94.88
266.126	88.88
266.358	82.88
266.591	68.88
266.823	66.88
267.055	70.88
267.287	89.88
267.52	105.88
267.752	89.88
267.984	77.88
268.216	79.88
268.448	98.88
268.681	77.88
268.913	94.88
269.145	98.88
269.377	85.88
269.609	86.88
269.841	78.88
270.073	77.88
270.306	83.88
270.538	89.88
270.77	82.88
271.002	87.88
271.234	85.88
271.466	86.88
271.698	87.88
271.93	71.88
272.162	103.88
272.394	81.88
272.626	78.88
272.858	99.88
273.09	87.88
273.322	86.88
273.553	88.88
273.785	95.88
274.017	101.88
274.249	79.88
274.481	81.88
274.713	87.88
274.945	87.88
275.176	76.88
275.408	88.88
275.64	98.88
275.872	82.88
276.104	84.88
276.335	94.88
276.567	83.88
276.799	116.88
277.031	117.88
277.262	88.88
277.494	97.88
277.726	93.88
277.957	104.88
278.189	103.88
278.421	92.88
278.652	94.88
278.884	91.88
279.115	92.88
279.347	93.88
279.579	98.88
279.81	90.88
280.042	95.88
280.273	99.88
280.505	95.88
280.736	90.88
280.968	93.88
281.199	89.88
281.431	81.88
281.662	90.88
281.894	97.88
282.125	105.88
282.356	101.88
282.588	152.88
282.819	107.88
283.051	85.88
283.282	85.88
283.513	100.88
283.745	89.88
283.976	93.88
284.207	98.88
284.439	102.88
284.67	102.88
284.901	92.88
285.132	84.88
285.364	95.88
285.595	94.88
285.826	83.88
286.057	79.88
286.288	99.88
286.52	98.88
286.751	86.88
286.982	101.88
287.213	83.88
287.444	93.88
287.675	97.88
287.906	105.88
288.138	85.88
288.369	103.88
288.6	94.88
288.831	98.88
289.062	87.88
289.293	94.88
289.524	94.88
289.755	94.88
289.986	92.88
290.217	87.88
290.448	96.88
290.679	103.88
290.91	102.88
291.141	98.88
291.371	98.88
291.602	104.88
291.833	78.88
292.064	89.88
292.295	103.88
292.526	84.88
292.757	93.88
292.987	96.88
293.218	101.88
293.449	101.88
293.68	86.88
293.91	95.88
294.141	83.88
294.372	90.88
294.603	76.88
294.833	95.88
295.064	90.88
295.295	74.88
295.525	83.88
295.756	114.88
295.987	110.88
296.217	138.88
296.448	115.88
296.679	96.88
296.909	89.88
297.14	94.88
297.37	83.88
297.601	82.88
297.831	99.88
298.062	104.88
298.292	94.88
298.523	95.88
298.753	97.88
298.984	96.88
299.214	84.88
299.445	95.88
299.675	101.88
299.905	94.88
300.136	90.88
300.366	98.88
300.597	73.88
300.827	109.88
301.057	101.88
301.288	115.88
301.518	87.88
301.748	97.88
301.979	101.88
302.209	96.88
302.439	95.88
302.669	93.88
302.9	94.88
303.13	98.88
303.36	92.88
303.59	102.88
303.82	108.88
304.051	108.88
304.281	86.88
304.511	96.88
304.741	103.88
304.971	83.88
305.201	96.88
305.431	90.88
305.661	85.88
305.891	106.88
306.121	108.88
306.352	107.88
306.582	106.88
306.812	100.88
307.042	83.88
307.272	106.88
307.502	111.88
307.731	95.88
307.961	102.88
308.191	94.88
308.421	99.88
308.651	90.88
308.881	88.88
309.111	108.88
309.341	94.88
309.571	119.88
309.8	99.88
310.03	98.88
310.26	94.88
310.49	92.88
310.72	103.88
310.949	99.88
311.179	100.88
311.409	104.88
311.639	102.88
311.868	97.88
312.098	97.88
312.328	98.88
312.557	103.88
312.787	102.88
313.017	109.88
313.246	84.88
313.476	89.88
313.706	96.88
313.935	84.88
314.165	103.88
314.394	103.88
314.624	89.88
314.853	103.88
315.083	95.88
315.312	91.88
315.542	100.88
315.771	105.88
316.001	87.88
316.23	102.88
316.46	96.88
316.689	91.88
316.919	96.88
317.148	99.88
317.377	100.88
317.607	97.88
317.836	109.88
318.065	102.88
318.295	88.88
318.524	98.88
318.753	100.88
318.983	94.88
319.212	100.88
319.441	105.88
319.67	113.88
319.9	97.88
320.129	98.88
320.358	101.88
320.587	105.88
320.816	99.88
321.046	110.88
321.275	96.88
321.504	95.88
321.733	90.88
321.962	107.88
322.191	104.88
322.42	106.88
322.649	106.88
322.878	122.88
323.108	117.88
323.337	122.88
323.566	141.88
323.795	158.88
324.024	223.88
324.253	427.88
324.482	905.88
324.71	1865.88
324.939	2419.88
325.168	883.88
325.397	263.88
325.626	149.88
325.855	141.88
326.084	132.88
326.313	143.88
326.542	163.88
326.77	254.88
326.999	493.88
327.228	1037.88
327.457	1845.88
327.686	1481.88
327.914	401.88
328.143	204.88
328.372	141.88
328.6	114.88
328.829	113.88
329.058	113.88
329.287	116.88
329.515	119.88
329.744	95.88
329.972	96.88
330.201	94.88
330.43	106.88
330.658	119.88
330.887	145.88
331.115	130.88
331.344	101.88
331.572	97.88
331.801	107.88
332.03	116.88
332.258	97.88
332.486	86.88
332.715	95.88
332.943	104.88
333.172	93.88
333.4	92.88
333.629	103.88
333.857	108.88
334.085	113.88
334.314	91.88
334.542	99.88
334.771	95.88
334.999	101.88
335.227	102.88
335.455	98.88
335.684	110.88
335.912	89.88
336.14	102.88
336.369	109.88
336.597	102.88
336.825	92.88
337.053	109.88
337.281	99.88
337.51	109.88
337.738	107.88
337.966	101.88
338.194	99.88
338.422	95.88
338.65	93.88
338.878	90.88
339.106	86.88
339.334	86.88
339.562	92.88
339.79	98.88
340.018	94.88
340.246	95.88
340.474	87.88
340.702	103.88
340.93	90.88
341.158	98.88
341.386	87.88
341.614	87.88
341.842	95.88
342.07	106.88
342.298	91.88
342.526	118.88
342.754	106.88
342.981	105.88
343.209	98.88
343.437	102.88
343.665	87.88
343.893	90.88
344.12	88.88
344.348	88.88
344.576	85.88
344.804	107.88
345.031	87.88
345.259	93.88
345.487	104.88
345.714	95.88
345.942	99.88
346.17	99.88
346.397	86.88
346.625	100.88
346.853	71.88
347.08	103.88
347.308	93.88
347.535	125.88
347.763	103.88
347.99	103.88
348.218	93.88
348.445	100.88
348.673	115.88
348.9	85.88
349.128	86.88
349.355	89.88
349.583	92.88
349.81	97.88
350.037	90.88
350.265	86.88
350.492	90.88
350.72	94.88
350.947	102.88
351.174	110.88
351.402	107.88
351.629	119.88
351.856	99.88
352.083	105.88
352.311	104.88
352.538	117.88
352.765	114.88
352.992	126.88
353.22	117.88
353.447	105.88
353.674	107.88
353.901	103.88
354.128	103.88
354.355	91.88
354.583	98.88
354.81	103.88
355.037	107.88
355.264	90.88
355.491	100.88
355.718	97.88
355.945	118.88
356.172	99.88
356.399	107.88
356.626	102.88
356.853	114.88
357.08	97.88
357.307	97.88
357.534	102.88
357.761	108.88
357.988	102.88
358.215	99.88
358.441	106.88
358.668	110.88
358.895	103.88
359.122	102.88
359.349	82.88
359.576	90.88
359.802	100.88
360.029	108.88
360.256	108.88
360.483	98.88
360.709	93.88
360.936	104.88
361.163	93.88
361.39	95.88
361.616	97.88
361.843	107.88
362.07	102.88
362.296	90.88
362.523	97.88
362.749	103.88
362.976	87.88
363.203	92.88
363.429	96.88
363.656	101.88
363.882	85.88
364.109	83.88
364.335	83.88
364.562	105.88
364.788	97.88
365.015	82.88
365.241	101.88
365.468	105.88
365.694	109.88
365.92	91.88
366.147	97.88
366.373	95.88
366.599	108.88
366.826	91.88
367.052	107.88
367.278	98.88
367.505	87.88
367.731	99.88
367.957	110.88
368.184	87.88
368.41	82.88
368.636	122.88
368.862	112.88
369.089	106.88
369.315	101.88
369.541	94.88
369.767	79.88
369.993	97.88
370.219	87.88
370.445	77.88
370.672	86.88
370.898	90.88
371.124	95.88
371.35	86.88
371.576	104.88
371.802	92.88
372.028	98.88
372.254	89.88
372.48	100.88
372.706	102.88
372.932	90.88
373.158	82.88
373.384	90.88
373.61	91.88
373.835	97.88
374.061	89.88
374.287	90.88
374.513	101.88
374.739	93.88
374.965	94.88
375.191	94.88
375.416	91.88
375.642	99.88
375.868	100.88
376.094	89.88
376.319	105.88
376.545	89.88
376.771	104.88
376.997	102.88
377.222	99.88
377.448	104.88
377.674	81.88
377.899	94.88
378.125	118.88
378.35	98.88
378.576	87.88
378.802	102.88
379.027	101.88
379.253	95.88
379.478	101.88
379.704	95.88
379.929	99.88
380.155	82.88
380.38	87.88
380.606	96.88
380.831	107.88
381.057	112.88
381.282	97.88
381.507	98.88
381.733	107.88
381.958	95.88
382.184	102.88
382.409	104.88
382.634	100.88
382.86	108.88
383.085	92.88
383.31	98.88
383.535	114.88
383.761	118.88
383.986	98.88
384.211	102.88
384.436	122.88
384.662	94.88
384.887	109.88
385.112	95.88
385.337	105.88
385.562	115.88
385.787	109.88
386.013	93.88
386.238	107.88
386.463	110.88
386.688	105.88
386.913	113.88
387.138	101.88
387.363	110.88
387.588	87.88
387.813	91.88
388.038	124.88
388.263	121.88
388.488	110.88
388.713	105.88
388.938	116.88
389.163	99.88
389.387	118.88
389.612	94.88
389.837	94.88
390.062	105.88
390.287	104.88
390.512	102.88
390.736	104.88
390.961	103.88
391.186	104.88
391.411	98.88
391.636	102.88
391.86	94.88
392.085	92.88
392.31	94.88
392.534	89.88
392.759	87.88
392.984	82.88
393.208	86.88
393.433	99.88
393.658	91.88
393.882	99.88
394.107	92.88
394.331	93.88
394.556	92.88
394.78	102.88
395.005	116.88
395.229	105.88
395.454	70.88
395.678	87.88
395.903	83.88
396.127	103.88
396.352	98.88
396.576	92.88
396.801	77.88
397.025	103.88
397.249	91.88
397.474	89.88
397.698	92.88
397.922	103.88
398.147	94.88
398.371	84.88
398.595	99.88
398.82	96.88
399.044	95.88
399.268	83.88
399.492	80.88
399.717	93.88
399.941	95.88
400.165	91.88
400.389	105.88
400.613	90.88
400.837	88.88
401.062	83.88
401.286	87.88
401.51	77.88
401.734	86.88
401.958	105.88
402.182	122.88
402.406	150.88
402.63	118.88
402.854	105.88
403.078	90.88
403.302	101.88
403.526	83.88
403.75	102.88
403.974	91.88
404.198	95.88
404.422	99.88
404.645	108.88
404.869	95.88
405.093	94.88
405.317	87.88
405.541	93.88
405.765	105.88
405.988	124.88
406.212	193.88
406.436	222.88
406.66	153.88
406.883	103.88
407.107	99.88
407.331	85.88
407.555	111.88
407.778	102.88
408.002	94.88
408.226	95.88
408.449	105.88
408.673	89.88
408.896	93.88
409.12	108.88
409.344	111.88
409.567	81.88
409.791	87.88
410.014	92.88
410.238	100.88
410.461	92.88
410.685	99.88
410.908	102.88
411.132	112.88
411.355	85.88
411.578	94.88
411.802	86.88
412.025	89.88
412.249	81.88
412.472	100.88
412.695	89.88
412.919	103.88
413.142	85.88
413.365	89.88
413.589	95.88
413.812	83.88
414.035	83.88
414.258	92.88
414.482	103.88
414.705	97.88
414.928	95.88
415.151	87.88
415.374	104.88
415.597	102.88
415.821	87.88
416.044	97.88
416.267	95.88
416.49	103.88
416.713	91.88
416.936	98.88
417.159	79.88
417.382	93.88
417.605	109.88
417.828	85.88
418.051	92.88
418.274	110.88
418.497	94.88
418.72	89.88
418.943	90.88
419.166	95.88
419.389	101.88
419.611	98.88
419.834	90.88
420.057	92.88
420.28	97.88
420.503	83.88
420.726	88.88
420.948	86.88
421.171	99.88
421.394	93.88
421.617	101.88
421.839	94.88
422.062	96.88
422.285	91.88
422.507	102.88
422.73	109.88
422.953	89.88
423.175	70.88
423.398	89.88
423.621	85.88
423.843	99.88
424.066	82.88
424.288	94.88
424.511	99.88
424.733	102.88
424.956	109.88
425.178	102.88
425.401	98.88
425.623	114.88
425.846	95.88
426.068	103.88
426.291	110.88
426.513	115.88
426.735	98.88
426.958	97.88
427.18	111.88
427.402	148.88
427.625	164.88
427.847	137.88
428.069	103.88
428.292	88.88
428.514	90.88
428.736	86.88
428.958	90.88
429.181	95.88
429.403	87.88
429.625	97.88
429.847	102.88
430.069	96.88
430.292	113.88
430.514	86.88
430.736	75.88
430.958	81.88
431.18	83.88
431.402	81.88
431.624	87.88
431.846	84.88
432.068	82.88
432.29	90.88
432.512	107.88
432.734	102.88
432.956	91.88
433.178	111.88
433.4	99.88
433.622	89.88
433.844	95.88
434.066	91.88
434.287	88.88
434.509	97.88
434.731	86.88
434.953	94.88
435.175	87.88
435.397	94.88
435.618	101.88
435.84	91.88
436.062	116.88
436.284	120.88
436.505	95.88
436.727	103.88
436.949	105.88
437.17	102.88
437.392	87.88
437.614	99.88
437.835	95.88
438.057	121.88
438.278	128.88
438.5	107.88
438.721	133.88
438.943	98.88
439.165	104.88
439.386	97.88
439.608	91.88
439.829	107.88
440.05	127.88
440.272	130.88
440.493	89.88
440.715	77.88
440.936	74.88
441.158	91.88
441.379	98.88
441.6	95.88
441.822	93.88
442.043	68.88
442.264	103.88
442.486	102.88
442.707	88.88
442.928	110.88
443.149	127.88
443.371	124.88
443.592	113.88
443.813	117.88
444.034	108.88
444.255	87.88
444.476	84.88
444.698	90.88
444.919	89.88
445.14	132.88
445.361	132.88
445.582	122.88
445.803	141.88
446.024	144.88
446.245	132.88
446.466	124.88
446.687	88.88
446.908	87.88
447.129	89.88
447.35	94.88
447.571	89.88
447.792	105.88
448.013	103.88
448.234	100.88
448.455	103.88
448.675	109.88
448.896	125.88
449.117	112.88
449.338	103.88
449.559	127.88
449.779	139.88
450	96.88
450.221	91.88
450.442	97.88
450.662	94.88
450.883	126.88
451.104	112.88
451.324	107.88
451.545	91.88
451.766	78.88
451.986	100.88
452.207	96.88
452.428	115.88
452.648	110.88
452.869	121.88
453.089	109.88
453.31	132.88
453.53	98.88
453.751	82.88
453.971	90.88
454.192	109.88
454.412	95.88
454.633	107.88
454.853	101.88
455.073	90.88
455.294	88.88
455.514	112.88
455.734	85.88
455.955	88.88
456.175	76.88
456.395	99.88
456.616	89.88
456.836	76.88
457.056	99.88
457.276	98.88
457.497	97.88
457.717	93.88
457.937	81.88
458.157	72.88
458.377	119.88
458.598	117.88
458.818	126.88
459.038	159.88
459.258	137.88
459.478	105.88
459.698	86.88
459.918	96.88
460.138	84.88
460.358	78.88
460.578	85.88
460.798	89.88
461.018	92.88
461.238	98.88
461.458	97.88
461.678	82.88
461.898	88.88
462.118	91.88
462.338	89.88
462.558	98.88
462.777	95.88
462.997	94.88
463.217	92.88
463.437	86.88
463.657	93.88
463.876	99.88
464.096	86.88
464.316	91.88
464.536	87.88
464.755	82.88
464.975	113.88
465.195	162.88
465.414	158.88
465.634	105.88
465.854	83.88
466.073	101.88
466.293	93.88
466.512	83.88
466.732	95.88
466.951	90.88
467.171	93.88
467.391	97.88
467.61	105.88
467.829	115.88
468.049	94.88
468.268	87.88
468.488	89.88
468.707	80.88
468.927	87.88
469.146	109.88
469.365	83.88
469.585	95.88
469.804	94.88
470.023	110.88
470.243	98.88
470.462	119.88
470.681	114.88
470.901	103.88
471.12	84.88
471.339	107.88
471.558	91.88
471.777	95.88
471.997	100.88
472.216	98.88
472.435	81.88
472.654	100.88
472.873	93.88
473.092	101.88
473.311	90.88
473.53	88.88
473.749	92.88
473.968	89.88
474.187	102.88
474.406	100.88
474.625	94.88
474.844	83.88
475.063	93.88
475.282	92.88
475.501	77.88
475.72	95.88
475.939	93.88
476.158	81.88
476.377	93.88
476.596	82.88
476.814	91.88
477.033	93.88
477.252	85.88
477.471	83.88
477.69	91.88
477.908	101.88
478.127	76.88
478.346	95.88
478.564	104.88
478.783	109.88
479.002	97.88
479.22	117.88
479.439	105.88
479.658	120.88
479.876	105.88
480.095	96.88
480.313	102.88
480.532	102.88
480.751	99.88
480.969	95.88
481.188	109.88
481.406	101.88
481.624	95.88
481.843	92.88
482.061	94.88
482.28	82.88
482.498	89.88
482.717	90.88
482.935	96.88
483.153	87.88
483.372	87.88
483.59	95.88
483.808	80.88
484.027	78.88
484.245	105.88
484.463	95.88
484.681	104.88
484.9	115.88
485.118	93.88
485.336	93.88
485.554	103.88
485.772	117.88
485.99	96.88
486.209	106.88
486.427	93.88
486.645	116.88
486.863	114.88
487.081	118.88
487.299	98.88
487.517	99.88
487.735	104.88
487.953	98.88
488.171	108.88
488.389	104.88
488.607	105.88
488.825	87.88
489.043	92.88
489.261	97.88
489.479	99.88
489.696	102.88
489.914	91.88
490.132	75.88
490.35	101.88
490.568	92.88
490.786	106.88
491.003	100.88
491.221	103.88
491.439	84.88
491.657	92.88
491.874	91.88
492.092	97.88
492.31	89.88
492.527	96.88
492.745	77.88
492.963	107.88
493.18	100.88
493.398	97.88
493.615	110.88
493.833	102.88
494.05	98.88
494.268	100.88
494.485	103.88
494.703	85.88
494.92	80.88
495.138	93.88
495.355	108.88
495.573	105.88
495.79	99.88
496.008	108.88
496.225	101.88
496.442	89.88
496.66	113.88
496.877	101.88
497.094	103.88
497.312	96.88
497.529	84.88
497.746	94.88
497.963	84.88
498.181	109.88
498.398	98.88
498.615	107.88
498.832	102.88
499.049	105.88
499.267	88.88
499.484	88.88
499.701	93.88
499.918	99.88
500.135	91.88
500.352	94.88
500.569	90.88
500.786	88.88
501.003	105.88
501.22	99.88
501.437	90.88
501.654	85.88
501.871	105.88
502.088	94.88
502.305	86.88
502.522	98.88
502.739	94.88
502.956	102.88
503.172	94.88
503.389	101.88
503.606	108.88
503.823	93.88
504.04	106.88
504.256	109.88
504.473	98.88
504.69	97.88
504.907	106.88
505.123	105.88
505.34	110.88
505.557	100.88
505.773	97.88
505.99	96.88
506.207	91.88
506.423	79.88
506.64	81.88
506.856	83.88
507.073	94.88
507.289	97.88
507.506	101.88
507.722	105.88
507.939	117.88
508.155	98.88
508.372	99.88
508.588	95.88
508.805	94.88
509.021	101.88
509.238	95.88
509.454	98.88
509.67	110.88
509.887	105.88
510.103	135.88
510.319	225.88
510.536	812.88
510.752	2511.88
510.968	709.88
511.184	164.88
511.401	107.88
511.617	105.88
511.833	90.88
512.049	90.88
512.265	86.88
512.481	85.88
512.698	87.88
512.914	84.88
513.13	100.88
513.346	104.88
513.562	107.88
