Data from Uncirc_2003_H10_HRD10591_00002.txt Node
Date: Wed Jan 03 10:35:48 EST 2024
User: Yrep
Spectrometer: HR+D1059
Trigger mode: 1
Integration Time (sec): 1.000000E-1
Scans to average: 1
Electric dark correction enabled: true
Nonlinearity correction enabled: false
Boxcar width: 0
XAxis mode: Wavelengths
Number of Pixels in Spectrum: 2048
>>>>>Begin Spectral Data<<<<<
223.165	-14.75
223.4	-14.75
223.635	-14.75
223.869	-14.75
224.104	-21.75
224.338	-23.75
224.573	-18.75
224.808	-13.75
225.042	-15.75
225.277	4.25
225.511	12.25
225.746	15.25
225.98	6.25
226.215	11.25
226.449	15.25
226.683	0.25
226.918	20.25
227.152	38.25
227.387	29.25
227.621	33.25
227.856	39.25
228.09	36.25
228.324	52.25
228.559	51.25
228.793	59.25
229.027	60.25
229.262	69.25
229.496	82.25
229.73	89.25
229.964	77.25
230.199	74.25
230.433	72.25
230.667	61.25
230.901	78.25
231.136	67.25
231.37	72.25
231.604	81.25
231.838	85.25
232.072	81.25
232.306	76.25
232.541	71.25
232.775	73.25
233.009	67.25
233.243	66.25
233.477	79.25
233.711	77.25
233.945	87.25
234.179	85.25
234.413	88.25
234.647	75.25
234.881	78.25
235.115	78.25
235.349	67.25
235.583	79.25
235.817	66.25
236.051	79.25
236.285	73.25
236.519	56.25
236.753	73.25
236.987	77.25
237.221	84.25
237.455	89.25
237.689	71.25
237.922	63.25
238.156	70.25
238.39	84.25
238.624	81.25
238.858	84.25
239.091	71.25
239.325	75.25
239.559	80.25
239.793	79.25
240.027	73.25
240.26	89.25
240.494	66.25
240.728	67.25
240.961	71.25
241.195	72.25
241.429	73.25
241.662	78.25
241.896	72.25
242.13	68.25
242.363	77.25
242.597	74.25
242.83	77.25
243.064	80.25
243.298	76.25
243.531	72.25
243.765	83.25
243.998	72.25
244.232	76.25
244.465	89.25
244.699	88.25
244.932	92.25
245.166	85.25
245.399	81.25
245.633	74.25
245.866	74.25
246.099	56.25
246.333	72.25
246.566	72.25
246.8	87.25
247.033	85.25
247.266	74.25
247.5	70.25
247.733	73.25
247.966	71.25
248.2	85.25
248.433	83.25
248.666	78.25
248.899	78.25
249.133	95.25
249.366	88.25
249.599	93.25
249.832	80.25
250.066	80.25
250.299	73.25
250.532	89.25
250.765	89.25
250.998	72.25
251.231	74.25
251.465	82.25
251.698	82.25
251.931	78.25
252.164	80.25
252.397	78.25
252.63	80.25
252.863	70.25
253.096	79.25
253.329	93.25
253.562	71.25
253.795	79.25
254.028	79.25
254.261	75.25
254.494	65.25
254.727	70.25
254.96	95.25
255.193	79.25
255.426	76.25
255.659	84.25
255.892	94.25
256.124	73.25
256.357	75.25
256.59	72.25
256.823	75.25
257.056	83.25
257.289	75.25
257.521	88.25
257.754	82.25
257.987	91.25
258.22	93.25
258.452	75.25
258.685	89.25
258.918	87.25
259.151	81.25
259.383	80.25
259.616	78.25
259.849	69.25
260.081	91.25
260.314	80.25
260.547	82.25
260.779	73.25
261.012	89.25
261.244	75.25
261.477	89.25
261.71	97.25
261.942	101.25
262.175	118.25
262.407	95.25
262.64	70.25
262.872	101.25
263.105	81.25
263.337	75.25
263.57	76.25
263.802	73.25
264.035	80.25
264.267	82.25
264.499	76.25
264.732	77.25
264.964	83.25
265.197	83.25
265.429	76.25
265.661	73.25
265.894	70.25
266.126	60.25
266.358	86.25
266.591	85.25
266.823	70.25
267.055	65.25
267.287	92.25
267.52	89.25
267.752	88.25
267.984	78.25
268.216	84.25
268.448	84.25
268.681	90.25
268.913	78.25
269.145	80.25
269.377	82.25
269.609	91.25
269.841	73.25
270.073	77.25
270.306	77.25
270.538	76.25
270.77	89.25
271.002	73.25
271.234	82.25
271.466	94.25
271.698	87.25
271.93	84.25
272.162	93.25
272.394	79.25
272.626	84.25
272.858	75.25
273.09	79.25
273.322	76.25
273.553	91.25
273.785	84.25
274.017	88.25
274.249	83.25
274.481	90.25
274.713	81.25
274.945	86.25
275.176	97.25
275.408	93.25
275.64	80.25
275.872	84.25
276.104	80.25
276.335	82.25
276.567	87.25
276.799	91.25
277.031	100.25
277.262	81.25
277.494	94.25
277.726	83.25
277.957	83.25
278.189	84.25
278.421	79.25
278.652	76.25
278.884	75.25
279.115	81.25
279.347	74.25
279.579	89.25
279.81	79.25
280.042	93.25
280.273	88.25
280.505	79.25
280.736	80.25
280.968	84.25
281.199	85.25
281.431	96.25
281.662	88.25
281.894	80.25
282.125	95.25
282.356	112.25
282.588	115.25
282.819	112.25
283.051	83.25
283.282	83.25
283.513	87.25
283.745	89.25
283.976	76.25
284.207	101.25
284.439	89.25
284.67	76.25
284.901	101.25
285.132	94.25
285.364	93.25
285.595	85.25
285.826	85.25
286.057	91.25
286.288	80.25
286.52	87.25
286.751	91.25
286.982	79.25
287.213	86.25
287.444	82.25
287.675	89.25
287.906	87.25
288.138	89.25
288.369	101.25
288.6	93.25
288.831	81.25
289.062	84.25
289.293	87.25
289.524	95.25
289.755	79.25
289.986	80.25
290.217	73.25
290.448	88.25
290.679	72.25
290.91	94.25
291.141	79.25
291.371	90.25
291.602	80.25
291.833	91.25
292.064	79.25
292.295	73.25
292.526	84.25
292.757	84.25
292.987	93.25
293.218	86.25
293.449	88.25
293.68	85.25
293.91	87.25
294.141	109.25
294.372	86.25
294.603	86.25
294.833	89.25
295.064	85.25
295.295	84.25
295.525	87.25
295.756	92.25
295.987	103.25
296.217	105.25
296.448	115.25
296.679	88.25
296.909	99.25
297.14	81.25
297.37	81.25
297.601	87.25
297.831	80.25
298.062	92.25
298.292	77.25
298.523	93.25
298.753	73.25
298.984	82.25
299.214	71.25
299.445	80.25
299.675	92.25
299.905	96.25
300.136	83.25
300.366	91.25
300.597	85.25
300.827	101.25
301.057	102.25
301.288	109.25
301.518	83.25
301.748	89.25
301.979	91.25
302.209	83.25
302.439	76.25
302.669	76.25
302.9	74.25
303.13	100.25
303.36	91.25
303.59	91.25
303.82	107.25
304.051	83.25
304.281	90.25
304.511	94.25
304.741	87.25
304.971	81.25
305.201	91.25
305.431	96.25
305.661	101.25
305.891	101.25
306.121	95.25
306.352	99.25
306.582	94.25
306.812	81.25
307.042	87.25
307.272	88.25
307.502	97.25
307.731	78.25
307.961	86.25
308.191	84.25
308.421	82.25
308.651	99.25
308.881	86.25
309.111	83.25
309.341	103.25
309.571	84.25
309.8	75.25
310.03	93.25
310.26	83.25
310.49	88.25
310.72	92.25
310.949	97.25
311.179	100.25
311.409	93.25
311.639	81.25
311.868	82.25
312.098	81.25
312.328	87.25
312.557	98.25
312.787	101.25
313.017	95.25
313.246	89.25
313.476	94.25
313.706	85.25
313.935	89.25
314.165	89.25
314.394	100.25
314.624	91.25
314.853	99.25
315.083	89.25
315.312	98.25
315.542	91.25
315.771	92.25
316.001	105.25
316.23	95.25
316.46	103.25
316.689	95.25
316.919	89.25
317.148	99.25
317.377	93.25
317.607	104.25
317.836	84.25
318.065	95.25
318.295	102.25
318.524	87.25
318.753	92.25
318.983	97.25
319.212	96.25
319.441	86.25
319.67	95.25
319.9	91.25
320.129	86.25
320.358	73.25
320.587	85.25
320.816	91.25
321.046	92.25
321.275	95.25
321.504	93.25
321.733	88.25
321.962	80.25
322.191	110.25
322.42	95.25
322.649	101.25
322.878	104.25
323.108	115.25
323.337	121.25
323.566	124.25
323.795	151.25
324.024	184.25
324.253	359.25
324.482	785.25
324.71	1593.25
324.939	2097.25
325.168	744.25
325.397	236.25
325.626	137.25
325.855	136.25
326.084	119.25
326.313	125.25
326.542	129.25
326.77	214.25
326.999	423.25
327.228	878.25
327.457	1605.25
327.686	1285.25
327.914	346.25
328.143	195.25
328.372	136.25
328.6	118.25
328.829	103.25
329.058	121.25
329.287	126.25
329.515	95.25
329.744	109.25
329.972	90.25
330.201	103.25
330.43	91.25
330.658	116.25
330.887	119.25
331.115	120.25
331.344	110.25
331.572	88.25
331.801	106.25
332.03	103.25
332.258	109.25
332.486	89.25
332.715	89.25
332.943	84.25
333.172	82.25
333.4	87.25
333.629	99.25
333.857	91.25
334.085	92.25
334.314	84.25
334.542	89.25
334.771	94.25
334.999	86.25
335.227	94.25
335.455	104.25
335.684	104.25
335.912	100.25
336.14	90.25
336.369	99.25
336.597	86.25
336.825	89.25
337.053	89.25
337.281	94.25
337.51	85.25
337.738	88.25
337.966	90.25
338.194	91.25
338.422	77.25
338.65	94.25
338.878	84.25
339.106	84.25
339.334	93.25
339.562	88.25
339.79	92.25
340.018	79.25
340.246	72.25
340.474	88.25
340.702	91.25
340.93	108.25
341.158	83.25
341.386	91.25
341.614	80.25
341.842	104.25
342.07	80.25
342.298	97.25
342.526	83.25
342.754	88.25
342.981	95.25
343.209	97.25
343.437	88.25
343.665	81.25
343.893	98.25
344.12	105.25
344.348	80.25
344.576	93.25
344.804	77.25
345.031	95.25
345.259	97.25
345.487	96.25
345.714	88.25
345.942	85.25
346.17	78.25
346.397	93.25
346.625	92.25
346.853	86.25
347.08	82.25
347.308	93.25
347.535	99.25
347.763	92.25
347.99	96.25
348.218	107.25
348.445	102.25
348.673	86.25
348.9	99.25
349.128	86.25
349.355	93.25
349.583	87.25
349.81	107.25
350.037	89.25
350.265	86.25
350.492	73.25
350.72	101.25
350.947	98.25
351.174	101.25
351.402	105.25
351.629	94.25
351.856	96.25
352.083	94.25
352.311	95.25
352.538	102.25
352.765	101.25
352.992	113.25
353.22	96.25
353.447	85.25
353.674	98.25
353.901	99.25
354.128	98.25
354.355	95.25
354.583	83.25
354.81	100.25
355.037	89.25
355.264	96.25
355.491	96.25
355.718	87.25
355.945	75.25
356.172	89.25
356.399	95.25
356.626	89.25
356.853	99.25
357.08	83.25
357.307	85.25
357.534	89.25
357.761	117.25
357.988	78.25
358.215	90.25
358.441	88.25
358.668	83.25
358.895	86.25
359.122	89.25
359.349	100.25
359.576	104.25
359.802	95.25
360.029	95.25
360.256	87.25
360.483	92.25
360.709	81.25
360.936	96.25
361.163	88.25
361.39	98.25
361.616	94.25
361.843	94.25
362.07	97.25
362.296	101.25
362.523	97.25
362.749	100.25
362.976	91.25
363.203	84.25
363.429	84.25
363.656	82.25
363.882	100.25
364.109	80.25
364.335	81.25
364.562	93.25
364.788	85.25
365.015	95.25
365.241	97.25
365.468	99.25
365.694	99.25
365.92	88.25
366.147	86.25
366.373	97.25
366.599	82.25
366.826	84.25
367.052	91.25
367.278	88.25
367.505	85.25
367.731	89.25
367.957	76.25
368.184	77.25
368.41	88.25
368.636	99.25
368.862	104.25
369.089	105.25
369.315	85.25
369.541	108.25
369.767	92.25
369.993	88.25
370.219	73.25
370.445	79.25
370.672	84.25
370.898	91.25
371.124	82.25
371.35	91.25
371.576	83.25
371.802	88.25
372.028	81.25
372.254	80.25
372.48	99.25
372.706	90.25
372.932	87.25
373.158	84.25
373.384	92.25
373.61	96.25
373.835	91.25
374.061	71.25
374.287	87.25
374.513	83.25
374.739	73.25
374.965	83.25
375.191	72.25
375.416	97.25
375.642	83.25
375.868	82.25
376.094	68.25
376.319	100.25
376.545	99.25
376.771	88.25
376.997	87.25
377.222	95.25
377.448	86.25
377.674	100.25
377.899	90.25
378.125	82.25
378.35	78.25
378.576	78.25
378.802	93.25
379.027	98.25
379.253	99.25
379.478	87.25
379.704	87.25
379.929	90.25
380.155	99.25
380.38	92.25
380.606	98.25
380.831	88.25
381.057	93.25
381.282	91.25
381.507	91.25
381.733	110.25
381.958	104.25
382.184	93.25
382.409	91.25
382.634	112.25
382.86	91.25
383.085	90.25
383.31	94.25
383.535	105.25
383.761	88.25
383.986	99.25
384.211	87.25
384.436	90.25
384.662	111.25
384.887	99.25
385.112	87.25
385.337	95.25
385.562	123.25
385.787	104.25
386.013	113.25
386.238	114.25
386.463	124.25
386.688	99.25
386.913	100.25
387.138	107.25
387.363	111.25
387.588	112.25
387.813	99.25
388.038	100.25
388.263	113.25
388.488	108.25
388.713	94.25
388.938	93.25
389.163	98.25
389.387	101.25
389.612	101.25
389.837	81.25
390.062	87.25
390.287	80.25
390.512	100.25
390.736	102.25
390.961	92.25
391.186	98.25
391.411	90.25
391.636	84.25
391.86	74.25
392.085	77.25
392.31	75.25
392.534	84.25
392.759	83.25
392.984	78.25
393.208	84.25
393.433	100.25
393.658	98.25
393.882	88.25
394.107	78.25
394.331	91.25
394.556	73.25
394.78	84.25
395.005	90.25
395.229	82.25
395.454	101.25
395.678	80.25
395.903	75.25
396.127	78.25
396.352	89.25
396.576	83.25
396.801	89.25
397.025	92.25
397.249	89.25
397.474	78.25
397.698	73.25
397.922	87.25
398.147	77.25
398.371	88.25
398.595	88.25
398.82	91.25
399.044	83.25
399.268	80.25
399.492	83.25
399.717	91.25
399.941	93.25
400.165	79.25
400.389	88.25
400.613	82.25
400.837	86.25
401.062	94.25
401.286	88.25
401.51	82.25
401.734	86.25
401.958	81.25
402.182	125.25
402.406	136.25
402.63	108.25
402.854	78.25
403.078	77.25
403.302	84.25
403.526	88.25
403.75	90.25
403.974	96.25
404.198	87.25
404.422	86.25
404.645	80.25
404.869	107.25
405.093	79.25
405.317	87.25
405.541	85.25
405.765	89.25
405.988	103.25
406.212	151.25
406.436	188.25
406.66	118.25
406.883	101.25
407.107	83.25
407.331	88.25
407.555	101.25
407.778	102.25
408.002	88.25
408.226	82.25
408.449	87.25
408.673	84.25
408.896	83.25
409.12	72.25
409.344	86.25
409.567	77.25
409.791	102.25
410.014	99.25
410.238	103.25
410.461	89.25
410.685	102.25
410.908	101.25
411.132	88.25
411.355	89.25
411.578	79.25
411.802	87.25
412.025	80.25
412.249	85.25
412.472	91.25
412.695	74.25
412.919	88.25
413.142	86.25
413.365	78.25
413.589	90.25
413.812	88.25
414.035	83.25
414.258	90.25
414.482	99.25
414.705	77.25
414.928	91.25
415.151	97.25
415.374	85.25
415.597	82.25
415.821	97.25
416.044	75.25
416.267	81.25
416.49	85.25
416.713	84.25
416.936	95.25
417.159	80.25
417.382	92.25
417.605	89.25
417.828	85.25
418.051	89.25
418.274	85.25
418.497	80.25
418.72	93.25
418.943	88.25
419.166	77.25
419.389	84.25
419.611	87.25
419.834	83.25
420.057	79.25
420.28	89.25
420.503	94.25
420.726	78.25
420.948	77.25
421.171	82.25
421.394	93.25
421.617	95.25
421.839	76.25
422.062	84.25
422.285	93.25
422.507	96.25
422.73	99.25
422.953	96.25
423.175	98.25
423.398	101.25
423.621	79.25
423.843	87.25
424.066	79.25
424.288	75.25
424.511	87.25
424.733	80.25
424.956	78.25
425.178	92.25
425.401	107.25
425.623	105.25
425.846	98.25
426.068	94.25
426.291	92.25
426.513	75.25
426.735	88.25
426.958	93.25
427.18	96.25
427.402	127.25
427.625	153.25
427.847	130.25
428.069	95.25
428.292	94.25
428.514	98.25
428.736	77.25
428.958	84.25
429.181	83.25
429.403	84.25
429.625	80.25
429.847	83.25
430.069	83.25
430.292	79.25
430.514	86.25
430.736	89.25
430.958	91.25
431.18	84.25
431.402	79.25
431.624	78.25
431.846	87.25
432.068	87.25
432.29	74.25
432.512	83.25
432.734	76.25
432.956	81.25
433.178	81.25
433.4	89.25
433.622	89.25
433.844	82.25
434.066	88.25
434.287	87.25
434.509	80.25
434.731	82.25
434.953	85.25
435.175	88.25
435.397	77.25
435.618	91.25
435.84	99.25
436.062	113.25
436.284	98.25
436.505	84.25
436.727	91.25
436.949	74.25
437.17	93.25
437.392	80.25
437.614	73.25
437.835	83.25
438.057	107.25
438.278	95.25
438.5	88.25
438.721	116.25
438.943	105.25
439.165	94.25
439.386	90.25
439.608	87.25
439.829	88.25
440.05	115.25
440.272	126.25
440.493	85.25
440.715	79.25
440.936	81.25
441.158	93.25
441.379	82.25
441.6	89.25
441.822	81.25
442.043	90.25
442.264	99.25
442.486	97.25
442.707	95.25
442.928	97.25
443.149	106.25
443.371	112.25
443.592	105.25
443.813	85.25
444.034	91.25
444.255	88.25
444.476	83.25
444.698	74.25
444.919	94.25
445.14	118.25
445.361	123.25
445.582	91.25
445.803	124.25
446.024	123.25
446.245	128.25
446.466	114.25
446.687	81.25
446.908	89.25
447.129	87.25
447.35	73.25
447.571	80.25
447.792	105.25
448.013	109.25
448.234	98.25
448.455	102.25
448.675	109.25
448.896	103.25
449.117	94.25
449.338	95.25
449.559	100.25
449.779	111.25
450	84.25
450.221	88.25
450.442	95.25
450.662	100.25
450.883	100.25
451.104	100.25
451.324	85.25
451.545	95.25
451.766	81.25
451.986	86.25
452.207	108.25
452.428	68.25
452.648	89.25
452.869	102.25
453.089	95.25
453.31	90.25
453.53	92.25
453.751	76.25
453.971	88.25
454.192	89.25
454.412	94.25
454.633	82.25
454.853	98.25
455.073	74.25
455.294	104.25
455.514	81.25
455.734	88.25
455.955	102.25
456.175	76.25
456.395	81.25
456.616	92.25
456.836	96.25
457.056	91.25
457.276	73.25
457.497	75.25
457.717	87.25
457.937	90.25
458.157	80.25
458.377	80.25
458.598	94.25
458.818	116.25
459.038	128.25
459.258	101.25
459.478	90.25
459.698	81.25
459.918	84.25
460.138	85.25
460.358	78.25
460.578	77.25
460.798	75.25
461.018	82.25
461.238	76.25
461.458	68.25
461.678	74.25
461.898	99.25
462.118	79.25
462.338	89.25
462.558	80.25
462.777	81.25
462.997	77.25
463.217	83.25
463.437	73.25
463.657	94.25
463.876	93.25
464.096	80.25
464.316	96.25
464.536	92.25
464.755	90.25
464.975	102.25
465.195	147.25
465.414	122.25
465.634	87.25
465.854	81.25
466.073	92.25
466.293	95.25
466.512	73.25
466.732	73.25
466.951	81.25
467.171	85.25
467.391	82.25
467.61	94.25
467.829	84.25
468.049	99.25
468.268	81.25
468.488	96.25
468.707	78.25
468.927	102.25
469.146	83.25
469.365	72.25
469.585	70.25
469.804	99.25
470.023	91.25
470.243	87.25
470.462	82.25
470.681	116.25
470.901	97.25
471.12	86.25
471.339	90.25
471.558	83.25
471.777	96.25
471.997	91.25
472.216	75.25
472.435	88.25
472.654	95.25
472.873	80.25
473.092	96.25
473.311	83.25
473.53	83.25
473.749	84.25
473.968	94.25
474.187	95.25
474.406	87.25
474.625	70.25
474.844	76.25
475.063	92.25
475.282	84.25
475.501	81.25
475.72	96.25
475.939	75.25
476.158	80.25
476.377	87.25
476.596	80.25
476.814	86.25
477.033	88.25
477.252	88.25
477.471	76.25
477.69	76.25
477.908	91.25
478.127	84.25
478.346	87.25
478.564	79.25
478.783	82.25
479.002	81.25
479.22	78.25
479.439	104.25
479.658	98.25
479.876	86.25
480.095	91.25
480.313	88.25
480.532	73.25
480.751	87.25
480.969	83.25
481.188	87.25
481.406	83.25
481.624	78.25
481.843	86.25
482.061	75.25
482.28	90.25
482.498	93.25
482.717	89.25
482.935	93.25
483.153	100.25
483.372	86.25
483.59	100.25
483.808	88.25
484.027	93.25
484.245	87.25
484.463	87.25
484.681	79.25
484.9	88.25
485.118	100.25
485.336	86.25
485.554	83.25
485.772	89.25
485.99	99.25
486.209	107.25
486.427	101.25
486.645	88.25
486.863	86.25
487.081	86.25
487.299	101.25
487.517	85.25
487.735	86.25
487.953	96.25
488.171	102.25
488.389	84.25
488.607	88.25
488.825	82.25
489.043	83.25
489.261	81.25
489.479	73.25
489.696	88.25
489.914	87.25
490.132	83.25
490.35	95.25
490.568	78.25
490.786	95.25
491.003	92.25
491.221	92.25
491.439	86.25
491.657	73.25
491.874	82.25
492.092	94.25
492.31	78.25
492.527	99.25
492.745	93.25
492.963	84.25
493.18	93.25
493.398	94.25
493.615	88.25
493.833	86.25
494.05	89.25
494.268	90.25
494.485	91.25
494.703	88.25
494.92	91.25
495.138	75.25
495.355	83.25
495.573	88.25
495.79	86.25
496.008	85.25
496.225	98.25
496.442	84.25
496.66	95.25
496.877	84.25
497.094	88.25
497.312	90.25
497.529	95.25
497.746	95.25
497.963	88.25
498.181	78.25
498.398	100.25
498.615	108.25
498.832	85.25
499.049	81.25
499.267	91.25
499.484	86.25
499.701	85.25
499.918	82.25
500.135	96.25
500.352	69.25
500.569	79.25
500.786	77.25
501.003	89.25
501.22	84.25
501.437	97.25
501.654	94.25
501.871	94.25
502.088	85.25
502.305	93.25
502.522	111.25
502.739	96.25
502.956	80.25
503.172	88.25
503.389	89.25
503.606	102.25
503.823	87.25
504.04	91.25
504.256	94.25
504.473	101.25
504.69	86.25
504.907	88.25
505.123	83.25
505.34	91.25
505.557	81.25
505.773	93.25
505.99	81.25
506.207	91.25
506.423	102.25
506.64	87.25
506.856	96.25
507.073	87.25
507.289	79.25
507.506	95.25
507.722	94.25
507.939	85.25
508.155	82.25
508.372	86.25
508.588	88.25
508.805	95.25
509.021	108.25
509.238	94.25
509.454	83.25
509.67	103.25
509.887	103.25
510.103	124.25
510.319	213.25
510.536	655.25
510.752	2016.25
510.968	563.25
511.184	147.25
511.401	100.25
511.617	100.25
511.833	89.25
512.049	87.25
512.265	86.25
512.481	83.25
512.698	78.25
512.914	98.25
513.13	94.25
513.346	100.25
513.562	105.25
513.778	86.25
513.994	86.25
514.21	78.25
514.426	103.25
514.642	119.25
514.858	116.25
515.074	158.25
515.29	369.25
515.506	1155.25
515.721	459.25
515.937	136.25
516.153	95.25
516.369	78.25
516.585	84.25
516.801	89.25
517.016	89.25
