Data from Uncirc_2003_H10_HRD10591_00053.txt Node
Date: Wed Jan 03 10:35:58 EST 2024
User: Yrep
Spectrometer: HR+D1059
Trigger mode: 1
Integration Time (sec): 1.000000E-1
Scans to average: 1
Electric dark correction enabled: true
Nonlinearity correction enabled: false
Boxcar width: 0
XAxis mode: Wavelengths
Number of Pixels in Spectrum: 2048
>>>>>Begin Spectral Data<<<<<
223.165	-12.62
223.4	-12.62
223.635	-12.62
223.869	-28.62
224.104	-14.62
224.338	-18.62
224.573	-10.62
224.808	0.38
225.042	-9.62
225.277	-0.62
225.511	-9.62
225.746	-9.62
225.98	6.38
226.215	8.38
226.449	17.38
226.683	18.38
226.918	28.38
227.152	35.38
227.387	29.38
227.621	26.38
227.856	45.38
228.09	46.38
228.324	39.38
228.559	44.38
228.793	47.38
229.027	67.38
229.262	54.38
229.496	72.38
229.73	64.38
229.964	76.38
230.199	77.38
230.433	72.38
230.667	92.38
230.901	87.38
231.136	75.38
231.37	82.38
231.604	81.38
231.838	75.38
232.072	81.38
232.306	77.38
232.541	84.38
232.775	89.38
233.009	79.38
233.243	92.38
233.477	76.38
233.711	77.38
233.945	81.38
234.179	80.38
234.413	72.38
234.647	65.38
234.881	73.38
235.115	59.38
235.349	67.38
235.583	86.38
235.817	72.38
236.051	73.38
236.285	66.38
236.519	70.38
236.753	87.38
236.987	90.38
237.221	79.38
237.455	88.38
237.689	85.38
237.922	73.38
238.156	75.38
238.39	71.38
238.624	72.38
238.858	79.38
239.091	77.38
239.325	75.38
239.559	84.38
239.793	76.38
240.027	80.38
240.26	70.38
240.494	80.38
240.728	70.38
240.961	77.38
241.195	65.38
241.429	73.38
241.662	71.38
241.896	65.38
242.13	79.38
242.363	69.38
242.597	76.38
242.83	81.38
243.064	80.38
243.298	76.38
243.531	77.38
243.765	87.38
243.998	83.38
244.232	73.38
244.465	78.38
244.699	81.38
244.932	78.38
245.166	62.38
245.399	73.38
245.633	71.38
245.866	82.38
246.099	77.38
246.333	61.38
246.566	75.38
246.8	79.38
247.033	83.38
247.266	76.38
247.5	80.38
247.733	77.38
247.966	87.38
248.2	76.38
248.433	71.38
248.666	96.38
248.899	85.38
249.133	80.38
249.366	101.38
249.599	81.38
249.832	82.38
250.066	78.38
250.299	76.38
250.532	69.38
250.765	82.38
250.998	78.38
251.231	81.38
251.465	90.38
251.698	79.38
251.931	69.38
252.164	63.38
252.397	77.38
252.63	79.38
252.863	72.38
253.096	88.38
253.329	78.38
253.562	61.38
253.795	86.38
254.028	75.38
254.261	67.38
254.494	65.38
254.727	74.38
254.96	82.38
255.193	70.38
255.426	81.38
255.659	81.38
255.892	81.38
256.124	84.38
256.357	80.38
256.59	90.38
256.823	88.38
257.056	75.38
257.289	74.38
257.521	92.38
257.754	80.38
257.987	73.38
258.22	83.38
258.452	73.38
258.685	84.38
258.918	76.38
259.151	80.38
259.383	82.38
259.616	91.38
259.849	86.38
260.081	85.38
260.314	77.38
260.547	77.38
260.779	76.38
261.012	80.38
261.244	83.38
261.477	102.38
261.71	79.38
261.942	102.38
262.175	112.38
262.407	89.38
262.64	77.38
262.872	78.38
263.105	69.38
263.337	83.38
263.57	80.38
263.802	86.38
264.035	89.38
264.267	75.38
264.499	73.38
264.732	79.38
264.964	74.38
265.197	71.38
265.429	84.38
265.661	81.38
265.894	85.38
266.126	84.38
266.358	71.38
266.591	75.38
266.823	95.38
267.055	77.38
267.287	74.38
267.52	86.38
267.752	85.38
267.984	86.38
268.216	93.38
268.448	81.38
268.681	71.38
268.913	89.38
269.145	88.38
269.377	73.38
269.609	76.38
269.841	79.38
270.073	79.38
270.306	89.38
270.538	78.38
270.77	87.38
271.002	101.38
271.234	85.38
271.466	77.38
271.698	73.38
271.93	78.38
272.162	79.38
272.394	90.38
272.626	81.38
272.858	91.38
273.09	79.38
273.322	70.38
273.553	83.38
273.785	76.38
274.017	81.38
274.249	86.38
274.481	103.38
274.713	72.38
274.945	74.38
275.176	76.38
275.408	92.38
275.64	86.38
275.872	82.38
276.104	88.38
276.335	67.38
276.567	94.38
276.799	102.38
277.031	97.38
277.262	86.38
277.494	87.38
277.726	68.38
277.957	94.38
278.189	90.38
278.421	82.38
278.652	80.38
278.884	83.38
279.115	82.38
279.347	78.38
279.579	82.38
279.81	78.38
280.042	65.38
280.273	63.38
280.505	67.38
280.736	90.38
280.968	64.38
281.199	90.38
281.431	85.38
281.662	87.38
281.894	84.38
282.125	108.38
282.356	115.38
282.588	119.38
282.819	101.38
283.051	94.38
283.282	76.38
283.513	83.38
283.745	97.38
283.976	74.38
284.207	84.38
284.439	78.38
284.67	87.38
284.901	80.38
285.132	84.38
285.364	89.38
285.595	94.38
285.826	84.38
286.057	76.38
286.288	69.38
286.52	88.38
286.751	95.38
286.982	86.38
287.213	83.38
287.444	89.38
287.675	73.38
287.906	70.38
288.138	85.38
288.369	97.38
288.6	73.38
288.831	94.38
289.062	81.38
289.293	85.38
289.524	96.38
289.755	80.38
289.986	88.38
290.217	90.38
290.448	88.38
290.679	88.38
290.91	81.38
291.141	82.38
291.371	91.38
291.602	95.38
291.833	91.38
292.064	80.38
292.295	87.38
292.526	91.38
292.757	89.38
292.987	75.38
293.218	87.38
293.449	83.38
293.68	89.38
293.91	90.38
294.141	97.38
294.372	84.38
294.603	79.38
294.833	76.38
295.064	84.38
295.295	86.38
295.525	91.38
295.756	100.38
295.987	111.38
296.217	122.38
296.448	127.38
296.679	83.38
296.909	80.38
297.14	94.38
297.37	87.38
297.601	87.38
297.831	88.38
298.062	83.38
298.292	92.38
298.523	94.38
298.753	101.38
298.984	82.38
299.214	78.38
299.445	93.38
299.675	108.38
299.905	88.38
300.136	84.38
300.366	74.38
300.597	79.38
300.827	95.38
301.057	87.38
301.288	103.38
301.518	100.38
301.748	95.38
301.979	109.38
302.209	96.38
302.439	80.38
302.669	83.38
302.9	92.38
303.13	106.38
303.36	83.38
303.59	110.38
303.82	102.38
304.051	87.38
304.281	82.38
304.511	87.38
304.741	88.38
304.971	80.38
305.201	98.38
305.431	104.38
305.661	91.38
305.891	91.38
306.121	82.38
306.352	102.38
306.582	100.38
306.812	105.38
307.042	106.38
307.272	95.38
307.502	98.38
307.731	89.38
307.961	80.38
308.191	92.38
308.421	88.38
308.651	73.38
308.881	98.38
309.111	92.38
309.341	88.38
309.571	105.38
309.8	103.38
310.03	97.38
310.26	98.38
310.49	88.38
310.72	97.38
310.949	113.38
311.179	104.38
311.409	84.38
311.639	94.38
311.868	91.38
312.098	75.38
312.328	86.38
312.557	86.38
312.787	104.38
313.017	103.38
313.246	98.38
313.476	97.38
313.706	87.38
313.935	85.38
314.165	97.38
314.394	91.38
314.624	88.38
314.853	94.38
315.083	98.38
315.312	77.38
315.542	89.38
315.771	104.38
316.001	79.38
316.23	94.38
316.46	83.38
316.689	94.38
316.919	97.38
317.148	94.38
317.377	86.38
317.607	85.38
317.836	80.38
318.065	101.38
318.295	103.38
318.524	82.38
318.753	88.38
318.983	95.38
319.212	92.38
319.441	100.38
319.67	104.38
319.9	97.38
320.129	86.38
320.358	96.38
320.587	90.38
320.816	93.38
321.046	104.38
321.275	92.38
321.504	83.38
321.733	83.38
321.962	84.38
322.191	107.38
322.42	109.38
322.649	106.38
322.878	112.38
323.108	114.38
323.337	121.38
323.566	121.38
323.795	153.38
324.024	201.38
324.253	429.38
324.482	933.38
324.71	1894.38
324.939	2467.38
325.168	917.38
325.397	270.38
325.626	163.38
325.855	139.38
326.084	125.38
326.313	148.38
326.542	156.38
326.77	253.38
326.999	499.38
327.228	1075.38
327.457	1942.38
327.686	1513.38
327.914	395.38
328.143	204.38
328.372	155.38
328.6	110.38
328.829	120.38
329.058	120.38
329.287	124.38
329.515	121.38
329.744	104.38
329.972	98.38
330.201	91.38
330.43	90.38
330.658	117.38
330.887	120.38
331.115	135.38
331.344	85.38
331.572	95.38
331.801	107.38
332.03	95.38
332.258	83.38
332.486	107.38
332.715	92.38
332.943	82.38
333.172	86.38
333.4	94.38
333.629	93.38
333.857	116.38
334.085	97.38
334.314	99.38
334.542	97.38
334.771	97.38
334.999	93.38
335.227	96.38
335.455	86.38
335.684	99.38
335.912	79.38
336.14	98.38
336.369	108.38
336.597	99.38
336.825	96.38
337.053	98.38
337.281	85.38
337.51	89.38
337.738	88.38
337.966	98.38
338.194	69.38
338.422	105.38
338.65	82.38
338.878	89.38
339.106	92.38
339.334	96.38
339.562	94.38
339.79	84.38
340.018	93.38
340.246	95.38
340.474	95.38
340.702	97.38
340.93	81.38
341.158	100.38
341.386	92.38
341.614	97.38
341.842	92.38
342.07	107.38
342.298	102.38
342.526	96.38
342.754	92.38
342.981	83.38
343.209	74.38
343.437	92.38
343.665	95.38
343.893	97.38
344.12	89.38
344.348	95.38
344.576	88.38
344.804	94.38
345.031	84.38
345.259	100.38
345.487	95.38
345.714	87.38
345.942	75.38
346.17	92.38
346.397	100.38
346.625	99.38
346.853	89.38
347.08	94.38
347.308	88.38
347.535	83.38
347.763	92.38
347.99	89.38
348.218	96.38
348.445	98.38
348.673	91.38
348.9	88.38
349.128	91.38
349.355	84.38
349.583	87.38
349.81	92.38
350.037	79.38
350.265	87.38
350.492	93.38
350.72	99.38
350.947	98.38
351.174	111.38
351.402	113.38
351.629	107.38
351.856	107.38
352.083	103.38
352.311	101.38
352.538	91.38
352.765	106.38
352.992	103.38
353.22	104.38
353.447	91.38
353.674	87.38
353.901	91.38
354.128	97.38
354.355	103.38
354.583	99.38
354.81	97.38
355.037	88.38
355.264	94.38
355.491	104.38
355.718	97.38
355.945	104.38
356.172	96.38
356.399	84.38
356.626	91.38
356.853	97.38
357.08	80.38
357.307	85.38
357.534	76.38
357.761	85.38
357.988	96.38
358.215	102.38
358.441	85.38
358.668	87.38
358.895	87.38
359.122	103.38
359.349	107.38
359.576	80.38
359.802	85.38
360.029	111.38
360.256	102.38
360.483	85.38
360.709	88.38
360.936	92.38
361.163	80.38
361.39	101.38
361.616	86.38
361.843	88.38
362.07	100.38
362.296	102.38
362.523	91.38
362.749	97.38
362.976	86.38
363.203	89.38
363.429	86.38
363.656	88.38
363.882	87.38
364.109	93.38
364.335	83.38
364.562	93.38
364.788	95.38
365.015	78.38
365.241	102.38
365.468	96.38
365.694	89.38
365.92	98.38
366.147	95.38
366.373	93.38
366.599	80.38
366.826	73.38
367.052	89.38
367.278	86.38
367.505	78.38
367.731	97.38
367.957	76.38
368.184	83.38
368.41	89.38
368.636	119.38
368.862	124.38
369.089	104.38
369.315	96.38
369.541	83.38
369.767	80.38
369.993	75.38
370.219	83.38
370.445	98.38
370.672	91.38
370.898	86.38
371.124	85.38
371.35	81.38
371.576	91.38
371.802	75.38
372.028	82.38
372.254	97.38
372.48	101.38
372.706	79.38
372.932	78.38
373.158	68.38
373.384	104.38
373.61	90.38
373.835	87.38
374.061	84.38
374.287	78.38
374.513	86.38
374.739	92.38
374.965	97.38
375.191	77.38
375.416	77.38
375.642	94.38
375.868	80.38
376.094	83.38
376.319	91.38
376.545	92.38
376.771	79.38
376.997	100.38
377.222	77.38
377.448	100.38
377.674	77.38
377.899	82.38
378.125	89.38
378.35	92.38
378.576	79.38
378.802	90.38
379.027	84.38
379.253	89.38
379.478	107.38
379.704	107.38
379.929	102.38
380.155	96.38
380.38	88.38
380.606	88.38
380.831	98.38
381.057	88.38
381.282	71.38
381.507	85.38
381.733	91.38
381.958	86.38
382.184	93.38
382.409	97.38
382.634	98.38
382.86	107.38
383.085	114.38
383.31	84.38
383.535	81.38
383.761	108.38
383.986	102.38
384.211	91.38
384.436	100.38
384.662	106.38
384.887	83.38
385.112	119.38
385.337	114.38
385.562	116.38
385.787	95.38
386.013	100.38
386.238	123.38
386.463	111.38
386.688	110.38
386.913	103.38
387.138	107.38
387.363	104.38
387.588	104.38
387.813	111.38
388.038	107.38
388.263	102.38
388.488	99.38
388.713	108.38
388.938	98.38
389.163	103.38
389.387	104.38
389.612	101.38
389.837	93.38
390.062	98.38
390.287	75.38
390.512	96.38
390.736	81.38
390.961	87.38
391.186	86.38
391.411	95.38
391.636	86.38
391.86	73.38
392.085	88.38
392.31	84.38
392.534	91.38
392.759	101.38
392.984	84.38
393.208	74.38
393.433	96.38
393.658	92.38
393.882	75.38
394.107	82.38
394.331	88.38
394.556	79.38
394.78	83.38
395.005	76.38
395.229	101.38
395.454	95.38
395.678	81.38
395.903	92.38
396.127	94.38
396.352	79.38
396.576	82.38
396.801	82.38
397.025	89.38
397.249	79.38
397.474	88.38
397.698	85.38
397.922	83.38
398.147	86.38
398.371	88.38
398.595	79.38
398.82	92.38
399.044	86.38
399.268	87.38
399.492	80.38
399.717	87.38
399.941	90.38
400.165	91.38
400.389	89.38
400.613	78.38
400.837	76.38
401.062	93.38
401.286	91.38
401.51	96.38
401.734	89.38
401.958	109.38
402.182	138.38
402.406	158.38
402.63	90.38
402.854	107.38
403.078	85.38
403.302	102.38
403.526	88.38
403.75	92.38
403.974	87.38
404.198	81.38
404.422	85.38
404.645	78.38
404.869	79.38
405.093	91.38
405.317	101.38
405.541	109.38
405.765	104.38
405.988	114.38
406.212	191.38
406.436	239.38
406.66	142.38
406.883	104.38
407.107	86.38
407.331	91.38
407.555	94.38
407.778	94.38
408.002	77.38
408.226	75.38
408.449	83.38
408.673	86.38
408.896	100.38
409.12	86.38
409.344	83.38
409.567	90.38
409.791	84.38
410.014	105.38
410.238	93.38
410.461	102.38
410.685	89.38
410.908	95.38
411.132	96.38
411.355	99.38
411.578	81.38
411.802	93.38
412.025	85.38
412.249	86.38
412.472	94.38
412.695	92.38
412.919	80.38
413.142	97.38
413.365	79.38
413.589	94.38
413.812	100.38
414.035	91.38
414.258	88.38
414.482	88.38
414.705	91.38
414.928	93.38
415.151	92.38
415.374	110.38
415.597	98.38
415.821	100.38
416.044	86.38
416.267	90.38
416.49	96.38
416.713	72.38
416.936	90.38
417.159	78.38
417.382	86.38
417.605	97.38
417.828	67.38
418.051	85.38
418.274	95.38
418.497	77.38
418.72	83.38
418.943	88.38
419.166	75.38
419.389	89.38
419.611	85.38
419.834	91.38
420.057	71.38
420.28	83.38
420.503	94.38
420.726	73.38
420.948	87.38
421.171	82.38
421.394	95.38
421.617	87.38
421.839	87.38
422.062	89.38
422.285	94.38
422.507	97.38
422.73	98.38
422.953	94.38
423.175	84.38
423.398	87.38
423.621	95.38
423.843	82.38
424.066	87.38
424.288	91.38
424.511	86.38
424.733	87.38
424.956	89.38
425.178	83.38
425.401	89.38
425.623	86.38
425.846	82.38
426.068	93.38
426.291	89.38
426.513	81.38
426.735	97.38
426.958	93.38
427.18	99.38
427.402	124.38
427.625	168.38
427.847	112.38
428.069	108.38
428.292	92.38
428.514	80.38
428.736	103.38
428.958	83.38
429.181	83.38
429.403	100.38
429.625	72.38
429.847	105.38
430.069	107.38
430.292	92.38
430.514	96.38
430.736	96.38
430.958	87.38
431.18	83.38
431.402	88.38
431.624	84.38
431.846	79.38
432.068	85.38
432.29	86.38
432.512	91.38
432.734	86.38
432.956	87.38
433.178	99.38
433.4	95.38
433.622	84.38
433.844	88.38
434.066	97.38
434.287	97.38
434.509	104.38
434.731	84.38
434.953	89.38
435.175	75.38
435.397	102.38
435.618	96.38
435.84	112.38
436.062	114.38
436.284	130.38
436.505	114.38
436.727	100.38
436.949	86.38
437.17	98.38
437.392	77.38
437.614	80.38
437.835	105.38
438.057	108.38
438.278	113.38
438.5	112.38
438.721	112.38
438.943	96.38
439.165	94.38
439.386	91.38
439.608	82.38
439.829	82.38
440.05	137.38
440.272	136.38
440.493	95.38
440.715	82.38
440.936	87.38
441.158	96.38
441.379	94.38
441.6	86.38
441.822	91.38
442.043	89.38
442.264	100.38
442.486	102.38
442.707	89.38
442.928	99.38
443.149	124.38
443.371	130.38
443.592	113.38
443.813	111.38
444.034	105.38
444.255	96.38
444.476	89.38
444.698	89.38
444.919	86.38
445.14	131.38
445.361	123.38
445.582	108.38
445.803	131.38
446.024	120.38
446.245	145.38
446.466	107.38
446.687	93.38
446.908	99.38
447.129	77.38
447.35	90.38
447.571	90.38
447.792	106.38
448.013	93.38
448.234	98.38
448.455	94.38
448.675	118.38
448.896	112.38
449.117	105.38
449.338	116.38
449.559	135.38
449.779	137.38
450	113.38
450.221	104.38
450.442	101.38
450.662	94.38
450.883	92.38
451.104	106.38
451.324	92.38
451.545	81.38
451.766	86.38
451.986	100.38
452.207	87.38
452.428	81.38
452.648	86.38
452.869	98.38
453.089	115.38
453.31	125.38
453.53	93.38
453.751	73.38
453.971	96.38
454.192	111.38
454.412	77.38
454.633	82.38
454.853	97.38
455.073	75.38
455.294	77.38
455.514	97.38
455.734	94.38
455.955	93.38
456.175	85.38
456.395	82.38
456.616	88.38
456.836	92.38
457.056	88.38
457.276	83.38
457.497	91.38
457.717	79.38
457.937	77.38
458.157	95.38
458.377	93.38
458.598	106.38
458.818	148.38
459.038	158.38
459.258	109.38
459.478	89.38
459.698	95.38
459.918	81.38
460.138	88.38
460.358	79.38
460.578	75.38
460.798	93.38
461.018	87.38
461.238	96.38
461.458	82.38
461.678	93.38
461.898	84.38
462.118	88.38
462.338	79.38
462.558	85.38
462.777	75.38
462.997	76.38
463.217	90.38
463.437	83.38
463.657	96.38
463.876	81.38
464.096	90.38
464.316	78.38
464.536	110.38
464.755	105.38
464.975	93.38
465.195	175.38
465.414	156.38
465.634	86.38
465.854	89.38
466.073	81.38
466.293	76.38
466.512	78.38
466.732	75.38
466.951	95.38
467.171	109.38
467.391	94.38
467.61	102.38
467.829	96.38
468.049	80.38
468.268	91.38
468.488	83.38
468.707	87.38
468.927	96.38
469.146	89.38
469.365	82.38
469.585	86.38
469.804	97.38
470.023	108.38
470.243	87.38
470.462	108.38
470.681	104.38
470.901	90.38
471.12	77.38
471.339	87.38
471.558	70.38
471.777	79.38
471.997	80.38
472.216	80.38
472.435	95.38
472.654	90.38
472.873	84.38
473.092	82.38
473.311	81.38
473.53	92.38
473.749	93.38
473.968	88.38
474.187	102.38
474.406	108.38
474.625	89.38
474.844	88.38
475.063	90.38
475.282	85.38
475.501	93.38
475.72	91.38
475.939	82.38
476.158	71.38
476.377	72.38
476.596	89.38
476.814	100.38
477.033	102.38
477.252	89.38
477.471	94.38
477.69	75.38
477.908	84.38
478.127	84.38
478.346	91.38
478.564	84.38
478.783	108.38
479.002	86.38
479.22	81.38
479.439	91.38
479.658	111.38
479.876	102.38
480.095	89.38
480.313	83.38
480.532	93.38
480.751	95.38
480.969	91.38
481.188	119.38
481.406	109.38
481.624	77.38
481.843	81.38
482.061	96.38
482.28	87.38
482.498	88.38
482.717	83.38
482.935	89.38
483.153	77.38
483.372	92.38
483.59	84.38
483.808	71.38
484.027	84.38
484.245	91.38
484.463	83.38
484.681	100.38
484.9	96.38
485.118	85.38
485.336	83.38
485.554	88.38
485.772	116.38
485.99	99.38
486.209	106.38
486.427	111.38
486.645	98.38
486.863	103.38
487.081	99.38
487.299	89.38
487.517	89.38
487.735	97.38
487.953	87.38
488.171	101.38
488.389	93.38
488.607	82.38
488.825	86.38
489.043	79.38
489.261	107.38
489.479	92.38
489.696	87.38
489.914	102.38
490.132	91.38
490.35	97.38
490.568	82.38
490.786	94.38
491.003	81.38
491.221	103.38
491.439	75.38
491.657	78.38
491.874	102.38
492.092	99.38
492.31	84.38
492.527	75.38
492.745	82.38
492.963	94.38
493.18	87.38
493.398	91.38
493.615	112.38
493.833	96.38
494.05	101.38
494.268	91.38
494.485	82.38
494.703	95.38
494.92	99.38
495.138	83.38
495.355	102.38
495.573	87.38
495.79	91.38
496.008	92.38
496.225	88.38
496.442	84.38
496.66	76.38
496.877	93.38
497.094	86.38
497.312	84.38
497.529	104.38
497.746	92.38
497.963	88.38
498.181	96.38
498.398	79.38
498.615	115.38
498.832	115.38
499.049	93.38
499.267	87.38
499.484	87.38
499.701	96.38
499.918	82.38
500.135	91.38
500.352	104.38
500.569	82.38
500.786	87.38
501.003	84.38
501.22	93.38
501.437	98.38
501.654	91.38
501.871	119.38
502.088	105.38
502.305	103.38
502.522	84.38
502.739	84.38
502.956	101.38
503.172	85.38
503.389	101.38
503.606	103.38
503.823	102.38
504.04	89.38
504.256	106.38
504.473	95.38
504.69	79.38
504.907	104.38
505.123	95.38
505.34	108.38
505.557	96.38
505.773	75.38
505.99	81.38
506.207	80.38
506.423	94.38
506.64	92.38
506.856	86.38
507.073	76.38
507.289	109.38
507.506	103.38
507.722	108.38
507.939	104.38
508.155	85.38
508.372	87.38
508.588	93.38
508.805	102.38
509.021	103.38
509.238	94.38
509.454	83.38
509.67	105.38
509.887	118.38
510.103	131.38
510.319	212.38
510.536	847.38
510.752	2637.38
510.968	713.38
511.184	163.38
511.401	112.38
511.617	82.38
511.833	89.38
512.049	92.38
512.265	93.38
512.481	95.38
512.698	93.38
512.914	108.38
513.13	88.38
513.346	87.38
513.562	91.38
513.778	112.38
513.994	96.38
514.21	87.38
514.426	121.38
514.642	120.38
514.858	130.38
515.074	175.38
515.29	481.38
515.506	1571.38
515.721	565.38
515.937	166.38
