Data from Uncirc_2003_H10_HRD10591_00008.txt Node
Date: Wed Jan 03 10:35:49 EST 2024
User: Yrep
Spectrometer: HR+D1059
Trigger mode: 1
Integration Time (sec): 1.000000E-1
Scans to average: 1
Electric dark correction enabled: true
Nonlinearity correction enabled: false
Boxcar width: 0
XAxis mode: Wavelengths
Number of Pixels in Spectrum: 2048
>>>>>Begin Spectral Data<<<<<
223.165	-19.38
223.4	-19.38
223.635	-19.38
223.869	-27.38
224.104	-22.38
224.338	-14.38
224.573	-29.38
224.808	-18.38
225.042	-6.38
225.277	-16.38
225.511	0.62
225.746	15.62
225.98	15.62
226.215	9.62
226.449	12.62
226.683	25.62
226.918	30.62
227.152	43.62
227.387	45.62
227.621	37.62
227.856	49.62
228.09	51.62
228.324	49.62
228.559	57.62
228.793	57.62
229.027	79.62
229.262	74.62
229.496	77.62
229.73	83.62
229.964	66.62
230.199	76.62
230.433	80.62
230.667	78.62
230.901	80.62
231.136	83.62
231.37	74.62
231.604	80.62
231.838	70.62
232.072	72.62
232.306	81.62
232.541	80.62
232.775	81.62
233.009	72.62
233.243	85.62
233.477	69.62
233.711	73.62
233.945	84.62
234.179	66.62
234.413	90.62
234.647	89.62
234.881	66.62
235.115	80.62
235.349	85.62
235.583	70.62
235.817	84.62
236.051	84.62
236.285	75.62
236.519	71.62
236.753	80.62
236.987	65.62
237.221	86.62
237.455	84.62
237.689	84.62
237.922	67.62
238.156	89.62
238.39	53.62
238.624	65.62
238.858	90.62
239.091	88.62
239.325	71.62
239.559	90.62
239.793	86.62
240.027	87.62
240.26	71.62
240.494	88.62
240.728	84.62
240.961	81.62
241.195	78.62
241.429	77.62
241.662	68.62
241.896	72.62
242.13	71.62
242.363	78.62
242.597	81.62
242.83	69.62
243.064	74.62
243.298	80.62
243.531	81.62
243.765	79.62
243.998	76.62
244.232	78.62
244.465	85.62
244.699	82.62
244.932	78.62
245.166	64.62
245.399	63.62
245.633	77.62
245.866	80.62
246.099	77.62
246.333	72.62
246.566	72.62
246.8	80.62
247.033	79.62
247.266	99.62
247.5	77.62
247.733	87.62
247.966	97.62
248.2	80.62
248.433	66.62
248.666	87.62
248.899	81.62
249.133	87.62
249.366	95.62
249.599	89.62
249.832	82.62
250.066	92.62
250.299	77.62
250.532	79.62
250.765	90.62
250.998	71.62
251.231	91.62
251.465	79.62
251.698	84.62
251.931	76.62
252.164	85.62
252.397	85.62
252.63	81.62
252.863	79.62
253.096	85.62
253.329	86.62
253.562	82.62
253.795	84.62
254.028	76.62
254.261	80.62
254.494	79.62
254.727	84.62
254.96	76.62
255.193	90.62
255.426	86.62
255.659	80.62
255.892	80.62
256.124	66.62
256.357	80.62
256.59	82.62
256.823	81.62
257.056	79.62
257.289	73.62
257.521	87.62
257.754	80.62
257.987	76.62
258.22	90.62
258.452	88.62
258.685	94.62
258.918	74.62
259.151	74.62
259.383	78.62
259.616	78.62
259.849	85.62
260.081	89.62
260.314	87.62
260.547	79.62
260.779	86.62
261.012	79.62
261.244	66.62
261.477	78.62
261.71	99.62
261.942	100.62
262.175	111.62
262.407	83.62
262.64	83.62
262.872	76.62
263.105	81.62
263.337	85.62
263.57	81.62
263.802	90.62
264.035	85.62
264.267	75.62
264.499	78.62
264.732	76.62
264.964	79.62
265.197	87.62
265.429	71.62
265.661	90.62
265.894	87.62
266.126	89.62
266.358	73.62
266.591	86.62
266.823	82.62
267.055	82.62
267.287	92.62
267.52	82.62
267.752	76.62
267.984	90.62
268.216	83.62
268.448	97.62
268.681	93.62
268.913	79.62
269.145	81.62
269.377	80.62
269.609	95.62
269.841	83.62
270.073	85.62
270.306	93.62
270.538	82.62
270.77	93.62
271.002	97.62
271.234	69.62
271.466	92.62
271.698	82.62
271.93	81.62
272.162	69.62
272.394	83.62
272.626	86.62
272.858	69.62
273.09	92.62
273.322	95.62
273.553	79.62
273.785	88.62
274.017	72.62
274.249	80.62
274.481	82.62
274.713	67.62
274.945	81.62
275.176	75.62
275.408	73.62
275.64	81.62
275.872	88.62
276.104	89.62
276.335	78.62
276.567	100.62
276.799	90.62
277.031	89.62
277.262	85.62
277.494	88.62
277.726	88.62
277.957	84.62
278.189	89.62
278.421	90.62
278.652	88.62
278.884	70.62
279.115	95.62
279.347	92.62
279.579	90.62
279.81	86.62
280.042	77.62
280.273	84.62
280.505	76.62
280.736	95.62
280.968	89.62
281.199	76.62
281.431	82.62
281.662	81.62
281.894	97.62
282.125	93.62
282.356	114.62
282.588	133.62
282.819	98.62
283.051	96.62
283.282	77.62
283.513	95.62
283.745	91.62
283.976	88.62
284.207	90.62
284.439	81.62
284.67	88.62
284.901	84.62
285.132	97.62
285.364	102.62
285.595	86.62
285.826	99.62
286.057	73.62
286.288	78.62
286.52	91.62
286.751	82.62
286.982	90.62
287.213	83.62
287.444	71.62
287.675	94.62
287.906	92.62
288.138	78.62
288.369	94.62
288.6	88.62
288.831	84.62
289.062	91.62
289.293	90.62
289.524	79.62
289.755	88.62
289.986	98.62
290.217	85.62
290.448	82.62
290.679	90.62
290.91	78.62
291.141	101.62
291.371	91.62
291.602	88.62
291.833	94.62
292.064	90.62
292.295	84.62
292.526	85.62
292.757	82.62
292.987	86.62
293.218	77.62
293.449	83.62
293.68	93.62
293.91	81.62
294.141	90.62
294.372	90.62
294.603	91.62
294.833	85.62
295.064	101.62
295.295	87.62
295.525	97.62
295.756	97.62
295.987	102.62
296.217	142.62
296.448	119.62
296.679	92.62
296.909	89.62
297.14	94.62
297.37	104.62
297.601	106.62
297.831	98.62
298.062	86.62
298.292	82.62
298.523	96.62
298.753	87.62
298.984	98.62
299.214	101.62
299.445	96.62
299.675	97.62
299.905	97.62
300.136	88.62
300.366	85.62
300.597	72.62
300.827	95.62
301.057	104.62
301.288	102.62
301.518	94.62
301.748	99.62
301.979	102.62
302.209	81.62
302.439	80.62
302.669	89.62
302.9	89.62
303.13	85.62
303.36	90.62
303.59	95.62
303.82	105.62
304.051	89.62
304.281	89.62
304.511	93.62
304.741	91.62
304.971	89.62
305.201	94.62
305.431	89.62
305.661	93.62
305.891	75.62
306.121	93.62
306.352	102.62
306.582	100.62
306.812	104.62
307.042	83.62
307.272	87.62
307.502	93.62
307.731	90.62
307.961	77.62
308.191	100.62
308.421	105.62
308.651	79.62
308.881	100.62
309.111	84.62
309.341	90.62
309.571	103.62
309.8	100.62
310.03	96.62
310.26	90.62
310.49	100.62
310.72	90.62
310.949	85.62
311.179	95.62
311.409	98.62
311.639	109.62
311.868	99.62
312.098	84.62
312.328	77.62
312.557	98.62
312.787	99.62
313.017	104.62
313.246	81.62
313.476	82.62
313.706	98.62
313.935	102.62
314.165	93.62
314.394	102.62
314.624	94.62
314.853	101.62
315.083	85.62
315.312	94.62
315.542	93.62
315.771	103.62
316.001	98.62
316.23	89.62
316.46	83.62
316.689	82.62
316.919	99.62
317.148	87.62
317.377	114.62
317.607	105.62
317.836	84.62
318.065	101.62
318.295	83.62
318.524	94.62
318.753	85.62
318.983	96.62
319.212	107.62
319.441	98.62
319.67	94.62
319.9	90.62
320.129	104.62
320.358	92.62
320.587	84.62
320.816	92.62
321.046	92.62
321.275	104.62
321.504	97.62
321.733	99.62
321.962	98.62
322.191	98.62
322.42	97.62
322.649	100.62
322.878	117.62
323.108	119.62
323.337	116.62
323.566	131.62
323.795	152.62
324.024	196.62
324.253	414.62
324.482	852.62
324.71	1762.62
324.939	2327.62
325.168	819.62
325.397	257.62
325.626	144.62
325.855	124.62
326.084	119.62
326.313	144.62
326.542	150.62
326.77	231.62
326.999	488.62
327.228	997.62
327.457	1798.62
327.686	1388.62
327.914	373.62
328.143	182.62
328.372	140.62
328.6	115.62
328.829	120.62
329.058	115.62
329.287	111.62
329.515	100.62
329.744	109.62
329.972	101.62
330.201	84.62
330.43	100.62
330.658	119.62
330.887	118.62
331.115	105.62
331.344	94.62
331.572	97.62
331.801	94.62
332.03	102.62
332.258	92.62
332.486	97.62
332.715	95.62
332.943	103.62
333.172	88.62
333.4	91.62
333.629	102.62
333.857	112.62
334.085	102.62
334.314	87.62
334.542	85.62
334.771	73.62
334.999	91.62
335.227	94.62
335.455	88.62
335.684	106.62
335.912	95.62
336.14	95.62
336.369	88.62
336.597	96.62
336.825	98.62
337.053	86.62
337.281	98.62
337.51	95.62
337.738	99.62
337.966	79.62
338.194	97.62
338.422	106.62
338.65	95.62
338.878	93.62
339.106	86.62
339.334	109.62
339.562	83.62
339.79	90.62
340.018	73.62
340.246	86.62
340.474	106.62
340.702	70.62
340.93	89.62
341.158	95.62
341.386	87.62
341.614	94.62
341.842	104.62
342.07	96.62
342.298	94.62
342.526	92.62
342.754	86.62
342.981	68.62
343.209	89.62
343.437	89.62
343.665	92.62
343.893	75.62
344.12	85.62
344.348	84.62
344.576	90.62
344.804	82.62
345.031	97.62
345.259	85.62
345.487	101.62
345.714	90.62
345.942	90.62
346.17	97.62
346.397	102.62
346.625	94.62
346.853	104.62
347.08	84.62
347.308	94.62
347.535	103.62
347.763	104.62
347.99	97.62
348.218	98.62
348.445	88.62
348.673	87.62
348.9	89.62
349.128	101.62
349.355	94.62
349.583	99.62
349.81	110.62
350.037	87.62
350.265	90.62
350.492	86.62
350.72	95.62
350.947	106.62
351.174	112.62
351.402	109.62
351.629	108.62
351.856	101.62
352.083	85.62
352.311	108.62
352.538	107.62
352.765	98.62
352.992	116.62
353.22	109.62
353.447	111.62
353.674	96.62
353.901	89.62
354.128	99.62
354.355	94.62
354.583	106.62
354.81	98.62
355.037	108.62
355.264	100.62
355.491	94.62
355.718	97.62
355.945	101.62
356.172	99.62
356.399	94.62
356.626	97.62
356.853	90.62
357.08	101.62
357.307	101.62
357.534	85.62
357.761	90.62
357.988	90.62
358.215	88.62
358.441	88.62
358.668	79.62
358.895	83.62
359.122	89.62
359.349	92.62
359.576	86.62
359.802	80.62
360.029	98.62
360.256	96.62
360.483	97.62
360.709	94.62
360.936	93.62
361.163	89.62
361.39	85.62
361.616	101.62
361.843	101.62
362.07	85.62
362.296	101.62
362.523	92.62
362.749	84.62
362.976	95.62
363.203	72.62
363.429	82.62
363.656	92.62
363.882	91.62
364.109	86.62
364.335	88.62
364.562	93.62
364.788	70.62
365.015	86.62
365.241	102.62
365.468	113.62
365.694	110.62
365.92	86.62
366.147	84.62
366.373	93.62
366.599	78.62
366.826	78.62
367.052	81.62
367.278	86.62
367.505	85.62
367.731	79.62
367.957	89.62
368.184	92.62
368.41	84.62
368.636	108.62
368.862	111.62
369.089	100.62
369.315	77.62
369.541	106.62
369.767	93.62
369.993	80.62
370.219	85.62
370.445	78.62
370.672	73.62
370.898	78.62
371.124	80.62
371.35	100.62
371.576	78.62
371.802	95.62
372.028	83.62
372.254	85.62
372.48	93.62
372.706	101.62
372.932	83.62
373.158	87.62
373.384	89.62
373.61	90.62
373.835	97.62
374.061	86.62
374.287	88.62
374.513	84.62
374.739	88.62
374.965	90.62
375.191	84.62
375.416	90.62
375.642	87.62
375.868	87.62
376.094	88.62
376.319	88.62
376.545	93.62
376.771	96.62
376.997	96.62
377.222	98.62
377.448	89.62
377.674	82.62
377.899	90.62
378.125	92.62
378.35	97.62
378.576	98.62
378.802	98.62
379.027	101.62
379.253	94.62
379.478	96.62
379.704	94.62
379.929	84.62
380.155	92.62
380.38	80.62
380.606	90.62
380.831	102.62
381.057	103.62
381.282	89.62
381.507	99.62
381.733	95.62
381.958	88.62
382.184	94.62
382.409	97.62
382.634	103.62
382.86	97.62
383.085	101.62
383.31	105.62
383.535	121.62
383.761	102.62
383.986	100.62
384.211	96.62
384.436	77.62
384.662	83.62
384.887	106.62
385.112	110.62
385.337	97.62
385.562	96.62
385.787	101.62
386.013	103.62
386.238	100.62
386.463	122.62
386.688	114.62
386.913	105.62
387.138	93.62
387.363	96.62
387.588	104.62
387.813	108.62
388.038	93.62
388.263	117.62
388.488	115.62
388.713	99.62
388.938	102.62
389.163	94.62
389.387	94.62
389.612	88.62
389.837	96.62
390.062	97.62
390.287	99.62
390.512	86.62
390.736	110.62
390.961	94.62
391.186	90.62
391.411	84.62
391.636	82.62
391.86	82.62
392.085	77.62
392.31	85.62
392.534	87.62
392.759	92.62
392.984	89.62
393.208	81.62
393.433	81.62
393.658	82.62
393.882	79.62
394.107	83.62
394.331	92.62
394.556	93.62
394.78	86.62
395.005	77.62
395.229	95.62
395.454	89.62
395.678	87.62
395.903	81.62
396.127	78.62
396.352	84.62
396.576	97.62
396.801	80.62
397.025	74.62
397.249	95.62
397.474	85.62
397.698	87.62
397.922	87.62
398.147	87.62
398.371	83.62
398.595	89.62
398.82	93.62
399.044	85.62
399.268	76.62
399.492	77.62
399.717	88.62
399.941	92.62
400.165	105.62
400.389	102.62
400.613	89.62
400.837	95.62
401.062	91.62
401.286	85.62
401.51	85.62
401.734	92.62
401.958	105.62
402.182	124.62
402.406	160.62
402.63	103.62
402.854	80.62
403.078	85.62
403.302	86.62
403.526	82.62
403.75	81.62
403.974	92.62
404.198	92.62
404.422	87.62
404.645	92.62
404.869	84.62
405.093	97.62
405.317	87.62
405.541	96.62
405.765	81.62
405.988	102.62
406.212	163.62
406.436	222.62
406.66	130.62
406.883	95.62
407.107	100.62
407.331	94.62
407.555	87.62
407.778	90.62
408.002	94.62
408.226	92.62
408.449	96.62
408.673	92.62
408.896	84.62
409.12	94.62
409.344	96.62
409.567	78.62
409.791	86.62
410.014	101.62
410.238	93.62
410.461	84.62
410.685	96.62
410.908	105.62
411.132	93.62
411.355	93.62
411.578	93.62
411.802	78.62
412.025	87.62
412.249	90.62
412.472	83.62
412.695	87.62
412.919	96.62
413.142	83.62
413.365	91.62
413.589	89.62
413.812	89.62
414.035	85.62
414.258	79.62
414.482	113.62
414.705	67.62
414.928	100.62
415.151	109.62
415.374	104.62
415.597	98.62
415.821	97.62
416.044	88.62
416.267	84.62
416.49	91.62
416.713	78.62
416.936	86.62
417.159	74.62
417.382	87.62
417.605	101.62
417.828	83.62
418.051	90.62
418.274	97.62
418.497	105.62
418.72	102.62
418.943	97.62
419.166	84.62
419.389	88.62
419.611	85.62
419.834	80.62
420.057	85.62
420.28	90.62
420.503	91.62
420.726	76.62
420.948	89.62
421.171	81.62
421.394	81.62
421.617	84.62
421.839	89.62
422.062	101.62
422.285	81.62
422.507	103.62
422.73	87.62
422.953	84.62
423.175	81.62
423.398	96.62
423.621	86.62
423.843	92.62
424.066	90.62
424.288	91.62
424.511	87.62
424.733	107.62
424.956	89.62
425.178	109.62
425.401	100.62
425.623	104.62
425.846	105.62
426.068	108.62
426.291	96.62
426.513	102.62
426.735	93.62
426.958	100.62
427.18	102.62
427.402	131.62
427.625	163.62
427.847	105.62
428.069	94.62
428.292	96.62
428.514	93.62
428.736	87.62
428.958	83.62
429.181	96.62
429.403	93.62
429.625	87.62
429.847	100.62
430.069	94.62
430.292	99.62
430.514	81.62
430.736	87.62
430.958	89.62
431.18	80.62
431.402	88.62
431.624	82.62
431.846	79.62
432.068	98.62
432.29	76.62
432.512	88.62
432.734	91.62
432.956	93.62
433.178	111.62
433.4	113.62
433.622	77.62
433.844	76.62
434.066	96.62
434.287	74.62
434.509	81.62
434.731	90.62
434.953	101.62
435.175	85.62
435.397	88.62
435.618	97.62
435.84	87.62
436.062	118.62
436.284	109.62
436.505	100.62
436.727	101.62
436.949	101.62
437.17	83.62
437.392	93.62
437.614	104.62
437.835	90.62
438.057	111.62
438.278	105.62
438.5	111.62
438.721	123.62
438.943	111.62
439.165	90.62
439.386	89.62
439.608	98.62
439.829	89.62
440.05	109.62
440.272	117.62
440.493	86.62
440.715	88.62
440.936	84.62
441.158	84.62
441.379	80.62
441.6	89.62
441.822	90.62
442.043	101.62
442.264	108.62
442.486	76.62
442.707	82.62
442.928	104.62
443.149	120.62
443.371	98.62
443.592	101.62
443.813	109.62
444.034	88.62
444.255	95.62
444.476	99.62
444.698	84.62
444.919	87.62
445.14	131.62
445.361	122.62
445.582	104.62
445.803	124.62
446.024	112.62
446.245	140.62
446.466	113.62
446.687	92.62
446.908	89.62
447.129	97.62
447.35	77.62
447.571	86.62
447.792	81.62
448.013	91.62
448.234	105.62
448.455	105.62
448.675	99.62
448.896	104.62
449.117	91.62
449.338	102.62
449.559	137.62
449.779	120.62
450	82.62
450.221	86.62
450.442	100.62
450.662	98.62
450.883	106.62
451.104	104.62
451.324	94.62
451.545	81.62
451.766	82.62
451.986	80.62
452.207	80.62
452.428	97.62
452.648	90.62
452.869	110.62
453.089	100.62
453.31	106.62
453.53	84.62
453.751	94.62
453.971	101.62
454.192	105.62
454.412	99.62
454.633	92.62
454.853	90.62
455.073	92.62
455.294	76.62
455.514	94.62
455.734	87.62
455.955	84.62
456.175	90.62
456.395	88.62
456.616	89.62
456.836	82.62
457.056	88.62
457.276	84.62
457.497	83.62
457.717	93.62
457.937	88.62
458.157	72.62
458.377	91.62
458.598	94.62
458.818	139.62
459.038	140.62
459.258	98.62
459.478	87.62
459.698	102.62
459.918	100.62
460.138	84.62
460.358	79.62
460.578	97.62
460.798	85.62
461.018	92.62
461.238	85.62
461.458	102.62
461.678	82.62
461.898	92.62
462.118	108.62
462.338	76.62
462.558	87.62
462.777	74.62
462.997	93.62
463.217	92.62
463.437	88.62
463.657	93.62
463.876	89.62
464.096	81.62
464.316	89.62
464.536	94.62
464.755	92.62
464.975	83.62
465.195	150.62
465.414	142.62
465.634	92.62
465.854	84.62
466.073	86.62
466.293	80.62
466.512	95.62
466.732	86.62
466.951	94.62
467.171	93.62
467.391	100.62
467.61	85.62
467.829	77.62
468.049	92.62
468.268	86.62
468.488	84.62
468.707	80.62
468.927	73.62
469.146	87.62
469.365	95.62
469.585	91.62
469.804	104.62
470.023	93.62
470.243	88.62
470.462	82.62
470.681	95.62
470.901	97.62
471.12	82.62
471.339	90.62
471.558	82.62
471.777	80.62
471.997	64.62
472.216	90.62
472.435	88.62
472.654	95.62
472.873	90.62
473.092	84.62
473.311	98.62
473.53	98.62
473.749	93.62
473.968	102.62
474.187	92.62
474.406	85.62
474.625	100.62
474.844	92.62
475.063	76.62
475.282	82.62
475.501	72.62
475.72	80.62
475.939	85.62
476.158	93.62
476.377	65.62
476.596	97.62
476.814	84.62
477.033	87.62
477.252	106.62
477.471	98.62
477.69	99.62
477.908	89.62
478.127	93.62
478.346	98.62
478.564	96.62
478.783	88.62
479.002	92.62
479.22	80.62
479.439	98.62
479.658	97.62
479.876	82.62
480.095	86.62
480.313	100.62
480.532	96.62
480.751	103.62
480.969	101.62
481.188	89.62
481.406	103.62
481.624	90.62
481.843	93.62
482.061	97.62
482.28	85.62
482.498	86.62
482.717	93.62
482.935	86.62
483.153	97.62
483.372	100.62
483.59	74.62
483.808	89.62
484.027	82.62
484.245	76.62
484.463	100.62
484.681	89.62
484.9	93.62
485.118	87.62
485.336	80.62
485.554	103.62
485.772	90.62
485.99	88.62
486.209	102.62
486.427	96.62
486.645	111.62
486.863	104.62
487.081	101.62
487.299	96.62
487.517	108.62
487.735	107.62
487.953	96.62
488.171	80.62
488.389	89.62
488.607	106.62
488.825	89.62
489.043	92.62
489.261	99.62
489.479	77.62
489.696	109.62
489.914	92.62
490.132	100.62
490.35	87.62
490.568	87.62
490.786	81.62
491.003	89.62
491.221	89.62
491.439	95.62
491.657	81.62
491.874	93.62
492.092	92.62
492.31	87.62
492.527	91.62
492.745	94.62
492.963	86.62
493.18	88.62
493.398	101.62
493.615	103.62
493.833	100.62
494.05	94.62
494.268	88.62
494.485	90.62
494.703	83.62
494.92	83.62
495.138	96.62
495.355	94.62
495.573	86.62
495.79	91.62
496.008	87.62
496.225	96.62
496.442	91.62
496.66	108.62
496.877	88.62
497.094	96.62
497.312	99.62
497.529	115.62
497.746	93.62
497.963	86.62
498.181	92.62
498.398	85.62
498.615	100.62
498.832	96.62
499.049	108.62
499.267	91.62
499.484	106.62
499.701	105.62
499.918	81.62
500.135	98.62
500.352	90.62
500.569	95.62
500.786	94.62
501.003	90.62
501.22	98.62
501.437	94.62
501.654	99.62
501.871	103.62
502.088	101.62
502.305	80.62
502.522	99.62
502.739	88.62
502.956	95.62
503.172	89.62
503.389	99.62
503.606	92.62
503.823	88.62
504.04	96.62
504.256	94.62
504.473	77.62
504.69	88.62
504.907	85.62
505.123	82.62
505.34	99.62
505.557	83.62
505.773	99.62
505.99	85.62
506.207	97.62
506.423	86.62
506.64	95.62
506.856	83.62
507.073	89.62
507.289	95.62
507.506	105.62
507.722	113.62
507.939	96.62
508.155	86.62
508.372	77.62
508.588	106.62
508.805	90.62
509.021	99.62
509.238	105.62
509.454	94.62
509.67	103.62
509.887	104.62
510.103	121.62
510.319	206.62
510.536	741.62
510.752	2264.62
510.968	644.62
511.184	154.62
511.401	104.62
511.617	93.62
511.833	79.62
512.049	115.62
512.265	89.62
512.481	104.62
512.698	89.62
512.914	81.62
513.13	90.62
513.346	93.62
513.562	90.62
513.778	88.62
513.994	102.62
514.21	114.62
514.426	102.62
514.642	137.62
514.858	116.62
515.074	155.62
515.29	394.62
515.506	1312.62
515.721	495.62
515.937	152.62
