Data from Uncirc_2003_H10_HRD10591_00038.txt Node
Date: Wed Jan 03 10:35:55 EST 2024
User: Yrep
Spectrometer: HR+D1059
Trigger mode: 1
Integration Time (sec): 1.000000E-1
Scans to average: 1
Electric dark correction enabled: true
Nonlinearity correction enabled: false
Boxcar width: 0
XAxis mode: Wavelengths
Number of Pixels in Spectrum: 2048
>>>>>Begin Spectral Data<<<<<
223.165	-15.12
223.4	-15.12
223.635	-15.12
223.869	-22.12
224.104	-30.12
224.338	-11.12
224.573	-18.12
224.808	-6.12
225.042	-4.12
225.277	0.88
225.511	-4.12
225.746	-9.12
225.98	13.88
226.215	3.88
226.449	21.88
226.683	19.88
226.918	28.88
227.152	30.88
227.387	44.88
227.621	38.88
227.856	50.88
228.09	45.88
228.324	44.88
228.559	55.88
228.793	60.88
229.027	77.88
229.262	72.88
229.496	72.88
229.73	92.88
229.964	78.88
230.199	73.88
230.433	68.88
230.667	71.88
230.901	82.88
231.136	83.88
231.37	78.88
231.604	80.88
231.838	83.88
232.072	66.88
232.306	79.88
232.541	84.88
232.775	76.88
233.009	84.88
233.243	90.88
233.477	83.88
233.711	73.88
233.945	80.88
234.179	82.88
234.413	85.88
234.647	83.88
234.881	87.88
235.115	73.88
235.349	95.88
235.583	83.88
235.817	80.88
236.051	73.88
236.285	75.88
236.519	73.88
236.753	87.88
236.987	83.88
237.221	82.88
237.455	83.88
237.689	84.88
237.922	70.88
238.156	67.88
238.39	82.88
238.624	82.88
238.858	72.88
239.091	79.88
239.325	74.88
239.559	81.88
239.793	83.88
240.027	81.88
240.26	67.88
240.494	95.88
240.728	82.88
240.961	71.88
241.195	88.88
241.429	69.88
241.662	75.88
241.896	81.88
242.13	90.88
242.363	83.88
242.597	69.88
242.83	73.88
243.064	71.88
243.298	85.88
243.531	86.88
243.765	82.88
243.998	82.88
244.232	92.88
244.465	76.88
244.699	81.88
244.932	81.88
245.166	86.88
245.399	83.88
245.633	73.88
245.866	65.88
246.099	76.88
246.333	76.88
246.566	79.88
246.8	77.88
247.033	76.88
247.266	84.88
247.5	73.88
247.733	63.88
247.966	83.88
248.2	83.88
248.433	79.88
248.666	82.88
248.899	87.88
249.133	88.88
249.366	93.88
249.599	94.88
249.832	87.88
250.066	100.88
250.299	83.88
250.532	85.88
250.765	88.88
250.998	81.88
251.231	84.88
251.465	80.88
251.698	81.88
251.931	77.88
252.164	71.88
252.397	76.88
252.63	89.88
252.863	92.88
253.096	82.88
253.329	74.88
253.562	79.88
253.795	75.88
254.028	78.88
254.261	73.88
254.494	86.88
254.727	92.88
254.96	78.88
255.193	83.88
255.426	81.88
255.659	84.88
255.892	71.88
256.124	97.88
256.357	81.88
256.59	89.88
256.823	77.88
257.056	80.88
257.289	85.88
257.521	86.88
257.754	85.88
257.987	95.88
258.22	79.88
258.452	72.88
258.685	88.88
258.918	79.88
259.151	93.88
259.383	81.88
259.616	84.88
259.849	80.88
260.081	91.88
260.314	86.88
260.547	87.88
260.779	88.88
261.012	89.88
261.244	81.88
261.477	102.88
261.71	85.88
261.942	118.88
262.175	118.88
262.407	86.88
262.64	86.88
262.872	83.88
263.105	69.88
263.337	75.88
263.57	83.88
263.802	81.88
264.035	76.88
264.267	76.88
264.499	83.88
264.732	92.88
264.964	74.88
265.197	81.88
265.429	80.88
265.661	76.88
265.894	93.88
266.126	78.88
266.358	83.88
266.591	101.88
266.823	91.88
267.055	82.88
267.287	84.88
267.52	100.88
267.752	90.88
267.984	86.88
268.216	84.88
268.448	82.88
268.681	88.88
268.913	84.88
269.145	93.88
269.377	90.88
269.609	83.88
269.841	87.88
270.073	91.88
270.306	83.88
270.538	88.88
270.77	83.88
271.002	94.88
271.234	79.88
271.466	89.88
271.698	106.88
271.93	91.88
272.162	77.88
272.394	87.88
272.626	83.88
272.858	87.88
273.09	87.88
273.322	88.88
273.553	75.88
273.785	87.88
274.017	87.88
274.249	90.88
274.481	82.88
274.713	92.88
274.945	99.88
275.176	68.88
275.408	91.88
275.64	88.88
275.872	73.88
276.104	96.88
276.335	83.88
276.567	92.88
276.799	107.88
277.031	89.88
277.262	88.88
277.494	87.88
277.726	93.88
277.957	86.88
278.189	72.88
278.421	83.88
278.652	75.88
278.884	81.88
279.115	91.88
279.347	97.88
279.579	85.88
279.81	93.88
280.042	86.88
280.273	83.88
280.505	86.88
280.736	90.88
280.968	80.88
281.199	84.88
281.431	84.88
281.662	81.88
281.894	101.88
282.125	98.88
282.356	111.88
282.588	127.88
282.819	110.88
283.051	86.88
283.282	80.88
283.513	92.88
283.745	83.88
283.976	76.88
284.207	88.88
284.439	95.88
284.67	69.88
284.901	90.88
285.132	93.88
285.364	86.88
285.595	85.88
285.826	86.88
286.057	86.88
286.288	82.88
286.52	71.88
286.751	100.88
286.982	89.88
287.213	84.88
287.444	76.88
287.675	93.88
287.906	91.88
288.138	82.88
288.369	85.88
288.6	90.88
288.831	81.88
289.062	77.88
289.293	83.88
289.524	94.88
289.755	85.88
289.986	76.88
290.217	92.88
290.448	83.88
290.679	80.88
290.91	87.88
291.141	99.88
291.371	97.88
291.602	94.88
291.833	89.88
292.064	97.88
292.295	91.88
292.526	99.88
292.757	75.88
292.987	86.88
293.218	88.88
293.449	95.88
293.68	89.88
293.91	88.88
294.141	92.88
294.372	74.88
294.603	93.88
294.833	84.88
295.064	87.88
295.295	82.88
295.525	110.88
295.756	104.88
295.987	117.88
296.217	138.88
296.448	143.88
296.679	108.88
296.909	85.88
297.14	91.88
297.37	90.88
297.601	92.88
297.831	94.88
298.062	111.88
298.292	101.88
298.523	94.88
298.753	84.88
298.984	100.88
299.214	90.88
299.445	86.88
299.675	83.88
299.905	100.88
300.136	99.88
300.366	83.88
300.597	79.88
300.827	81.88
301.057	91.88
301.288	101.88
301.518	89.88
301.748	86.88
301.979	103.88
302.209	94.88
302.439	88.88
302.669	90.88
302.9	93.88
303.13	99.88
303.36	109.88
303.59	105.88
303.82	106.88
304.051	88.88
304.281	97.88
304.511	92.88
304.741	81.88
304.971	87.88
305.201	81.88
305.431	82.88
305.661	81.88
305.891	96.88
306.121	99.88
306.352	92.88
306.582	97.88
306.812	100.88
307.042	99.88
307.272	103.88
307.502	81.88
307.731	105.88
307.961	109.88
308.191	87.88
308.421	84.88
308.651	93.88
308.881	91.88
309.111	98.88
309.341	80.88
309.571	99.88
309.8	84.88
310.03	106.88
310.26	99.88
310.49	105.88
310.72	107.88
310.949	98.88
311.179	87.88
311.409	85.88
311.639	106.88
311.868	106.88
312.098	97.88
312.328	99.88
312.557	105.88
312.787	112.88
313.017	95.88
313.246	90.88
313.476	93.88
313.706	90.88
313.935	86.88
314.165	89.88
314.394	89.88
314.624	101.88
314.853	91.88
315.083	79.88
315.312	110.88
315.542	89.88
315.771	91.88
316.001	87.88
316.23	98.88
316.46	101.88
316.689	88.88
316.919	93.88
317.148	95.88
317.377	90.88
317.607	86.88
317.836	94.88
318.065	87.88
318.295	101.88
318.524	90.88
318.753	97.88
318.983	118.88
319.212	96.88
319.441	102.88
319.67	98.88
319.9	95.88
320.129	85.88
320.358	97.88
320.587	105.88
320.816	103.88
321.046	94.88
321.275	106.88
321.504	99.88
321.733	91.88
321.962	105.88
322.191	102.88
322.42	103.88
322.649	123.88
322.878	105.88
323.108	117.88
323.337	145.88
323.566	125.88
323.795	150.88
324.024	205.88
324.253	403.88
324.482	833.88
324.71	1695.88
324.939	2291.88
325.168	832.88
325.397	240.88
325.626	151.88
325.855	120.88
326.084	128.88
326.313	128.88
326.542	147.88
326.77	228.88
326.999	475.88
327.228	995.88
327.457	1804.88
327.686	1391.88
327.914	370.88
328.143	192.88
328.372	134.88
328.6	117.88
328.829	109.88
329.058	120.88
329.287	119.88
329.515	109.88
329.744	109.88
329.972	106.88
330.201	102.88
330.43	96.88
330.658	112.88
330.887	116.88
331.115	115.88
331.344	99.88
331.572	99.88
331.801	103.88
332.03	104.88
332.258	95.88
332.486	95.88
332.715	103.88
332.943	89.88
333.172	98.88
333.4	95.88
333.629	100.88
333.857	105.88
334.085	102.88
334.314	88.88
334.542	99.88
334.771	102.88
334.999	91.88
335.227	92.88
335.455	82.88
335.684	88.88
335.912	87.88
336.14	103.88
336.369	97.88
336.597	101.88
336.825	103.88
337.053	86.88
337.281	97.88
337.51	92.88
337.738	97.88
337.966	95.88
338.194	96.88
338.422	101.88
338.65	113.88
338.878	100.88
339.106	83.88
339.334	97.88
339.562	100.88
339.79	80.88
340.018	101.88
340.246	96.88
340.474	97.88
340.702	92.88
340.93	95.88
341.158	83.88
341.386	93.88
341.614	99.88
341.842	79.88
342.07	90.88
342.298	97.88
342.526	117.88
342.754	98.88
342.981	101.88
343.209	92.88
343.437	89.88
343.665	88.88
343.893	85.88
344.12	98.88
344.348	105.88
344.576	97.88
344.804	105.88
345.031	93.88
345.259	99.88
345.487	85.88
345.714	90.88
345.942	93.88
346.17	93.88
346.397	101.88
346.625	83.88
346.853	97.88
347.08	109.88
347.308	99.88
347.535	95.88
347.763	86.88
347.99	96.88
348.218	101.88
348.445	110.88
348.673	86.88
348.9	93.88
349.128	92.88
349.355	97.88
349.583	103.88
349.81	95.88
350.037	100.88
350.265	102.88
350.492	102.88
350.72	97.88
350.947	122.88
351.174	115.88
351.402	99.88
351.629	107.88
351.856	101.88
352.083	99.88
352.311	95.88
352.538	116.88
352.765	104.88
352.992	106.88
353.22	124.88
353.447	100.88
353.674	86.88
353.901	114.88
354.128	90.88
354.355	102.88
354.583	104.88
354.81	97.88
355.037	103.88
355.264	109.88
355.491	85.88
355.718	97.88
355.945	104.88
356.172	104.88
356.399	102.88
356.626	102.88
356.853	93.88
357.08	107.88
357.307	93.88
357.534	99.88
357.761	94.88
357.988	99.88
358.215	90.88
358.441	99.88
358.668	100.88
358.895	115.88
359.122	84.88
359.349	85.88
359.576	95.88
359.802	99.88
360.029	115.88
360.256	111.88
360.483	97.88
360.709	97.88
360.936	99.88
361.163	91.88
361.39	84.88
361.616	87.88
361.843	79.88
362.07	92.88
362.296	85.88
362.523	100.88
362.749	94.88
362.976	97.88
363.203	93.88
363.429	93.88
363.656	100.88
363.882	109.88
364.109	88.88
364.335	75.88
364.562	90.88
364.788	75.88
365.015	85.88
365.241	112.88
365.468	96.88
365.694	109.88
365.92	95.88
366.147	90.88
366.373	101.88
366.599	89.88
366.826	84.88
367.052	99.88
367.278	79.88
367.505	94.88
367.731	105.88
367.957	85.88
368.184	95.88
368.41	106.88
368.636	99.88
368.862	129.88
369.089	103.88
369.315	104.88
369.541	84.88
369.767	99.88
369.993	90.88
370.219	111.88
370.445	96.88
370.672	83.88
370.898	91.88
371.124	75.88
371.35	96.88
371.576	83.88
371.802	82.88
372.028	102.88
372.254	95.88
372.48	101.88
372.706	90.88
372.932	101.88
373.158	82.88
373.384	98.88
373.61	100.88
373.835	93.88
374.061	95.88
374.287	82.88
374.513	85.88
374.739	88.88
374.965	99.88
375.191	84.88
375.416	100.88
375.642	104.88
375.868	92.88
376.094	87.88
376.319	84.88
376.545	92.88
376.771	84.88
376.997	90.88
377.222	87.88
377.448	100.88
377.674	97.88
377.899	86.88
378.125	92.88
378.35	85.88
378.576	106.88
378.802	89.88
379.027	100.88
379.253	76.88
379.478	88.88
379.704	98.88
379.929	110.88
380.155	93.88
380.38	89.88
380.606	96.88
380.831	98.88
381.057	90.88
381.282	102.88
381.507	98.88
381.733	108.88
381.958	91.88
382.184	104.88
382.409	93.88
382.634	107.88
382.86	99.88
383.085	107.88
383.31	112.88
383.535	87.88
383.761	107.88
383.986	92.88
384.211	102.88
384.436	102.88
384.662	106.88
384.887	100.88
385.112	102.88
385.337	108.88
385.562	106.88
385.787	115.88
386.013	117.88
386.238	114.88
386.463	107.88
386.688	116.88
386.913	107.88
387.138	108.88
387.363	102.88
387.588	104.88
387.813	102.88
388.038	117.88
388.263	109.88
388.488	123.88
388.713	96.88
388.938	106.88
389.163	97.88
389.387	97.88
389.612	80.88
389.837	92.88
390.062	96.88
390.287	87.88
390.512	98.88
390.736	83.88
390.961	90.88
391.186	106.88
391.411	108.88
391.636	92.88
391.86	96.88
392.085	86.88
392.31	88.88
392.534	98.88
392.759	101.88
392.984	91.88
393.208	93.88
393.433	90.88
393.658	92.88
393.882	88.88
394.107	81.88
394.331	93.88
394.556	88.88
394.78	90.88
395.005	80.88
395.229	89.88
395.454	89.88
395.678	93.88
395.903	91.88
396.127	90.88
396.352	89.88
396.576	83.88
396.801	76.88
397.025	98.88
397.249	78.88
397.474	100.88
397.698	97.88
397.922	85.88
398.147	97.88
398.371	93.88
398.595	104.88
398.82	87.88
399.044	85.88
399.268	79.88
399.492	93.88
399.717	84.88
399.941	87.88
400.165	109.88
400.389	82.88
400.613	94.88
400.837	91.88
401.062	95.88
401.286	87.88
401.51	85.88
401.734	103.88
401.958	101.88
402.182	108.88
402.406	162.88
402.63	109.88
402.854	97.88
403.078	98.88
403.302	87.88
403.526	90.88
403.75	89.88
403.974	93.88
404.198	96.88
404.422	87.88
404.645	80.88
404.869	97.88
405.093	92.88
405.317	100.88
405.541	86.88
405.765	87.88
405.988	113.88
406.212	168.88
406.436	197.88
406.66	155.88
406.883	95.88
407.107	99.88
407.331	93.88
407.555	89.88
407.778	108.88
408.002	100.88
408.226	81.88
408.449	95.88
408.673	101.88
408.896	100.88
409.12	73.88
409.344	91.88
409.567	97.88
409.791	98.88
410.014	91.88
410.238	84.88
410.461	82.88
410.685	94.88
410.908	100.88
411.132	97.88
411.355	92.88
411.578	99.88
411.802	93.88
412.025	94.88
412.249	70.88
412.472	87.88
412.695	83.88
412.919	106.88
413.142	82.88
413.365	96.88
413.589	101.88
413.812	105.88
414.035	90.88
414.258	83.88
414.482	95.88
414.705	81.88
414.928	96.88
415.151	93.88
415.374	96.88
415.597	86.88
415.821	88.88
416.044	100.88
416.267	93.88
416.49	80.88
416.713	102.88
416.936	90.88
417.159	85.88
417.382	106.88
417.605	76.88
417.828	97.88
418.051	94.88
418.274	79.88
418.497	83.88
418.72	87.88
418.943	92.88
419.166	88.88
419.389	95.88
419.611	97.88
419.834	91.88
420.057	84.88
420.28	94.88
420.503	99.88
420.726	106.88
420.948	93.88
421.171	93.88
421.394	100.88
421.617	95.88
421.839	97.88
422.062	102.88
422.285	98.88
422.507	101.88
422.73	101.88
422.953	99.88
423.175	86.88
423.398	96.88
423.621	99.88
423.843	88.88
424.066	88.88
424.288	84.88
424.511	82.88
424.733	90.88
424.956	92.88
425.178	97.88
425.401	114.88
425.623	102.88
425.846	100.88
426.068	95.88
426.291	92.88
426.513	90.88
426.735	89.88
426.958	91.88
427.18	115.88
427.402	147.88
427.625	157.88
427.847	118.88
428.069	93.88
428.292	88.88
428.514	89.88
428.736	73.88
428.958	84.88
429.181	83.88
429.403	99.88
429.625	80.88
429.847	72.88
430.069	105.88
430.292	96.88
430.514	94.88
430.736	84.88
430.958	98.88
431.18	83.88
431.402	79.88
431.624	91.88
431.846	80.88
432.068	91.88
432.29	90.88
432.512	115.88
432.734	83.88
432.956	79.88
433.178	89.88
433.4	88.88
433.622	84.88
433.844	97.88
434.066	95.88
434.287	106.88
434.509	95.88
434.731	90.88
434.953	87.88
435.175	75.88
435.397	92.88
435.618	108.88
435.84	112.88
436.062	127.88
436.284	117.88
436.505	122.88
436.727	91.88
436.949	104.88
437.17	95.88
437.392	90.88
437.614	84.88
437.835	117.88
438.057	123.88
438.278	117.88
438.5	116.88
438.721	111.88
438.943	103.88
439.165	93.88
439.386	90.88
439.608	95.88
439.829	83.88
440.05	117.88
440.272	148.88
440.493	93.88
440.715	82.88
440.936	84.88
441.158	92.88
441.379	97.88
441.6	91.88
441.822	102.88
442.043	93.88
442.264	107.88
442.486	105.88
442.707	113.88
442.928	100.88
443.149	148.88
443.371	127.88
443.592	103.88
443.813	104.88
444.034	104.88
444.255	98.88
444.476	102.88
444.698	89.88
444.919	85.88
445.14	140.88
445.361	123.88
445.582	100.88
445.803	132.88
446.024	120.88
446.245	132.88
446.466	108.88
446.687	79.88
446.908	85.88
447.129	91.88
447.35	89.88
447.571	99.88
447.792	89.88
448.013	90.88
448.234	105.88
448.455	101.88
448.675	126.88
448.896	98.88
449.117	88.88
449.338	97.88
449.559	118.88
449.779	146.88
450	103.88
450.221	98.88
450.442	88.88
450.662	92.88
450.883	102.88
451.104	115.88
451.324	109.88
451.545	86.88
451.766	84.88
451.986	89.88
452.207	94.88
452.428	95.88
452.648	116.88
452.869	102.88
453.089	105.88
453.31	106.88
453.53	104.88
453.751	85.88
453.971	95.88
454.192	97.88
454.412	89.88
454.633	88.88
454.853	84.88
455.073	89.88
455.294	94.88
455.514	94.88
455.734	90.88
455.955	100.88
456.175	68.88
456.395	77.88
456.616	95.88
456.836	96.88
457.056	93.88
457.276	92.88
457.497	91.88
457.717	90.88
457.937	94.88
458.157	101.88
458.377	95.88
458.598	99.88
458.818	157.88
459.038	154.88
459.258	122.88
459.478	91.88
459.698	87.88
459.918	88.88
460.138	85.88
460.358	104.88
460.578	78.88
460.798	100.88
461.018	84.88
461.238	96.88
461.458	88.88
461.678	82.88
461.898	87.88
462.118	79.88
462.338	83.88
462.558	93.88
462.777	81.88
462.997	76.88
463.217	73.88
463.437	82.88
463.657	80.88
463.876	85.88
464.096	89.88
464.316	90.88
464.536	90.88
464.755	91.88
464.975	105.88
465.195	144.88
465.414	151.88
465.634	114.88
465.854	91.88
466.073	89.88
466.293	82.88
466.512	86.88
466.732	91.88
466.951	73.88
467.171	92.88
467.391	102.88
467.61	106.88
467.829	75.88
468.049	91.88
468.268	81.88
468.488	91.88
468.707	91.88
468.927	90.88
469.146	100.88
469.365	80.88
469.585	84.88
469.804	84.88
470.023	102.88
470.243	80.88
470.462	97.88
470.681	97.88
470.901	88.88
471.12	93.88
471.339	95.88
471.558	92.88
471.777	77.88
471.997	98.88
472.216	83.88
472.435	106.88
472.654	102.88
472.873	103.88
473.092	95.88
473.311	93.88
473.53	116.88
473.749	89.88
473.968	87.88
474.187	100.88
474.406	98.88
474.625	90.88
474.844	111.88
475.063	95.88
475.282	91.88
475.501	104.88
475.72	96.88
475.939	81.88
476.158	98.88
476.377	97.88
476.596	92.88
476.814	107.88
477.033	86.88
477.252	109.88
477.471	92.88
477.69	97.88
477.908	102.88
478.127	82.88
478.346	84.88
478.564	82.88
478.783	92.88
479.002	89.88
479.22	79.88
479.439	100.88
479.658	112.88
479.876	89.88
480.095	86.88
480.313	81.88
480.532	96.88
480.751	82.88
480.969	99.88
481.188	113.88
481.406	105.88
481.624	96.88
481.843	99.88
482.061	90.88
482.28	90.88
482.498	90.88
482.717	77.88
482.935	84.88
483.153	87.88
483.372	93.88
483.59	92.88
483.808	92.88
484.027	96.88
484.245	90.88
484.463	93.88
484.681	104.88
484.9	97.88
485.118	83.88
485.336	102.88
485.554	104.88
485.772	93.88
485.99	100.88
486.209	104.88
486.427	91.88
486.645	110.88
486.863	109.88
487.081	100.88
487.299	81.88
487.517	98.88
487.735	99.88
487.953	100.88
488.171	103.88
488.389	86.88
488.607	93.88
488.825	92.88
489.043	99.88
489.261	90.88
489.479	101.88
489.696	97.88
489.914	102.88
490.132	103.88
490.35	95.88
490.568	81.88
490.786	110.88
491.003	82.88
491.221	105.88
491.439	99.88
491.657	99.88
491.874	94.88
492.092	93.88
492.31	88.88
492.527	90.88
492.745	99.88
492.963	92.88
493.18	92.88
493.398	90.88
493.615	104.88
493.833	99.88
494.05	88.88
494.268	98.88
494.485	92.88
494.703	85.88
494.92	90.88
495.138	87.88
495.355	84.88
495.573	86.88
495.79	97.88
496.008	107.88
496.225	92.88
496.442	87.88
496.66	82.88
496.877	94.88
497.094	99.88
497.312	93.88
497.529	103.88
497.746	91.88
497.963	86.88
498.181	88.88
498.398	103.88
498.615	112.88
498.832	109.88
499.049	88.88
499.267	107.88
499.484	104.88
499.701	89.88
499.918	96.88
500.135	96.88
500.352	81.88
500.569	104.88
500.786	101.88
501.003	97.88
501.22	91.88
501.437	90.88
501.654	87.88
501.871	107.88
502.088	93.88
502.305	92.88
502.522	88.88
502.739	98.88
502.956	79.88
503.172	97.88
503.389	103.88
503.606	109.88
503.823	93.88
504.04	87.88
504.256	89.88
504.473	85.88
504.69	97.88
504.907	102.88
505.123	87.88
505.34	93.88
505.557	96.88
505.773	91.88
505.99	77.88
506.207	83.88
506.423	75.88
506.64	94.88
506.856	92.88
507.073	89.88
507.289	98.88
507.506	94.88
507.722	107.88
507.939	103.88
508.155	99.88
508.372	103.88
508.588	117.88
508.805	102.88
509.021	100.88
509.238	99.88
509.454	91.88
509.67	96.88
509.887	97.88
510.103	125.88
510.319	205.88
510.536	741.88
510.752	2339.88
510.968	663.88
511.184	147.88
511.401	106.88
511.617	108.88
511.833	92.88
512.049	97.88
512.265	94.88
512.481	104.88
512.698	90.88
512.914	108.88
513.13	98.88
513.346	97.88
513.562	94.88
513.778	95.88
513.994	85.88
514.21	100.88
514.426	114.88
514.642	131.88
514.858	128.88
515.074	155.88
