Data from Uncirc_2003_H10_HRD10591_00077.txt Node
Date: Wed Jan 03 10:36:03 EST 2024
User: Yrep
Spectrometer: HR+D1059
Trigger mode: 1
Integration Time (sec): 1.000000E-1
Scans to average: 1
Electric dark correction enabled: true
Nonlinearity correction enabled: false
Boxcar width: 0
XAxis mode: Wavelengths
Number of Pixels in Spectrum: 2048
>>>>>Begin Spectral Data<<<<<
223.165	-8.69
223.4	-8.69
223.635	-8.69
223.869	-32.69
224.104	-16.69
224.338	-7.69
224.573	-16.69
224.808	-8.69
225.042	-5.69
225.277	-8.69
225.511	3.31
225.746	-10.69
225.98	-10.69
226.215	13.31
226.449	22.31
226.683	27.31
226.918	34.31
227.152	26.31
227.387	36.31
227.621	51.31
227.856	40.31
228.09	48.31
228.324	72.31
228.559	68.31
228.793	62.31
229.027	70.31
229.262	78.31
229.496	71.31
229.73	74.31
229.964	85.31
230.199	71.31
230.433	90.31
230.667	72.31
230.901	73.31
231.136	71.31
231.37	87.31
231.604	87.31
231.838	94.31
232.072	82.31
232.306	84.31
232.541	62.31
232.775	83.31
233.009	73.31
233.243	76.31
233.477	94.31
233.711	90.31
233.945	88.31
234.179	86.31
234.413	79.31
234.647	81.31
234.881	82.31
235.115	83.31
235.349	78.31
235.583	83.31
235.817	87.31
236.051	86.31
236.285	79.31
236.519	90.31
236.753	73.31
236.987	74.31
237.221	91.31
237.455	83.31
237.689	86.31
237.922	86.31
238.156	75.31
238.39	78.31
238.624	82.31
238.858	65.31
239.091	74.31
239.325	65.31
239.559	80.31
239.793	89.31
240.027	80.31
240.26	82.31
240.494	73.31
240.728	75.31
240.961	73.31
241.195	80.31
241.429	87.31
241.662	67.31
241.896	82.31
242.13	77.31
242.363	88.31
242.597	72.31
242.83	84.31
243.064	80.31
243.298	79.31
243.531	89.31
243.765	81.31
243.998	80.31
244.232	94.31
244.465	93.31
244.699	83.31
244.932	84.31
245.166	64.31
245.399	71.31
245.633	93.31
245.866	75.31
246.099	71.31
246.333	62.31
246.566	73.31
246.8	60.31
247.033	91.31
247.266	66.31
247.5	68.31
247.733	72.31
247.966	83.31
248.2	92.31
248.433	88.31
248.666	79.31
248.899	84.31
249.133	82.31
249.366	89.31
249.599	75.31
249.832	91.31
250.066	73.31
250.299	72.31
250.532	83.31
250.765	78.31
250.998	74.31
251.231	87.31
251.465	76.31
251.698	76.31
251.931	87.31
252.164	86.31
252.397	76.31
252.63	73.31
252.863	79.31
253.096	86.31
253.329	73.31
253.562	79.31
253.795	85.31
254.028	78.31
254.261	81.31
254.494	93.31
254.727	78.31
254.96	88.31
255.193	89.31
255.426	72.31
255.659	82.31
255.892	90.31
256.124	67.31
256.357	81.31
256.59	98.31
256.823	91.31
257.056	76.31
257.289	80.31
257.521	84.31
257.754	70.31
257.987	87.31
258.22	98.31
258.452	85.31
258.685	94.31
258.918	97.31
259.151	86.31
259.383	89.31
259.616	67.31
259.849	80.31
260.081	94.31
260.314	75.31
260.547	90.31
260.779	86.31
261.012	89.31
261.244	85.31
261.477	90.31
261.71	86.31
261.942	107.31
262.175	123.31
262.407	97.31
262.64	84.31
262.872	85.31
263.105	86.31
263.337	73.31
263.57	86.31
263.802	73.31
264.035	87.31
264.267	78.31
264.499	90.31
264.732	89.31
264.964	71.31
265.197	97.31
265.429	80.31
265.661	77.31
265.894	85.31
266.126	86.31
266.358	80.31
266.591	88.31
266.823	87.31
267.055	83.31
267.287	82.31
267.52	80.31
267.752	91.31
267.984	87.31
268.216	73.31
268.448	93.31
268.681	90.31
268.913	94.31
269.145	101.31
269.377	87.31
269.609	80.31
269.841	88.31
270.073	83.31
270.306	100.31
270.538	77.31
270.77	84.31
271.002	87.31
271.234	77.31
271.466	91.31
271.698	88.31
271.93	85.31
272.162	83.31
272.394	80.31
272.626	92.31
272.858	87.31
273.09	85.31
273.322	94.31
273.553	73.31
273.785	91.31
274.017	86.31
274.249	86.31
274.481	89.31
274.713	88.31
274.945	90.31
275.176	92.31
275.408	89.31
275.64	76.31
275.872	78.31
276.104	98.31
276.335	99.31
276.567	105.31
276.799	106.31
277.031	97.31
277.262	91.31
277.494	79.31
277.726	92.31
277.957	91.31
278.189	91.31
278.421	83.31
278.652	87.31
278.884	97.31
279.115	87.31
279.347	96.31
279.579	96.31
279.81	96.31
280.042	87.31
280.273	87.31
280.505	91.31
280.736	98.31
280.968	83.31
281.199	83.31
281.431	92.31
281.662	87.31
281.894	86.31
282.125	89.31
282.356	111.31
282.588	132.31
282.819	104.31
283.051	79.31
283.282	89.31
283.513	91.31
283.745	94.31
283.976	89.31
284.207	86.31
284.439	89.31
284.67	97.31
284.901	92.31
285.132	80.31
285.364	94.31
285.595	85.31
285.826	93.31
286.057	89.31
286.288	100.31
286.52	89.31
286.751	88.31
286.982	88.31
287.213	90.31
287.444	101.31
287.675	91.31
287.906	74.31
288.138	83.31
288.369	80.31
288.6	91.31
288.831	83.31
289.062	89.31
289.293	88.31
289.524	94.31
289.755	86.31
289.986	87.31
290.217	93.31
290.448	91.31
290.679	96.31
290.91	74.31
291.141	89.31
291.371	79.31
291.602	94.31
291.833	88.31
292.064	80.31
292.295	89.31
292.526	103.31
292.757	94.31
292.987	89.31
293.218	100.31
293.449	94.31
293.68	92.31
293.91	94.31
294.141	87.31
294.372	103.31
294.603	83.31
294.833	87.31
295.064	72.31
295.295	90.31
295.525	91.31
295.756	95.31
295.987	128.31
296.217	139.31
296.448	116.31
296.679	80.31
296.909	95.31
297.14	90.31
297.37	90.31
297.601	92.31
297.831	86.31
298.062	100.31
298.292	90.31
298.523	84.31
298.753	89.31
298.984	89.31
299.214	101.31
299.445	92.31
299.675	91.31
299.905	87.31
300.136	83.31
300.366	94.31
300.597	95.31
300.827	85.31
301.057	99.31
301.288	96.31
301.518	84.31
301.748	77.31
301.979	96.31
302.209	106.31
302.439	89.31
302.669	97.31
302.9	75.31
303.13	92.31
303.36	92.31
303.59	102.31
303.82	94.31
304.051	92.31
304.281	93.31
304.511	88.31
304.741	87.31
304.971	103.31
305.201	86.31
305.431	81.31
305.661	93.31
305.891	91.31
306.121	88.31
306.352	106.31
306.582	103.31
306.812	81.31
307.042	88.31
307.272	86.31
307.502	97.31
307.731	82.31
307.961	95.31
308.191	83.31
308.421	95.31
308.651	95.31
308.881	90.31
309.111	90.31
309.341	104.31
309.571	98.31
309.8	97.31
310.03	100.31
310.26	95.31
310.49	87.31
310.72	96.31
310.949	108.31
311.179	102.31
311.409	105.31
311.639	108.31
311.868	89.31
312.098	100.31
312.328	94.31
312.557	94.31
312.787	112.31
313.017	95.31
313.246	102.31
313.476	98.31
313.706	87.31
313.935	99.31
314.165	83.31
314.394	102.31
314.624	104.31
314.853	91.31
315.083	79.31
315.312	88.31
315.542	90.31
315.771	83.31
316.001	91.31
316.23	87.31
316.46	81.31
316.689	98.31
316.919	105.31
317.148	90.31
317.377	90.31
317.607	80.31
317.836	95.31
318.065	90.31
318.295	90.31
318.524	91.31
318.753	94.31
318.983	91.31
319.212	100.31
319.441	97.31
319.67	109.31
319.9	92.31
320.129	96.31
320.358	93.31
320.587	88.31
320.816	100.31
321.046	97.31
321.275	102.31
321.504	72.31
321.733	98.31
321.962	92.31
322.191	97.31
322.42	108.31
322.649	104.31
322.878	111.31
323.108	112.31
323.337	109.31
323.566	128.31
323.795	154.31
324.024	217.31
324.253	410.31
324.482	894.31
324.71	1814.31
324.939	2414.31
325.168	861.31
325.397	245.31
325.626	158.31
325.855	130.31
326.084	118.31
326.313	144.31
326.542	175.31
326.77	256.31
326.999	486.31
327.228	993.31
327.457	1833.31
327.686	1427.31
327.914	391.31
328.143	196.31
328.372	128.31
328.6	130.31
328.829	126.31
329.058	120.31
329.287	133.31
329.515	115.31
329.744	128.31
329.972	105.31
330.201	102.31
330.43	106.31
330.658	127.31
330.887	134.31
331.115	111.31
331.344	92.31
331.572	87.31
331.801	119.31
332.03	99.31
332.258	116.31
332.486	99.31
332.715	88.31
332.943	86.31
333.172	98.31
333.4	94.31
333.629	88.31
333.857	102.31
334.085	89.31
334.314	110.31
334.542	107.31
334.771	116.31
334.999	107.31
335.227	92.31
335.455	97.31
335.684	95.31
335.912	101.31
336.14	93.31
336.369	86.31
336.597	101.31
336.825	101.31
337.053	100.31
337.281	88.31
337.51	78.31
337.738	92.31
337.966	90.31
338.194	100.31
338.422	105.31
338.65	97.31
338.878	85.31
339.106	98.31
339.334	99.31
339.562	102.31
339.79	90.31
340.018	99.31
340.246	91.31
340.474	104.31
340.702	82.31
340.93	95.31
341.158	100.31
341.386	90.31
341.614	93.31
341.842	92.31
342.07	87.31
342.298	89.31
342.526	86.31
342.754	82.31
342.981	107.31
343.209	96.31
343.437	102.31
343.665	97.31
343.893	97.31
344.12	97.31
344.348	95.31
344.576	98.31
344.804	75.31
345.031	89.31
345.259	101.31
345.487	86.31
345.714	87.31
345.942	95.31
346.17	97.31
346.397	98.31
346.625	98.31
346.853	83.31
347.08	110.31
347.308	91.31
347.535	94.31
347.763	90.31
347.99	106.31
348.218	89.31
348.445	97.31
348.673	88.31
348.9	88.31
349.128	93.31
349.355	82.31
349.583	96.31
349.81	106.31
350.037	94.31
350.265	85.31
350.492	88.31
350.72	90.31
350.947	101.31
351.174	114.31
351.402	113.31
351.629	111.31
351.856	102.31
352.083	102.31
352.311	97.31
352.538	112.31
352.765	106.31
352.992	104.31
353.22	106.31
353.447	96.31
353.674	100.31
353.901	97.31
354.128	95.31
354.355	103.31
354.583	111.31
354.81	110.31
355.037	98.31
355.264	85.31
355.491	86.31
355.718	92.31
355.945	96.31
356.172	88.31
356.399	100.31
356.626	89.31
356.853	99.31
357.08	94.31
357.307	84.31
357.534	93.31
357.761	96.31
357.988	97.31
358.215	90.31
358.441	99.31
358.668	88.31
358.895	81.31
359.122	88.31
359.349	86.31
359.576	90.31
359.802	97.31
360.029	106.31
360.256	116.31
360.483	95.31
360.709	81.31
360.936	95.31
361.163	91.31
361.39	79.31
361.616	92.31
361.843	95.31
362.07	102.31
362.296	94.31
362.523	100.31
362.749	94.31
362.976	80.31
363.203	92.31
363.429	98.31
363.656	98.31
363.882	91.31
364.109	98.31
364.335	82.31
364.562	98.31
364.788	99.31
365.015	91.31
365.241	101.31
365.468	106.31
365.694	107.31
365.92	88.31
366.147	86.31
366.373	98.31
366.599	84.31
366.826	86.31
367.052	78.31
367.278	91.31
367.505	91.31
367.731	99.31
367.957	94.31
368.184	92.31
368.41	99.31
368.636	126.31
368.862	132.31
369.089	109.31
369.315	98.31
369.541	103.31
369.767	93.31
369.993	90.31
370.219	88.31
370.445	83.31
370.672	82.31
370.898	95.31
371.124	90.31
371.35	99.31
371.576	96.31
371.802	79.31
372.028	76.31
372.254	101.31
372.48	76.31
372.706	79.31
372.932	88.31
373.158	79.31
373.384	87.31
373.61	94.31
373.835	91.31
374.061	94.31
374.287	107.31
374.513	102.31
374.739	79.31
374.965	90.31
375.191	91.31
375.416	91.31
375.642	74.31
375.868	93.31
376.094	88.31
376.319	98.31
376.545	90.31
376.771	98.31
376.997	91.31
377.222	92.31
377.448	95.31
377.674	90.31
377.899	98.31
378.125	80.31
378.35	91.31
378.576	91.31
378.802	81.31
379.027	83.31
379.253	95.31
379.478	83.31
379.704	90.31
379.929	98.31
380.155	88.31
380.38	98.31
380.606	90.31
380.831	98.31
381.057	97.31
381.282	98.31
381.507	100.31
381.733	105.31
381.958	104.31
382.184	96.31
382.409	94.31
382.634	95.31
382.86	92.31
383.085	109.31
383.31	107.31
383.535	108.31
383.761	92.31
383.986	115.31
384.211	95.31
384.436	103.31
384.662	112.31
384.887	103.31
385.112	106.31
385.337	112.31
385.562	103.31
385.787	101.31
386.013	114.31
386.238	118.31
386.463	94.31
386.688	116.31
386.913	92.31
387.138	92.31
387.363	108.31
387.588	98.31
387.813	107.31
388.038	97.31
388.263	107.31
388.488	116.31
388.713	102.31
388.938	101.31
389.163	106.31
389.387	101.31
389.612	94.31
389.837	91.31
390.062	86.31
390.287	90.31
390.512	102.31
390.736	88.31
390.961	96.31
391.186	94.31
391.411	103.31
391.636	97.31
391.86	82.31
392.085	91.31
392.31	85.31
392.534	81.31
392.759	84.31
392.984	76.31
393.208	86.31
393.433	83.31
393.658	91.31
393.882	95.31
394.107	82.31
394.331	80.31
394.556	88.31
394.78	94.31
395.005	83.31
395.229	87.31
395.454	91.31
395.678	99.31
395.903	100.31
396.127	104.31
396.352	86.31
396.576	82.31
396.801	84.31
397.025	89.31
397.249	87.31
397.474	90.31
397.698	83.31
397.922	95.31
398.147	83.31
398.371	83.31
398.595	82.31
398.82	83.31
399.044	90.31
399.268	88.31
399.492	87.31
399.717	86.31
399.941	95.31
400.165	99.31
400.389	105.31
400.613	101.31
400.837	88.31
401.062	113.31
401.286	99.31
401.51	94.31
401.734	91.31
401.958	105.31
402.182	132.31
402.406	146.31
402.63	116.31
402.854	102.31
403.078	109.31
403.302	87.31
403.526	87.31
403.75	94.31
403.974	103.31
404.198	87.31
404.422	91.31
404.645	80.31
404.869	93.31
405.093	100.31
405.317	94.31
405.541	89.31
405.765	99.31
405.988	118.31
406.212	163.31
406.436	227.31
406.66	147.31
406.883	110.31
407.107	89.31
407.331	100.31
407.555	86.31
407.778	87.31
408.002	86.31
408.226	92.31
408.449	92.31
408.673	95.31
408.896	82.31
409.12	98.31
409.344	85.31
409.567	97.31
409.791	90.31
410.014	92.31
410.238	92.31
410.461	84.31
410.685	103.31
410.908	103.31
411.132	109.31
411.355	108.31
411.578	95.31
411.802	74.31
412.025	92.31
412.249	89.31
412.472	87.31
412.695	86.31
412.919	95.31
413.142	96.31
413.365	93.31
413.589	73.31
413.812	99.31
414.035	81.31
414.258	79.31
414.482	75.31
414.705	96.31
414.928	95.31
415.151	104.31
415.374	100.31
415.597	86.31
415.821	82.31
416.044	86.31
416.267	91.31
416.49	76.31
416.713	84.31
416.936	92.31
417.159	97.31
417.382	86.31
417.605	85.31
417.828	89.31
418.051	87.31
418.274	94.31
418.497	78.31
418.72	82.31
418.943	89.31
419.166	88.31
419.389	92.31
419.611	99.31
419.834	102.31
420.057	110.31
420.28	84.31
420.503	81.31
420.726	83.31
420.948	85.31
421.171	90.31
421.394	82.31
421.617	106.31
421.839	88.31
422.062	90.31
422.285	83.31
422.507	118.31
422.73	89.31
422.953	104.31
423.175	89.31
423.398	89.31
423.621	85.31
423.843	90.31
424.066	76.31
424.288	87.31
424.511	90.31
424.733	98.31
424.956	99.31
425.178	101.31
425.401	91.31
425.623	86.31
425.846	94.31
426.068	89.31
426.291	85.31
426.513	89.31
426.735	97.31
426.958	94.31
427.18	105.31
427.402	129.31
427.625	146.31
427.847	130.31
428.069	105.31
428.292	95.31
428.514	93.31
428.736	89.31
428.958	89.31
429.181	95.31
429.403	93.31
429.625	82.31
429.847	91.31
430.069	110.31
430.292	96.31
430.514	83.31
430.736	86.31
430.958	91.31
431.18	90.31
431.402	94.31
431.624	83.31
431.846	98.31
432.068	81.31
432.29	78.31
432.512	84.31
432.734	88.31
432.956	85.31
433.178	84.31
433.4	98.31
433.622	105.31
433.844	94.31
434.066	107.31
434.287	94.31
434.509	81.31
434.731	100.31
434.953	84.31
435.175	86.31
435.397	81.31
435.618	93.31
435.84	106.31
436.062	124.31
436.284	120.31
436.505	114.31
436.727	103.31
436.949	90.31
437.17	88.31
437.392	80.31
437.614	97.31
437.835	98.31
438.057	115.31
438.278	102.31
438.5	91.31
438.721	119.31
438.943	99.31
439.165	71.31
439.386	95.31
439.608	106.31
439.829	99.31
440.05	116.31
440.272	144.31
440.493	98.31
440.715	93.31
440.936	94.31
441.158	94.31
441.379	86.31
441.6	90.31
441.822	100.31
442.043	102.31
442.264	105.31
442.486	115.31
442.707	101.31
442.928	100.31
443.149	122.31
443.371	120.31
443.592	118.31
443.813	105.31
444.034	114.31
444.255	96.31
444.476	87.31
444.698	84.31
444.919	78.31
445.14	153.31
445.361	123.31
445.582	116.31
445.803	136.31
446.024	135.31
446.245	130.31
446.466	91.31
446.687	86.31
446.908	88.31
447.129	104.31
447.35	96.31
447.571	96.31
447.792	92.31
448.013	82.31
448.234	103.31
448.455	104.31
448.675	102.31
448.896	101.31
449.117	121.31
449.338	106.31
449.559	137.31
449.779	129.31
450	87.31
450.221	95.31
450.442	77.31
450.662	99.31
450.883	92.31
451.104	119.31
451.324	91.31
451.545	88.31
451.766	84.31
451.986	78.31
452.207	104.31
452.428	88.31
452.648	97.31
452.869	107.31
453.089	110.31
453.31	113.31
453.53	97.31
453.751	90.31
453.971	91.31
454.192	104.31
454.412	90.31
454.633	94.31
454.853	86.31
455.073	87.31
455.294	105.31
455.514	97.31
455.734	79.31
455.955	82.31
456.175	81.31
456.395	84.31
456.616	77.31
456.836	86.31
457.056	80.31
457.276	98.31
457.497	89.31
457.717	84.31
457.937	85.31
458.157	99.31
458.377	82.31
458.598	106.31
458.818	155.31
459.038	145.31
459.258	107.31
459.478	87.31
459.698	74.31
459.918	88.31
460.138	86.31
460.358	95.31
460.578	78.31
460.798	87.31
461.018	102.31
461.238	91.31
461.458	90.31
461.678	97.31
461.898	90.31
462.118	78.31
462.338	100.31
462.558	76.31
462.777	81.31
462.997	91.31
463.217	80.31
463.437	93.31
463.657	96.31
463.876	78.31
464.096	81.31
464.316	100.31
464.536	72.31
464.755	85.31
464.975	103.31
465.195	153.31
465.414	135.31
465.634	92.31
465.854	95.31
466.073	86.31
466.293	91.31
466.512	100.31
466.732	82.31
466.951	88.31
467.171	82.31
467.391	95.31
467.61	95.31
467.829	111.31
468.049	93.31
468.268	85.31
468.488	94.31
468.707	83.31
468.927	92.31
469.146	76.31
469.365	85.31
469.585	89.31
469.804	97.31
470.023	96.31
470.243	91.31
470.462	100.31
470.681	96.31
470.901	97.31
471.12	86.31
471.339	70.31
471.558	93.31
471.777	87.31
471.997	96.31
472.216	102.31
472.435	86.31
472.654	82.31
472.873	87.31
473.092	93.31
473.311	90.31
473.53	96.31
473.749	91.31
473.968	104.31
474.187	100.31
474.406	109.31
474.625	92.31
474.844	83.31
475.063	95.31
475.282	84.31
475.501	92.31
475.72	89.31
475.939	109.31
476.158	86.31
476.377	103.31
476.596	83.31
476.814	99.31
477.033	89.31
477.252	100.31
477.471	82.31
477.69	91.31
477.908	88.31
478.127	97.31
478.346	81.31
478.564	89.31
478.783	96.31
479.002	90.31
479.22	82.31
479.439	94.31
479.658	100.31
479.876	103.31
480.095	87.31
480.313	92.31
480.532	95.31
480.751	87.31
480.969	96.31
481.188	106.31
481.406	98.31
481.624	95.31
481.843	91.31
482.061	104.31
482.28	95.31
482.498	99.31
482.717	92.31
482.935	97.31
483.153	83.31
483.372	94.31
483.59	85.31
483.808	96.31
484.027	94.31
484.245	89.31
484.463	103.31
484.681	98.31
484.9	90.31
485.118	89.31
485.336	100.31
485.554	111.31
485.772	103.31
485.99	107.31
486.209	88.31
486.427	106.31
486.645	110.31
486.863	119.31
487.081	95.31
487.299	85.31
487.517	107.31
487.735	103.31
487.953	88.31
488.171	94.31
488.389	103.31
488.607	104.31
488.825	112.31
489.043	81.31
489.261	88.31
489.479	93.31
489.696	98.31
489.914	90.31
490.132	78.31
490.35	80.31
490.568	89.31
490.786	84.31
491.003	111.31
491.221	110.31
491.439	96.31
491.657	96.31
491.874	94.31
492.092	87.31
492.31	105.31
492.527	75.31
492.745	86.31
492.963	92.31
493.18	85.31
493.398	100.31
493.615	85.31
493.833	99.31
494.05	75.31
494.268	81.31
494.485	88.31
494.703	91.31
494.92	100.31
495.138	105.31
495.355	97.31
495.573	80.31
495.79	102.31
496.008	99.31
496.225	86.31
496.442	96.31
496.66	91.31
496.877	101.31
497.094	97.31
497.312	85.31
497.529	90.31
497.746	90.31
497.963	101.31
498.181	90.31
498.398	92.31
498.615	104.31
498.832	97.31
499.049	80.31
499.267	100.31
499.484	98.31
499.701	87.31
499.918	90.31
500.135	85.31
500.352	85.31
500.569	87.31
500.786	95.31
501.003	100.31
501.22	106.31
501.437	96.31
501.654	97.31
501.871	93.31
502.088	102.31
502.305	94.31
502.522	99.31
502.739	95.31
502.956	94.31
503.172	107.31
503.389	90.31
503.606	99.31
503.823	92.31
504.04	103.31
504.256	97.31
504.473	97.31
504.69	91.31
504.907	88.31
505.123	94.31
505.34	88.31
505.557	108.31
505.773	93.31
505.99	89.31
506.207	83.31
506.423	99.31
506.64	98.31
506.856	100.31
507.073	81.31
507.289	84.31
507.506	96.31
507.722	106.31
507.939	108.31
508.155	99.31
508.372	83.31
508.588	106.31
508.805	91.31
509.021	101.31
509.238	97.31
509.454	100.31
509.67	93.31
509.887	107.31
510.103	132.31
510.319	212.31
510.536	811.31
510.752	2499.31
510.968	712.31
511.184	157.31
511.401	112.31
511.617	110.31
511.833	105.31
512.049	97.31
512.265	65.31
512.481	70.31
512.698	74.31
512.914	101.31
513.13	88.31
513.346	88.31
513.562	104.31
513.778	106.31
513.994	99.31
514.21	98.31
514.426	119.31
514.642	119.31
514.858	120.31
515.074	162.31
515.29	436.31
515.506	1455.31
