Data from Uncirc_2003_H10_HRD10591_00037.txt Node
Date: Wed Jan 03 10:35:55 EST 2024
User: Yrep
Spectrometer: HR+D1059
Trigger mode: 1
Integration Time (sec): 1.000000E-1
Scans to average: 1
Electric dark correction enabled: true
Nonlinearity correction enabled: false
Boxcar width: 0
XAxis mode: Wavelengths
Number of Pixels in Spectrum: 2048
>>>>>Begin Spectral Data<<<<<
223.165	-16.25
223.4	-16.25
223.635	-16.25
223.869	-16.25
224.104	-20.25
224.338	-14.25
224.573	-1.25
224.808	-14.25
225.042	-2.25
225.277	-4.25
225.511	9.75
225.746	4.75
225.98	-7.25
226.215	2.75
226.449	10.75
226.683	17.75
226.918	22.75
227.152	27.75
227.387	37.75
227.621	37.75
227.856	38.75
228.09	41.75
228.324	48.75
228.559	69.75
228.793	53.75
229.027	70.75
229.262	62.75
229.496	63.75
229.73	70.75
229.964	69.75
230.199	75.75
230.433	87.75
230.667	80.75
230.901	75.75
231.136	83.75
231.37	87.75
231.604	80.75
231.838	82.75
232.072	89.75
232.306	87.75
232.541	94.75
232.775	78.75
233.009	83.75
233.243	81.75
233.477	86.75
233.711	84.75
233.945	72.75
234.179	73.75
234.413	80.75
234.647	78.75
234.881	85.75
235.115	73.75
235.349	81.75
235.583	80.75
235.817	83.75
236.051	74.75
236.285	56.75
236.519	78.75
236.753	83.75
236.987	82.75
237.221	84.75
237.455	78.75
237.689	79.75
237.922	77.75
238.156	73.75
238.39	87.75
238.624	84.75
238.858	85.75
239.091	78.75
239.325	85.75
239.559	77.75
239.793	74.75
240.027	76.75
240.26	85.75
240.494	80.75
240.728	73.75
240.961	82.75
241.195	69.75
241.429	68.75
241.662	68.75
241.896	89.75
242.13	70.75
242.363	84.75
242.597	79.75
242.83	77.75
243.064	71.75
243.298	78.75
243.531	102.75
243.765	87.75
243.998	78.75
244.232	64.75
244.465	80.75
244.699	78.75
244.932	74.75
245.166	58.75
245.399	76.75
245.633	85.75
245.866	65.75
246.099	87.75
246.333	92.75
246.566	91.75
246.8	73.75
247.033	75.75
247.266	70.75
247.5	84.75
247.733	85.75
247.966	74.75
248.2	81.75
248.433	79.75
248.666	53.75
248.899	78.75
249.133	74.75
249.366	97.75
249.599	82.75
249.832	78.75
250.066	86.75
250.299	82.75
250.532	89.75
250.765	89.75
250.998	87.75
251.231	75.75
251.465	87.75
251.698	65.75
251.931	65.75
252.164	63.75
252.397	84.75
252.63	87.75
252.863	82.75
253.096	84.75
253.329	87.75
253.562	89.75
253.795	75.75
254.028	64.75
254.261	67.75
254.494	83.75
254.727	82.75
254.96	80.75
255.193	84.75
255.426	85.75
255.659	68.75
255.892	81.75
256.124	72.75
256.357	72.75
256.59	80.75
256.823	68.75
257.056	69.75
257.289	81.75
257.521	70.75
257.754	78.75
257.987	81.75
258.22	83.75
258.452	81.75
258.685	85.75
258.918	101.75
259.151	77.75
259.383	80.75
259.616	66.75
259.849	63.75
260.081	83.75
260.314	89.75
260.547	81.75
260.779	82.75
261.012	77.75
261.244	80.75
261.477	89.75
261.71	79.75
261.942	98.75
262.175	99.75
262.407	88.75
262.64	95.75
262.872	75.75
263.105	72.75
263.337	71.75
263.57	81.75
263.802	84.75
264.035	79.75
264.267	89.75
264.499	83.75
264.732	71.75
264.964	78.75
265.197	77.75
265.429	82.75
265.661	77.75
265.894	83.75
266.126	85.75
266.358	87.75
266.591	78.75
266.823	84.75
267.055	92.75
267.287	75.75
267.52	81.75
267.752	78.75
267.984	95.75
268.216	97.75
268.448	84.75
268.681	85.75
268.913	92.75
269.145	67.75
269.377	81.75
269.609	69.75
269.841	79.75
270.073	91.75
270.306	85.75
270.538	72.75
270.77	90.75
271.002	83.75
271.234	89.75
271.466	85.75
271.698	76.75
271.93	82.75
272.162	86.75
272.394	72.75
272.626	81.75
272.858	91.75
273.09	87.75
273.322	93.75
273.553	77.75
273.785	85.75
274.017	95.75
274.249	89.75
274.481	92.75
274.713	81.75
274.945	73.75
275.176	76.75
275.408	69.75
275.64	77.75
275.872	78.75
276.104	87.75
276.335	83.75
276.567	96.75
276.799	104.75
277.031	81.75
277.262	72.75
277.494	88.75
277.726	82.75
277.957	95.75
278.189	79.75
278.421	83.75
278.652	95.75
278.884	89.75
279.115	87.75
279.347	83.75
279.579	83.75
279.81	84.75
280.042	70.75
280.273	96.75
280.505	107.75
280.736	91.75
280.968	86.75
281.199	82.75
281.431	83.75
281.662	78.75
281.894	70.75
282.125	98.75
282.356	111.75
282.588	119.75
282.819	99.75
283.051	92.75
283.282	83.75
283.513	86.75
283.745	105.75
283.976	89.75
284.207	88.75
284.439	91.75
284.67	87.75
284.901	88.75
285.132	84.75
285.364	68.75
285.595	89.75
285.826	84.75
286.057	86.75
286.288	81.75
286.52	84.75
286.751	82.75
286.982	82.75
287.213	72.75
287.444	91.75
287.675	72.75
287.906	90.75
288.138	86.75
288.369	84.75
288.6	77.75
288.831	82.75
289.062	90.75
289.293	89.75
289.524	81.75
289.755	88.75
289.986	91.75
290.217	95.75
290.448	85.75
290.679	97.75
290.91	92.75
291.141	89.75
291.371	85.75
291.602	78.75
291.833	95.75
292.064	79.75
292.295	96.75
292.526	79.75
292.757	79.75
292.987	88.75
293.218	74.75
293.449	72.75
293.68	104.75
293.91	82.75
294.141	90.75
294.372	90.75
294.603	105.75
294.833	89.75
295.064	81.75
295.295	98.75
295.525	74.75
295.756	95.75
295.987	113.75
296.217	132.75
296.448	122.75
296.679	89.75
296.909	91.75
297.14	86.75
297.37	82.75
297.601	95.75
297.831	99.75
298.062	90.75
298.292	88.75
298.523	105.75
298.753	96.75
298.984	84.75
299.214	88.75
299.445	85.75
299.675	78.75
299.905	97.75
300.136	71.75
300.366	80.75
300.597	82.75
300.827	95.75
301.057	95.75
301.288	91.75
301.518	103.75
301.748	84.75
301.979	95.75
302.209	65.75
302.439	99.75
302.669	95.75
302.9	92.75
303.13	94.75
303.36	86.75
303.59	94.75
303.82	101.75
304.051	88.75
304.281	93.75
304.511	90.75
304.741	97.75
304.971	86.75
305.201	84.75
305.431	100.75
305.661	81.75
305.891	86.75
306.121	95.75
306.352	112.75
306.582	103.75
306.812	87.75
307.042	97.75
307.272	83.75
307.502	92.75
307.731	88.75
307.961	83.75
308.191	86.75
308.421	99.75
308.651	88.75
308.881	101.75
309.111	97.75
309.341	67.75
309.571	98.75
309.8	75.75
310.03	88.75
310.26	86.75
310.49	95.75
310.72	86.75
310.949	100.75
311.179	104.75
311.409	96.75
311.639	101.75
311.868	107.75
312.098	113.75
312.328	105.75
312.557	102.75
312.787	97.75
313.017	84.75
313.246	91.75
313.476	89.75
313.706	81.75
313.935	83.75
314.165	71.75
314.394	106.75
314.624	97.75
314.853	94.75
315.083	90.75
315.312	89.75
315.542	80.75
315.771	86.75
316.001	83.75
316.23	86.75
316.46	96.75
316.689	87.75
316.919	90.75
317.148	109.75
317.377	99.75
317.607	86.75
317.836	88.75
318.065	103.75
318.295	94.75
318.524	91.75
318.753	95.75
318.983	90.75
319.212	109.75
319.441	114.75
319.67	97.75
319.9	88.75
320.129	97.75
320.358	94.75
320.587	86.75
320.816	106.75
321.046	103.75
321.275	93.75
321.504	86.75
321.733	104.75
321.962	94.75
322.191	119.75
322.42	102.75
322.649	104.75
322.878	106.75
323.108	103.75
323.337	125.75
323.566	127.75
323.795	144.75
324.024	201.75
324.253	400.75
324.482	848.75
324.71	1740.75
324.939	2296.75
325.168	807.75
325.397	243.75
325.626	143.75
325.855	133.75
326.084	117.75
326.313	140.75
326.542	140.75
326.77	216.75
326.999	473.75
327.228	983.75
327.457	1754.75
327.686	1399.75
327.914	367.75
328.143	197.75
328.372	159.75
328.6	115.75
328.829	102.75
329.058	107.75
329.287	142.75
329.515	132.75
329.744	105.75
329.972	112.75
330.201	89.75
330.43	113.75
330.658	113.75
330.887	126.75
331.115	129.75
331.344	106.75
331.572	92.75
331.801	101.75
332.03	97.75
332.258	85.75
332.486	113.75
332.715	95.75
332.943	98.75
333.172	77.75
333.4	102.75
333.629	102.75
333.857	122.75
334.085	104.75
334.314	94.75
334.542	95.75
334.771	101.75
334.999	110.75
335.227	103.75
335.455	91.75
335.684	94.75
335.912	94.75
336.14	106.75
336.369	109.75
336.597	98.75
336.825	102.75
337.053	107.75
337.281	101.75
337.51	94.75
337.738	86.75
337.966	106.75
338.194	102.75
338.422	83.75
338.65	85.75
338.878	106.75
339.106	89.75
339.334	97.75
339.562	85.75
339.79	90.75
340.018	88.75
340.246	93.75
340.474	91.75
340.702	82.75
340.93	86.75
341.158	96.75
341.386	105.75
341.614	84.75
341.842	106.75
342.07	88.75
342.298	91.75
342.526	93.75
342.754	91.75
342.981	80.75
343.209	91.75
343.437	92.75
343.665	83.75
343.893	93.75
344.12	90.75
344.348	88.75
344.576	88.75
344.804	91.75
345.031	101.75
345.259	116.75
345.487	86.75
345.714	95.75
345.942	104.75
346.17	108.75
346.397	97.75
346.625	85.75
346.853	94.75
347.08	93.75
347.308	87.75
347.535	102.75
347.763	107.75
347.99	100.75
348.218	105.75
348.445	93.75
348.673	101.75
348.9	97.75
349.128	90.75
349.355	98.75
349.583	95.75
349.81	75.75
350.037	93.75
350.265	87.75
350.492	108.75
350.72	104.75
350.947	90.75
351.174	106.75
351.402	117.75
351.629	104.75
351.856	105.75
352.083	110.75
352.311	99.75
352.538	106.75
352.765	101.75
352.992	110.75
353.22	109.75
353.447	104.75
353.674	99.75
353.901	93.75
354.128	102.75
354.355	91.75
354.583	108.75
354.81	98.75
355.037	105.75
355.264	97.75
355.491	99.75
355.718	105.75
355.945	98.75
356.172	88.75
356.399	86.75
356.626	96.75
356.853	88.75
357.08	95.75
357.307	90.75
357.534	96.75
357.761	93.75
357.988	109.75
358.215	97.75
358.441	100.75
358.668	99.75
358.895	102.75
359.122	89.75
359.349	77.75
359.576	94.75
359.802	97.75
360.029	102.75
360.256	104.75
360.483	97.75
360.709	95.75
360.936	84.75
361.163	92.75
361.39	103.75
361.616	86.75
361.843	98.75
362.07	101.75
362.296	94.75
362.523	81.75
362.749	85.75
362.976	87.75
363.203	91.75
363.429	83.75
363.656	96.75
363.882	99.75
364.109	104.75
364.335	91.75
364.562	90.75
364.788	105.75
365.015	89.75
365.241	88.75
365.468	118.75
365.694	95.75
365.92	94.75
366.147	92.75
366.373	73.75
366.599	79.75
366.826	105.75
367.052	99.75
367.278	92.75
367.505	98.75
367.731	97.75
367.957	83.75
368.184	85.75
368.41	104.75
368.636	110.75
368.862	99.75
369.089	106.75
369.315	82.75
369.541	102.75
369.767	91.75
369.993	85.75
370.219	92.75
370.445	79.75
370.672	84.75
370.898	90.75
371.124	84.75
371.35	88.75
371.576	102.75
371.802	99.75
372.028	102.75
372.254	93.75
372.48	80.75
372.706	92.75
372.932	81.75
373.158	91.75
373.384	91.75
373.61	79.75
373.835	104.75
374.061	84.75
374.287	88.75
374.513	87.75
374.739	94.75
374.965	93.75
375.191	85.75
375.416	86.75
375.642	91.75
375.868	99.75
376.094	100.75
376.319	99.75
376.545	87.75
376.771	92.75
376.997	81.75
377.222	92.75
377.448	88.75
377.674	91.75
377.899	97.75
378.125	103.75
378.35	100.75
378.576	83.75
378.802	70.75
379.027	98.75
379.253	95.75
379.478	78.75
379.704	102.75
379.929	93.75
380.155	92.75
380.38	71.75
380.606	102.75
380.831	97.75
381.057	100.75
381.282	106.75
381.507	103.75
381.733	100.75
381.958	93.75
382.184	86.75
382.409	87.75
382.634	106.75
382.86	97.75
383.085	101.75
383.31	96.75
383.535	110.75
383.761	102.75
383.986	95.75
384.211	95.75
384.436	96.75
384.662	101.75
384.887	97.75
385.112	113.75
385.337	110.75
385.562	114.75
385.787	108.75
386.013	103.75
386.238	104.75
386.463	95.75
386.688	118.75
386.913	97.75
387.138	104.75
387.363	98.75
387.588	96.75
387.813	102.75
388.038	88.75
388.263	112.75
388.488	105.75
388.713	109.75
388.938	99.75
389.163	103.75
389.387	106.75
389.612	91.75
389.837	97.75
390.062	98.75
390.287	85.75
390.512	80.75
390.736	88.75
390.961	93.75
391.186	99.75
391.411	96.75
391.636	100.75
391.86	85.75
392.085	85.75
392.31	68.75
392.534	83.75
392.759	88.75
392.984	87.75
393.208	97.75
393.433	87.75
393.658	91.75
393.882	89.75
394.107	91.75
394.331	88.75
394.556	90.75
394.78	97.75
395.005	87.75
395.229	91.75
395.454	85.75
395.678	90.75
395.903	84.75
396.127	82.75
396.352	88.75
396.576	83.75
396.801	84.75
397.025	98.75
397.249	100.75
397.474	93.75
397.698	91.75
397.922	83.75
398.147	74.75
398.371	94.75
398.595	91.75
398.82	85.75
399.044	91.75
399.268	90.75
399.492	91.75
399.717	75.75
399.941	72.75
400.165	89.75
400.389	86.75
400.613	97.75
400.837	99.75
401.062	80.75
401.286	83.75
401.51	89.75
401.734	95.75
401.958	107.75
402.182	102.75
402.406	133.75
402.63	111.75
402.854	89.75
403.078	84.75
403.302	80.75
403.526	88.75
403.75	72.75
403.974	94.75
404.198	96.75
404.422	90.75
404.645	93.75
404.869	91.75
405.093	97.75
405.317	87.75
405.541	94.75
405.765	96.75
405.988	117.75
406.212	166.75
406.436	219.75
406.66	133.75
406.883	105.75
407.107	78.75
407.331	103.75
407.555	94.75
407.778	105.75
408.002	74.75
408.226	81.75
408.449	87.75
408.673	96.75
408.896	106.75
409.12	81.75
409.344	79.75
409.567	94.75
409.791	89.75
410.014	101.75
410.238	91.75
410.461	93.75
410.685	88.75
410.908	99.75
411.132	103.75
411.355	81.75
411.578	106.75
411.802	96.75
412.025	85.75
412.249	93.75
412.472	101.75
412.695	89.75
412.919	107.75
413.142	82.75
413.365	78.75
413.589	86.75
413.812	81.75
414.035	88.75
414.258	81.75
414.482	85.75
414.705	86.75
414.928	104.75
415.151	91.75
415.374	88.75
415.597	89.75
415.821	81.75
416.044	90.75
416.267	85.75
416.49	106.75
416.713	92.75
416.936	88.75
417.159	103.75
417.382	81.75
417.605	88.75
417.828	94.75
418.051	99.75
418.274	94.75
418.497	81.75
418.72	97.75
418.943	89.75
419.166	86.75
419.389	78.75
419.611	80.75
419.834	90.75
420.057	90.75
420.28	82.75
420.503	90.75
420.726	72.75
420.948	78.75
421.171	90.75
421.394	97.75
421.617	89.75
421.839	93.75
422.062	95.75
422.285	103.75
422.507	85.75
422.73	100.75
422.953	87.75
423.175	102.75
423.398	88.75
423.621	88.75
423.843	90.75
424.066	85.75
424.288	83.75
424.511	88.75
424.733	93.75
424.956	96.75
425.178	92.75
425.401	96.75
425.623	104.75
425.846	103.75
426.068	84.75
426.291	101.75
426.513	92.75
426.735	74.75
426.958	95.75
427.18	96.75
427.402	113.75
427.625	145.75
427.847	123.75
428.069	97.75
428.292	77.75
428.514	95.75
428.736	85.75
428.958	69.75
429.181	85.75
429.403	88.75
429.625	79.75
429.847	89.75
430.069	97.75
430.292	82.75
430.514	82.75
430.736	82.75
430.958	96.75
431.18	89.75
431.402	97.75
431.624	86.75
431.846	89.75
432.068	86.75
432.29	75.75
432.512	90.75
432.734	85.75
432.956	90.75
433.178	81.75
433.4	115.75
433.622	97.75
433.844	89.75
434.066	100.75
434.287	92.75
434.509	87.75
434.731	77.75
434.953	98.75
435.175	91.75
435.397	102.75
435.618	106.75
435.84	98.75
436.062	104.75
436.284	103.75
436.505	89.75
436.727	102.75
436.949	101.75
437.17	89.75
437.392	85.75
437.614	84.75
437.835	105.75
438.057	111.75
438.278	103.75
438.5	95.75
438.721	122.75
438.943	99.75
439.165	86.75
439.386	75.75
439.608	87.75
439.829	93.75
440.05	122.75
440.272	154.75
440.493	97.75
440.715	87.75
440.936	92.75
441.158	81.75
441.379	76.75
441.6	65.75
441.822	104.75
442.043	87.75
442.264	101.75
442.486	101.75
442.707	91.75
442.928	103.75
443.149	109.75
443.371	115.75
443.592	98.75
443.813	110.75
444.034	99.75
444.255	99.75
444.476	90.75
444.698	82.75
444.919	80.75
445.14	125.75
445.361	128.75
445.582	103.75
445.803	131.75
446.024	144.75
446.245	131.75
446.466	111.75
446.687	93.75
446.908	81.75
447.129	94.75
447.35	94.75
447.571	85.75
447.792	98.75
448.013	92.75
448.234	99.75
448.455	99.75
448.675	97.75
448.896	104.75
449.117	87.75
449.338	90.75
449.559	113.75
449.779	117.75
450	89.75
450.221	101.75
450.442	99.75
450.662	90.75
450.883	99.75
451.104	113.75
451.324	86.75
451.545	79.75
451.766	80.75
451.986	77.75
452.207	74.75
452.428	91.75
452.648	96.75
452.869	97.75
453.089	105.75
453.31	118.75
453.53	92.75
453.751	93.75
453.971	89.75
454.192	107.75
454.412	105.75
454.633	79.75
454.853	88.75
455.073	83.75
455.294	91.75
455.514	90.75
455.734	74.75
455.955	89.75
456.175	86.75
456.395	82.75
456.616	96.75
456.836	91.75
457.056	90.75
457.276	90.75
457.497	81.75
457.717	81.75
457.937	93.75
458.157	82.75
458.377	96.75
458.598	90.75
458.818	139.75
459.038	145.75
459.258	103.75
459.478	77.75
459.698	97.75
459.918	88.75
460.138	80.75
460.358	87.75
460.578	94.75
460.798	69.75
461.018	82.75
461.238	85.75
461.458	96.75
461.678	88.75
461.898	77.75
462.118	81.75
462.338	80.75
462.558	95.75
462.777	80.75
462.997	91.75
463.217	77.75
463.437	81.75
463.657	90.75
463.876	78.75
464.096	105.75
464.316	99.75
464.536	90.75
464.755	99.75
464.975	100.75
465.195	161.75
465.414	161.75
465.634	91.75
465.854	88.75
466.073	95.75
466.293	90.75
466.512	84.75
466.732	97.75
466.951	87.75
467.171	102.75
467.391	90.75
467.61	119.75
467.829	98.75
468.049	90.75
468.268	95.75
468.488	94.75
468.707	83.75
468.927	71.75
469.146	86.75
469.365	85.75
469.585	89.75
469.804	93.75
470.023	97.75
470.243	93.75
470.462	110.75
470.681	105.75
470.901	90.75
471.12	77.75
471.339	90.75
471.558	98.75
471.777	84.75
471.997	85.75
472.216	94.75
472.435	91.75
472.654	101.75
472.873	90.75
473.092	90.75
473.311	85.75
473.53	70.75
473.749	84.75
473.968	98.75
474.187	89.75
474.406	97.75
474.625	79.75
474.844	83.75
475.063	90.75
475.282	87.75
475.501	83.75
475.72	89.75
475.939	82.75
476.158	88.75
476.377	83.75
476.596	88.75
476.814	104.75
477.033	94.75
477.252	91.75
477.471	86.75
477.69	85.75
477.908	83.75
478.127	92.75
478.346	82.75
478.564	86.75
478.783	92.75
479.002	89.75
479.22	76.75
479.439	91.75
479.658	118.75
479.876	93.75
480.095	78.75
480.313	80.75
480.532	94.75
480.751	74.75
480.969	80.75
481.188	102.75
481.406	100.75
481.624	90.75
481.843	93.75
482.061	81.75
482.28	63.75
482.498	82.75
482.717	95.75
482.935	105.75
483.153	90.75
483.372	93.75
483.59	102.75
483.808	79.75
484.027	89.75
484.245	80.75
484.463	86.75
484.681	100.75
484.9	82.75
485.118	109.75
485.336	95.75
485.554	101.75
485.772	97.75
485.99	113.75
486.209	108.75
486.427	109.75
486.645	96.75
486.863	113.75
487.081	99.75
487.299	102.75
487.517	95.75
487.735	82.75
487.953	103.75
488.171	101.75
488.389	97.75
488.607	89.75
488.825	86.75
489.043	89.75
489.261	102.75
489.479	89.75
489.696	89.75
489.914	89.75
490.132	100.75
490.35	78.75
490.568	89.75
490.786	89.75
491.003	85.75
491.221	86.75
491.439	93.75
491.657	87.75
491.874	89.75
492.092	95.75
492.31	96.75
492.527	86.75
492.745	69.75
492.963	87.75
493.18	93.75
493.398	84.75
493.615	106.75
493.833	101.75
494.05	86.75
494.268	101.75
494.485	85.75
494.703	109.75
494.92	97.75
495.138	95.75
495.355	108.75
495.573	89.75
495.79	91.75
496.008	104.75
496.225	94.75
496.442	84.75
496.66	83.75
496.877	96.75
497.094	73.75
497.312	58.75
497.529	77.75
497.746	80.75
497.963	86.75
498.181	94.75
498.398	79.75
498.615	100.75
498.832	95.75
499.049	93.75
499.267	99.75
499.484	85.75
499.701	85.75
499.918	83.75
500.135	83.75
500.352	84.75
500.569	97.75
500.786	85.75
501.003	86.75
501.22	78.75
501.437	88.75
501.654	96.75
501.871	99.75
502.088	88.75
502.305	109.75
502.522	75.75
502.739	78.75
502.956	100.75
503.172	80.75
503.389	97.75
503.606	87.75
503.823	104.75
504.04	99.75
504.256	83.75
504.473	76.75
504.69	84.75
504.907	104.75
505.123	98.75
505.34	91.75
505.557	97.75
505.773	97.75
505.99	90.75
506.207	79.75
506.423	103.75
506.64	100.75
506.856	83.75
507.073	94.75
507.289	92.75
507.506	86.75
507.722	104.75
507.939	107.75
508.155	84.75
508.372	94.75
508.588	87.75
508.805	95.75
509.021	73.75
509.238	96.75
509.454	103.75
509.67	107.75
509.887	105.75
510.103	121.75
510.319	215.75
510.536	780.75
510.752	2416.75
510.968	667.75
511.184	171.75
511.401	113.75
511.617	90.75
511.833	79.75
512.049	95.75
512.265	95.75
512.481	77.75
512.698	96.75
512.914	85.75
513.13	107.75
513.346	99.75
513.562	97.75
513.778	91.75
513.994	102.75
514.21	98.75
514.426	109.75
514.642	114.75
514.858	117.75
515.074	155.75
515.29	434.75
515.506	1387.75
515.721	523.75
515.937	167.75
