Data from Uncirc_2003_H10_HRD10591_00094.txt Node
Date: Wed Jan 03 10:36:06 EST 2024
User: Yrep
Spectrometer: HR+D1059
Trigger mode: 1
Integration Time (sec): 1.000000E-1
Scans to average: 1
Electric dark correction enabled: true
Nonlinearity correction enabled: false
Boxcar width: 0
XAxis mode: Wavelengths
Number of Pixels in Spectrum: 2048
>>>>>Begin Spectral Data<<<<<
223.165	-20
223.4	-20
223.635	-20
223.869	-11
224.104	-18
224.338	-19
224.573	-19
224.808	-13
225.042	-1
225.277	5
225.511	1
225.746	-3
225.98	3
226.215	12
226.449	14
226.683	16
226.918	32
227.152	21
227.387	23
227.621	23
227.856	38
228.09	56
228.324	33
228.559	58
228.793	56
229.027	60
229.262	76
229.496	87
229.73	97
229.964	94
230.199	81
230.433	81
230.667	79
230.901	90
231.136	76
231.37	76
231.604	102
231.838	89
232.072	73
232.306	92
232.541	98
232.775	87
233.009	77
233.243	98
233.477	93
233.711	75
233.945	80
234.179	87
234.413	73
234.647	71
234.881	77
235.115	79
235.349	77
235.583	88
235.817	82
236.051	86
236.285	87
236.519	80
236.753	82
236.987	91
237.221	78
237.455	81
237.689	82
237.922	79
238.156	84
238.39	97
238.624	71
238.858	79
239.091	82
239.325	65
239.559	97
239.793	75
240.027	74
240.26	73
240.494	72
240.728	92
240.961	73
241.195	78
241.429	82
241.662	74
241.896	68
242.13	70
242.363	72
242.597	72
242.83	89
243.064	103
243.298	94
243.531	61
243.765	83
243.998	89
244.232	77
244.465	79
244.699	82
244.932	90
245.166	69
245.399	81
245.633	72
245.866	83
246.099	88
246.333	77
246.566	80
246.8	93
247.033	96
247.266	85
247.5	86
247.733	85
247.966	82
248.2	86
248.433	88
248.666	81
248.899	82
249.133	92
249.366	98
249.599	94
249.832	88
250.066	65
250.299	66
250.532	83
250.765	75
250.998	81
251.231	80
251.465	84
251.698	78
251.931	87
252.164	83
252.397	77
252.63	77
252.863	68
253.096	82
253.329	73
253.562	90
253.795	81
254.028	93
254.261	78
254.494	88
254.727	93
254.96	89
255.193	82
255.426	87
255.659	67
255.892	73
256.124	72
256.357	94
256.59	81
256.823	83
257.056	81
257.289	93
257.521	85
257.754	79
257.987	100
258.22	95
258.452	84
258.685	87
258.918	92
259.151	92
259.383	83
259.616	75
259.849	92
260.081	78
260.314	66
260.547	93
260.779	84
261.012	90
261.244	86
261.477	94
261.71	89
261.942	108
262.175	101
262.407	84
262.64	86
262.872	81
263.105	84
263.337	94
263.57	85
263.802	87
264.035	82
264.267	95
264.499	85
264.732	100
264.964	89
265.197	92
265.429	77
265.661	92
265.894	83
266.126	86
266.358	70
266.591	87
266.823	83
267.055	87
267.287	92
267.52	108
267.752	86
267.984	86
268.216	77
268.448	103
268.681	88
268.913	103
269.145	89
269.377	79
269.609	77
269.841	98
270.073	90
270.306	88
270.538	81
270.77	82
271.002	85
271.234	80
271.466	76
271.698	95
271.93	85
272.162	91
272.394	88
272.626	82
272.858	73
273.09	81
273.322	85
273.553	95
273.785	89
274.017	73
274.249	87
274.481	82
274.713	83
274.945	98
275.176	89
275.408	93
275.64	75
275.872	103
276.104	97
276.335	95
276.567	105
276.799	112
277.031	117
277.262	104
277.494	78
277.726	90
277.957	91
278.189	94
278.421	91
278.652	85
278.884	90
279.115	87
279.347	84
279.579	88
279.81	79
280.042	87
280.273	81
280.505	93
280.736	99
280.968	92
281.199	101
281.431	93
281.662	92
281.894	93
282.125	108
282.356	112
282.588	142
282.819	96
283.051	97
283.282	99
283.513	100
283.745	95
283.976	80
284.207	71
284.439	110
284.67	86
284.901	101
285.132	94
285.364	107
285.595	100
285.826	79
286.057	94
286.288	89
286.52	95
286.751	106
286.982	83
287.213	92
287.444	96
287.675	102
287.906	98
288.138	106
288.369	102
288.6	98
288.831	82
289.062	103
289.293	89
289.524	72
289.755	99
289.986	99
290.217	86
290.448	97
290.679	90
290.91	83
291.141	76
291.371	90
291.602	96
291.833	92
292.064	80
292.295	99
292.526	84
292.757	91
292.987	91
293.218	83
293.449	94
293.68	85
293.91	86
294.141	86
294.372	98
294.603	99
294.833	106
295.064	95
295.295	99
295.525	91
295.756	102
295.987	120
296.217	118
296.448	112
296.679	95
296.909	86
297.14	98
297.37	102
297.601	101
297.831	90
298.062	103
298.292	85
298.523	90
298.753	93
298.984	88
299.214	84
299.445	83
299.675	80
299.905	89
300.136	102
300.366	107
300.597	92
300.827	101
301.057	105
301.288	99
301.518	107
301.748	97
301.979	104
302.209	95
302.439	91
302.669	87
302.9	81
303.13	87
303.36	111
303.59	101
303.82	109
304.051	88
304.281	94
304.511	91
304.741	95
304.971	104
305.201	96
305.431	99
305.661	98
305.891	101
306.121	96
306.352	112
306.582	102
306.812	112
307.042	94
307.272	79
307.502	98
307.731	89
307.961	92
308.191	95
308.421	95
308.651	107
308.881	102
309.111	110
309.341	94
309.571	102
309.8	92
310.03	98
310.26	99
310.49	98
310.72	85
310.949	108
311.179	111
311.409	98
311.639	104
311.868	91
312.098	94
312.328	91
312.557	92
312.787	97
313.017	94
313.246	86
313.476	96
313.706	107
313.935	99
314.165	101
314.394	119
314.624	109
314.853	112
315.083	106
315.312	79
315.542	102
315.771	84
316.001	107
316.23	88
316.46	97
316.689	100
316.919	96
317.148	107
317.377	86
317.607	109
317.836	105
318.065	106
318.295	96
318.524	102
318.753	85
318.983	106
319.212	86
319.441	106
319.67	110
319.9	92
320.129	94
320.358	99
320.587	102
320.816	96
321.046	103
321.275	108
321.504	109
321.733	108
321.962	110
322.191	101
322.42	101
322.649	121
322.878	111
323.108	102
323.337	131
323.566	122
323.795	150
324.024	220
324.253	441
324.482	953
324.71	1943
324.939	2481
325.168	904
325.397	268
325.626	155
325.855	143
326.084	136
326.313	134
326.542	159
326.77	238
326.999	498
327.228	1081
327.457	1924
327.686	1502
327.914	388
328.143	192
328.372	150
328.6	128
328.829	126
329.058	120
329.287	122
329.515	114
329.744	115
329.972	96
330.201	109
330.43	107
330.658	122
330.887	157
331.115	137
331.344	103
331.572	105
331.801	108
332.03	99
332.258	112
332.486	106
332.715	106
332.943	100
333.172	86
333.4	92
333.629	115
333.857	121
334.085	113
334.314	101
334.542	115
334.771	108
334.999	101
335.227	88
335.455	97
335.684	118
335.912	103
336.14	93
336.369	96
336.597	95
336.825	92
337.053	84
337.281	90
337.51	98
337.738	102
337.966	95
338.194	95
338.422	105
338.65	99
338.878	99
339.106	87
339.334	90
339.562	98
339.79	94
340.018	108
340.246	89
340.474	100
340.702	95
340.93	97
341.158	106
341.386	104
341.614	102
341.842	93
342.07	95
342.298	79
342.526	104
342.754	89
342.981	83
343.209	86
343.437	95
343.665	85
343.893	89
344.12	95
344.348	76
344.576	88
344.804	94
345.031	89
345.259	98
345.487	84
345.714	80
345.942	84
346.17	114
346.397	101
346.625	90
346.853	82
347.08	95
347.308	83
347.535	113
347.763	108
347.99	95
348.218	103
348.445	121
348.673	108
348.9	94
349.128	105
349.355	100
349.583	106
349.81	92
350.037	93
350.265	88
350.492	101
350.72	101
350.947	90
351.174	119
351.402	127
351.629	116
351.856	102
352.083	107
352.311	104
352.538	119
352.765	116
352.992	118
353.22	133
353.447	109
353.674	119
353.901	111
354.128	100
354.355	104
354.583	114
354.81	96
355.037	95
355.264	111
355.491	94
355.718	95
355.945	107
356.172	89
356.399	93
356.626	110
356.853	95
357.08	96
357.307	89
357.534	94
357.761	95
357.988	95
358.215	92
358.441	82
358.668	103
358.895	99
359.122	89
359.349	104
359.576	84
359.802	96
360.029	123
360.256	109
360.483	96
360.709	99
360.936	102
361.163	102
361.39	86
361.616	112
361.843	89
362.07	101
362.296	105
362.523	83
362.749	92
362.976	107
363.203	94
363.429	100
363.656	92
363.882	86
364.109	93
364.335	110
364.562	99
364.788	92
365.015	108
365.241	101
365.468	103
365.694	105
365.92	120
366.147	114
366.373	90
366.599	81
366.826	81
367.052	90
367.278	103
367.505	102
367.731	101
367.957	90
368.184	93
368.41	95
368.636	115
368.862	132
369.089	105
369.315	97
369.541	94
369.767	104
369.993	99
370.219	109
370.445	94
370.672	93
370.898	78
371.124	96
371.35	89
371.576	114
371.802	86
372.028	91
372.254	97
372.48	95
372.706	88
372.932	86
373.158	98
373.384	90
373.61	104
373.835	113
374.061	92
374.287	94
374.513	84
374.739	80
374.965	97
375.191	98
375.416	89
375.642	105
375.868	98
376.094	94
376.319	92
376.545	87
376.771	99
376.997	92
377.222	103
377.448	92
377.674	95
377.899	100
378.125	106
378.35	98
378.576	95
378.802	93
379.027	103
379.253	101
379.478	92
379.704	90
379.929	100
380.155	98
380.38	99
380.606	99
380.831	104
381.057	103
381.282	91
381.507	106
381.733	103
381.958	94
382.184	101
382.409	107
382.634	108
382.86	115
383.085	109
383.31	100
383.535	84
383.761	103
383.986	109
384.211	104
384.436	99
384.662	97
384.887	105
385.112	100
385.337	110
385.562	120
385.787	99
386.013	116
386.238	105
386.463	108
386.688	117
386.913	105
387.138	112
387.363	107
387.588	96
387.813	102
388.038	105
388.263	115
388.488	110
388.713	95
388.938	114
389.163	107
389.387	90
389.612	98
389.837	105
390.062	92
390.287	101
390.512	103
390.736	82
390.961	99
391.186	99
391.411	107
391.636	102
391.86	108
392.085	91
392.31	79
392.534	99
392.759	101
392.984	82
393.208	99
393.433	102
393.658	84
393.882	97
394.107	101
394.331	75
394.556	93
394.78	86
395.005	93
395.229	93
395.454	94
395.678	94
395.903	99
396.127	99
396.352	90
396.576	86
396.801	101
397.025	89
397.249	98
397.474	93
397.698	93
397.922	83
398.147	94
398.371	92
398.595	100
398.82	100
399.044	97
399.268	87
399.492	95
399.717	78
399.941	90
400.165	92
400.389	89
400.613	99
400.837	89
401.062	98
401.286	82
401.51	92
401.734	93
401.958	103
402.182	127
402.406	180
402.63	109
402.854	102
403.078	103
403.302	94
403.526	91
403.75	91
403.974	94
404.198	86
404.422	91
404.645	90
404.869	89
405.093	101
405.317	93
405.541	92
405.765	105
405.988	131
406.212	179
406.436	218
406.66	152
406.883	109
407.107	109
407.331	104
407.555	95
407.778	90
408.002	84
408.226	101
408.449	82
408.673	100
408.896	104
409.12	91
409.344	92
409.567	93
409.791	101
410.014	107
410.238	99
410.461	112
410.685	94
410.908	95
411.132	109
411.355	105
411.578	99
411.802	94
412.025	93
412.249	80
412.472	99
412.695	78
412.919	88
413.142	93
413.365	88
413.589	94
413.812	99
414.035	98
414.258	103
414.482	94
414.705	88
414.928	99
415.151	94
415.374	106
415.597	91
415.821	102
416.044	83
416.267	96
416.49	97
416.713	85
416.936	104
417.159	90
417.382	94
417.605	98
417.828	95
418.051	104
418.274	101
418.497	92
418.72	92
418.943	84
419.166	91
419.389	98
419.611	99
419.834	114
420.057	100
420.28	87
420.503	98
420.726	89
420.948	101
421.171	86
421.394	102
421.617	81
421.839	97
422.062	89
422.285	105
422.507	103
422.73	107
422.953	82
423.175	90
423.398	98
423.621	93
423.843	104
424.066	106
424.288	92
424.511	99
424.733	99
424.956	113
425.178	93
425.401	99
425.623	99
425.846	91
426.068	90
426.291	100
426.513	98
426.735	96
426.958	85
427.18	115
427.402	147
427.625	168
427.847	135
428.069	115
428.292	107
428.514	86
428.736	89
428.958	86
429.181	82
429.403	99
429.625	95
429.847	89
430.069	92
430.292	89
430.514	83
430.736	81
430.958	81
431.18	87
431.402	81
431.624	95
431.846	85
432.068	91
432.29	93
432.512	98
432.734	96
432.956	87
433.178	100
433.4	88
433.622	99
433.844	83
434.066	82
434.287	103
434.509	100
434.731	87
434.953	83
435.175	97
435.397	85
435.618	88
435.84	86
436.062	121
436.284	119
436.505	108
436.727	108
436.949	91
437.17	99
437.392	86
437.614	112
437.835	114
438.057	109
438.278	118
438.5	101
438.721	110
438.943	101
439.165	102
439.386	81
439.608	94
439.829	99
440.05	135
440.272	147
440.493	96
440.715	83
440.936	78
441.158	101
441.379	95
441.6	91
441.822	110
442.043	89
442.264	97
442.486	110
442.707	111
442.928	105
443.149	118
443.371	123
443.592	106
443.813	138
444.034	110
444.255	103
444.476	88
444.698	85
444.919	93
445.14	121
445.361	131
445.582	131
445.803	122
446.024	137
446.245	143
446.466	127
446.687	97
446.908	91
447.129	89
447.35	96
447.571	89
447.792	97
448.013	103
448.234	94
448.455	110
448.675	111
448.896	108
449.117	100
449.338	130
449.559	133
449.779	137
450	103
450.221	107
450.442	92
450.662	90
450.883	102
451.104	123
451.324	100
451.545	98
451.766	92
451.986	91
452.207	101
452.428	89
452.648	101
452.869	111
453.089	110
453.31	131
453.53	98
453.751	108
453.971	112
454.192	101
454.412	114
454.633	74
454.853	93
455.073	86
455.294	89
455.514	95
455.734	99
455.955	86
456.175	73
456.395	79
456.616	89
456.836	85
457.056	87
457.276	88
457.497	85
457.717	81
457.937	77
458.157	85
458.377	103
458.598	118
458.818	151
459.038	153
459.258	117
459.478	97
459.698	85
459.918	94
460.138	101
460.358	78
460.578	98
460.798	92
461.018	91
461.238	91
461.458	89
461.678	77
461.898	90
462.118	92
462.338	110
462.558	85
462.777	81
462.997	93
463.217	102
463.437	90
463.657	94
463.876	83
464.096	90
464.316	106
464.536	94
464.755	96
464.975	108
465.195	163
465.414	161
465.634	103
465.854	98
466.073	95
466.293	78
466.512	90
466.732	89
466.951	83
467.171	88
467.391	106
467.61	97
467.829	113
468.049	97
468.268	84
468.488	94
468.707	79
468.927	89
469.146	99
469.365	90
469.585	105
469.804	101
470.023	96
470.243	90
470.462	107
470.681	122
470.901	90
471.12	91
471.339	82
471.558	82
471.777	97
471.997	87
472.216	88
472.435	88
472.654	92
472.873	100
473.092	85
473.311	81
473.53	85
473.749	86
473.968	92
474.187	102
474.406	90
474.625	98
474.844	95
475.063	75
475.282	99
475.501	81
475.72	74
475.939	113
476.158	90
476.377	100
476.596	103
476.814	100
477.033	85
477.252	105
477.471	92
477.69	93
477.908	98
478.127	98
478.346	106
478.564	99
478.783	92
479.002	106
479.22	85
479.439	94
479.658	90
479.876	105
480.095	100
480.313	91
480.532	92
480.751	96
480.969	99
481.188	115
481.406	107
481.624	92
481.843	99
482.061	92
482.28	84
482.498	95
482.717	106
482.935	83
483.153	76
483.372	97
483.59	84
483.808	102
484.027	106
484.245	97
484.463	96
484.681	108
484.9	100
485.118	101
485.336	78
485.554	100
485.772	113
485.99	100
486.209	100
486.427	104
486.645	121
486.863	110
487.081	92
487.299	95
487.517	104
487.735	98
487.953	102
488.171	92
488.389	97
488.607	98
488.825	103
489.043	93
489.261	101
489.479	89
489.696	98
489.914	92
490.132	93
490.35	99
490.568	98
490.786	94
491.003	89
491.221	100
491.439	99
491.657	101
491.874	95
492.092	87
492.31	77
492.527	97
492.745	104
492.963	107
493.18	97
493.398	98
493.615	104
493.833	109
494.05	90
494.268	96
494.485	91
494.703	103
494.92	103
495.138	94
495.355	100
495.573	91
495.79	89
496.008	91
496.225	97
496.442	96
496.66	94
496.877	98
497.094	103
497.312	81
497.529	89
497.746	94
497.963	90
498.181	93
498.398	99
498.615	113
498.832	106
499.049	87
499.267	99
499.484	99
499.701	90
499.918	90
500.135	79
500.352	84
500.569	109
500.786	96
501.003	80
501.22	94
501.437	87
501.654	93
501.871	117
502.088	93
502.305	95
502.522	95
502.739	87
502.956	92
503.172	89
503.389	111
503.606	89
503.823	89
504.04	94
504.256	86
504.473	106
504.69	92
504.907	88
505.123	99
505.34	103
505.557	111
505.773	101
505.99	92
506.207	89
506.423	74
506.64	94
506.856	83
507.073	89
507.289	96
507.506	101
507.722	120
507.939	108
508.155	111
508.372	107
508.588	84
508.805	101
509.021	94
509.238	108
509.454	94
509.67	98
509.887	133
510.103	141
510.319	229
510.536	796
510.752	2547
510.968	711
511.184	165
511.401	101
511.617	114
511.833	111
512.049	98
512.265	99
512.481	82
512.698	87
512.914	79
513.13	95
513.346	94
513.562	93
513.778	94
513.994	104
514.21	101
514.426	122
514.642	144
514.858	118
515.074	170
515.29	459
515.506	1492
515.721	565
515.937	163
516.153	123
516.369	95
516.585	94
516.801	108
517.016	93
517.232	94
517.448	91
517.664	90
517.879	113
518.095	102
518.311	99
518.527	98
518.742	102
518.958	90
519.173	92
519.389	102
519.605	106
519.82	98
520.036	115
520.251	131
520.467	115
520.682	101
520.898	109
521.113	121
521.329	134
521.544	207
521.76	564
521.975	2455
522.19	1484
522.406	321
522.621	133
522.836	99
523.052	94
523.267	101
523.482	108
523.698	107
523.913	125
524.128	118
524.343	114
524.559	98
524.774	105
524.989	101
525.204	99
525.419	100
525.634	97
525.849	103
526.064	103
526.28	98
526.495	102
526.71	100
526.925	95
527.14	86
527.355	87
527.57	87
527.785	86
527.999	88
528.214	81
528.429	101
528.644	95
528.859	90
529.074	97
529.289	136
529.503	158
529.718	103
529.933	90
530.148	99
530.363	82
530.577	99
530.792	97
531.007	94
531.221	89
531.436	99
531.651	104
531.865	73
532.08	101
532.295	95
532.509	85
532.724	87
532.938	99
533.153	97
533.367	88
533.582	89
533.796	98
534.011	85
534.225	88
534.44	104
534.654	86
534.868	98
535.083	104
535.297	102
535.511	99
535.726	116
535.94	105
536.154	102
536.369	103
536.583	100
536.797	95
537.011	91
537.225	94
537.44	96
537.654	98
537.868	98
538.082	91
538.296	104
538.51	102
538.724	94
538.938	102
539.153	97
539.367	114
539.581	101
539.795	95
540.009	86
540.222	92
540.436	99
540.65	99
540.864	109
541.078	109
541.292	97
541.506	90
541.72	89
541.934	90
542.147	103
542.361	91
542.575	74
542.789	108
543.002	103
543.216	102
543.43	110
543.644	100
543.857	94
544.071	86
544.285	95
544.498	110
544.712	102
544.925	87
545.139	85
545.352	98
545.566	99
545.779	92
545.993	101
546.206	89
546.42	84
546.633	94
546.847	115
547.06	91
547.274	94
547.487	94
547.7	97
547.914	94
548.127	81
548.34	79
548.554	99
548.767	107
548.98	98
549.193	81
549.407	91
549.62	92
549.833	95
550.046	94
550.259	83
550.473	93
550.686	97
550.899	95
551.112	88
551.325	99
551.538	83
551.751	102
551.964	105
552.177	88
552.39	94
552.603	104
552.816	103
553.029	95
553.242	92
553.455	98
553.667	106
553.88	107
554.093	98
554.306	104
554.519	95
554.732	99
554.944	92
555.157	103
555.37	91
555.583	98
555.795	95
556.008	103
556.221	104
556.433	97
556.646	103
556.859	95
557.071	97
557.284	95
557.496	86
557.709	86
557.921	99
558.134	90
558.346	102
558.559	85
558.771	98
558.984	100
559.196	86
559.409	97
559.621	93
559.833	86
560.046	94
560.258	90
560.47	94
560.683	91
560.895	83
561.107	85
561.32	86
561.532	96
561.744	93
561.956	102
562.168	103
562.381	102
562.593	101
562.805	91
563.017	78
563.229	89
563.441	91
563.653	92
563.865	94
564.077	85
564.289	88
564.501	87
564.713	107
564.925	95
565.137	98
565.349	82
565.561	109
565.773	92
565.985	85
566.197	100
566.408	111
566.62	92
566.832	85
567.044	80
567.255	81
567.467	95
567.679	86
567.891	76
568.102	95
568.314	93
568.526	93
568.737	97
568.949	90
569.161	89
569.372	85
569.584	93
569.795	107
570.007	124
570.218	246
570.43	155
570.641	107
570.853	98
571.064	84
571.276	93
571.487	89
571.698	77
571.91	95
572.121	91
572.333	91
572.544	82
572.755	93
572.966	105
573.178	103
573.389	94
573.6	101
573.811	98
574.023	99
574.234	90
574.445	73
574.656	109
574.867	81
575.078	98
575.289	99
575.501	106
575.712	100
575.923	106
576.134	94
576.345	103
576.556	99
576.767	95
576.978	99
577.188	95
577.399	85
577.61	104
577.821	95
578.032	120
578.243	290
578.454	809
578.665	236
578.875	98
579.086	92
579.297	107
579.508	87
579.718	94
579.929	102
580.14	105
580.35	94
580.561	87
580.772	82
580.982	116
