Data from Uncirc_2003_H10_HRD10591_00074.txt Node
Date: Wed Jan 03 10:36:02 EST 2024
User: Yrep
Spectrometer: HR+D1059
Trigger mode: 1
Integration Time (sec): 1.000000E-1
Scans to average: 1
Electric dark correction enabled: true
Nonlinearity correction enabled: false
Boxcar width: 0
XAxis mode: Wavelengths
Number of Pixels in Spectrum: 2048
>>>>>Begin Spectral Data<<<<<
223.165	-22.25
223.4	-22.25
223.635	-22.25
223.869	-23.25
224.104	-14.25
224.338	-24.25
224.573	-9.25
224.808	-12.25
225.042	-9.25
225.277	-20.25
225.511	4.75
225.746	11.75
225.98	8.75
226.215	13.75
226.449	11.75
226.683	20.75
226.918	35.75
227.152	27.75
227.387	43.75
227.621	30.75
227.856	56.75
228.09	49.75
228.324	54.75
228.559	55.75
228.793	69.75
229.027	63.75
229.262	65.75
229.496	74.75
229.73	95.75
229.964	79.75
230.199	72.75
230.433	82.75
230.667	72.75
230.901	92.75
231.136	76.75
231.37	82.75
231.604	96.75
231.838	94.75
232.072	87.75
232.306	79.75
232.541	81.75
232.775	77.75
233.009	69.75
233.243	79.75
233.477	75.75
233.711	83.75
233.945	79.75
234.179	85.75
234.413	75.75
234.647	89.75
234.881	74.75
235.115	89.75
235.349	71.75
235.583	91.75
235.817	83.75
236.051	81.75
236.285	79.75
236.519	83.75
236.753	66.75
236.987	93.75
237.221	80.75
237.455	74.75
237.689	75.75
237.922	80.75
238.156	57.75
238.39	82.75
238.624	76.75
238.858	73.75
239.091	73.75
239.325	75.75
239.559	71.75
239.793	74.75
240.027	83.75
240.26	77.75
240.494	89.75
240.728	82.75
240.961	69.75
241.195	73.75
241.429	83.75
241.662	88.75
241.896	65.75
242.13	70.75
242.363	66.75
242.597	88.75
242.83	85.75
243.064	79.75
243.298	81.75
243.531	94.75
243.765	91.75
243.998	81.75
244.232	83.75
244.465	87.75
244.699	86.75
244.932	78.75
245.166	83.75
245.399	78.75
245.633	88.75
245.866	77.75
246.099	93.75
246.333	80.75
246.566	84.75
246.8	79.75
247.033	72.75
247.266	83.75
247.5	82.75
247.733	92.75
247.966	89.75
248.2	75.75
248.433	82.75
248.666	79.75
248.899	88.75
249.133	86.75
249.366	89.75
249.599	85.75
249.832	89.75
250.066	74.75
250.299	76.75
250.532	86.75
250.765	90.75
250.998	88.75
251.231	85.75
251.465	65.75
251.698	82.75
251.931	79.75
252.164	82.75
252.397	74.75
252.63	84.75
252.863	77.75
253.096	90.75
253.329	82.75
253.562	84.75
253.795	81.75
254.028	73.75
254.261	76.75
254.494	82.75
254.727	91.75
254.96	82.75
255.193	79.75
255.426	86.75
255.659	93.75
255.892	94.75
256.124	73.75
256.357	84.75
256.59	84.75
256.823	92.75
257.056	82.75
257.289	87.75
257.521	82.75
257.754	83.75
257.987	76.75
258.22	84.75
258.452	76.75
258.685	78.75
258.918	88.75
259.151	83.75
259.383	99.75
259.616	90.75
259.849	92.75
260.081	75.75
260.314	92.75
260.547	90.75
260.779	77.75
261.012	85.75
261.244	89.75
261.477	85.75
261.71	85.75
261.942	102.75
262.175	123.75
262.407	79.75
262.64	71.75
262.872	83.75
263.105	87.75
263.337	90.75
263.57	65.75
263.802	88.75
264.035	78.75
264.267	90.75
264.499	86.75
264.732	80.75
264.964	77.75
265.197	90.75
265.429	88.75
265.661	91.75
265.894	76.75
266.126	80.75
266.358	88.75
266.591	77.75
266.823	78.75
267.055	72.75
267.287	77.75
267.52	87.75
267.752	82.75
267.984	80.75
268.216	83.75
268.448	74.75
268.681	82.75
268.913	88.75
269.145	91.75
269.377	86.75
269.609	84.75
269.841	74.75
270.073	73.75
270.306	88.75
270.538	80.75
270.77	92.75
271.002	90.75
271.234	86.75
271.466	84.75
271.698	104.75
271.93	89.75
272.162	83.75
272.394	93.75
272.626	87.75
272.858	86.75
273.09	84.75
273.322	93.75
273.553	79.75
273.785	95.75
274.017	91.75
274.249	84.75
274.481	84.75
274.713	83.75
274.945	97.75
275.176	101.75
275.408	77.75
275.64	80.75
275.872	80.75
276.104	89.75
276.335	88.75
276.567	96.75
276.799	104.75
277.031	105.75
277.262	89.75
277.494	102.75
277.726	80.75
277.957	87.75
278.189	97.75
278.421	91.75
278.652	79.75
278.884	74.75
279.115	81.75
279.347	89.75
279.579	98.75
279.81	82.75
280.042	80.75
280.273	81.75
280.505	87.75
280.736	71.75
280.968	76.75
281.199	79.75
281.431	87.75
281.662	102.75
281.894	106.75
282.125	94.75
282.356	109.75
282.588	143.75
282.819	99.75
283.051	81.75
283.282	83.75
283.513	87.75
283.745	95.75
283.976	92.75
284.207	99.75
284.439	86.75
284.67	90.75
284.901	88.75
285.132	78.75
285.364	75.75
285.595	83.75
285.826	84.75
286.057	96.75
286.288	87.75
286.52	75.75
286.751	80.75
286.982	76.75
287.213	96.75
287.444	79.75
287.675	98.75
287.906	106.75
288.138	91.75
288.369	99.75
288.6	84.75
288.831	83.75
289.062	98.75
289.293	89.75
289.524	88.75
289.755	97.75
289.986	81.75
290.217	91.75
290.448	84.75
290.679	78.75
290.91	92.75
291.141	93.75
291.371	84.75
291.602	78.75
291.833	89.75
292.064	93.75
292.295	89.75
292.526	88.75
292.757	85.75
292.987	112.75
293.218	96.75
293.449	83.75
293.68	90.75
293.91	85.75
294.141	86.75
294.372	79.75
294.603	91.75
294.833	92.75
295.064	82.75
295.295	96.75
295.525	98.75
295.756	96.75
295.987	113.75
296.217	135.75
296.448	111.75
296.679	95.75
296.909	87.75
297.14	87.75
297.37	89.75
297.601	88.75
297.831	79.75
298.062	98.75
298.292	100.75
298.523	77.75
298.753	94.75
298.984	79.75
299.214	90.75
299.445	91.75
299.675	88.75
299.905	86.75
300.136	85.75
300.366	93.75
300.597	86.75
300.827	79.75
301.057	93.75
301.288	111.75
301.518	98.75
301.748	85.75
301.979	114.75
302.209	101.75
302.439	84.75
302.669	98.75
302.9	81.75
303.13	74.75
303.36	91.75
303.59	94.75
303.82	95.75
304.051	84.75
304.281	85.75
304.511	90.75
304.741	90.75
304.971	80.75
305.201	85.75
305.431	86.75
305.661	94.75
305.891	95.75
306.121	92.75
306.352	107.75
306.582	108.75
306.812	102.75
307.042	98.75
307.272	90.75
307.502	106.75
307.731	98.75
307.961	89.75
308.191	96.75
308.421	84.75
308.651	85.75
308.881	94.75
309.111	94.75
309.341	100.75
309.571	97.75
309.8	84.75
310.03	98.75
310.26	88.75
310.49	95.75
310.72	105.75
310.949	92.75
311.179	100.75
311.409	96.75
311.639	88.75
311.868	92.75
312.098	88.75
312.328	91.75
312.557	105.75
312.787	103.75
313.017	101.75
313.246	93.75
313.476	93.75
313.706	99.75
313.935	91.75
314.165	99.75
314.394	114.75
314.624	98.75
314.853	93.75
315.083	105.75
315.312	103.75
315.542	82.75
315.771	85.75
316.001	98.75
316.23	88.75
316.46	77.75
316.689	86.75
316.919	97.75
317.148	108.75
317.377	96.75
317.607	98.75
317.836	91.75
318.065	92.75
318.295	88.75
318.524	76.75
318.753	101.75
318.983	91.75
319.212	112.75
319.441	129.75
319.67	109.75
319.9	106.75
320.129	95.75
320.358	83.75
320.587	93.75
320.816	101.75
321.046	107.75
321.275	103.75
321.504	97.75
321.733	102.75
321.962	97.75
322.191	95.75
322.42	101.75
322.649	113.75
322.878	122.75
323.108	121.75
323.337	121.75
323.566	137.75
323.795	154.75
324.024	200.75
324.253	400.75
324.482	833.75
324.71	1748.75
324.939	2267.75
325.168	836.75
325.397	244.75
325.626	152.75
325.855	122.75
326.084	116.75
326.313	128.75
326.542	143.75
326.77	232.75
326.999	467.75
327.228	967.75
327.457	1743.75
327.686	1393.75
327.914	364.75
328.143	189.75
328.372	160.75
328.6	106.75
328.829	108.75
329.058	130.75
329.287	122.75
329.515	112.75
329.744	93.75
329.972	95.75
330.201	100.75
330.43	116.75
330.658	115.75
330.887	134.75
331.115	118.75
331.344	96.75
331.572	99.75
331.801	89.75
332.03	90.75
332.258	94.75
332.486	86.75
332.715	85.75
332.943	101.75
333.172	92.75
333.4	101.75
333.629	108.75
333.857	106.75
334.085	111.75
334.314	106.75
334.542	93.75
334.771	93.75
334.999	96.75
335.227	95.75
335.455	87.75
335.684	89.75
335.912	94.75
336.14	89.75
336.369	110.75
336.597	104.75
336.825	101.75
337.053	92.75
337.281	105.75
337.51	101.75
337.738	93.75
337.966	97.75
338.194	90.75
338.422	85.75
338.65	87.75
338.878	82.75
339.106	85.75
339.334	89.75
339.562	97.75
339.79	93.75
340.018	100.75
340.246	102.75
340.474	79.75
340.702	97.75
340.93	102.75
341.158	89.75
341.386	97.75
341.614	107.75
341.842	114.75
342.07	103.75
342.298	99.75
342.526	88.75
342.754	82.75
342.981	85.75
343.209	93.75
343.437	92.75
343.665	88.75
343.893	90.75
344.12	92.75
344.348	84.75
344.576	83.75
344.804	86.75
345.031	89.75
345.259	111.75
345.487	82.75
345.714	88.75
345.942	96.75
346.17	83.75
346.397	98.75
346.625	92.75
346.853	91.75
347.08	97.75
347.308	101.75
347.535	102.75
347.763	102.75
347.99	102.75
348.218	92.75
348.445	95.75
348.673	101.75
348.9	93.75
349.128	99.75
349.355	99.75
349.583	93.75
349.81	101.75
350.037	105.75
350.265	96.75
350.492	92.75
350.72	97.75
350.947	99.75
351.174	108.75
351.402	115.75
351.629	102.75
351.856	96.75
352.083	92.75
352.311	116.75
352.538	101.75
352.765	101.75
352.992	106.75
353.22	111.75
353.447	105.75
353.674	105.75
353.901	92.75
354.128	108.75
354.355	73.75
354.583	104.75
354.81	103.75
355.037	94.75
355.264	94.75
355.491	89.75
355.718	95.75
355.945	88.75
356.172	95.75
356.399	81.75
356.626	99.75
356.853	105.75
357.08	98.75
357.307	86.75
357.534	81.75
357.761	107.75
357.988	97.75
358.215	98.75
358.441	100.75
358.668	101.75
358.895	101.75
359.122	105.75
359.349	101.75
359.576	110.75
359.802	90.75
360.029	104.75
360.256	105.75
360.483	96.75
360.709	81.75
360.936	92.75
361.163	96.75
361.39	93.75
361.616	117.75
361.843	85.75
362.07	99.75
362.296	86.75
362.523	97.75
362.749	90.75
362.976	96.75
363.203	101.75
363.429	93.75
363.656	89.75
363.882	100.75
364.109	98.75
364.335	90.75
364.562	106.75
364.788	88.75
365.015	77.75
365.241	101.75
365.468	98.75
365.694	96.75
365.92	79.75
366.147	90.75
366.373	98.75
366.599	101.75
366.826	95.75
367.052	96.75
367.278	93.75
367.505	93.75
367.731	96.75
367.957	102.75
368.184	106.75
368.41	115.75
368.636	112.75
368.862	124.75
369.089	104.75
369.315	98.75
369.541	91.75
369.767	97.75
369.993	110.75
370.219	102.75
370.445	87.75
370.672	80.75
370.898	102.75
371.124	99.75
371.35	92.75
371.576	113.75
371.802	90.75
372.028	80.75
372.254	101.75
372.48	106.75
372.706	91.75
372.932	95.75
373.158	83.75
373.384	88.75
373.61	89.75
373.835	106.75
374.061	99.75
374.287	88.75
374.513	84.75
374.739	84.75
374.965	100.75
375.191	99.75
375.416	92.75
375.642	90.75
375.868	105.75
376.094	100.75
376.319	91.75
376.545	106.75
376.771	83.75
376.997	92.75
377.222	99.75
377.448	105.75
377.674	99.75
377.899	97.75
378.125	97.75
378.35	82.75
378.576	93.75
378.802	97.75
379.027	96.75
379.253	105.75
379.478	103.75
379.704	88.75
379.929	98.75
380.155	95.75
380.38	100.75
380.606	103.75
380.831	90.75
381.057	92.75
381.282	100.75
381.507	86.75
381.733	117.75
381.958	111.75
382.184	91.75
382.409	103.75
382.634	105.75
382.86	108.75
383.085	100.75
383.31	95.75
383.535	94.75
383.761	99.75
383.986	110.75
384.211	89.75
384.436	96.75
384.662	106.75
384.887	107.75
385.112	85.75
385.337	118.75
385.562	99.75
385.787	104.75
386.013	129.75
386.238	116.75
386.463	105.75
386.688	109.75
386.913	107.75
387.138	104.75
387.363	98.75
387.588	102.75
387.813	103.75
388.038	110.75
388.263	100.75
388.488	103.75
388.713	101.75
388.938	106.75
389.163	111.75
389.387	104.75
389.612	101.75
389.837	111.75
390.062	99.75
390.287	97.75
390.512	90.75
390.736	95.75
390.961	99.75
391.186	92.75
391.411	92.75
391.636	79.75
391.86	98.75
392.085	84.75
392.31	81.75
392.534	74.75
392.759	92.75
392.984	99.75
393.208	75.75
393.433	104.75
393.658	100.75
393.882	75.75
394.107	86.75
394.331	88.75
394.556	86.75
394.78	83.75
395.005	82.75
395.229	84.75
395.454	95.75
395.678	79.75
395.903	93.75
396.127	72.75
396.352	100.75
396.576	88.75
396.801	80.75
397.025	87.75
397.249	90.75
397.474	97.75
397.698	88.75
397.922	85.75
398.147	93.75
398.371	85.75
398.595	93.75
398.82	87.75
399.044	89.75
399.268	100.75
399.492	98.75
399.717	105.75
399.941	82.75
400.165	89.75
400.389	106.75
400.613	86.75
400.837	85.75
401.062	82.75
401.286	84.75
401.51	98.75
401.734	104.75
401.958	90.75
402.182	129.75
402.406	156.75
402.63	112.75
402.854	83.75
403.078	94.75
403.302	108.75
403.526	94.75
403.75	107.75
403.974	93.75
404.198	90.75
404.422	87.75
404.645	99.75
404.869	73.75
405.093	98.75
405.317	101.75
405.541	105.75
405.765	94.75
405.988	107.75
406.212	161.75
406.436	214.75
406.66	137.75
406.883	92.75
407.107	104.75
407.331	96.75
407.555	100.75
407.778	100.75
408.002	87.75
408.226	81.75
408.449	88.75
408.673	95.75
408.896	80.75
409.12	84.75
409.344	94.75
409.567	91.75
409.791	97.75
410.014	104.75
410.238	84.75
410.461	93.75
410.685	105.75
410.908	90.75
411.132	103.75
411.355	101.75
411.578	94.75
411.802	93.75
412.025	91.75
412.249	86.75
412.472	97.75
412.695	89.75
412.919	83.75
413.142	79.75
413.365	114.75
413.589	87.75
413.812	89.75
414.035	88.75
414.258	82.75
414.482	84.75
414.705	92.75
414.928	94.75
415.151	112.75
415.374	88.75
415.597	93.75
415.821	84.75
416.044	92.75
416.267	101.75
416.49	91.75
416.713	90.75
416.936	87.75
417.159	92.75
417.382	98.75
417.605	95.75
417.828	87.75
418.051	90.75
418.274	95.75
418.497	73.75
418.72	84.75
418.943	103.75
419.166	87.75
419.389	89.75
419.611	81.75
419.834	77.75
420.057	96.75
420.28	92.75
420.503	88.75
420.726	92.75
420.948	96.75
421.171	94.75
421.394	108.75
421.617	97.75
421.839	92.75
422.062	96.75
422.285	101.75
422.507	103.75
422.73	108.75
422.953	104.75
423.175	100.75
423.398	104.75
423.621	92.75
423.843	91.75
424.066	82.75
424.288	95.75
424.511	90.75
424.733	92.75
424.956	107.75
425.178	96.75
425.401	92.75
425.623	88.75
425.846	103.75
426.068	96.75
426.291	83.75
426.513	98.75
426.735	90.75
426.958	83.75
427.18	96.75
427.402	133.75
427.625	148.75
427.847	120.75
428.069	89.75
428.292	95.75
428.514	84.75
428.736	84.75
428.958	81.75
429.181	102.75
429.403	99.75
429.625	87.75
429.847	77.75
430.069	100.75
430.292	94.75
430.514	93.75
430.736	101.75
430.958	79.75
431.18	83.75
431.402	76.75
431.624	87.75
431.846	86.75
432.068	97.75
432.29	85.75
432.512	87.75
432.734	86.75
432.956	104.75
433.178	102.75
433.4	105.75
433.622	78.75
433.844	95.75
434.066	91.75
434.287	94.75
434.509	99.75
434.731	90.75
434.953	96.75
435.175	96.75
435.397	93.75
435.618	98.75
435.84	100.75
436.062	113.75
436.284	103.75
436.505	109.75
436.727	103.75
436.949	95.75
437.17	97.75
437.392	94.75
437.614	81.75
437.835	95.75
438.057	99.75
438.278	112.75
438.5	102.75
438.721	113.75
438.943	92.75
439.165	95.75
439.386	94.75
439.608	100.75
439.829	99.75
440.05	110.75
440.272	124.75
440.493	103.75
440.715	88.75
440.936	106.75
441.158	85.75
441.379	95.75
441.6	98.75
441.822	96.75
442.043	89.75
442.264	114.75
442.486	107.75
442.707	91.75
442.928	101.75
443.149	135.75
443.371	120.75
443.592	96.75
443.813	112.75
444.034	114.75
444.255	99.75
444.476	91.75
444.698	87.75
444.919	81.75
445.14	132.75
445.361	114.75
445.582	127.75
445.803	118.75
446.024	132.75
446.245	139.75
446.466	107.75
446.687	95.75
446.908	98.75
447.129	77.75
447.35	76.75
447.571	105.75
447.792	101.75
448.013	108.75
448.234	94.75
448.455	102.75
448.675	105.75
448.896	123.75
449.117	103.75
449.338	105.75
449.559	128.75
449.779	134.75
450	87.75
450.221	93.75
450.442	98.75
450.662	87.75
450.883	108.75
451.104	104.75
451.324	96.75
451.545	97.75
451.766	89.75
451.986	91.75
452.207	96.75
452.428	92.75
452.648	96.75
452.869	109.75
453.089	94.75
453.31	106.75
453.53	81.75
453.751	71.75
453.971	103.75
454.192	124.75
454.412	99.75
454.633	88.75
454.853	100.75
455.073	87.75
455.294	85.75
455.514	99.75
455.734	90.75
455.955	88.75
456.175	102.75
456.395	95.75
456.616	88.75
456.836	98.75
457.056	85.75
457.276	87.75
457.497	84.75
457.717	82.75
457.937	87.75
458.157	78.75
458.377	97.75
458.598	109.75
458.818	130.75
459.038	155.75
459.258	118.75
459.478	96.75
459.698	92.75
459.918	81.75
460.138	92.75
460.358	87.75
460.578	80.75
460.798	97.75
461.018	87.75
461.238	99.75
461.458	91.75
461.678	77.75
461.898	91.75
462.118	88.75
462.338	87.75
462.558	92.75
462.777	94.75
462.997	84.75
463.217	93.75
463.437	88.75
463.657	85.75
463.876	81.75
464.096	84.75
464.316	88.75
464.536	95.75
464.755	98.75
464.975	100.75
465.195	152.75
465.414	154.75
465.634	95.75
465.854	77.75
466.073	98.75
466.293	89.75
466.512	92.75
466.732	89.75
466.951	97.75
467.171	93.75
467.391	93.75
467.61	105.75
467.829	100.75
468.049	90.75
468.268	108.75
468.488	85.75
468.707	87.75
468.927	80.75
469.146	67.75
469.365	86.75
469.585	95.75
469.804	87.75
470.023	88.75
470.243	83.75
470.462	82.75
470.681	108.75
470.901	99.75
471.12	89.75
471.339	83.75
471.558	92.75
471.777	96.75
471.997	91.75
472.216	103.75
472.435	93.75
472.654	82.75
472.873	83.75
473.092	96.75
473.311	101.75
473.53	83.75
473.749	89.75
473.968	88.75
474.187	103.75
474.406	84.75
474.625	92.75
474.844	88.75
475.063	99.75
475.282	80.75
475.501	92.75
475.72	89.75
475.939	90.75
476.158	96.75
476.377	86.75
476.596	89.75
476.814	88.75
477.033	86.75
477.252	102.75
477.471	79.75
477.69	90.75
477.908	84.75
478.127	88.75
478.346	85.75
478.564	99.75
478.783	103.75
479.002	88.75
479.22	103.75
479.439	88.75
479.658	91.75
479.876	91.75
480.095	87.75
480.313	103.75
480.532	98.75
480.751	92.75
480.969	89.75
481.188	99.75
481.406	113.75
481.624	92.75
481.843	92.75
482.061	90.75
482.28	91.75
482.498	86.75
482.717	93.75
482.935	100.75
483.153	91.75
483.372	82.75
483.59	82.75
483.808	101.75
484.027	106.75
484.245	91.75
484.463	102.75
484.681	96.75
484.9	91.75
485.118	89.75
485.336	84.75
485.554	102.75
485.772	111.75
485.99	101.75
486.209	108.75
486.427	93.75
486.645	109.75
486.863	102.75
487.081	101.75
487.299	93.75
487.517	107.75
487.735	104.75
487.953	79.75
488.171	88.75
488.389	92.75
488.607	106.75
488.825	105.75
489.043	90.75
489.261	101.75
489.479	93.75
489.696	91.75
489.914	90.75
490.132	82.75
490.35	101.75
490.568	92.75
490.786	96.75
491.003	102.75
491.221	96.75
491.439	85.75
491.657	88.75
491.874	97.75
492.092	92.75
492.31	95.75
492.527	92.75
492.745	75.75
492.963	96.75
493.18	107.75
493.398	82.75
493.615	101.75
493.833	103.75
494.05	99.75
494.268	92.75
494.485	85.75
494.703	93.75
494.92	99.75
495.138	93.75
495.355	102.75
495.573	85.75
495.79	87.75
496.008	97.75
496.225	103.75
496.442	72.75
496.66	76.75
496.877	100.75
497.094	87.75
497.312	111.75
497.529	101.75
497.746	90.75
497.963	75.75
498.181	87.75
498.398	116.75
498.615	108.75
498.832	108.75
499.049	96.75
499.267	87.75
499.484	106.75
499.701	90.75
499.918	100.75
500.135	92.75
500.352	92.75
500.569	97.75
500.786	97.75
501.003	90.75
501.22	100.75
501.437	88.75
501.654	95.75
501.871	101.75
502.088	93.75
502.305	92.75
502.522	88.75
502.739	88.75
502.956	84.75
503.172	91.75
503.389	86.75
503.606	103.75
503.823	88.75
504.04	93.75
504.256	96.75
504.473	90.75
504.69	92.75
504.907	89.75
505.123	74.75
505.34	92.75
505.557	84.75
505.773	114.75
505.99	89.75
506.207	87.75
506.423	80.75
506.64	101.75
506.856	100.75
507.073	125.75
507.289	103.75
507.506	112.75
507.722	103.75
507.939	101.75
508.155	96.75
508.372	93.75
508.588	86.75
508.805	107.75
509.021	108.75
509.238	100.75
509.454	106.75
509.67	94.75
509.887	108.75
510.103	132.75
510.319	207.75
510.536	737.75
510.752	2340.75
510.968	672.75
511.184	158.75
511.401	110.75
511.617	102.75
511.833	91.75
512.049	104.75
512.265	93.75
512.481	109.75
512.698	85.75
512.914	90.75
513.13	93.75
513.346	84.75
513.562	88.75
513.778	106.75
513.994	89.75
514.21	98.75
514.426	108.75
514.642	132.75
514.858	134.75
