Data from Uncirc_2003_H10_HRD10591_00005.txt Node
Date: Wed Jan 03 10:35:48 EST 2024
User: Yrep
Spectrometer: HR+D1059
Trigger mode: 1
Integration Time (sec): 1.000000E-1
Scans to average: 1
Electric dark correction enabled: true
Nonlinearity correction enabled: false
Boxcar width: 0
XAxis mode: Wavelengths
Number of Pixels in Spectrum: 2048
>>>>>Begin Spectral Data<<<<<
223.165	-23.12
223.4	-23.12
223.635	-23.12
223.869	-16.12
224.104	-2.12
224.338	-19.12
224.573	-16.12
224.808	-8.12
225.042	-7.12
225.277	-18.12
225.511	-1.12
225.746	-0.12
225.98	0.88
226.215	15.88
226.449	24.88
226.683	25.88
226.918	21.88
227.152	21.88
227.387	32.88
227.621	39.88
227.856	43.88
228.09	37.88
228.324	50.88
228.559	63.88
228.793	46.88
229.027	54.88
229.262	57.88
229.496	84.88
229.73	91.88
229.964	84.88
230.199	59.88
230.433	69.88
230.667	72.88
230.901	64.88
231.136	77.88
231.37	92.88
231.604	79.88
231.838	75.88
232.072	66.88
232.306	86.88
232.541	73.88
232.775	68.88
233.009	78.88
233.243	85.88
233.477	69.88
233.711	70.88
233.945	72.88
234.179	83.88
234.413	69.88
234.647	73.88
234.881	78.88
235.115	70.88
235.349	59.88
235.583	57.88
235.817	71.88
236.051	70.88
236.285	86.88
236.519	80.88
236.753	71.88
236.987	70.88
237.221	84.88
237.455	80.88
237.689	85.88
237.922	76.88
238.156	69.88
238.39	72.88
238.624	71.88
238.858	79.88
239.091	74.88
239.325	65.88
239.559	95.88
239.793	88.88
240.027	89.88
240.26	72.88
240.494	73.88
240.728	79.88
240.961	82.88
241.195	79.88
241.429	84.88
241.662	73.88
241.896	74.88
242.13	75.88
242.363	74.88
242.597	83.88
242.83	81.88
243.064	70.88
243.298	67.88
243.531	57.88
243.765	63.88
243.998	77.88
244.232	75.88
244.465	76.88
244.699	68.88
244.932	72.88
245.166	72.88
245.399	74.88
245.633	82.88
245.866	70.88
246.099	84.88
246.333	78.88
246.566	80.88
246.8	78.88
247.033	77.88
247.266	51.88
247.5	73.88
247.733	74.88
247.966	75.88
248.2	72.88
248.433	76.88
248.666	73.88
248.899	101.88
249.133	70.88
249.366	80.88
249.599	89.88
249.832	71.88
250.066	73.88
250.299	67.88
250.532	89.88
250.765	69.88
250.998	66.88
251.231	66.88
251.465	74.88
251.698	84.88
251.931	63.88
252.164	64.88
252.397	74.88
252.63	75.88
252.863	89.88
253.096	73.88
253.329	69.88
253.562	72.88
253.795	77.88
254.028	75.88
254.261	75.88
254.494	79.88
254.727	83.88
254.96	92.88
255.193	82.88
255.426	93.88
255.659	84.88
255.892	76.88
256.124	81.88
256.357	68.88
256.59	79.88
256.823	73.88
257.056	80.88
257.289	76.88
257.521	95.88
257.754	83.88
257.987	91.88
258.22	76.88
258.452	81.88
258.685	78.88
258.918	83.88
259.151	67.88
259.383	80.88
259.616	79.88
259.849	65.88
260.081	78.88
260.314	86.88
260.547	68.88
260.779	78.88
261.012	90.88
261.244	83.88
261.477	84.88
261.71	88.88
261.942	103.88
262.175	96.88
262.407	73.88
262.64	86.88
262.872	83.88
263.105	80.88
263.337	84.88
263.57	84.88
263.802	82.88
264.035	65.88
264.267	77.88
264.499	83.88
264.732	77.88
264.964	82.88
265.197	73.88
265.429	80.88
265.661	84.88
265.894	77.88
266.126	84.88
266.358	88.88
266.591	99.88
266.823	83.88
267.055	73.88
267.287	73.88
267.52	81.88
267.752	84.88
267.984	85.88
268.216	85.88
268.448	77.88
268.681	75.88
268.913	91.88
269.145	75.88
269.377	82.88
269.609	89.88
269.841	89.88
270.073	72.88
270.306	92.88
270.538	73.88
270.77	87.88
271.002	86.88
271.234	76.88
271.466	81.88
271.698	88.88
271.93	74.88
272.162	72.88
272.394	83.88
272.626	76.88
272.858	86.88
273.09	80.88
273.322	81.88
273.553	83.88
273.785	97.88
274.017	69.88
274.249	83.88
274.481	80.88
274.713	86.88
274.945	86.88
275.176	92.88
275.408	83.88
275.64	86.88
275.872	82.88
276.104	82.88
276.335	80.88
276.567	96.88
276.799	103.88
277.031	87.88
277.262	75.88
277.494	77.88
277.726	71.88
277.957	71.88
278.189	81.88
278.421	80.88
278.652	69.88
278.884	78.88
279.115	93.88
279.347	74.88
279.579	82.88
279.81	87.88
280.042	87.88
280.273	87.88
280.505	94.88
280.736	82.88
280.968	98.88
281.199	91.88
281.431	84.88
281.662	87.88
281.894	94.88
282.125	96.88
282.356	119.88
282.588	132.88
282.819	103.88
283.051	88.88
283.282	89.88
283.513	100.88
283.745	87.88
283.976	74.88
284.207	83.88
284.439	71.88
284.67	79.88
284.901	87.88
285.132	97.88
285.364	86.88
285.595	76.88
285.826	100.88
286.057	80.88
286.288	84.88
286.52	79.88
286.751	81.88
286.982	88.88
287.213	78.88
287.444	71.88
287.675	78.88
287.906	92.88
288.138	93.88
288.369	89.88
288.6	97.88
288.831	99.88
289.062	82.88
289.293	87.88
289.524	77.88
289.755	84.88
289.986	93.88
290.217	95.88
290.448	81.88
290.679	79.88
290.91	79.88
291.141	102.88
291.371	77.88
291.602	77.88
291.833	78.88
292.064	89.88
292.295	95.88
292.526	68.88
292.757	88.88
292.987	88.88
293.218	81.88
293.449	79.88
293.68	88.88
293.91	88.88
294.141	89.88
294.372	79.88
294.603	82.88
294.833	88.88
295.064	91.88
295.295	76.88
295.525	96.88
295.756	109.88
295.987	119.88
296.217	128.88
296.448	115.88
296.679	86.88
296.909	79.88
297.14	77.88
297.37	95.88
297.601	94.88
297.831	83.88
298.062	94.88
298.292	91.88
298.523	87.88
298.753	95.88
298.984	78.88
299.214	89.88
299.445	95.88
299.675	87.88
299.905	100.88
300.136	100.88
300.366	94.88
300.597	93.88
300.827	99.88
301.057	94.88
301.288	79.88
301.518	90.88
301.748	87.88
301.979	91.88
302.209	93.88
302.439	96.88
302.669	87.88
302.9	88.88
303.13	106.88
303.36	94.88
303.59	82.88
303.82	75.88
304.051	83.88
304.281	79.88
304.511	103.88
304.741	80.88
304.971	74.88
305.201	89.88
305.431	94.88
305.661	96.88
305.891	94.88
306.121	98.88
306.352	92.88
306.582	95.88
306.812	88.88
307.042	91.88
307.272	93.88
307.502	98.88
307.731	97.88
307.961	91.88
308.191	82.88
308.421	85.88
308.651	102.88
308.881	94.88
309.111	96.88
309.341	99.88
309.571	92.88
309.8	88.88
310.03	80.88
310.26	97.88
310.49	90.88
310.72	101.88
310.949	95.88
311.179	97.88
311.409	95.88
311.639	98.88
311.868	92.88
312.098	93.88
312.328	72.88
312.557	87.88
312.787	87.88
313.017	87.88
313.246	78.88
313.476	93.88
313.706	82.88
313.935	95.88
314.165	95.88
314.394	104.88
314.624	86.88
314.853	83.88
315.083	88.88
315.312	75.88
315.542	86.88
315.771	83.88
316.001	88.88
316.23	97.88
316.46	95.88
316.689	83.88
316.919	84.88
317.148	86.88
317.377	88.88
317.607	84.88
317.836	83.88
318.065	75.88
318.295	85.88
318.524	96.88
318.753	104.88
318.983	95.88
319.212	112.88
319.441	111.88
319.67	111.88
319.9	95.88
320.129	97.88
320.358	97.88
320.587	111.88
320.816	91.88
321.046	101.88
321.275	94.88
321.504	97.88
321.733	100.88
321.962	102.88
322.191	102.88
322.42	97.88
322.649	111.88
322.878	106.88
323.108	110.88
323.337	118.88
323.566	152.88
323.795	157.88
324.024	193.88
324.253	413.88
324.482	845.88
324.71	1665.88
324.939	2149.88
325.168	795.88
325.397	235.88
325.626	149.88
325.855	134.88
326.084	117.88
326.313	143.88
326.542	140.88
326.77	241.88
326.999	460.88
327.228	942.88
327.457	1711.88
327.686	1315.88
327.914	353.88
328.143	179.88
328.372	143.88
328.6	128.88
328.829	108.88
329.058	115.88
329.287	108.88
329.515	97.88
329.744	91.88
329.972	98.88
330.201	90.88
330.43	109.88
330.658	120.88
330.887	144.88
331.115	107.88
331.344	100.88
331.572	106.88
331.801	102.88
332.03	102.88
332.258	100.88
332.486	83.88
332.715	91.88
332.943	102.88
333.172	102.88
333.4	92.88
333.629	93.88
333.857	108.88
334.085	104.88
334.314	85.88
334.542	102.88
334.771	88.88
334.999	87.88
335.227	101.88
335.455	87.88
335.684	89.88
335.912	87.88
336.14	93.88
336.369	87.88
336.597	99.88
336.825	99.88
337.053	83.88
337.281	81.88
337.51	91.88
337.738	93.88
337.966	98.88
338.194	90.88
338.422	88.88
338.65	79.88
338.878	97.88
339.106	67.88
339.334	101.88
339.562	90.88
339.79	90.88
340.018	91.88
340.246	89.88
340.474	94.88
340.702	83.88
340.93	91.88
341.158	84.88
341.386	90.88
341.614	92.88
341.842	87.88
342.07	101.88
342.298	107.88
342.526	80.88
342.754	85.88
342.981	93.88
343.209	93.88
343.437	98.88
343.665	87.88
343.893	96.88
344.12	83.88
344.348	89.88
344.576	92.88
344.804	98.88
345.031	97.88
345.259	87.88
345.487	99.88
345.714	87.88
345.942	82.88
346.17	81.88
346.397	92.88
346.625	93.88
346.853	92.88
347.08	105.88
347.308	90.88
347.535	97.88
347.763	100.88
347.99	97.88
348.218	99.88
348.445	99.88
348.673	107.88
348.9	97.88
349.128	85.88
349.355	101.88
349.583	95.88
349.81	93.88
350.037	100.88
350.265	90.88
350.492	95.88
350.72	91.88
350.947	86.88
351.174	111.88
351.402	114.88
351.629	95.88
351.856	100.88
352.083	100.88
352.311	95.88
352.538	112.88
352.765	113.88
352.992	107.88
353.22	100.88
353.447	95.88
353.674	91.88
353.901	94.88
354.128	105.88
354.355	99.88
354.583	100.88
354.81	99.88
355.037	77.88
355.264	87.88
355.491	99.88
355.718	97.88
355.945	80.88
356.172	94.88
356.399	99.88
356.626	97.88
356.853	91.88
357.08	87.88
357.307	83.88
357.534	73.88
357.761	78.88
357.988	90.88
358.215	101.88
358.441	95.88
358.668	84.88
358.895	98.88
359.122	87.88
359.349	88.88
359.576	85.88
359.802	104.88
360.029	99.88
360.256	110.88
360.483	95.88
360.709	91.88
360.936	95.88
361.163	93.88
361.39	96.88
361.616	97.88
361.843	77.88
362.07	96.88
362.296	99.88
362.523	82.88
362.749	81.88
362.976	84.88
363.203	92.88
363.429	101.88
363.656	100.88
363.882	94.88
364.109	83.88
364.335	99.88
364.562	93.88
364.788	83.88
365.015	88.88
365.241	110.88
365.468	91.88
365.694	88.88
365.92	84.88
366.147	91.88
366.373	85.88
366.599	102.88
366.826	82.88
367.052	86.88
367.278	92.88
367.505	83.88
367.731	89.88
367.957	86.88
368.184	89.88
368.41	93.88
368.636	109.88
368.862	120.88
369.089	96.88
369.315	87.88
369.541	102.88
369.767	87.88
369.993	81.88
370.219	87.88
370.445	84.88
370.672	86.88
370.898	77.88
371.124	95.88
371.35	75.88
371.576	87.88
371.802	83.88
372.028	99.88
372.254	82.88
372.48	85.88
372.706	89.88
372.932	83.88
373.158	97.88
373.384	95.88
373.61	81.88
373.835	92.88
374.061	82.88
374.287	87.88
374.513	65.88
374.739	76.88
374.965	92.88
375.191	91.88
375.416	96.88
375.642	83.88
375.868	92.88
376.094	87.88
376.319	89.88
376.545	73.88
376.771	87.88
376.997	96.88
377.222	101.88
377.448	99.88
377.674	92.88
377.899	87.88
378.125	89.88
378.35	94.88
378.576	98.88
378.802	87.88
379.027	98.88
379.253	83.88
379.478	89.88
379.704	99.88
379.929	102.88
380.155	93.88
380.38	92.88
380.606	95.88
380.831	97.88
381.057	95.88
381.282	106.88
381.507	85.88
381.733	102.88
381.958	78.88
382.184	77.88
382.409	98.88
382.634	101.88
382.86	101.88
383.085	96.88
383.31	100.88
383.535	115.88
383.761	109.88
383.986	109.88
384.211	99.88
384.436	82.88
384.662	94.88
384.887	102.88
385.112	117.88
385.337	112.88
385.562	107.88
385.787	108.88
386.013	110.88
386.238	97.88
386.463	120.88
386.688	101.88
386.913	95.88
387.138	100.88
387.363	117.88
387.588	99.88
387.813	101.88
388.038	108.88
388.263	100.88
388.488	99.88
388.713	99.88
388.938	99.88
389.163	97.88
389.387	100.88
389.612	99.88
389.837	111.88
390.062	109.88
390.287	76.88
390.512	96.88
390.736	87.88
390.961	91.88
391.186	95.88
391.411	102.88
391.636	87.88
391.86	82.88
392.085	92.88
392.31	92.88
392.534	94.88
392.759	87.88
392.984	77.88
393.208	77.88
393.433	93.88
393.658	89.88
393.882	82.88
394.107	85.88
394.331	89.88
394.556	76.88
394.78	88.88
395.005	97.88
395.229	95.88
395.454	87.88
395.678	88.88
395.903	76.88
396.127	86.88
396.352	90.88
396.576	85.88
396.801	84.88
397.025	83.88
397.249	95.88
397.474	111.88
397.698	102.88
397.922	79.88
398.147	91.88
398.371	95.88
398.595	83.88
398.82	84.88
399.044	79.88
399.268	84.88
399.492	88.88
399.717	92.88
399.941	87.88
400.165	93.88
400.389	85.88
400.613	86.88
400.837	87.88
401.062	84.88
401.286	92.88
401.51	92.88
401.734	98.88
401.958	93.88
402.182	128.88
402.406	144.88
402.63	95.88
402.854	79.88
403.078	83.88
403.302	89.88
403.526	91.88
403.75	100.88
403.974	83.88
404.198	88.88
404.422	106.88
404.645	77.88
404.869	73.88
405.093	88.88
405.317	94.88
405.541	91.88
405.765	84.88
405.988	114.88
406.212	170.88
406.436	207.88
406.66	132.88
406.883	72.88
407.107	91.88
407.331	88.88
407.555	91.88
407.778	120.88
408.002	96.88
408.226	75.88
408.449	88.88
408.673	90.88
408.896	88.88
409.12	101.88
409.344	99.88
409.567	92.88
409.791	95.88
410.014	93.88
410.238	83.88
410.461	86.88
410.685	95.88
410.908	107.88
411.132	98.88
411.355	107.88
411.578	83.88
411.802	78.88
412.025	81.88
412.249	99.88
412.472	86.88
412.695	93.88
412.919	70.88
413.142	85.88
413.365	97.88
413.589	97.88
413.812	75.88
414.035	81.88
414.258	84.88
414.482	88.88
414.705	82.88
414.928	83.88
415.151	95.88
415.374	95.88
415.597	95.88
415.821	89.88
416.044	81.88
416.267	80.88
416.49	88.88
416.713	95.88
416.936	87.88
417.159	85.88
417.382	91.88
417.605	79.88
417.828	84.88
418.051	96.88
418.274	91.88
418.497	72.88
418.72	84.88
418.943	98.88
419.166	88.88
419.389	84.88
419.611	95.88
419.834	93.88
420.057	76.88
420.28	85.88
420.503	79.88
420.726	97.88
420.948	83.88
421.171	91.88
421.394	94.88
421.617	83.88
421.839	88.88
422.062	92.88
422.285	89.88
422.507	91.88
422.73	106.88
422.953	102.88
423.175	76.88
423.398	89.88
423.621	86.88
423.843	89.88
424.066	74.88
424.288	89.88
424.511	101.88
424.733	97.88
424.956	103.88
425.178	101.88
425.401	92.88
425.623	104.88
425.846	83.88
426.068	78.88
426.291	87.88
426.513	83.88
426.735	91.88
426.958	87.88
427.18	107.88
427.402	120.88
427.625	147.88
427.847	126.88
428.069	102.88
428.292	96.88
428.514	76.88
428.736	75.88
428.958	87.88
429.181	73.88
429.403	80.88
429.625	90.88
429.847	89.88
430.069	83.88
430.292	97.88
430.514	87.88
430.736	99.88
430.958	90.88
431.18	80.88
431.402	92.88
431.624	95.88
431.846	78.88
432.068	88.88
432.29	93.88
432.512	75.88
432.734	65.88
432.956	92.88
433.178	90.88
433.4	107.88
433.622	86.88
433.844	93.88
434.066	87.88
434.287	88.88
434.509	85.88
434.731	86.88
434.953	94.88
435.175	99.88
435.397	91.88
435.618	80.88
435.84	104.88
436.062	120.88
436.284	100.88
436.505	112.88
436.727	107.88
436.949	91.88
437.17	83.88
437.392	93.88
437.614	96.88
437.835	106.88
438.057	91.88
438.278	113.88
438.5	107.88
438.721	120.88
438.943	117.88
439.165	85.88
439.386	88.88
439.608	95.88
439.829	104.88
440.05	127.88
440.272	123.88
440.493	100.88
440.715	92.88
440.936	71.88
441.158	82.88
441.379	97.88
441.6	88.88
441.822	91.88
442.043	76.88
442.264	85.88
442.486	103.88
442.707	92.88
442.928	117.88
443.149	119.88
443.371	111.88
443.592	108.88
443.813	108.88
444.034	96.88
444.255	88.88
444.476	86.88
444.698	93.88
444.919	84.88
445.14	131.88
445.361	118.88
445.582	99.88
445.803	119.88
446.024	122.88
446.245	112.88
446.466	125.88
446.687	91.88
446.908	93.88
447.129	78.88
447.35	85.88
447.571	89.88
447.792	93.88
448.013	92.88
448.234	100.88
448.455	98.88
448.675	108.88
448.896	112.88
449.117	101.88
449.338	104.88
449.559	127.88
449.779	129.88
450	94.88
450.221	81.88
450.442	94.88
450.662	89.88
450.883	102.88
451.104	92.88
451.324	87.88
451.545	86.88
451.766	67.88
451.986	86.88
452.207	69.88
452.428	95.88
452.648	85.88
452.869	108.88
453.089	108.88
453.31	113.88
453.53	86.88
453.751	96.88
453.971	107.88
454.192	88.88
454.412	82.88
454.633	83.88
454.853	90.88
455.073	88.88
455.294	85.88
455.514	85.88
455.734	75.88
455.955	84.88
456.175	86.88
456.395	99.88
456.616	81.88
456.836	77.88
457.056	73.88
457.276	85.88
457.497	90.88
457.717	65.88
457.937	88.88
458.157	88.88
458.377	89.88
458.598	111.88
458.818	137.88
459.038	131.88
459.258	101.88
459.478	100.88
459.698	77.88
459.918	98.88
460.138	97.88
460.358	91.88
460.578	102.88
460.798	94.88
461.018	83.88
461.238	92.88
461.458	95.88
461.678	92.88
461.898	92.88
462.118	91.88
462.338	98.88
462.558	91.88
462.777	84.88
462.997	67.88
463.217	73.88
463.437	97.88
463.657	84.88
463.876	78.88
464.096	95.88
464.316	76.88
464.536	89.88
464.755	91.88
464.975	116.88
465.195	147.88
465.414	145.88
465.634	98.88
465.854	97.88
466.073	89.88
466.293	95.88
466.512	79.88
466.732	88.88
466.951	77.88
467.171	75.88
467.391	87.88
467.61	107.88
467.829	98.88
468.049	82.88
468.268	90.88
468.488	85.88
468.707	79.88
468.927	97.88
469.146	75.88
469.365	75.88
469.585	92.88
469.804	97.88
470.023	93.88
470.243	85.88
470.462	102.88
470.681	123.88
470.901	96.88
471.12	85.88
471.339	71.88
471.558	77.88
471.777	87.88
471.997	78.88
472.216	95.88
472.435	90.88
472.654	65.88
472.873	93.88
473.092	94.88
473.311	86.88
473.53	83.88
473.749	75.88
473.968	84.88
474.187	98.88
474.406	92.88
474.625	87.88
474.844	94.88
475.063	89.88
475.282	82.88
475.501	78.88
475.72	82.88
475.939	70.88
476.158	87.88
476.377	78.88
476.596	86.88
476.814	87.88
477.033	85.88
477.252	83.88
477.471	82.88
477.69	86.88
477.908	88.88
478.127	86.88
478.346	84.88
478.564	67.88
478.783	99.88
479.002	80.88
479.22	101.88
479.439	99.88
479.658	105.88
479.876	96.88
480.095	88.88
480.313	95.88
480.532	87.88
480.751	89.88
480.969	99.88
481.188	86.88
481.406	100.88
481.624	89.88
481.843	97.88
482.061	86.88
482.28	94.88
482.498	101.88
482.717	91.88
482.935	79.88
483.153	86.88
483.372	85.88
483.59	86.88
483.808	92.88
484.027	99.88
484.245	79.88
484.463	103.88
484.681	93.88
484.9	78.88
485.118	93.88
485.336	94.88
485.554	93.88
485.772	98.88
485.99	98.88
486.209	90.88
486.427	100.88
486.645	97.88
486.863	121.88
487.081	100.88
487.299	104.88
487.517	92.88
487.735	88.88
487.953	90.88
488.171	95.88
488.389	94.88
488.607	89.88
488.825	99.88
489.043	101.88
489.261	87.88
489.479	77.88
489.696	98.88
489.914	76.88
490.132	88.88
490.35	99.88
490.568	80.88
490.786	86.88
491.003	85.88
491.221	101.88
491.439	79.88
491.657	91.88
491.874	90.88
492.092	85.88
492.31	91.88
492.527	100.88
492.745	76.88
492.963	79.88
493.18	79.88
493.398	89.88
493.615	93.88
493.833	93.88
494.05	86.88
494.268	98.88
494.485	95.88
494.703	90.88
494.92	87.88
495.138	91.88
495.355	88.88
495.573	99.88
495.79	87.88
496.008	92.88
496.225	94.88
496.442	102.88
496.66	91.88
496.877	92.88
497.094	100.88
497.312	80.88
497.529	94.88
497.746	84.88
497.963	91.88
498.181	98.88
498.398	104.88
498.615	103.88
498.832	101.88
499.049	93.88
499.267	89.88
499.484	91.88
499.701	89.88
499.918	96.88
500.135	94.88
500.352	85.88
500.569	92.88
500.786	96.88
501.003	90.88
501.22	88.88
501.437	91.88
501.654	76.88
501.871	98.88
502.088	97.88
502.305	87.88
502.522	81.88
502.739	93.88
502.956	99.88
503.172	96.88
503.389	87.88
503.606	96.88
503.823	98.88
504.04	91.88
504.256	89.88
504.473	94.88
504.69	79.88
504.907	93.88
505.123	80.88
505.34	92.88
505.557	104.88
505.773	104.88
505.99	87.88
506.207	87.88
506.423	97.88
506.64	95.88
506.856	89.88
507.073	87.88
507.289	104.88
507.506	95.88
507.722	115.88
507.939	109.88
508.155	86.88
508.372	84.88
508.588	86.88
508.805	93.88
509.021	100.88
509.238	101.88
509.454	102.88
509.67	111.88
509.887	98.88
510.103	129.88
510.319	220.88
510.536	774.88
510.752	2410.88
510.968	651.88
511.184	148.88
511.401	113.88
511.617	111.88
511.833	87.88
512.049	86.88
512.265	88.88
512.481	93.88
512.698	92.88
512.914	94.88
513.13	99.88
513.346	102.88
513.562	99.88
513.778	100.88
513.994	83.88
514.21	93.88
514.426	118.88
514.642	137.88
514.858	110.88
515.074	141.88
515.29	421.88
515.506	1414.88
515.721	517.88
515.937	151.88
516.153	94.88
516.369	107.88
516.585	84.88
