Data from Uncirc_2003_H10_HRD10591_00029.txt Node
Date: Wed Jan 03 10:35:53 EST 2024
User: Yrep
Spectrometer: HR+D1059
Trigger mode: 1
Integration Time (sec): 1.000000E-1
Scans to average: 1
Electric dark correction enabled: true
Nonlinearity correction enabled: false
Boxcar width: 0
XAxis mode: Wavelengths
Number of Pixels in Spectrum: 2048
>>>>>Begin Spectral Data<<<<<
223.165	-25.38
223.4	-25.38
223.635	-25.38
223.869	-9.38
224.104	-2.38
224.338	-7.38
224.573	-24.38
224.808	-10.38
225.042	-18.38
225.277	-13.38
225.511	8.62
225.746	3.62
225.98	-0.38
226.215	17.62
226.449	13.62
226.683	18.62
226.918	18.62
227.152	30.62
227.387	24.62
227.621	32.62
227.856	49.62
228.09	44.62
228.324	44.62
228.559	65.62
228.793	50.62
229.027	53.62
229.262	64.62
229.496	70.62
229.73	85.62
229.964	87.62
230.199	75.62
230.433	74.62
230.667	85.62
230.901	99.62
231.136	78.62
231.37	83.62
231.604	61.62
231.838	84.62
232.072	87.62
232.306	76.62
232.541	92.62
232.775	72.62
233.009	88.62
233.243	87.62
233.477	80.62
233.711	61.62
233.945	81.62
234.179	84.62
234.413	70.62
234.647	69.62
234.881	80.62
235.115	80.62
235.349	64.62
235.583	71.62
235.817	77.62
236.051	63.62
236.285	75.62
236.519	79.62
236.753	89.62
236.987	95.62
237.221	85.62
237.455	80.62
237.689	67.62
237.922	62.62
238.156	77.62
238.39	71.62
238.624	79.62
238.858	82.62
239.091	64.62
239.325	73.62
239.559	74.62
239.793	77.62
240.027	77.62
240.26	78.62
240.494	70.62
240.728	94.62
240.961	75.62
241.195	67.62
241.429	93.62
241.662	65.62
241.896	77.62
242.13	77.62
242.363	79.62
242.597	86.62
242.83	92.62
243.064	96.62
243.298	82.62
243.531	75.62
243.765	85.62
243.998	77.62
244.232	73.62
244.465	77.62
244.699	89.62
244.932	78.62
245.166	87.62
245.399	68.62
245.633	65.62
245.866	70.62
246.099	83.62
246.333	80.62
246.566	78.62
246.8	81.62
247.033	84.62
247.266	67.62
247.5	83.62
247.733	72.62
247.966	72.62
248.2	80.62
248.433	72.62
248.666	84.62
248.899	72.62
249.133	98.62
249.366	83.62
249.599	86.62
249.832	93.62
250.066	89.62
250.299	79.62
250.532	66.62
250.765	71.62
250.998	83.62
251.231	82.62
251.465	76.62
251.698	77.62
251.931	82.62
252.164	74.62
252.397	68.62
252.63	71.62
252.863	68.62
253.096	82.62
253.329	81.62
253.562	69.62
253.795	76.62
254.028	88.62
254.261	77.62
254.494	83.62
254.727	67.62
254.96	85.62
255.193	81.62
255.426	90.62
255.659	78.62
255.892	80.62
256.124	87.62
256.357	77.62
256.59	84.62
256.823	80.62
257.056	80.62
257.289	77.62
257.521	89.62
257.754	79.62
257.987	81.62
258.22	89.62
258.452	77.62
258.685	72.62
258.918	89.62
259.151	90.62
259.383	89.62
259.616	73.62
259.849	75.62
260.081	77.62
260.314	75.62
260.547	82.62
260.779	81.62
261.012	81.62
261.244	77.62
261.477	76.62
261.71	85.62
261.942	101.62
262.175	101.62
262.407	87.62
262.64	91.62
262.872	83.62
263.105	73.62
263.337	74.62
263.57	94.62
263.802	83.62
264.035	86.62
264.267	78.62
264.499	81.62
264.732	85.62
264.964	67.62
265.197	94.62
265.429	83.62
265.661	80.62
265.894	76.62
266.126	80.62
266.358	74.62
266.591	82.62
266.823	84.62
267.055	81.62
267.287	81.62
267.52	67.62
267.752	89.62
267.984	89.62
268.216	99.62
268.448	85.62
268.681	68.62
268.913	79.62
269.145	89.62
269.377	90.62
269.609	84.62
269.841	84.62
270.073	76.62
270.306	73.62
270.538	86.62
270.77	95.62
271.002	86.62
271.234	87.62
271.466	78.62
271.698	80.62
271.93	83.62
272.162	86.62
272.394	88.62
272.626	67.62
272.858	76.62
273.09	76.62
273.322	89.62
273.553	96.62
273.785	78.62
274.017	89.62
274.249	78.62
274.481	86.62
274.713	93.62
274.945	99.62
275.176	84.62
275.408	90.62
275.64	82.62
275.872	76.62
276.104	99.62
276.335	85.62
276.567	98.62
276.799	93.62
277.031	95.62
277.262	96.62
277.494	93.62
277.726	85.62
277.957	80.62
278.189	75.62
278.421	99.62
278.652	98.62
278.884	81.62
279.115	82.62
279.347	81.62
279.579	90.62
279.81	93.62
280.042	86.62
280.273	72.62
280.505	80.62
280.736	87.62
280.968	97.62
281.199	100.62
281.431	91.62
281.662	78.62
281.894	82.62
282.125	103.62
282.356	95.62
282.588	116.62
282.819	105.62
283.051	82.62
283.282	83.62
283.513	82.62
283.745	68.62
283.976	86.62
284.207	95.62
284.439	92.62
284.67	86.62
284.901	88.62
285.132	80.62
285.364	79.62
285.595	76.62
285.826	85.62
286.057	82.62
286.288	85.62
286.52	86.62
286.751	98.62
286.982	88.62
287.213	92.62
287.444	84.62
287.675	98.62
287.906	82.62
288.138	84.62
288.369	91.62
288.6	96.62
288.831	83.62
289.062	80.62
289.293	100.62
289.524	81.62
289.755	70.62
289.986	93.62
290.217	106.62
290.448	85.62
290.679	79.62
290.91	68.62
291.141	81.62
291.371	84.62
291.602	77.62
291.833	94.62
292.064	88.62
292.295	90.62
292.526	82.62
292.757	96.62
292.987	85.62
293.218	73.62
293.449	84.62
293.68	93.62
293.91	93.62
294.141	83.62
294.372	87.62
294.603	84.62
294.833	90.62
295.064	85.62
295.295	85.62
295.525	83.62
295.756	83.62
295.987	104.62
296.217	120.62
296.448	122.62
296.679	95.62
296.909	96.62
297.14	89.62
297.37	77.62
297.601	93.62
297.831	79.62
298.062	81.62
298.292	95.62
298.523	83.62
298.753	79.62
298.984	93.62
299.214	83.62
299.445	77.62
299.675	96.62
299.905	76.62
300.136	92.62
300.366	82.62
300.597	93.62
300.827	92.62
301.057	96.62
301.288	93.62
301.518	85.62
301.748	90.62
301.979	97.62
302.209	88.62
302.439	81.62
302.669	86.62
302.9	80.62
303.13	89.62
303.36	86.62
303.59	103.62
303.82	92.62
304.051	93.62
304.281	95.62
304.511	88.62
304.741	88.62
304.971	85.62
305.201	92.62
305.431	94.62
305.661	79.62
305.891	87.62
306.121	87.62
306.352	96.62
306.582	101.62
306.812	81.62
307.042	91.62
307.272	81.62
307.502	93.62
307.731	85.62
307.961	86.62
308.191	81.62
308.421	86.62
308.651	96.62
308.881	92.62
309.111	92.62
309.341	89.62
309.571	76.62
309.8	94.62
310.03	99.62
310.26	86.62
310.49	88.62
310.72	111.62
310.949	103.62
311.179	90.62
311.409	98.62
311.639	99.62
311.868	96.62
312.098	90.62
312.328	96.62
312.557	89.62
312.787	88.62
313.017	102.62
313.246	94.62
313.476	91.62
313.706	96.62
313.935	89.62
314.165	90.62
314.394	98.62
314.624	100.62
314.853	103.62
315.083	101.62
315.312	88.62
315.542	105.62
315.771	81.62
316.001	74.62
316.23	103.62
316.46	106.62
316.689	80.62
316.919	99.62
317.148	97.62
317.377	94.62
317.607	95.62
317.836	102.62
318.065	87.62
318.295	110.62
318.524	88.62
318.753	94.62
318.983	93.62
319.212	97.62
319.441	96.62
319.67	108.62
319.9	83.62
320.129	102.62
320.358	81.62
320.587	85.62
320.816	104.62
321.046	106.62
321.275	81.62
321.504	79.62
321.733	118.62
321.962	108.62
322.191	100.62
322.42	101.62
322.649	109.62
322.878	104.62
323.108	100.62
323.337	123.62
323.566	123.62
323.795	131.62
324.024	217.62
324.253	400.62
324.482	831.62
324.71	1734.62
324.939	2298.62
325.168	826.62
325.397	230.62
325.626	151.62
325.855	132.62
326.084	140.62
326.313	130.62
326.542	158.62
326.77	232.62
326.999	480.62
327.228	1007.62
327.457	1781.62
327.686	1374.62
327.914	382.62
328.143	182.62
328.372	132.62
328.6	113.62
328.829	116.62
329.058	134.62
329.287	115.62
329.515	100.62
329.744	105.62
329.972	99.62
330.201	98.62
330.43	101.62
330.658	117.62
330.887	120.62
331.115	118.62
331.344	90.62
331.572	92.62
331.801	97.62
332.03	104.62
332.258	105.62
332.486	84.62
332.715	85.62
332.943	97.62
333.172	104.62
333.4	97.62
333.629	100.62
333.857	102.62
334.085	107.62
334.314	115.62
334.542	106.62
334.771	89.62
334.999	88.62
335.227	94.62
335.455	105.62
335.684	111.62
335.912	100.62
336.14	100.62
336.369	88.62
336.597	90.62
336.825	90.62
337.053	114.62
337.281	101.62
337.51	104.62
337.738	85.62
337.966	87.62
338.194	97.62
338.422	85.62
338.65	94.62
338.878	93.62
339.106	74.62
339.334	95.62
339.562	87.62
339.79	99.62
340.018	93.62
340.246	90.62
340.474	86.62
340.702	76.62
340.93	85.62
341.158	76.62
341.386	79.62
341.614	102.62
341.842	80.62
342.07	87.62
342.298	80.62
342.526	82.62
342.754	90.62
342.981	89.62
343.209	89.62
343.437	104.62
343.665	79.62
343.893	86.62
344.12	96.62
344.348	85.62
344.576	73.62
344.804	71.62
345.031	101.62
345.259	94.62
345.487	89.62
345.714	78.62
345.942	89.62
346.17	88.62
346.397	98.62
346.625	93.62
346.853	104.62
347.08	107.62
347.308	100.62
347.535	86.62
347.763	96.62
347.99	88.62
348.218	104.62
348.445	107.62
348.673	96.62
348.9	85.62
349.128	102.62
349.355	102.62
349.583	90.62
349.81	85.62
350.037	93.62
350.265	96.62
350.492	79.62
350.72	97.62
350.947	107.62
351.174	95.62
351.402	121.62
351.629	102.62
351.856	101.62
352.083	101.62
352.311	98.62
352.538	112.62
352.765	102.62
352.992	103.62
353.22	118.62
353.447	103.62
353.674	100.62
353.901	108.62
354.128	102.62
354.355	101.62
354.583	90.62
354.81	106.62
355.037	93.62
355.264	97.62
355.491	89.62
355.718	96.62
355.945	95.62
356.172	83.62
356.399	111.62
356.626	90.62
356.853	101.62
357.08	88.62
357.307	78.62
357.534	90.62
357.761	90.62
357.988	96.62
358.215	93.62
358.441	105.62
358.668	81.62
358.895	98.62
359.122	74.62
359.349	84.62
359.576	91.62
359.802	85.62
360.029	105.62
360.256	105.62
360.483	95.62
360.709	90.62
360.936	99.62
361.163	98.62
361.39	101.62
361.616	100.62
361.843	98.62
362.07	89.62
362.296	89.62
362.523	91.62
362.749	76.62
362.976	93.62
363.203	90.62
363.429	93.62
363.656	88.62
363.882	96.62
364.109	94.62
364.335	96.62
364.562	89.62
364.788	92.62
365.015	83.62
365.241	108.62
365.468	111.62
365.694	100.62
365.92	94.62
366.147	82.62
366.373	86.62
366.599	81.62
366.826	80.62
367.052	99.62
367.278	92.62
367.505	76.62
367.731	92.62
367.957	87.62
368.184	90.62
368.41	110.62
368.636	111.62
368.862	110.62
369.089	103.62
369.315	76.62
369.541	86.62
369.767	86.62
369.993	90.62
370.219	108.62
370.445	85.62
370.672	96.62
370.898	87.62
371.124	96.62
371.35	81.62
371.576	89.62
371.802	97.62
372.028	89.62
372.254	79.62
372.48	98.62
372.706	76.62
372.932	101.62
373.158	86.62
373.384	83.62
373.61	93.62
373.835	82.62
374.061	80.62
374.287	90.62
374.513	84.62
374.739	92.62
374.965	92.62
375.191	73.62
375.416	80.62
375.642	85.62
375.868	90.62
376.094	86.62
376.319	87.62
376.545	94.62
376.771	88.62
376.997	93.62
377.222	97.62
377.448	99.62
377.674	98.62
377.899	102.62
378.125	95.62
378.35	112.62
378.576	97.62
378.802	96.62
379.027	100.62
379.253	85.62
379.478	105.62
379.704	93.62
379.929	99.62
380.155	88.62
380.38	103.62
380.606	96.62
380.831	94.62
381.057	105.62
381.282	96.62
381.507	92.62
381.733	88.62
381.958	83.62
382.184	89.62
382.409	89.62
382.634	98.62
382.86	89.62
383.085	98.62
383.31	97.62
383.535	119.62
383.761	97.62
383.986	96.62
384.211	99.62
384.436	94.62
384.662	103.62
384.887	100.62
385.112	98.62
385.337	92.62
385.562	114.62
385.787	113.62
386.013	105.62
386.238	117.62
386.463	98.62
386.688	108.62
386.913	102.62
387.138	93.62
387.363	104.62
387.588	101.62
387.813	102.62
388.038	111.62
388.263	127.62
388.488	106.62
388.713	112.62
388.938	96.62
389.163	90.62
389.387	90.62
389.612	92.62
389.837	94.62
390.062	84.62
390.287	91.62
390.512	90.62
390.736	94.62
390.961	101.62
391.186	100.62
391.411	90.62
391.636	83.62
391.86	96.62
392.085	81.62
392.31	91.62
392.534	72.62
392.759	72.62
392.984	79.62
393.208	82.62
393.433	76.62
393.658	89.62
393.882	68.62
394.107	79.62
394.331	80.62
394.556	80.62
394.78	80.62
395.005	93.62
395.229	87.62
395.454	78.62
395.678	82.62
395.903	86.62
396.127	98.62
396.352	78.62
396.576	85.62
396.801	87.62
397.025	81.62
397.249	85.62
397.474	85.62
397.698	81.62
397.922	86.62
398.147	79.62
398.371	95.62
398.595	87.62
398.82	72.62
399.044	74.62
399.268	84.62
399.492	84.62
399.717	99.62
399.941	87.62
400.165	92.62
400.389	97.62
400.613	82.62
400.837	96.62
401.062	84.62
401.286	79.62
401.51	86.62
401.734	92.62
401.958	96.62
402.182	113.62
402.406	149.62
402.63	125.62
402.854	79.62
403.078	94.62
403.302	84.62
403.526	79.62
403.75	85.62
403.974	88.62
404.198	83.62
404.422	86.62
404.645	79.62
404.869	96.62
405.093	78.62
405.317	99.62
405.541	96.62
405.765	104.62
405.988	125.62
406.212	164.62
406.436	218.62
406.66	143.62
406.883	80.62
407.107	96.62
407.331	80.62
407.555	104.62
407.778	94.62
408.002	101.62
408.226	72.62
408.449	83.62
408.673	74.62
408.896	83.62
409.12	90.62
409.344	104.62
409.567	90.62
409.791	103.62
410.014	111.62
410.238	87.62
410.461	112.62
410.685	103.62
410.908	105.62
411.132	108.62
411.355	103.62
411.578	89.62
411.802	90.62
412.025	95.62
412.249	96.62
412.472	90.62
412.695	91.62
412.919	94.62
413.142	76.62
413.365	97.62
413.589	86.62
413.812	93.62
414.035	89.62
414.258	96.62
414.482	89.62
414.705	81.62
414.928	79.62
415.151	95.62
415.374	85.62
415.597	87.62
415.821	100.62
416.044	82.62
416.267	84.62
416.49	81.62
416.713	99.62
416.936	81.62
417.159	84.62
417.382	94.62
417.605	92.62
417.828	82.62
418.051	89.62
418.274	88.62
418.497	88.62
418.72	88.62
418.943	83.62
419.166	92.62
419.389	93.62
419.611	99.62
419.834	94.62
420.057	87.62
420.28	94.62
420.503	82.62
420.726	86.62
420.948	87.62
421.171	95.62
421.394	86.62
421.617	92.62
421.839	78.62
422.062	96.62
422.285	77.62
422.507	80.62
422.73	96.62
422.953	94.62
423.175	78.62
423.398	82.62
423.621	80.62
423.843	85.62
424.066	86.62
424.288	95.62
424.511	95.62
424.733	98.62
424.956	105.62
425.178	93.62
425.401	102.62
425.623	93.62
425.846	76.62
426.068	89.62
426.291	99.62
426.513	94.62
426.735	89.62
426.958	88.62
427.18	99.62
427.402	116.62
427.625	144.62
427.847	124.62
428.069	94.62
428.292	90.62
428.514	92.62
428.736	68.62
428.958	94.62
429.181	89.62
429.403	93.62
429.625	90.62
429.847	90.62
430.069	94.62
430.292	88.62
430.514	92.62
430.736	91.62
430.958	101.62
431.18	90.62
431.402	76.62
431.624	89.62
431.846	89.62
432.068	84.62
432.29	87.62
432.512	89.62
432.734	82.62
432.956	100.62
433.178	103.62
433.4	101.62
433.622	86.62
433.844	92.62
434.066	85.62
434.287	103.62
434.509	91.62
434.731	87.62
434.953	96.62
435.175	82.62
435.397	84.62
435.618	93.62
435.84	111.62
436.062	135.62
436.284	116.62
436.505	99.62
436.727	103.62
436.949	103.62
437.17	93.62
437.392	68.62
437.614	85.62
437.835	97.62
438.057	104.62
438.278	103.62
438.5	101.62
438.721	108.62
438.943	100.62
439.165	81.62
439.386	86.62
439.608	86.62
439.829	117.62
440.05	100.62
440.272	137.62
440.493	89.62
440.715	85.62
440.936	82.62
441.158	82.62
441.379	87.62
441.6	78.62
441.822	91.62
442.043	105.62
442.264	93.62
442.486	83.62
442.707	86.62
442.928	99.62
443.149	117.62
443.371	130.62
443.592	119.62
443.813	96.62
444.034	108.62
444.255	87.62
444.476	86.62
444.698	105.62
444.919	80.62
445.14	119.62
445.361	117.62
445.582	131.62
445.803	121.62
446.024	128.62
446.245	136.62
446.466	111.62
446.687	89.62
446.908	87.62
447.129	90.62
447.35	97.62
447.571	91.62
447.792	83.62
448.013	102.62
448.234	114.62
448.455	80.62
448.675	117.62
448.896	121.62
449.117	111.62
449.338	108.62
449.559	122.62
449.779	129.62
450	88.62
450.221	85.62
450.442	101.62
450.662	82.62
450.883	102.62
451.104	103.62
451.324	86.62
451.545	85.62
451.766	77.62
451.986	92.62
452.207	80.62
452.428	99.62
452.648	107.62
452.869	102.62
453.089	91.62
453.31	106.62
453.53	93.62
453.751	83.62
453.971	89.62
454.192	114.62
454.412	97.62
454.633	81.62
454.853	78.62
455.073	79.62
455.294	89.62
455.514	96.62
455.734	94.62
455.955	89.62
456.175	86.62
456.395	85.62
456.616	77.62
456.836	76.62
457.056	70.62
457.276	88.62
457.497	95.62
457.717	98.62
457.937	100.62
458.157	77.62
458.377	90.62
458.598	114.62
458.818	139.62
459.038	143.62
459.258	105.62
459.478	89.62
459.698	75.62
459.918	83.62
460.138	97.62
460.358	84.62
460.578	87.62
460.798	84.62
461.018	98.62
461.238	92.62
461.458	93.62
461.678	77.62
461.898	86.62
462.118	88.62
462.338	85.62
462.558	78.62
462.777	88.62
462.997	80.62
463.217	89.62
463.437	86.62
463.657	84.62
463.876	95.62
464.096	87.62
464.316	104.62
464.536	90.62
464.755	94.62
464.975	99.62
465.195	170.62
465.414	160.62
465.634	106.62
465.854	90.62
466.073	80.62
466.293	90.62
466.512	93.62
466.732	92.62
466.951	81.62
467.171	98.62
467.391	88.62
467.61	96.62
467.829	84.62
468.049	85.62
468.268	86.62
468.488	82.62
468.707	90.62
468.927	86.62
469.146	71.62
469.365	71.62
469.585	88.62
469.804	73.62
470.023	98.62
470.243	102.62
470.462	108.62
470.681	109.62
470.901	103.62
471.12	72.62
471.339	78.62
471.558	81.62
471.777	105.62
471.997	89.62
472.216	94.62
472.435	80.62
472.654	84.62
472.873	89.62
473.092	96.62
473.311	72.62
473.53	86.62
473.749	91.62
473.968	100.62
474.187	101.62
474.406	85.62
474.625	82.62
474.844	81.62
475.063	83.62
475.282	85.62
475.501	81.62
475.72	82.62
475.939	78.62
476.158	92.62
476.377	94.62
476.596	100.62
476.814	98.62
477.033	84.62
477.252	76.62
477.471	81.62
477.69	94.62
477.908	92.62
478.127	74.62
478.346	96.62
478.564	81.62
478.783	103.62
479.002	88.62
479.22	89.62
479.439	94.62
479.658	101.62
479.876	86.62
480.095	97.62
480.313	82.62
480.532	82.62
480.751	86.62
480.969	83.62
481.188	98.62
481.406	93.62
481.624	83.62
481.843	87.62
482.061	79.62
482.28	102.62
482.498	84.62
482.717	85.62
482.935	85.62
483.153	78.62
483.372	92.62
483.59	86.62
483.808	94.62
484.027	80.62
484.245	89.62
484.463	96.62
484.681	86.62
484.9	85.62
485.118	97.62
485.336	94.62
485.554	100.62
485.772	89.62
485.99	101.62
486.209	90.62
486.427	89.62
486.645	113.62
486.863	99.62
487.081	106.62
487.299	93.62
487.517	104.62
487.735	90.62
487.953	89.62
488.171	94.62
488.389	96.62
488.607	88.62
488.825	89.62
489.043	89.62
489.261	88.62
489.479	101.62
489.696	85.62
489.914	74.62
490.132	89.62
490.35	92.62
490.568	76.62
490.786	89.62
491.003	81.62
491.221	75.62
491.439	94.62
491.657	105.62
491.874	95.62
492.092	99.62
492.31	86.62
492.527	82.62
492.745	97.62
492.963	88.62
493.18	92.62
493.398	81.62
493.615	106.62
493.833	99.62
494.05	90.62
494.268	93.62
494.485	90.62
494.703	75.62
494.92	78.62
495.138	89.62
495.355	96.62
495.573	81.62
495.79	86.62
496.008	79.62
496.225	85.62
496.442	93.62
496.66	96.62
496.877	99.62
497.094	94.62
497.312	85.62
497.529	77.62
497.746	97.62
497.963	90.62
498.181	85.62
498.398	109.62
498.615	96.62
498.832	102.62
499.049	80.62
499.267	89.62
499.484	77.62
499.701	84.62
499.918	94.62
500.135	89.62
500.352	99.62
500.569	86.62
500.786	101.62
501.003	101.62
501.22	97.62
501.437	84.62
501.654	117.62
501.871	109.62
502.088	90.62
502.305	94.62
502.522	96.62
502.739	86.62
502.956	89.62
503.172	95.62
503.389	90.62
503.606	101.62
503.823	100.62
504.04	85.62
504.256	98.62
504.473	102.62
504.69	89.62
504.907	88.62
505.123	84.62
505.34	93.62
505.557	92.62
505.773	81.62
505.99	110.62
506.207	98.62
506.423	102.62
506.64	102.62
506.856	108.62
507.073	96.62
507.289	101.62
507.506	87.62
507.722	117.62
507.939	116.62
508.155	89.62
508.372	101.62
508.588	95.62
508.805	93.62
509.021	94.62
509.238	98.62
509.454	103.62
509.67	98.62
509.887	102.62
510.103	123.62
510.319	206.62
510.536	750.62
510.752	2359.62
510.968	660.62
511.184	162.62
511.401	102.62
511.617	103.62
511.833	101.62
512.049	86.62
512.265	85.62
512.481	98.62
512.698	84.62
512.914	77.62
513.13	89.62
513.346	86.62
513.562	86.62
513.778	93.62
513.994	85.62
514.21	102.62
514.426	124.62
514.642	129.62
514.858	118.62
515.074	156.62
515.29	432.62
515.506	1396.62
515.721	500.62
515.937	146.62
