Data from Uncirc_2003_H10_HRD10591_00007.txt Node
Date: Wed Jan 03 10:35:49 EST 2024
User: Yrep
Spectrometer: HR+D1059
Trigger mode: 1
Integration Time (sec): 1.000000E-1
Scans to average: 1
Electric dark correction enabled: true
Nonlinearity correction enabled: false
Boxcar width: 0
XAxis mode: Wavelengths
Number of Pixels in Spectrum: 2048
>>>>>Begin Spectral Data<<<<<
223.165	-19.06
223.4	-19.06
223.635	-19.06
223.869	-10.06
224.104	-2.06
224.338	-11.06
224.573	-11.06
224.808	-21.06
225.042	-19.06
225.277	-16.06
225.511	-0.06
225.746	10.94
225.98	-0.06
226.215	7.94
226.449	5.94
226.683	20.94
226.918	22.94
227.152	40.94
227.387	33.94
227.621	48.94
227.856	44.94
228.09	45.94
228.324	47.94
228.559	56.94
228.793	43.94
229.027	54.94
229.262	79.94
229.496	80.94
229.73	88.94
229.964	74.94
230.199	83.94
230.433	76.94
230.667	77.94
230.901	88.94
231.136	85.94
231.37	81.94
231.604	90.94
231.838	88.94
232.072	82.94
232.306	70.94
232.541	85.94
232.775	87.94
233.009	80.94
233.243	85.94
233.477	88.94
233.711	81.94
233.945	80.94
234.179	85.94
234.413	90.94
234.647	76.94
234.881	75.94
235.115	75.94
235.349	85.94
235.583	88.94
235.817	77.94
236.051	72.94
236.285	84.94
236.519	78.94
236.753	65.94
236.987	88.94
237.221	76.94
237.455	93.94
237.689	81.94
237.922	74.94
238.156	78.94
238.39	76.94
238.624	85.94
238.858	70.94
239.091	76.94
239.325	79.94
239.559	96.94
239.793	81.94
240.027	84.94
240.26	79.94
240.494	86.94
240.728	91.94
240.961	85.94
241.195	47.94
241.429	72.94
241.662	87.94
241.896	71.94
242.13	69.94
242.363	82.94
242.597	73.94
242.83	81.94
243.064	65.94
243.298	85.94
243.531	87.94
243.765	78.94
243.998	84.94
244.232	84.94
244.465	84.94
244.699	85.94
244.932	75.94
245.166	75.94
245.399	72.94
245.633	75.94
245.866	85.94
246.099	87.94
246.333	77.94
246.566	78.94
246.8	90.94
247.033	86.94
247.266	71.94
247.5	89.94
247.733	79.94
247.966	77.94
248.2	76.94
248.433	80.94
248.666	75.94
248.899	83.94
249.133	85.94
249.366	96.94
249.599	103.94
249.832	95.94
250.066	83.94
250.299	87.94
250.532	76.94
250.765	74.94
250.998	73.94
251.231	70.94
251.465	88.94
251.698	74.94
251.931	86.94
252.164	87.94
252.397	75.94
252.63	92.94
252.863	86.94
253.096	80.94
253.329	88.94
253.562	85.94
253.795	72.94
254.028	80.94
254.261	99.94
254.494	82.94
254.727	82.94
254.96	77.94
255.193	95.94
255.426	104.94
255.659	93.94
255.892	88.94
256.124	86.94
256.357	89.94
256.59	82.94
256.823	97.94
257.056	84.94
257.289	80.94
257.521	90.94
257.754	97.94
257.987	86.94
258.22	79.94
258.452	79.94
258.685	96.94
258.918	88.94
259.151	84.94
259.383	90.94
259.616	92.94
259.849	77.94
260.081	92.94
260.314	81.94
260.547	79.94
260.779	64.94
261.012	80.94
261.244	83.94
261.477	95.94
261.71	111.94
261.942	127.94
262.175	118.94
262.407	97.94
262.64	66.94
262.872	90.94
263.105	85.94
263.337	99.94
263.57	79.94
263.802	93.94
264.035	78.94
264.267	76.94
264.499	78.94
264.732	96.94
264.964	82.94
265.197	88.94
265.429	83.94
265.661	79.94
265.894	97.94
266.126	91.94
266.358	79.94
266.591	79.94
266.823	83.94
267.055	82.94
267.287	85.94
267.52	104.94
267.752	96.94
267.984	100.94
268.216	82.94
268.448	98.94
268.681	87.94
268.913	76.94
269.145	89.94
269.377	93.94
269.609	96.94
269.841	99.94
270.073	79.94
270.306	88.94
270.538	84.94
270.77	82.94
271.002	98.94
271.234	99.94
271.466	78.94
271.698	86.94
271.93	98.94
272.162	94.94
272.394	92.94
272.626	85.94
272.858	87.94
273.09	76.94
273.322	96.94
273.553	89.94
273.785	83.94
274.017	82.94
274.249	73.94
274.481	78.94
274.713	102.94
274.945	89.94
275.176	90.94
275.408	87.94
275.64	85.94
275.872	101.94
276.104	91.94
276.335	99.94
276.567	104.94
276.799	102.94
277.031	108.94
277.262	90.94
277.494	98.94
277.726	100.94
277.957	79.94
278.189	75.94
278.421	77.94
278.652	85.94
278.884	88.94
279.115	97.94
279.347	85.94
279.579	92.94
279.81	82.94
280.042	77.94
280.273	79.94
280.505	79.94
280.736	85.94
280.968	104.94
281.199	82.94
281.431	96.94
281.662	109.94
281.894	91.94
282.125	87.94
282.356	124.94
282.588	136.94
282.819	118.94
283.051	92.94
283.282	91.94
283.513	101.94
283.745	87.94
283.976	87.94
284.207	90.94
284.439	82.94
284.67	81.94
284.901	93.94
285.132	84.94
285.364	73.94
285.595	97.94
285.826	82.94
286.057	99.94
286.288	90.94
286.52	86.94
286.751	94.94
286.982	91.94
287.213	93.94
287.444	99.94
287.675	92.94
287.906	103.94
288.138	86.94
288.369	100.94
288.6	92.94
288.831	86.94
289.062	94.94
289.293	88.94
289.524	97.94
289.755	91.94
289.986	99.94
290.217	82.94
290.448	93.94
290.679	94.94
290.91	96.94
291.141	92.94
291.371	90.94
291.602	99.94
291.833	93.94
292.064	88.94
292.295	87.94
292.526	87.94
292.757	83.94
292.987	90.94
293.218	91.94
293.449	100.94
293.68	101.94
293.91	90.94
294.141	103.94
294.372	78.94
294.603	87.94
294.833	77.94
295.064	91.94
295.295	99.94
295.525	86.94
295.756	96.94
295.987	110.94
296.217	130.94
296.448	124.94
296.679	97.94
296.909	86.94
297.14	92.94
297.37	97.94
297.601	83.94
297.831	82.94
298.062	84.94
298.292	97.94
298.523	91.94
298.753	82.94
298.984	89.94
299.214	89.94
299.445	89.94
299.675	88.94
299.905	90.94
300.136	102.94
300.366	85.94
300.597	85.94
300.827	94.94
301.057	93.94
301.288	98.94
301.518	106.94
301.748	91.94
301.979	97.94
302.209	98.94
302.439	96.94
302.669	74.94
302.9	88.94
303.13	90.94
303.36	96.94
303.59	116.94
303.82	111.94
304.051	93.94
304.281	87.94
304.511	102.94
304.741	73.94
304.971	91.94
305.201	87.94
305.431	95.94
305.661	102.94
305.891	95.94
306.121	98.94
306.352	99.94
306.582	99.94
306.812	98.94
307.042	90.94
307.272	90.94
307.502	89.94
307.731	91.94
307.961	115.94
308.191	100.94
308.421	82.94
308.651	81.94
308.881	79.94
309.111	83.94
309.341	106.94
309.571	89.94
309.8	96.94
310.03	111.94
310.26	104.94
310.49	95.94
310.72	97.94
310.949	100.94
311.179	100.94
311.409	87.94
311.639	109.94
311.868	112.94
312.098	98.94
312.328	91.94
312.557	98.94
312.787	108.94
313.017	116.94
313.246	116.94
313.476	98.94
313.706	88.94
313.935	105.94
314.165	98.94
314.394	110.94
314.624	91.94
314.853	98.94
315.083	88.94
315.312	91.94
315.542	101.94
315.771	99.94
316.001	92.94
316.23	96.94
316.46	90.94
316.689	104.94
316.919	86.94
317.148	118.94
317.377	98.94
317.607	107.94
317.836	92.94
318.065	93.94
318.295	99.94
318.524	109.94
318.753	87.94
318.983	95.94
319.212	98.94
319.441	102.94
319.67	100.94
319.9	101.94
320.129	86.94
320.358	70.94
320.587	87.94
320.816	103.94
321.046	107.94
321.275	98.94
321.504	98.94
321.733	93.94
321.962	99.94
322.191	101.94
322.42	98.94
322.649	103.94
322.878	112.94
323.108	124.94
323.337	119.94
323.566	143.94
323.795	165.94
324.024	229.94
324.253	441.94
324.482	924.94
324.71	1894.94
324.939	2426.94
325.168	881.94
325.397	263.94
325.626	174.94
325.855	135.94
326.084	138.94
326.313	133.94
326.542	166.94
326.77	252.94
326.999	492.94
327.228	1032.94
327.457	1916.94
327.686	1514.94
327.914	397.94
328.143	205.94
328.372	163.94
328.6	122.94
328.829	109.94
329.058	123.94
329.287	122.94
329.515	113.94
329.744	104.94
329.972	98.94
330.201	92.94
330.43	95.94
330.658	130.94
330.887	141.94
331.115	134.94
331.344	107.94
331.572	116.94
331.801	108.94
332.03	96.94
332.258	110.94
332.486	87.94
332.715	84.94
332.943	103.94
333.172	82.94
333.4	97.94
333.629	106.94
333.857	110.94
334.085	94.94
334.314	105.94
334.542	103.94
334.771	94.94
334.999	101.94
335.227	101.94
335.455	88.94
335.684	103.94
335.912	109.94
336.14	111.94
336.369	101.94
336.597	104.94
336.825	103.94
337.053	93.94
337.281	99.94
337.51	102.94
337.738	100.94
337.966	105.94
338.194	94.94
338.422	91.94
338.65	103.94
338.878	103.94
339.106	88.94
339.334	92.94
339.562	86.94
339.79	83.94
340.018	89.94
340.246	95.94
340.474	98.94
340.702	96.94
340.93	88.94
341.158	91.94
341.386	101.94
341.614	93.94
341.842	104.94
342.07	76.94
342.298	89.94
342.526	81.94
342.754	97.94
342.981	85.94
343.209	95.94
343.437	92.94
343.665	97.94
343.893	99.94
344.12	83.94
344.348	90.94
344.576	84.94
344.804	94.94
345.031	100.94
345.259	95.94
345.487	93.94
345.714	95.94
345.942	96.94
346.17	104.94
346.397	87.94
346.625	98.94
346.853	86.94
347.08	97.94
347.308	98.94
347.535	102.94
347.763	87.94
347.99	97.94
348.218	108.94
348.445	113.94
348.673	92.94
348.9	102.94
349.128	87.94
349.355	97.94
349.583	107.94
349.81	87.94
350.037	88.94
350.265	103.94
350.492	95.94
350.72	90.94
350.947	104.94
351.174	125.94
351.402	113.94
351.629	96.94
351.856	95.94
352.083	105.94
352.311	118.94
352.538	109.94
352.765	107.94
352.992	104.94
353.22	110.94
353.447	127.94
353.674	106.94
353.901	99.94
354.128	89.94
354.355	98.94
354.583	97.94
354.81	102.94
355.037	102.94
355.264	100.94
355.491	93.94
355.718	96.94
355.945	87.94
356.172	93.94
356.399	96.94
356.626	81.94
356.853	99.94
357.08	103.94
357.307	107.94
357.534	96.94
357.761	100.94
357.988	93.94
358.215	79.94
358.441	88.94
358.668	92.94
358.895	81.94
359.122	94.94
359.349	96.94
359.576	93.94
359.802	97.94
360.029	104.94
360.256	102.94
360.483	101.94
360.709	90.94
360.936	92.94
361.163	93.94
361.39	105.94
361.616	96.94
361.843	98.94
362.07	87.94
362.296	92.94
362.523	104.94
362.749	89.94
362.976	90.94
363.203	103.94
363.429	92.94
363.656	103.94
363.882	97.94
364.109	100.94
364.335	103.94
364.562	92.94
364.788	81.94
365.015	93.94
365.241	99.94
365.468	119.94
365.694	100.94
365.92	106.94
366.147	86.94
366.373	94.94
366.599	100.94
366.826	84.94
367.052	91.94
367.278	89.94
367.505	103.94
367.731	91.94
367.957	111.94
368.184	90.94
368.41	107.94
368.636	111.94
368.862	116.94
369.089	105.94
369.315	104.94
369.541	84.94
369.767	91.94
369.993	95.94
370.219	96.94
370.445	96.94
370.672	103.94
370.898	99.94
371.124	100.94
371.35	84.94
371.576	94.94
371.802	87.94
372.028	79.94
372.254	96.94
372.48	87.94
372.706	86.94
372.932	93.94
373.158	101.94
373.384	103.94
373.61	101.94
373.835	98.94
374.061	98.94
374.287	88.94
374.513	104.94
374.739	106.94
374.965	110.94
375.191	100.94
375.416	93.94
375.642	88.94
375.868	93.94
376.094	92.94
376.319	82.94
376.545	84.94
376.771	91.94
376.997	93.94
377.222	87.94
377.448	91.94
377.674	102.94
377.899	99.94
378.125	84.94
378.35	86.94
378.576	95.94
378.802	94.94
379.027	93.94
379.253	97.94
379.478	93.94
379.704	98.94
379.929	102.94
380.155	94.94
380.38	107.94
380.606	96.94
380.831	102.94
381.057	103.94
381.282	87.94
381.507	103.94
381.733	105.94
381.958	93.94
382.184	110.94
382.409	103.94
382.634	115.94
382.86	106.94
383.085	102.94
383.31	116.94
383.535	111.94
383.761	104.94
383.986	101.94
384.211	103.94
384.436	104.94
384.662	98.94
384.887	112.94
385.112	116.94
385.337	107.94
385.562	105.94
385.787	108.94
386.013	121.94
386.238	124.94
386.463	119.94
386.688	109.94
386.913	108.94
387.138	108.94
387.363	115.94
387.588	115.94
387.813	120.94
388.038	118.94
388.263	110.94
388.488	115.94
388.713	104.94
388.938	99.94
389.163	97.94
389.387	95.94
389.612	104.94
389.837	87.94
390.062	93.94
390.287	93.94
390.512	103.94
390.736	99.94
390.961	86.94
391.186	97.94
391.411	91.94
391.636	84.94
391.86	95.94
392.085	88.94
392.31	92.94
392.534	80.94
392.759	92.94
392.984	78.94
393.208	103.94
393.433	86.94
393.658	92.94
393.882	88.94
394.107	88.94
394.331	85.94
394.556	98.94
394.78	99.94
395.005	98.94
395.229	82.94
395.454	100.94
395.678	77.94
395.903	98.94
396.127	96.94
396.352	98.94
396.576	77.94
396.801	98.94
397.025	90.94
397.249	92.94
397.474	90.94
397.698	101.94
397.922	86.94
398.147	91.94
398.371	83.94
398.595	82.94
398.82	98.94
399.044	79.94
399.268	84.94
399.492	75.94
399.717	93.94
399.941	101.94
400.165	100.94
400.389	98.94
400.613	95.94
400.837	75.94
401.062	101.94
401.286	96.94
401.51	91.94
401.734	116.94
401.958	102.94
402.182	138.94
402.406	159.94
402.63	138.94
402.854	97.94
403.078	99.94
403.302	97.94
403.526	89.94
403.75	96.94
403.974	80.94
404.198	84.94
404.422	87.94
404.645	85.94
404.869	92.94
405.093	94.94
405.317	97.94
405.541	96.94
405.765	94.94
405.988	127.94
406.212	163.94
406.436	216.94
406.66	161.94
406.883	101.94
407.107	93.94
407.331	85.94
407.555	103.94
407.778	93.94
408.002	85.94
408.226	99.94
408.449	88.94
408.673	106.94
408.896	103.94
409.12	92.94
409.344	92.94
409.567	95.94
409.791	83.94
410.014	93.94
410.238	108.94
410.461	94.94
410.685	87.94
410.908	99.94
411.132	105.94
411.355	100.94
411.578	86.94
411.802	100.94
412.025	88.94
412.249	86.94
412.472	97.94
412.695	91.94
412.919	92.94
413.142	86.94
413.365	82.94
413.589	88.94
413.812	87.94
414.035	100.94
414.258	99.94
414.482	94.94
414.705	106.94
414.928	95.94
415.151	92.94
415.374	91.94
415.597	96.94
415.821	79.94
416.044	84.94
416.267	99.94
416.49	88.94
416.713	91.94
416.936	83.94
417.159	100.94
417.382	83.94
417.605	91.94
417.828	101.94
418.051	87.94
418.274	83.94
418.497	86.94
418.72	97.94
418.943	84.94
419.166	95.94
419.389	95.94
419.611	85.94
419.834	105.94
420.057	92.94
420.28	97.94
420.503	95.94
420.726	85.94
420.948	99.94
421.171	83.94
421.394	99.94
421.617	99.94
421.839	99.94
422.062	101.94
422.285	92.94
422.507	100.94
422.73	106.94
422.953	101.94
423.175	91.94
423.398	91.94
423.621	89.94
423.843	89.94
424.066	92.94
424.288	106.94
424.511	81.94
424.733	108.94
424.956	103.94
425.178	99.94
425.401	100.94
425.623	103.94
425.846	108.94
426.068	107.94
426.291	91.94
426.513	96.94
426.735	91.94
426.958	91.94
427.18	120.94
427.402	138.94
427.625	149.94
427.847	117.94
428.069	105.94
428.292	84.94
428.514	85.94
428.736	90.94
428.958	85.94
429.181	82.94
429.403	99.94
429.625	75.94
429.847	95.94
430.069	101.94
430.292	99.94
430.514	82.94
430.736	84.94
430.958	92.94
431.18	91.94
431.402	95.94
431.624	92.94
431.846	104.94
432.068	103.94
432.29	107.94
432.512	86.94
432.734	92.94
432.956	99.94
433.178	105.94
433.4	97.94
433.622	100.94
433.844	94.94
434.066	87.94
434.287	94.94
434.509	89.94
434.731	84.94
434.953	99.94
435.175	90.94
435.397	100.94
435.618	94.94
435.84	110.94
436.062	113.94
436.284	112.94
436.505	100.94
436.727	104.94
436.949	101.94
437.17	91.94
437.392	97.94
437.614	96.94
437.835	107.94
438.057	115.94
438.278	115.94
438.5	98.94
438.721	105.94
438.943	119.94
439.165	90.94
439.386	107.94
439.608	110.94
439.829	114.94
440.05	123.94
440.272	160.94
440.493	87.94
440.715	92.94
440.936	93.94
441.158	87.94
441.379	87.94
441.6	93.94
441.822	94.94
442.043	99.94
442.264	89.94
442.486	87.94
442.707	90.94
442.928	109.94
443.149	116.94
443.371	122.94
443.592	103.94
443.813	119.94
444.034	122.94
444.255	100.94
444.476	96.94
444.698	86.94
444.919	87.94
445.14	145.94
445.361	129.94
445.582	122.94
445.803	132.94
446.024	125.94
446.245	155.94
446.466	110.94
446.687	95.94
446.908	92.94
447.129	105.94
447.35	107.94
447.571	93.94
447.792	108.94
448.013	104.94
448.234	88.94
448.455	90.94
448.675	98.94
448.896	112.94
449.117	98.94
449.338	108.94
449.559	130.94
449.779	129.94
450	92.94
450.221	99.94
450.442	97.94
450.662	99.94
450.883	100.94
451.104	109.94
451.324	96.94
451.545	86.94
451.766	88.94
451.986	81.94
452.207	83.94
452.428	89.94
452.648	93.94
452.869	96.94
453.089	109.94
453.31	110.94
453.53	89.94
453.751	91.94
453.971	128.94
454.192	116.94
454.412	84.94
454.633	91.94
454.853	96.94
455.073	81.94
455.294	75.94
455.514	86.94
455.734	95.94
455.955	85.94
456.175	76.94
456.395	81.94
456.616	70.94
456.836	100.94
457.056	98.94
457.276	93.94
457.497	89.94
457.717	97.94
457.937	82.94
458.157	74.94
458.377	98.94
458.598	104.94
458.818	134.94
459.038	136.94
459.258	119.94
459.478	94.94
459.698	89.94
459.918	91.94
460.138	91.94
460.358	95.94
460.578	85.94
460.798	94.94
461.018	95.94
461.238	98.94
461.458	86.94
461.678	91.94
461.898	91.94
462.118	96.94
462.338	91.94
462.558	90.94
462.777	77.94
462.997	96.94
463.217	96.94
463.437	88.94
463.657	83.94
463.876	86.94
464.096	98.94
464.316	102.94
464.536	103.94
464.755	100.94
464.975	112.94
465.195	165.94
465.414	160.94
465.634	85.94
465.854	90.94
466.073	95.94
466.293	87.94
466.512	96.94
466.732	80.94
466.951	106.94
467.171	102.94
467.391	95.94
467.61	99.94
467.829	86.94
468.049	92.94
468.268	93.94
468.488	84.94
468.707	93.94
468.927	84.94
469.146	87.94
469.365	98.94
469.585	101.94
469.804	94.94
470.023	90.94
470.243	92.94
470.462	100.94
470.681	113.94
470.901	100.94
471.12	103.94
471.339	84.94
471.558	77.94
471.777	89.94
471.997	82.94
472.216	85.94
472.435	90.94
472.654	82.94
472.873	92.94
473.092	97.94
473.311	86.94
473.53	95.94
473.749	89.94
473.968	85.94
474.187	87.94
474.406	94.94
474.625	81.94
474.844	102.94
475.063	75.94
475.282	90.94
475.501	91.94
475.72	93.94
475.939	93.94
476.158	88.94
476.377	85.94
476.596	100.94
476.814	103.94
477.033	100.94
477.252	88.94
477.471	103.94
477.69	92.94
477.908	83.94
478.127	103.94
478.346	84.94
478.564	81.94
478.783	98.94
479.002	104.94
479.22	89.94
479.439	92.94
479.658	112.94
479.876	99.94
480.095	94.94
480.313	98.94
480.532	74.94
480.751	79.94
480.969	91.94
481.188	95.94
481.406	93.94
481.624	103.94
481.843	66.94
482.061	87.94
482.28	85.94
482.498	93.94
482.717	88.94
482.935	101.94
483.153	100.94
483.372	99.94
483.59	116.94
483.808	84.94
484.027	86.94
484.245	86.94
484.463	89.94
484.681	94.94
484.9	83.94
485.118	90.94
485.336	102.94
485.554	110.94
485.772	86.94
485.99	97.94
486.209	102.94
486.427	108.94
486.645	103.94
486.863	100.94
487.081	101.94
487.299	91.94
487.517	99.94
487.735	99.94
487.953	87.94
488.171	90.94
488.389	93.94
488.607	114.94
488.825	90.94
489.043	79.94
489.261	98.94
489.479	87.94
489.696	90.94
489.914	88.94
490.132	93.94
490.35	99.94
490.568	83.94
490.786	87.94
491.003	88.94
491.221	100.94
491.439	91.94
491.657	94.94
491.874	93.94
492.092	94.94
492.31	99.94
492.527	92.94
492.745	91.94
492.963	95.94
493.18	107.94
493.398	96.94
493.615	98.94
493.833	99.94
494.05	84.94
494.268	85.94
494.485	95.94
494.703	88.94
494.92	96.94
495.138	91.94
495.355	93.94
495.573	87.94
495.79	97.94
496.008	95.94
496.225	84.94
496.442	93.94
496.66	96.94
496.877	98.94
497.094	90.94
497.312	97.94
497.529	96.94
497.746	99.94
497.963	97.94
498.181	79.94
498.398	98.94
498.615	105.94
498.832	103.94
499.049	97.94
499.267	93.94
499.484	93.94
499.701	88.94
499.918	90.94
500.135	87.94
500.352	90.94
500.569	88.94
500.786	96.94
501.003	92.94
501.22	92.94
501.437	85.94
501.654	98.94
501.871	112.94
502.088	106.94
502.305	91.94
502.522	94.94
502.739	88.94
502.956	90.94
503.172	94.94
503.389	90.94
503.606	124.94
503.823	102.94
504.04	98.94
504.256	92.94
504.473	79.94
504.69	85.94
504.907	106.94
505.123	105.94
505.34	80.94
505.557	86.94
505.773	89.94
505.99	89.94
506.207	92.94
506.423	87.94
506.64	84.94
506.856	95.94
507.073	92.94
507.289	102.94
507.506	96.94
507.722	108.94
507.939	111.94
508.155	107.94
508.372	99.94
508.588	92.94
508.805	91.94
509.021	86.94
509.238	106.94
509.454	106.94
509.67	100.94
509.887	107.94
510.103	149.94
510.319	240.94
510.536	831.94
510.752	2663.94
510.968	724.94
511.184	167.94
511.401	120.94
511.617	101.94
511.833	106.94
512.049	98.94
512.265	91.94
512.481	100.94
512.698	104.94
512.914	95.94
513.13	93.94
513.346	87.94
513.562	89.94
513.778	84.94
513.994	97.94
514.21	111.94
514.426	115.94
514.642	145.94
