Data from Uncirc_2003_H10_HRD10591_00032.txt Node
Date: Wed Jan 03 10:35:54 EST 2024
User: Yrep
Spectrometer: HR+D1059
Trigger mode: 1
Integration Time (sec): 1.000000E-1
Scans to average: 1
Electric dark correction enabled: true
Nonlinearity correction enabled: false
Boxcar width: 0
XAxis mode: Wavelengths
Number of Pixels in Spectrum: 2048
>>>>>Begin Spectral Data<<<<<
223.165	-18
223.4	-18
223.635	-18
223.869	-15
224.104	-22
224.338	-9
224.573	-20
224.808	-13
225.042	-5
225.277	2
225.511	-5
225.746	6
225.98	0
226.215	14
226.449	12
226.683	26
226.918	23
227.152	24
227.387	31
227.621	30
227.856	35
228.09	37
228.324	43
228.559	62
228.793	42
229.027	55
229.262	65
229.496	70
229.73	77
229.964	85
230.199	71
230.433	80
230.667	70
230.901	69
231.136	86
231.37	71
231.604	93
231.838	71
232.072	59
232.306	72
232.541	76
232.775	84
233.009	67
233.243	78
233.477	74
233.711	90
233.945	79
234.179	87
234.413	78
234.647	83
234.881	72
235.115	73
235.349	70
235.583	76
235.817	67
236.051	59
236.285	75
236.519	71
236.753	82
236.987	61
237.221	61
237.455	70
237.689	83
237.922	71
238.156	65
238.39	68
238.624	72
238.858	71
239.091	86
239.325	68
239.559	78
239.793	88
240.027	75
240.26	69
240.494	71
240.728	76
240.961	67
241.195	76
241.429	79
241.662	78
241.896	69
242.13	77
242.363	85
242.597	64
242.83	77
243.064	62
243.298	76
243.531	74
243.765	81
243.998	66
244.232	78
244.465	78
244.699	85
244.932	78
245.166	76
245.399	80
245.633	75
245.866	68
246.099	72
246.333	95
246.566	79
246.8	69
247.033	80
247.266	78
247.5	74
247.733	80
247.966	69
248.2	86
248.433	81
248.666	91
248.899	88
249.133	67
249.366	79
249.599	78
249.832	78
250.066	68
250.299	86
250.532	68
250.765	82
250.998	77
251.231	86
251.465	88
251.698	75
251.931	80
252.164	87
252.397	80
252.63	90
252.863	80
253.096	82
253.329	78
253.562	67
253.795	86
254.028	73
254.261	72
254.494	91
254.727	76
254.96	81
255.193	97
255.426	70
255.659	82
255.892	72
256.124	78
256.357	67
256.59	82
256.823	63
257.056	66
257.289	83
257.521	80
257.754	75
257.987	74
258.22	91
258.452	86
258.685	78
258.918	84
259.151	75
259.383	81
259.616	80
259.849	78
260.081	69
260.314	69
260.547	74
260.779	81
261.012	79
261.244	84
261.477	78
261.71	86
261.942	98
262.175	103
262.407	75
262.64	92
262.872	87
263.105	83
263.337	92
263.57	70
263.802	72
264.035	76
264.267	76
264.499	88
264.732	92
264.964	59
265.197	82
265.429	80
265.661	77
265.894	67
266.126	88
266.358	79
266.591	90
266.823	85
267.055	74
267.287	73
267.52	93
267.752	75
267.984	82
268.216	94
268.448	84
268.681	82
268.913	79
269.145	85
269.377	99
269.609	81
269.841	76
270.073	87
270.306	81
270.538	86
270.77	76
271.002	83
271.234	87
271.466	81
271.698	78
271.93	78
272.162	76
272.394	98
272.626	79
272.858	68
273.09	76
273.322	75
273.553	70
273.785	87
274.017	72
274.249	94
274.481	79
274.713	95
274.945	77
275.176	93
275.408	77
275.64	83
275.872	83
276.104	95
276.335	84
276.567	105
276.799	101
277.031	108
277.262	86
277.494	90
277.726	79
277.957	68
278.189	81
278.421	92
278.652	77
278.884	94
279.115	82
279.347	85
279.579	79
279.81	72
280.042	84
280.273	72
280.505	84
280.736	78
280.968	77
281.199	79
281.431	97
281.662	97
281.894	87
282.125	102
282.356	119
282.588	123
282.819	100
283.051	83
283.282	82
283.513	85
283.745	97
283.976	86
284.207	83
284.439	87
284.67	81
284.901	81
285.132	91
285.364	78
285.595	86
285.826	89
286.057	86
286.288	86
286.52	82
286.751	96
286.982	89
287.213	87
287.444	80
287.675	86
287.906	78
288.138	92
288.369	90
288.6	84
288.831	87
289.062	89
289.293	98
289.524	81
289.755	67
289.986	87
290.217	84
290.448	90
290.679	96
290.91	91
291.141	106
291.371	106
291.602	81
291.833	82
292.064	85
292.295	89
292.526	93
292.757	93
292.987	72
293.218	89
293.449	84
293.68	90
293.91	82
294.141	91
294.372	93
294.603	81
294.833	93
295.064	86
295.295	81
295.525	84
295.756	86
295.987	103
296.217	148
296.448	106
296.679	95
296.909	94
297.14	88
297.37	81
297.601	84
297.831	81
298.062	82
298.292	94
298.523	82
298.753	85
298.984	103
299.214	95
299.445	79
299.675	98
299.905	86
300.136	80
300.366	88
300.597	102
300.827	102
301.057	104
301.288	94
301.518	100
301.748	74
301.979	88
302.209	77
302.439	93
302.669	78
302.9	84
303.13	91
303.36	83
303.59	94
303.82	104
304.051	82
304.281	95
304.511	98
304.741	65
304.971	84
305.201	83
305.431	66
305.661	69
305.891	84
306.121	92
306.352	109
306.582	89
306.812	91
307.042	98
307.272	79
307.502	88
307.731	93
307.961	76
308.191	89
308.421	91
308.651	97
308.881	85
309.111	82
309.341	97
309.571	96
309.8	96
310.03	79
310.26	98
310.49	87
310.72	98
310.949	89
311.179	93
311.409	88
311.639	90
311.868	85
312.098	97
312.328	96
312.557	94
312.787	104
313.017	88
313.246	101
313.476	92
313.706	94
313.935	87
314.165	90
314.394	79
314.624	94
314.853	99
315.083	107
315.312	97
315.542	89
315.771	91
316.001	77
316.23	86
316.46	89
316.689	101
316.919	95
317.148	85
317.377	81
317.607	87
317.836	87
318.065	86
318.295	79
318.524	87
318.753	89
318.983	91
319.212	84
319.441	94
319.67	103
319.9	95
320.129	94
320.358	103
320.587	97
320.816	103
321.046	105
321.275	91
321.504	85
321.733	91
321.962	93
322.191	84
322.42	104
322.649	123
322.878	113
323.108	106
323.337	112
323.566	119
323.795	133
324.024	207
324.253	433
324.482	862
324.71	1739
324.939	2252
325.168	826
325.397	246
325.626	136
325.855	124
326.084	125
326.313	138
326.542	149
326.77	227
326.999	454
327.228	980
327.457	1772
327.686	1393
327.914	378
328.143	186
328.372	134
328.6	124
328.829	104
329.058	119
329.287	120
329.515	112
329.744	99
329.972	90
330.201	84
330.43	89
330.658	110
330.887	117
331.115	119
331.344	104
331.572	100
331.801	109
332.03	100
332.258	76
332.486	85
332.715	85
332.943	95
333.172	81
333.4	87
333.629	104
333.857	96
334.085	107
334.314	82
334.542	91
334.771	100
334.999	96
335.227	96
335.455	89
335.684	99
335.912	88
336.14	98
336.369	99
336.597	96
336.825	97
337.053	98
337.281	98
337.51	93
337.738	103
337.966	85
338.194	88
338.422	83
338.65	92
338.878	104
339.106	79
339.334	87
339.562	78
339.79	87
340.018	84
340.246	94
340.474	80
340.702	100
340.93	92
341.158	96
341.386	86
341.614	86
341.842	104
342.07	90
342.298	90
342.526	88
342.754	94
342.981	96
343.209	91
343.437	100
343.665	92
343.893	86
344.12	100
344.348	80
344.576	95
344.804	84
345.031	96
345.259	82
345.487	101
345.714	93
345.942	96
346.17	86
346.397	89
346.625	89
346.853	91
347.08	95
347.308	87
347.535	83
347.763	93
347.99	101
348.218	111
348.445	96
348.673	95
348.9	97
349.128	104
349.355	85
349.583	88
349.81	93
350.037	81
350.265	102
350.492	76
350.72	106
350.947	96
351.174	100
351.402	104
351.629	83
351.856	99
352.083	92
352.311	96
352.538	107
352.765	107
352.992	112
353.22	114
353.447	102
353.674	102
353.901	103
354.128	92
354.355	99
354.583	96
354.81	85
355.037	97
355.264	98
355.491	79
355.718	90
355.945	87
356.172	94
356.399	87
356.626	96
356.853	87
357.08	91
357.307	96
357.534	91
357.761	90
357.988	95
358.215	101
358.441	99
358.668	72
358.895	80
359.122	83
359.349	105
359.576	92
359.802	99
360.029	92
360.256	98
360.483	91
360.709	96
360.936	99
361.163	93
361.39	96
361.616	104
361.843	96
362.07	89
362.296	93
362.523	98
362.749	83
362.976	99
363.203	82
363.429	93
363.656	94
363.882	85
364.109	95
364.335	93
364.562	89
364.788	91
365.015	101
365.241	83
365.468	107
365.694	94
365.92	88
366.147	80
366.373	86
366.599	80
366.826	103
367.052	94
367.278	100
367.505	96
367.731	92
367.957	93
368.184	79
368.41	82
368.636	105
368.862	117
369.089	109
369.315	103
369.541	90
369.767	94
369.993	77
370.219	81
370.445	78
370.672	79
370.898	68
371.124	83
371.35	82
371.576	86
371.802	93
372.028	79
372.254	87
372.48	80
372.706	78
372.932	74
373.158	97
373.384	106
373.61	99
373.835	91
374.061	84
374.287	86
374.513	92
374.739	74
374.965	87
375.191	98
375.416	110
375.642	83
375.868	72
376.094	89
376.319	94
376.545	87
376.771	94
376.997	92
377.222	91
377.448	85
377.674	85
377.899	77
378.125	84
378.35	90
378.576	85
378.802	80
379.027	88
379.253	86
379.478	87
379.704	99
379.929	103
380.155	90
380.38	90
380.606	92
380.831	91
381.057	97
381.282	104
381.507	105
381.733	98
381.958	95
382.184	90
382.409	89
382.634	79
382.86	98
383.085	101
383.31	97
383.535	111
383.761	96
383.986	115
384.211	95
384.436	102
384.662	98
384.887	95
385.112	106
385.337	106
385.562	113
385.787	98
386.013	109
386.238	101
386.463	106
386.688	105
386.913	114
387.138	96
387.363	98
387.588	87
387.813	97
388.038	101
388.263	104
388.488	104
388.713	99
388.938	91
389.163	90
389.387	88
389.612	96
389.837	78
390.062	85
390.287	88
390.512	96
390.736	101
390.961	93
391.186	90
391.411	87
391.636	90
391.86	94
392.085	98
392.31	89
392.534	74
392.759	83
392.984	82
393.208	91
393.433	82
393.658	78
393.882	64
394.107	83
394.331	80
394.556	86
394.78	87
395.005	94
395.229	93
395.454	93
395.678	89
395.903	96
396.127	91
396.352	86
396.576	77
396.801	75
397.025	83
397.249	77
397.474	96
397.698	85
397.922	89
398.147	79
398.371	88
398.595	85
398.82	103
399.044	85
399.268	83
399.492	94
399.717	88
399.941	90
400.165	72
400.389	86
400.613	91
400.837	82
401.062	86
401.286	86
401.51	93
401.734	63
401.958	85
402.182	117
402.406	143
402.63	102
402.854	80
403.078	92
403.302	82
403.526	81
403.75	94
403.974	76
404.198	90
404.422	79
404.645	86
404.869	87
405.093	86
405.317	85
405.541	98
405.765	94
405.988	95
406.212	177
406.436	213
406.66	122
406.883	100
407.107	88
407.331	74
407.555	77
407.778	96
408.002	87
408.226	80
408.449	84
408.673	90
408.896	96
409.12	98
409.344	82
409.567	88
409.791	84
410.014	80
410.238	97
410.461	81
410.685	93
410.908	92
411.132	102
411.355	92
411.578	110
411.802	85
412.025	85
412.249	93
412.472	98
412.695	99
412.919	77
413.142	79
413.365	87
413.589	81
413.812	75
414.035	94
414.258	83
414.482	92
414.705	82
414.928	81
415.151	78
415.374	97
415.597	92
415.821	78
416.044	80
416.267	93
416.49	88
416.713	88
416.936	86
417.159	74
417.382	84
417.605	82
417.828	104
418.051	78
418.274	91
418.497	88
418.72	86
418.943	74
419.166	82
419.389	92
419.611	70
419.834	94
420.057	85
420.28	83
420.503	70
420.726	79
420.948	77
421.171	83
421.394	90
421.617	85
421.839	85
422.062	87
422.285	87
422.507	103
422.73	102
422.953	94
423.175	88
423.398	93
423.621	92
423.843	68
424.066	79
424.288	93
424.511	86
424.733	88
424.956	91
425.178	93
425.401	88
425.623	112
425.846	86
426.068	74
426.291	92
426.513	74
426.735	84
426.958	82
427.18	96
427.402	110
427.625	158
427.847	110
428.069	99
428.292	102
428.514	78
428.736	92
428.958	78
429.181	77
429.403	74
429.625	103
429.847	84
430.069	98
430.292	99
430.514	83
430.736	83
430.958	76
431.18	78
431.402	86
431.624	87
431.846	84
432.068	83
432.29	76
432.512	98
432.734	80
432.956	83
433.178	82
433.4	94
433.622	92
433.844	96
434.066	84
434.287	88
434.509	92
434.731	80
434.953	79
435.175	107
435.397	85
435.618	95
435.84	98
436.062	107
436.284	97
436.505	94
436.727	100
436.949	93
437.17	82
437.392	86
437.614	104
437.835	88
438.057	109
438.278	108
438.5	98
438.721	110
438.943	98
439.165	94
439.386	86
439.608	81
439.829	100
440.05	95
440.272	129
440.493	82
440.715	78
440.936	77
441.158	91
441.379	86
441.6	78
441.822	89
442.043	82
442.264	103
442.486	93
442.707	98
442.928	106
443.149	108
443.371	116
443.592	97
443.813	103
444.034	94
444.255	91
444.476	98
444.698	86
444.919	82
445.14	132
445.361	113
445.582	103
445.803	114
446.024	125
446.245	130
446.466	94
446.687	85
446.908	93
447.129	84
447.35	97
447.571	100
447.792	98
448.013	98
448.234	101
448.455	98
448.675	102
448.896	99
449.117	85
449.338	94
449.559	122
449.779	134
450	101
450.221	88
450.442	88
450.662	95
450.883	99
451.104	94
451.324	92
451.545	77
451.766	93
451.986	100
452.207	73
452.428	100
452.648	86
452.869	98
453.089	106
453.31	108
453.53	88
453.751	95
453.971	95
454.192	97
454.412	89
454.633	84
454.853	82
455.073	86
455.294	103
455.514	93
455.734	85
455.955	83
456.175	64
456.395	80
456.616	76
456.836	85
457.056	78
457.276	83
457.497	77
457.717	83
457.937	98
458.157	79
458.377	91
458.598	115
458.818	139
459.038	136
459.258	109
459.478	80
459.698	86
459.918	91
460.138	83
460.358	71
460.578	88
460.798	94
461.018	93
461.238	98
461.458	80
461.678	68
461.898	85
462.118	84
462.338	91
462.558	87
462.777	80
462.997	84
463.217	84
463.437	81
463.657	92
463.876	87
464.096	76
464.316	82
464.536	94
464.755	80
464.975	100
465.195	150
465.414	140
465.634	75
465.854	84
466.073	68
466.293	95
466.512	84
466.732	98
466.951	80
467.171	92
467.391	97
467.61	93
467.829	103
468.049	70
468.268	97
468.488	85
468.707	73
468.927	88
469.146	84
469.365	87
469.585	79
469.804	91
470.023	84
470.243	102
470.462	108
470.681	101
470.901	64
471.12	84
471.339	77
471.558	82
471.777	85
471.997	81
472.216	84
472.435	80
472.654	81
472.873	88
473.092	72
473.311	84
473.53	82
473.749	84
473.968	82
474.187	82
474.406	82
474.625	87
474.844	95
475.063	84
475.282	86
475.501	67
475.72	88
475.939	89
476.158	90
476.377	84
476.596	77
476.814	76
477.033	73
477.252	71
477.471	86
477.69	91
477.908	88
478.127	78
478.346	88
478.564	76
478.783	89
479.002	63
479.22	90
479.439	106
479.658	96
479.876	82
480.095	106
480.313	93
480.532	84
480.751	79
480.969	85
481.188	104
481.406	96
481.624	93
481.843	80
482.061	75
482.28	85
482.498	78
482.717	88
482.935	80
483.153	98
483.372	103
483.59	85
483.808	87
484.027	94
484.245	92
484.463	92
484.681	95
484.9	91
485.118	95
485.336	94
485.554	107
485.772	98
485.99	118
486.209	99
486.427	99
486.645	104
486.863	109
487.081	87
487.299	87
487.517	78
487.735	80
487.953	87
488.171	99
488.389	86
488.607	94
488.825	87
489.043	81
489.261	88
489.479	84
489.696	92
489.914	83
490.132	90
490.35	82
490.568	90
490.786	87
491.003	91
491.221	84
491.439	76
491.657	88
491.874	85
492.092	87
492.31	87
492.527	87
492.745	91
492.963	93
493.18	82
493.398	96
493.615	96
493.833	91
494.05	89
494.268	75
494.485	82
494.703	74
494.92	91
495.138	77
495.355	91
495.573	91
495.79	81
496.008	91
496.225	90
496.442	92
496.66	92
496.877	95
497.094	94
497.312	94
497.529	90
497.746	75
497.963	80
498.181	92
498.398	105
498.615	100
498.832	93
499.049	85
499.267	76
499.484	91
499.701	80
499.918	74
500.135	84
500.352	76
500.569	73
500.786	78
501.003	89
501.22	96
501.437	94
501.654	93
501.871	97
502.088	98
502.305	92
502.522	88
502.739	92
502.956	86
503.172	96
503.389	88
503.606	101
503.823	74
504.04	82
504.256	95
504.473	90
504.69	80
504.907	94
505.123	100
505.34	87
505.557	87
505.773	83
505.99	98
506.207	81
506.423	83
506.64	86
506.856	97
507.073	83
507.289	107
507.506	103
507.722	107
507.939	97
508.155	91
508.372	79
508.588	97
508.805	98
509.021	93
509.238	96
509.454	102
509.67	99
509.887	116
510.103	136
510.319	205
510.536	780
510.752	2261
510.968	636
511.184	152
511.401	112
511.617	97
511.833	87
512.049	82
512.265	101
512.481	79
512.698	90
512.914	78
513.13	95
513.346	87
513.562	82
513.778	103
513.994	80
514.21	108
514.426	116
514.642	125
514.858	100
515.074	154
515.29	425
515.506	1354
515.721	506
515.937	148
516.153	117
516.369	102
516.585	84
516.801	88
517.016	100
517.232	91
517.448	88
517.664	87
517.879	82
518.095	95
518.311	96
518.527	79
518.742	83
518.958	91
519.173	86
519.389	98
519.605	86
519.82	95
520.036	112
520.251	107
520.467	113
520.682	110
520.898	102
521.113	115
521.329	138
521.544	181
521.76	521
521.975	2241
522.19	1363
522.406	305
522.621	114
522.836	104
523.052	87
523.267	91
523.482	102
523.698	99
523.913	116
524.128	93
524.343	91
524.559	101
524.774	86
524.989	85
525.204	97
525.419	99
525.634	96
525.849	93
526.064	71
526.28	97
526.495	88
526.71	88
526.925	91
527.14	79
527.355	96
527.57	89
527.785	93
527.999	91
528.214	81
528.429	88
528.644	95
528.859	84
529.074	96
529.289	112
529.503	152
529.718	89
529.933	87
530.148	88
530.363	79
530.577	86
530.792	86
531.007	95
531.221	92
531.436	84
531.651	91
531.865	79
532.08	87
532.295	94
532.509	95
532.724	101
532.938	92
533.153	98
533.367	84
533.582	85
533.796	101
534.011	94
534.225	77
534.44	91
534.654	84
534.868	98
535.083	91
535.297	95
535.511	102
535.726	95
535.94	89
536.154	91
536.369	100
536.583	98
536.797	99
537.011	95
537.225	94
537.44	95
537.654	96
537.868	87
538.082	103
538.296	92
538.51	83
538.724	99
538.938	101
539.153	98
539.367	101
539.581	90
539.795	105
540.009	92
540.222	87
540.436	93
540.65	90
540.864	95
541.078	93
541.292	90
541.506	99
541.72	90
541.934	91
542.147	90
542.361	84
542.575	80
542.789	97
543.002	92
543.216	99
543.43	99
543.644	87
543.857	100
544.071	80
544.285	90
544.498	82
544.712	83
544.925	91
545.139	98
545.352	95
545.566	91
545.779	80
545.993	76
546.206	82
546.42	80
546.633	95
546.847	98
547.06	95
547.274	88
547.487	81
547.7	91
547.914	82
548.127	89
548.34	100
548.554	97
548.767	100
548.98	102
549.193	89
549.407	79
549.62	78
549.833	81
550.046	92
550.259	90
550.473	78
550.686	95
550.899	93
551.112	88
551.325	105
551.538	94
551.751	82
551.964	92
552.177	85
552.39	86
552.603	98
552.816	81
553.029	98
553.242	103
553.455	95
553.667	104
553.88	94
554.093	88
554.306	90
554.519	81
554.732	92
554.944	94
555.157	77
555.37	81
555.583	71
555.795	86
556.008	94
556.221	93
556.433	87
556.646	90
556.859	87
557.071	79
557.284	84
557.496	97
557.709	82
557.921	82
558.134	90
558.346	88
558.559	79
558.771	90
558.984	95
559.196	87
559.409	80
559.621	76
559.833	76
560.046	80
560.258	86
560.47	95
560.683	94
560.895	89
561.107	81
561.32	92
561.532	90
561.744	89
561.956	94
562.168	92
562.381	94
562.593	91
562.805	78
563.017	92
563.229	92
563.441	98
563.653	90
563.865	88
564.077	86
564.289	92
564.501	80
564.713	78
564.925	97
565.137	94
565.349	94
565.561	93
565.773	84
565.985	86
566.197	98
566.408	90
566.62	95
566.832	84
567.044	91
567.255	90
567.467	81
567.679	91
567.891	91
568.102	86
568.314	89
568.526	89
568.737	94
568.949	82
569.161	83
569.372	90
569.584	94
569.795	88
570.007	123
570.218	230
570.43	122
570.641	83
570.853	85
571.064	79
571.276	77
571.487	86
571.698	87
571.91	97
572.121	82
572.333	99
572.544	88
572.755	91
572.966	91
573.178	85
573.389	81
573.6	83
573.811	91
574.023	78
574.234	92
574.445	91
574.656	87
574.867	91
575.078	94
575.289	82
575.501	72
575.712	81
575.923	82
576.134	85
576.345	78
576.556	95
576.767	79
576.978	102
577.188	91
577.399	77
577.61	86
577.821	94
578.032	113
578.243	273
578.454	775
578.665	227
578.875	94
579.086	79
579.297	92
579.508	86
579.718	90
579.929	87
580.14	76
580.35	84
580.561	84
580.772	88
580.982	91
581.193	93
581.403	79
581.614	82
581.825	97
582.035	98
582.246	98
582.456	91
582.667	76
582.877	84
583.087	76
583.298	75
583.508	87
583.719	86
583.929	87
584.139	88
584.35	76
584.56	93
584.77	74
584.981	80
585.191	100
585.401	88
585.611	82
585.821	96
586.032	80
586.242	84
