Data from Uncirc_2003_H10_HRD10591_00011.txt Node
Date: Wed Jan 03 10:35:50 EST 2024
User: Yrep
Spectrometer: HR+D1059
Trigger mode: 1
Integration Time (sec): 1.000000E-1
Scans to average: 1
Electric dark correction enabled: true
Nonlinearity correction enabled: false
Boxcar width: 0
XAxis mode: Wavelengths
Number of Pixels in Spectrum: 2048
>>>>>Begin Spectral Data<<<<<
223.165	-10.56
223.4	-10.56
223.635	-10.56
223.869	-18.56
224.104	-26.56
224.338	-19.56
224.573	-7.56
224.808	-8.56
225.042	-8.56
225.277	0.44
225.511	7.44
225.746	7.44
225.98	-7.56
226.215	16.44
226.449	-0.56
226.683	26.44
226.918	27.44
227.152	22.44
227.387	30.44
227.621	39.44
227.856	52.44
228.09	45.44
228.324	54.44
228.559	74.44
228.793	71.44
229.027	56.44
229.262	66.44
229.496	79.44
229.73	64.44
229.964	79.44
230.199	71.44
230.433	81.44
230.667	85.44
230.901	74.44
231.136	75.44
231.37	80.44
231.604	78.44
231.838	89.44
232.072	84.44
232.306	102.44
232.541	74.44
232.775	83.44
233.009	93.44
233.243	82.44
233.477	87.44
233.711	87.44
233.945	82.44
234.179	85.44
234.413	78.44
234.647	78.44
234.881	66.44
235.115	81.44
235.349	78.44
235.583	81.44
235.817	78.44
236.051	76.44
236.285	80.44
236.519	81.44
236.753	73.44
236.987	90.44
237.221	78.44
237.455	87.44
237.689	76.44
237.922	78.44
238.156	68.44
238.39	79.44
238.624	88.44
238.858	63.44
239.091	67.44
239.325	84.44
239.559	75.44
239.793	78.44
240.027	73.44
240.26	89.44
240.494	81.44
240.728	77.44
240.961	90.44
241.195	80.44
241.429	75.44
241.662	76.44
241.896	68.44
242.13	72.44
242.363	72.44
242.597	72.44
242.83	97.44
243.064	88.44
243.298	91.44
243.531	91.44
243.765	85.44
243.998	71.44
244.232	83.44
244.465	92.44
244.699	94.44
244.932	78.44
245.166	80.44
245.399	68.44
245.633	80.44
245.866	73.44
246.099	76.44
246.333	82.44
246.566	90.44
246.8	66.44
247.033	81.44
247.266	72.44
247.5	59.44
247.733	72.44
247.966	85.44
248.2	76.44
248.433	79.44
248.666	88.44
248.899	86.44
249.133	79.44
249.366	82.44
249.599	91.44
249.832	83.44
250.066	96.44
250.299	70.44
250.532	98.44
250.765	81.44
250.998	90.44
251.231	72.44
251.465	76.44
251.698	70.44
251.931	78.44
252.164	82.44
252.397	74.44
252.63	72.44
252.863	88.44
253.096	73.44
253.329	87.44
253.562	89.44
253.795	72.44
254.028	92.44
254.261	85.44
254.494	84.44
254.727	106.44
254.96	95.44
255.193	79.44
255.426	68.44
255.659	67.44
255.892	87.44
256.124	75.44
256.357	84.44
256.59	89.44
256.823	66.44
257.056	77.44
257.289	75.44
257.521	72.44
257.754	81.44
257.987	80.44
258.22	71.44
258.452	89.44
258.685	88.44
258.918	90.44
259.151	78.44
259.383	86.44
259.616	74.44
259.849	74.44
260.081	80.44
260.314	90.44
260.547	78.44
260.779	91.44
261.012	85.44
261.244	83.44
261.477	92.44
261.71	82.44
261.942	104.44
262.175	106.44
262.407	85.44
262.64	86.44
262.872	80.44
263.105	97.44
263.337	82.44
263.57	89.44
263.802	96.44
264.035	64.44
264.267	74.44
264.499	73.44
264.732	99.44
264.964	90.44
265.197	77.44
265.429	81.44
265.661	65.44
265.894	74.44
266.126	85.44
266.358	81.44
266.591	72.44
266.823	78.44
267.055	87.44
267.287	94.44
267.52	84.44
267.752	77.44
267.984	88.44
268.216	87.44
268.448	90.44
268.681	90.44
268.913	89.44
269.145	76.44
269.377	84.44
269.609	73.44
269.841	82.44
270.073	77.44
270.306	74.44
270.538	84.44
270.77	93.44
271.002	79.44
271.234	86.44
271.466	91.44
271.698	85.44
271.93	92.44
272.162	83.44
272.394	76.44
272.626	73.44
272.858	77.44
273.09	101.44
273.322	90.44
273.553	102.44
273.785	90.44
274.017	69.44
274.249	95.44
274.481	97.44
274.713	85.44
274.945	94.44
275.176	84.44
275.408	79.44
275.64	76.44
275.872	89.44
276.104	84.44
276.335	96.44
276.567	97.44
276.799	106.44
277.031	92.44
277.262	94.44
277.494	93.44
277.726	81.44
277.957	74.44
278.189	73.44
278.421	98.44
278.652	97.44
278.884	79.44
279.115	78.44
279.347	83.44
279.579	99.44
279.81	82.44
280.042	75.44
280.273	100.44
280.505	79.44
280.736	79.44
280.968	83.44
281.199	87.44
281.431	92.44
281.662	77.44
281.894	92.44
282.125	107.44
282.356	109.44
282.588	140.44
282.819	111.44
283.051	88.44
283.282	83.44
283.513	88.44
283.745	64.44
283.976	92.44
284.207	87.44
284.439	82.44
284.67	97.44
284.901	79.44
285.132	86.44
285.364	99.44
285.595	95.44
285.826	82.44
286.057	92.44
286.288	75.44
286.52	87.44
286.751	73.44
286.982	80.44
287.213	93.44
287.444	90.44
287.675	67.44
287.906	87.44
288.138	87.44
288.369	77.44
288.6	91.44
288.831	91.44
289.062	96.44
289.293	92.44
289.524	100.44
289.755	91.44
289.986	72.44
290.217	101.44
290.448	87.44
290.679	86.44
290.91	78.44
291.141	97.44
291.371	94.44
291.602	86.44
291.833	82.44
292.064	90.44
292.295	98.44
292.526	93.44
292.757	114.44
292.987	88.44
293.218	90.44
293.449	97.44
293.68	78.44
293.91	103.44
294.141	82.44
294.372	92.44
294.603	87.44
294.833	97.44
295.064	85.44
295.295	85.44
295.525	86.44
295.756	100.44
295.987	114.44
296.217	127.44
296.448	130.44
296.679	88.44
296.909	101.44
297.14	88.44
297.37	86.44
297.601	99.44
297.831	78.44
298.062	92.44
298.292	111.44
298.523	80.44
298.753	82.44
298.984	95.44
299.214	83.44
299.445	96.44
299.675	99.44
299.905	89.44
300.136	75.44
300.366	90.44
300.597	83.44
300.827	97.44
301.057	100.44
301.288	101.44
301.518	92.44
301.748	98.44
301.979	105.44
302.209	89.44
302.439	89.44
302.669	85.44
302.9	78.44
303.13	102.44
303.36	89.44
303.59	97.44
303.82	85.44
304.051	100.44
304.281	91.44
304.511	81.44
304.741	83.44
304.971	72.44
305.201	98.44
305.431	90.44
305.661	88.44
305.891	88.44
306.121	89.44
306.352	105.44
306.582	107.44
306.812	101.44
307.042	92.44
307.272	100.44
307.502	95.44
307.731	80.44
307.961	91.44
308.191	93.44
308.421	90.44
308.651	99.44
308.881	89.44
309.111	100.44
309.341	94.44
309.571	96.44
309.8	98.44
310.03	108.44
310.26	97.44
310.49	92.44
310.72	93.44
310.949	118.44
311.179	97.44
311.409	84.44
311.639	84.44
311.868	103.44
312.098	92.44
312.328	100.44
312.557	110.44
312.787	108.44
313.017	91.44
313.246	93.44
313.476	102.44
313.706	99.44
313.935	95.44
314.165	80.44
314.394	91.44
314.624	83.44
314.853	100.44
315.083	91.44
315.312	84.44
315.542	89.44
315.771	91.44
316.001	93.44
316.23	89.44
316.46	86.44
316.689	90.44
316.919	88.44
317.148	94.44
317.377	114.44
317.607	98.44
317.836	95.44
318.065	90.44
318.295	88.44
318.524	90.44
318.753	99.44
318.983	82.44
319.212	91.44
319.441	107.44
319.67	96.44
319.9	93.44
320.129	94.44
320.358	90.44
320.587	98.44
320.816	107.44
321.046	98.44
321.275	84.44
321.504	82.44
321.733	105.44
321.962	103.44
322.191	113.44
322.42	95.44
322.649	113.44
322.878	108.44
323.108	117.44
323.337	116.44
323.566	131.44
323.795	176.44
324.024	230.44
324.253	435.44
324.482	894.44
324.71	1829.44
324.939	2342.44
325.168	878.44
325.397	268.44
325.626	152.44
325.855	135.44
326.084	147.44
326.313	134.44
326.542	155.44
326.77	240.44
326.999	479.44
327.228	1031.44
327.457	1850.44
327.686	1455.44
327.914	389.44
328.143	181.44
328.372	156.44
328.6	119.44
328.829	97.44
329.058	126.44
329.287	130.44
329.515	123.44
329.744	119.44
329.972	86.44
330.201	94.44
330.43	113.44
330.658	107.44
330.887	122.44
331.115	119.44
331.344	91.44
331.572	105.44
331.801	105.44
332.03	120.44
332.258	103.44
332.486	96.44
332.715	121.44
332.943	89.44
333.172	89.44
333.4	92.44
333.629	92.44
333.857	100.44
334.085	107.44
334.314	92.44
334.542	111.44
334.771	101.44
334.999	96.44
335.227	98.44
335.455	94.44
335.684	88.44
335.912	111.44
336.14	106.44
336.369	104.44
336.597	103.44
336.825	106.44
337.053	86.44
337.281	102.44
337.51	97.44
337.738	86.44
337.966	104.44
338.194	105.44
338.422	105.44
338.65	70.44
338.878	103.44
339.106	103.44
339.334	108.44
339.562	90.44
339.79	95.44
340.018	82.44
340.246	93.44
340.474	101.44
340.702	90.44
340.93	88.44
341.158	83.44
341.386	75.44
341.614	102.44
341.842	95.44
342.07	90.44
342.298	96.44
342.526	96.44
342.754	88.44
342.981	96.44
343.209	91.44
343.437	105.44
343.665	85.44
343.893	87.44
344.12	91.44
344.348	91.44
344.576	106.44
344.804	103.44
345.031	102.44
345.259	98.44
345.487	96.44
345.714	101.44
345.942	100.44
346.17	107.44
346.397	109.44
346.625	98.44
346.853	93.44
347.08	82.44
347.308	96.44
347.535	95.44
347.763	91.44
347.99	98.44
348.218	115.44
348.445	92.44
348.673	95.44
348.9	110.44
349.128	91.44
349.355	97.44
349.583	95.44
349.81	87.44
350.037	103.44
350.265	96.44
350.492	113.44
350.72	103.44
350.947	113.44
351.174	117.44
351.402	108.44
351.629	92.44
351.856	98.44
352.083	114.44
352.311	116.44
352.538	109.44
352.765	114.44
352.992	131.44
353.22	108.44
353.447	87.44
353.674	115.44
353.901	96.44
354.128	92.44
354.355	93.44
354.583	98.44
354.81	98.44
355.037	94.44
355.264	88.44
355.491	92.44
355.718	90.44
355.945	84.44
356.172	99.44
356.399	96.44
356.626	110.44
356.853	90.44
357.08	99.44
357.307	101.44
357.534	91.44
357.761	96.44
357.988	112.44
358.215	100.44
358.441	107.44
358.668	92.44
358.895	92.44
359.122	101.44
359.349	83.44
359.576	87.44
359.802	101.44
360.029	122.44
360.256	104.44
360.483	105.44
360.709	89.44
360.936	89.44
361.163	92.44
361.39	97.44
361.616	106.44
361.843	93.44
362.07	108.44
362.296	99.44
362.523	101.44
362.749	90.44
362.976	96.44
363.203	98.44
363.429	100.44
363.656	90.44
363.882	97.44
364.109	82.44
364.335	103.44
364.562	96.44
364.788	90.44
365.015	85.44
365.241	108.44
365.468	112.44
365.694	103.44
365.92	85.44
366.147	100.44
366.373	100.44
366.599	83.44
366.826	104.44
367.052	88.44
367.278	95.44
367.505	86.44
367.731	90.44
367.957	94.44
368.184	101.44
368.41	98.44
368.636	118.44
368.862	119.44
369.089	116.44
369.315	100.44
369.541	92.44
369.767	93.44
369.993	92.44
370.219	96.44
370.445	98.44
370.672	86.44
370.898	79.44
371.124	98.44
371.35	95.44
371.576	75.44
371.802	80.44
372.028	81.44
372.254	84.44
372.48	89.44
372.706	81.44
372.932	100.44
373.158	105.44
373.384	91.44
373.61	97.44
373.835	89.44
374.061	103.44
374.287	93.44
374.513	95.44
374.739	80.44
374.965	92.44
375.191	96.44
375.416	101.44
375.642	98.44
375.868	90.44
376.094	89.44
376.319	91.44
376.545	96.44
376.771	90.44
376.997	88.44
377.222	100.44
377.448	82.44
377.674	95.44
377.899	90.44
378.125	90.44
378.35	91.44
378.576	95.44
378.802	77.44
379.027	92.44
379.253	88.44
379.478	108.44
379.704	94.44
379.929	99.44
380.155	96.44
380.38	90.44
380.606	107.44
380.831	97.44
381.057	96.44
381.282	91.44
381.507	92.44
381.733	89.44
381.958	104.44
382.184	94.44
382.409	99.44
382.634	104.44
382.86	113.44
383.085	110.44
383.31	112.44
383.535	101.44
383.761	97.44
383.986	107.44
384.211	108.44
384.436	108.44
384.662	99.44
384.887	101.44
385.112	106.44
385.337	107.44
385.562	105.44
385.787	94.44
386.013	142.44
386.238	142.44
386.463	104.44
386.688	115.44
386.913	101.44
387.138	105.44
387.363	103.44
387.588	98.44
387.813	107.44
388.038	112.44
388.263	121.44
388.488	114.44
388.713	92.44
388.938	98.44
389.163	96.44
389.387	76.44
389.612	86.44
389.837	90.44
390.062	85.44
390.287	105.44
390.512	99.44
390.736	91.44
390.961	97.44
391.186	104.44
391.411	95.44
391.636	107.44
391.86	87.44
392.085	96.44
392.31	72.44
392.534	92.44
392.759	96.44
392.984	91.44
393.208	90.44
393.433	86.44
393.658	111.44
393.882	92.44
394.107	98.44
394.331	95.44
394.556	92.44
394.78	113.44
395.005	88.44
395.229	80.44
395.454	80.44
395.678	92.44
395.903	80.44
396.127	91.44
396.352	88.44
396.576	99.44
396.801	84.44
397.025	84.44
397.249	88.44
397.474	97.44
397.698	86.44
397.922	90.44
398.147	71.44
398.371	80.44
398.595	90.44
398.82	90.44
399.044	84.44
399.268	91.44
399.492	100.44
399.717	85.44
399.941	100.44
400.165	92.44
400.389	91.44
400.613	93.44
400.837	89.44
401.062	94.44
401.286	88.44
401.51	86.44
401.734	89.44
401.958	106.44
402.182	114.44
402.406	145.44
402.63	109.44
402.854	105.44
403.078	81.44
403.302	91.44
403.526	88.44
403.75	91.44
403.974	87.44
404.198	83.44
404.422	95.44
404.645	82.44
404.869	90.44
405.093	88.44
405.317	90.44
405.541	91.44
405.765	95.44
405.988	116.44
406.212	164.44
406.436	209.44
406.66	147.44
406.883	100.44
407.107	86.44
407.331	94.44
407.555	87.44
407.778	81.44
408.002	75.44
408.226	100.44
408.449	87.44
408.673	81.44
408.896	86.44
409.12	98.44
409.344	102.44
409.567	100.44
409.791	97.44
410.014	89.44
410.238	91.44
410.461	99.44
410.685	91.44
410.908	92.44
411.132	115.44
411.355	101.44
411.578	98.44
411.802	99.44
412.025	90.44
412.249	97.44
412.472	100.44
412.695	91.44
412.919	83.44
413.142	105.44
413.365	103.44
413.589	95.44
413.812	85.44
414.035	98.44
414.258	88.44
414.482	96.44
414.705	103.44
414.928	92.44
415.151	95.44
415.374	99.44
415.597	78.44
415.821	95.44
416.044	90.44
416.267	94.44
416.49	97.44
416.713	90.44
416.936	70.44
417.159	87.44
417.382	85.44
417.605	88.44
417.828	105.44
418.051	102.44
418.274	95.44
418.497	71.44
418.72	86.44
418.943	85.44
419.166	76.44
419.389	87.44
419.611	93.44
419.834	89.44
420.057	89.44
420.28	96.44
420.503	102.44
420.726	89.44
420.948	76.44
421.171	106.44
421.394	89.44
421.617	97.44
421.839	85.44
422.062	94.44
422.285	87.44
422.507	103.44
422.73	104.44
422.953	80.44
423.175	97.44
423.398	92.44
423.621	90.44
423.843	90.44
424.066	76.44
424.288	78.44
424.511	100.44
424.733	95.44
424.956	98.44
425.178	92.44
425.401	90.44
425.623	110.44
425.846	86.44
426.068	99.44
426.291	91.44
426.513	91.44
426.735	99.44
426.958	83.44
427.18	101.44
427.402	139.44
427.625	162.44
427.847	131.44
428.069	111.44
428.292	86.44
428.514	90.44
428.736	87.44
428.958	87.44
429.181	79.44
429.403	86.44
429.625	99.44
429.847	104.44
430.069	91.44
430.292	96.44
430.514	94.44
430.736	103.44
430.958	82.44
431.18	77.44
431.402	82.44
431.624	76.44
431.846	89.44
432.068	80.44
432.29	94.44
432.512	98.44
432.734	93.44
432.956	88.44
433.178	98.44
433.4	92.44
433.622	100.44
433.844	100.44
434.066	93.44
434.287	94.44
434.509	99.44
434.731	89.44
434.953	87.44
435.175	86.44
435.397	97.44
435.618	103.44
435.84	112.44
436.062	126.44
436.284	107.44
436.505	112.44
436.727	95.44
436.949	99.44
437.17	93.44
437.392	87.44
437.614	85.44
437.835	112.44
438.057	110.44
438.278	93.44
438.5	95.44
438.721	119.44
438.943	103.44
439.165	95.44
439.386	76.44
439.608	94.44
439.829	99.44
440.05	111.44
440.272	141.44
440.493	99.44
440.715	91.44
440.936	89.44
441.158	94.44
441.379	95.44
441.6	89.44
441.822	92.44
442.043	100.44
442.264	106.44
442.486	107.44
442.707	95.44
442.928	103.44
443.149	114.44
443.371	124.44
443.592	115.44
443.813	113.44
444.034	106.44
444.255	94.44
444.476	76.44
444.698	94.44
444.919	88.44
445.14	134.44
445.361	132.44
445.582	118.44
445.803	128.44
446.024	138.44
446.245	142.44
446.466	98.44
446.687	84.44
446.908	87.44
447.129	83.44
447.35	83.44
447.571	99.44
447.792	89.44
448.013	103.44
448.234	103.44
448.455	93.44
448.675	111.44
448.896	126.44
449.117	100.44
449.338	107.44
449.559	131.44
449.779	123.44
450	102.44
450.221	85.44
450.442	79.44
450.662	106.44
450.883	91.44
451.104	101.44
451.324	103.44
451.545	84.44
451.766	88.44
451.986	85.44
452.207	84.44
452.428	100.44
452.648	97.44
452.869	115.44
453.089	107.44
453.31	120.44
453.53	106.44
453.751	96.44
453.971	92.44
454.192	122.44
454.412	86.44
454.633	70.44
454.853	85.44
455.073	83.44
455.294	88.44
455.514	93.44
455.734	90.44
455.955	75.44
456.175	89.44
456.395	92.44
456.616	81.44
456.836	86.44
457.056	78.44
457.276	75.44
457.497	85.44
457.717	98.44
457.937	95.44
458.157	99.44
458.377	98.44
458.598	102.44
458.818	127.44
459.038	148.44
459.258	96.44
459.478	94.44
459.698	91.44
459.918	80.44
460.138	88.44
460.358	76.44
460.578	84.44
460.798	87.44
461.018	76.44
461.238	102.44
461.458	88.44
461.678	71.44
461.898	88.44
462.118	94.44
462.338	88.44
462.558	93.44
462.777	98.44
462.997	82.44
463.217	90.44
463.437	86.44
463.657	89.44
463.876	91.44
464.096	97.44
464.316	89.44
464.536	82.44
464.755	89.44
464.975	120.44
465.195	172.44
465.414	153.44
465.634	108.44
465.854	84.44
466.073	77.44
466.293	97.44
466.512	91.44
466.732	98.44
466.951	96.44
467.171	104.44
467.391	84.44
467.61	95.44
467.829	81.44
468.049	102.44
468.268	88.44
468.488	98.44
468.707	72.44
468.927	88.44
469.146	82.44
469.365	81.44
469.585	95.44
469.804	101.44
470.023	89.44
470.243	91.44
470.462	93.44
470.681	112.44
470.901	92.44
471.12	85.44
471.339	90.44
471.558	87.44
471.777	73.44
471.997	86.44
472.216	86.44
472.435	102.44
472.654	72.44
472.873	97.44
473.092	100.44
473.311	83.44
473.53	91.44
473.749	83.44
473.968	90.44
474.187	101.44
474.406	99.44
474.625	90.44
474.844	88.44
475.063	86.44
475.282	95.44
475.501	102.44
475.72	110.44
475.939	81.44
476.158	90.44
476.377	89.44
476.596	91.44
476.814	80.44
477.033	97.44
477.252	99.44
477.471	95.44
477.69	98.44
477.908	76.44
478.127	70.44
478.346	78.44
478.564	88.44
478.783	107.44
479.002	91.44
479.22	87.44
479.439	88.44
479.658	100.44
479.876	91.44
480.095	76.44
480.313	105.44
480.532	79.44
480.751	87.44
480.969	84.44
481.188	83.44
481.406	91.44
481.624	80.44
481.843	72.44
482.061	78.44
482.28	92.44
482.498	100.44
482.717	91.44
482.935	96.44
483.153	86.44
483.372	102.44
483.59	99.44
483.808	88.44
484.027	101.44
484.245	92.44
484.463	85.44
484.681	89.44
484.9	78.44
485.118	114.44
485.336	105.44
485.554	92.44
485.772	114.44
485.99	97.44
486.209	119.44
486.427	98.44
486.645	113.44
486.863	130.44
487.081	96.44
487.299	91.44
487.517	107.44
487.735	106.44
487.953	91.44
488.171	91.44
488.389	102.44
488.607	92.44
488.825	74.44
489.043	78.44
489.261	90.44
489.479	74.44
489.696	75.44
489.914	85.44
490.132	70.44
490.35	78.44
490.568	96.44
490.786	85.44
491.003	90.44
491.221	100.44
491.439	98.44
491.657	90.44
491.874	99.44
492.092	96.44
492.31	87.44
492.527	90.44
492.745	96.44
492.963	92.44
493.18	97.44
493.398	106.44
493.615	91.44
493.833	101.44
494.05	85.44
494.268	92.44
494.485	110.44
494.703	95.44
494.92	85.44
495.138	99.44
495.355	101.44
495.573	107.44
495.79	93.44
496.008	103.44
496.225	74.44
496.442	90.44
496.66	86.44
496.877	94.44
497.094	81.44
497.312	79.44
497.529	89.44
497.746	98.44
497.963	93.44
498.181	106.44
498.398	83.44
498.615	99.44
498.832	105.44
499.049	93.44
499.267	93.44
499.484	78.44
499.701	94.44
499.918	92.44
500.135	82.44
500.352	89.44
500.569	101.44
500.786	88.44
501.003	102.44
501.22	83.44
501.437	85.44
501.654	97.44
501.871	91.44
502.088	95.44
502.305	78.44
502.522	75.44
502.739	79.44
502.956	89.44
503.172	100.44
503.389	93.44
503.606	93.44
503.823	100.44
504.04	101.44
504.256	94.44
504.473	104.44
504.69	92.44
504.907	80.44
505.123	89.44
505.34	105.44
505.557	93.44
505.773	92.44
505.99	81.44
506.207	92.44
506.423	93.44
506.64	98.44
506.856	78.44
507.073	81.44
507.289	95.44
507.506	90.44
507.722	119.44
507.939	118.44
508.155	95.44
508.372	92.44
508.588	90.44
508.805	94.44
509.021	91.44
509.238	99.44
509.454	103.44
509.67	94.44
509.887	107.44
510.103	126.44
510.319	219.44
510.536	782.44
510.752	2376.44
510.968	666.44
511.184	148.44
511.401	116.44
511.617	98.44
511.833	89.44
512.049	82.44
512.265	89.44
512.481	92.44
512.698	100.44
512.914	98.44
513.13	96.44
513.346	100.44
513.562	85.44
513.778	101.44
513.994	86.44
514.21	91.44
514.426	116.44
514.642	108.44
514.858	111.44
515.074	165.44
515.29	451.44
