Data from Uncirc_2003_H10_HRD10591_00079.txt Node
Date: Wed Jan 03 10:36:03 EST 2024
User: Yrep
Spectrometer: HR+D1059
Trigger mode: 1
Integration Time (sec): 1.000000E-1
Scans to average: 1
Electric dark correction enabled: true
Nonlinearity correction enabled: false
Boxcar width: 0
XAxis mode: Wavelengths
Number of Pixels in Spectrum: 2048
>>>>>Begin Spectral Data<<<<<
223.165	-7.5
223.4	-7.5
223.635	-7.5
223.869	-24.5
224.104	-11.5
224.338	-14.5
224.573	-7.5
224.808	-18.5
225.042	-10.5
225.277	-8.5
225.511	-11.5
225.746	-4.5
225.98	6.5
226.215	8.5
226.449	28.5
226.683	13.5
226.918	26.5
227.152	35.5
227.387	27.5
227.621	40.5
227.856	31.5
228.09	43.5
228.324	38.5
228.559	34.5
228.793	47.5
229.027	62.5
229.262	56.5
229.496	75.5
229.73	90.5
229.964	83.5
230.199	74.5
230.433	84.5
230.667	88.5
230.901	82.5
231.136	75.5
231.37	76.5
231.604	73.5
231.838	77.5
232.072	82.5
232.306	68.5
232.541	83.5
232.775	83.5
233.009	88.5
233.243	85.5
233.477	82.5
233.711	73.5
233.945	69.5
234.179	91.5
234.413	73.5
234.647	75.5
234.881	68.5
235.115	66.5
235.349	74.5
235.583	74.5
235.817	88.5
236.051	63.5
236.285	82.5
236.519	78.5
236.753	86.5
236.987	71.5
237.221	84.5
237.455	94.5
237.689	79.5
237.922	71.5
238.156	76.5
238.39	81.5
238.624	78.5
238.858	78.5
239.091	79.5
239.325	85.5
239.559	69.5
239.793	83.5
240.027	82.5
240.26	73.5
240.494	63.5
240.728	78.5
240.961	76.5
241.195	76.5
241.429	81.5
241.662	76.5
241.896	79.5
242.13	81.5
242.363	78.5
242.597	83.5
242.83	83.5
243.064	81.5
243.298	87.5
243.531	80.5
243.765	69.5
243.998	95.5
244.232	85.5
244.465	78.5
244.699	101.5
244.932	88.5
245.166	70.5
245.399	78.5
245.633	77.5
245.866	74.5
246.099	75.5
246.333	77.5
246.566	76.5
246.8	80.5
247.033	77.5
247.266	79.5
247.5	73.5
247.733	73.5
247.966	77.5
248.2	81.5
248.433	90.5
248.666	85.5
248.899	89.5
249.133	89.5
249.366	102.5
249.599	96.5
249.832	84.5
250.066	79.5
250.299	85.5
250.532	88.5
250.765	77.5
250.998	90.5
251.231	68.5
251.465	70.5
251.698	74.5
251.931	78.5
252.164	79.5
252.397	73.5
252.63	72.5
252.863	82.5
253.096	95.5
253.329	81.5
253.562	85.5
253.795	83.5
254.028	81.5
254.261	89.5
254.494	94.5
254.727	83.5
254.96	78.5
255.193	64.5
255.426	89.5
255.659	84.5
255.892	76.5
256.124	82.5
256.357	73.5
256.59	75.5
256.823	79.5
257.056	81.5
257.289	86.5
257.521	78.5
257.754	81.5
257.987	82.5
258.22	86.5
258.452	89.5
258.685	83.5
258.918	75.5
259.151	82.5
259.383	81.5
259.616	77.5
259.849	81.5
260.081	88.5
260.314	90.5
260.547	86.5
260.779	81.5
261.012	88.5
261.244	83.5
261.477	91.5
261.71	74.5
261.942	102.5
262.175	118.5
262.407	79.5
262.64	103.5
262.872	96.5
263.105	87.5
263.337	107.5
263.57	83.5
263.802	80.5
264.035	78.5
264.267	93.5
264.499	81.5
264.732	84.5
264.964	78.5
265.197	87.5
265.429	84.5
265.661	73.5
265.894	83.5
266.126	94.5
266.358	85.5
266.591	73.5
266.823	88.5
267.055	86.5
267.287	81.5
267.52	81.5
267.752	76.5
267.984	74.5
268.216	82.5
268.448	88.5
268.681	89.5
268.913	71.5
269.145	87.5
269.377	89.5
269.609	80.5
269.841	73.5
270.073	86.5
270.306	104.5
270.538	77.5
270.77	77.5
271.002	82.5
271.234	87.5
271.466	85.5
271.698	86.5
271.93	81.5
272.162	81.5
272.394	75.5
272.626	91.5
272.858	87.5
273.09	83.5
273.322	80.5
273.553	83.5
273.785	89.5
274.017	93.5
274.249	80.5
274.481	75.5
274.713	76.5
274.945	97.5
275.176	91.5
275.408	88.5
275.64	97.5
275.872	75.5
276.104	77.5
276.335	79.5
276.567	93.5
276.799	106.5
277.031	97.5
277.262	78.5
277.494	89.5
277.726	77.5
277.957	73.5
278.189	76.5
278.421	102.5
278.652	91.5
278.884	87.5
279.115	95.5
279.347	76.5
279.579	83.5
279.81	89.5
280.042	85.5
280.273	88.5
280.505	94.5
280.736	81.5
280.968	85.5
281.199	81.5
281.431	90.5
281.662	95.5
281.894	82.5
282.125	107.5
282.356	133.5
282.588	138.5
282.819	105.5
283.051	96.5
283.282	87.5
283.513	83.5
283.745	91.5
283.976	95.5
284.207	85.5
284.439	95.5
284.67	81.5
284.901	72.5
285.132	77.5
285.364	80.5
285.595	95.5
285.826	83.5
286.057	80.5
286.288	90.5
286.52	94.5
286.751	81.5
286.982	87.5
287.213	86.5
287.444	90.5
287.675	93.5
287.906	88.5
288.138	91.5
288.369	96.5
288.6	91.5
288.831	86.5
289.062	88.5
289.293	89.5
289.524	85.5
289.755	90.5
289.986	85.5
290.217	96.5
290.448	87.5
290.679	72.5
290.91	91.5
291.141	81.5
291.371	90.5
291.602	94.5
291.833	90.5
292.064	85.5
292.295	97.5
292.526	84.5
292.757	89.5
292.987	100.5
293.218	85.5
293.449	84.5
293.68	85.5
293.91	86.5
294.141	88.5
294.372	87.5
294.603	101.5
294.833	88.5
295.064	87.5
295.295	81.5
295.525	90.5
295.756	95.5
295.987	107.5
296.217	129.5
296.448	113.5
296.679	85.5
296.909	86.5
297.14	84.5
297.37	86.5
297.601	92.5
297.831	90.5
298.062	89.5
298.292	96.5
298.523	95.5
298.753	89.5
298.984	86.5
299.214	89.5
299.445	90.5
299.675	100.5
299.905	89.5
300.136	95.5
300.366	83.5
300.597	83.5
300.827	93.5
301.057	90.5
301.288	93.5
301.518	94.5
301.748	90.5
301.979	105.5
302.209	95.5
302.439	99.5
302.669	78.5
302.9	101.5
303.13	85.5
303.36	81.5
303.59	92.5
303.82	106.5
304.051	100.5
304.281	94.5
304.511	92.5
304.741	91.5
304.971	98.5
305.201	86.5
305.431	81.5
305.661	83.5
305.891	105.5
306.121	97.5
306.352	91.5
306.582	91.5
306.812	108.5
307.042	91.5
307.272	96.5
307.502	82.5
307.731	95.5
307.961	82.5
308.191	88.5
308.421	90.5
308.651	89.5
308.881	104.5
309.111	91.5
309.341	109.5
309.571	95.5
309.8	110.5
310.03	91.5
310.26	87.5
310.49	91.5
310.72	102.5
310.949	99.5
311.179	100.5
311.409	100.5
311.639	102.5
311.868	106.5
312.098	103.5
312.328	102.5
312.557	95.5
312.787	103.5
313.017	100.5
313.246	85.5
313.476	99.5
313.706	96.5
313.935	89.5
314.165	100.5
314.394	113.5
314.624	101.5
314.853	96.5
315.083	98.5
315.312	103.5
315.542	100.5
315.771	94.5
316.001	82.5
316.23	96.5
316.46	95.5
316.689	84.5
316.919	95.5
317.148	106.5
317.377	94.5
317.607	98.5
317.836	86.5
318.065	103.5
318.295	96.5
318.524	94.5
318.753	76.5
318.983	101.5
319.212	97.5
319.441	98.5
319.67	101.5
319.9	87.5
320.129	93.5
320.358	93.5
320.587	98.5
320.816	90.5
321.046	107.5
321.275	97.5
321.504	88.5
321.733	95.5
321.962	87.5
322.191	83.5
322.42	104.5
322.649	97.5
322.878	114.5
323.108	111.5
323.337	115.5
323.566	127.5
323.795	177.5
324.024	210.5
324.253	402.5
324.482	918.5
324.71	1884.5
324.939	2451.5
325.168	893.5
325.397	261.5
325.626	141.5
325.855	144.5
326.084	130.5
326.313	136.5
326.542	162.5
326.77	244.5
326.999	491.5
327.228	1033.5
327.457	1866.5
327.686	1471.5
327.914	376.5
328.143	186.5
328.372	163.5
328.6	128.5
328.829	111.5
329.058	121.5
329.287	112.5
329.515	111.5
329.744	105.5
329.972	99.5
330.201	91.5
330.43	101.5
330.658	122.5
330.887	139.5
331.115	113.5
331.344	114.5
331.572	96.5
331.801	110.5
332.03	96.5
332.258	103.5
332.486	91.5
332.715	89.5
332.943	93.5
333.172	101.5
333.4	98.5
333.629	105.5
333.857	121.5
334.085	118.5
334.314	100.5
334.542	99.5
334.771	118.5
334.999	102.5
335.227	109.5
335.455	101.5
335.684	96.5
335.912	93.5
336.14	90.5
336.369	95.5
336.597	91.5
336.825	96.5
337.053	84.5
337.281	94.5
337.51	94.5
337.738	86.5
337.966	89.5
338.194	104.5
338.422	91.5
338.65	94.5
338.878	98.5
339.106	76.5
339.334	85.5
339.562	104.5
339.79	102.5
340.018	97.5
340.246	87.5
340.474	97.5
340.702	90.5
340.93	87.5
341.158	74.5
341.386	90.5
341.614	97.5
341.842	86.5
342.07	94.5
342.298	90.5
342.526	91.5
342.754	72.5
342.981	79.5
343.209	97.5
343.437	104.5
343.665	86.5
343.893	99.5
344.12	83.5
344.348	107.5
344.576	90.5
344.804	83.5
345.031	91.5
345.259	96.5
345.487	101.5
345.714	90.5
345.942	90.5
346.17	97.5
346.397	89.5
346.625	82.5
346.853	102.5
347.08	91.5
347.308	98.5
347.535	98.5
347.763	109.5
347.99	112.5
348.218	113.5
348.445	110.5
348.673	99.5
348.9	86.5
349.128	89.5
349.355	93.5
349.583	99.5
349.81	98.5
350.037	102.5
350.265	98.5
350.492	112.5
350.72	98.5
350.947	98.5
351.174	103.5
351.402	86.5
351.629	88.5
351.856	104.5
352.083	123.5
352.311	106.5
352.538	110.5
352.765	119.5
352.992	109.5
353.22	121.5
353.447	105.5
353.674	103.5
353.901	94.5
354.128	96.5
354.355	93.5
354.583	103.5
354.81	93.5
355.037	86.5
355.264	94.5
355.491	93.5
355.718	95.5
355.945	105.5
356.172	91.5
356.399	101.5
356.626	88.5
356.853	91.5
357.08	111.5
357.307	88.5
357.534	92.5
357.761	102.5
357.988	100.5
358.215	94.5
358.441	106.5
358.668	99.5
358.895	109.5
359.122	93.5
359.349	96.5
359.576	95.5
359.802	99.5
360.029	109.5
360.256	102.5
360.483	103.5
360.709	83.5
360.936	92.5
361.163	99.5
361.39	92.5
361.616	100.5
361.843	107.5
362.07	98.5
362.296	98.5
362.523	82.5
362.749	84.5
362.976	95.5
363.203	83.5
363.429	97.5
363.656	82.5
363.882	87.5
364.109	103.5
364.335	81.5
364.562	94.5
364.788	80.5
365.015	89.5
365.241	87.5
365.468	107.5
365.694	101.5
365.92	101.5
366.147	80.5
366.373	81.5
366.599	86.5
366.826	90.5
367.052	85.5
367.278	90.5
367.505	101.5
367.731	89.5
367.957	98.5
368.184	96.5
368.41	98.5
368.636	101.5
368.862	129.5
369.089	104.5
369.315	95.5
369.541	87.5
369.767	88.5
369.993	98.5
370.219	95.5
370.445	85.5
370.672	97.5
370.898	87.5
371.124	82.5
371.35	89.5
371.576	99.5
371.802	84.5
372.028	92.5
372.254	79.5
372.48	100.5
372.706	80.5
372.932	95.5
373.158	82.5
373.384	91.5
373.61	94.5
373.835	84.5
374.061	91.5
374.287	100.5
374.513	85.5
374.739	70.5
374.965	76.5
375.191	84.5
375.416	81.5
375.642	91.5
375.868	99.5
376.094	85.5
376.319	107.5
376.545	96.5
376.771	73.5
376.997	79.5
377.222	85.5
377.448	94.5
377.674	95.5
377.899	88.5
378.125	95.5
378.35	86.5
378.576	88.5
378.802	91.5
379.027	87.5
379.253	95.5
379.478	101.5
379.704	97.5
379.929	94.5
380.155	87.5
380.38	99.5
380.606	86.5
380.831	87.5
381.057	101.5
381.282	95.5
381.507	114.5
381.733	100.5
381.958	103.5
382.184	103.5
382.409	79.5
382.634	101.5
382.86	97.5
383.085	102.5
383.31	101.5
383.535	97.5
383.761	102.5
383.986	89.5
384.211	98.5
384.436	102.5
384.662	94.5
384.887	104.5
385.112	103.5
385.337	100.5
385.562	99.5
385.787	120.5
386.013	95.5
386.238	117.5
386.463	119.5
386.688	106.5
386.913	93.5
387.138	106.5
387.363	107.5
387.588	101.5
387.813	96.5
388.038	109.5
388.263	90.5
388.488	109.5
388.713	76.5
388.938	96.5
389.163	91.5
389.387	89.5
389.612	94.5
389.837	84.5
390.062	95.5
390.287	106.5
390.512	89.5
390.736	81.5
390.961	81.5
391.186	90.5
391.411	94.5
391.636	97.5
391.86	94.5
392.085	86.5
392.31	83.5
392.534	78.5
392.759	95.5
392.984	67.5
393.208	80.5
393.433	84.5
393.658	91.5
393.882	97.5
394.107	77.5
394.331	85.5
394.556	77.5
394.78	101.5
395.005	86.5
395.229	82.5
395.454	96.5
395.678	85.5
395.903	88.5
396.127	87.5
396.352	90.5
396.576	87.5
396.801	89.5
397.025	74.5
397.249	94.5
397.474	94.5
397.698	82.5
397.922	97.5
398.147	95.5
398.371	98.5
398.595	95.5
398.82	100.5
399.044	96.5
399.268	88.5
399.492	81.5
399.717	81.5
399.941	74.5
400.165	97.5
400.389	84.5
400.613	82.5
400.837	77.5
401.062	95.5
401.286	92.5
401.51	91.5
401.734	95.5
401.958	104.5
402.182	122.5
402.406	153.5
402.63	126.5
402.854	111.5
403.078	82.5
403.302	92.5
403.526	85.5
403.75	80.5
403.974	68.5
404.198	78.5
404.422	101.5
404.645	96.5
404.869	94.5
405.093	88.5
405.317	104.5
405.541	101.5
405.765	98.5
405.988	115.5
406.212	168.5
406.436	224.5
406.66	152.5
406.883	91.5
407.107	101.5
407.331	97.5
407.555	90.5
407.778	91.5
408.002	95.5
408.226	89.5
408.449	94.5
408.673	89.5
408.896	88.5
409.12	94.5
409.344	86.5
409.567	95.5
409.791	87.5
410.014	85.5
410.238	97.5
410.461	101.5
410.685	97.5
410.908	96.5
411.132	102.5
411.355	86.5
411.578	66.5
411.802	90.5
412.025	90.5
412.249	88.5
412.472	77.5
412.695	86.5
412.919	95.5
413.142	84.5
413.365	96.5
413.589	90.5
413.812	98.5
414.035	82.5
414.258	100.5
414.482	88.5
414.705	90.5
414.928	86.5
415.151	87.5
415.374	82.5
415.597	97.5
415.821	104.5
416.044	91.5
416.267	89.5
416.49	84.5
416.713	97.5
416.936	86.5
417.159	91.5
417.382	74.5
417.605	84.5
417.828	90.5
418.051	96.5
418.274	102.5
418.497	91.5
418.72	87.5
418.943	94.5
419.166	96.5
419.389	103.5
419.611	82.5
419.834	97.5
420.057	97.5
420.28	90.5
420.503	79.5
420.726	94.5
420.948	77.5
421.171	95.5
421.394	86.5
421.617	100.5
421.839	103.5
422.062	99.5
422.285	89.5
422.507	102.5
422.73	97.5
422.953	89.5
423.175	95.5
423.398	93.5
423.621	87.5
423.843	79.5
424.066	82.5
424.288	99.5
424.511	96.5
424.733	83.5
424.956	96.5
425.178	105.5
425.401	112.5
425.623	107.5
425.846	93.5
426.068	97.5
426.291	102.5
426.513	90.5
426.735	94.5
426.958	95.5
427.18	99.5
427.402	124.5
427.625	148.5
427.847	114.5
428.069	101.5
428.292	95.5
428.514	79.5
428.736	84.5
428.958	80.5
429.181	74.5
429.403	95.5
429.625	75.5
429.847	82.5
430.069	85.5
430.292	96.5
430.514	93.5
430.736	85.5
430.958	90.5
431.18	86.5
431.402	98.5
431.624	87.5
431.846	87.5
432.068	76.5
432.29	100.5
432.512	89.5
432.734	96.5
432.956	92.5
433.178	107.5
433.4	98.5
433.622	88.5
433.844	105.5
434.066	69.5
434.287	92.5
434.509	86.5
434.731	83.5
434.953	87.5
435.175	98.5
435.397	87.5
435.618	92.5
435.84	103.5
436.062	117.5
436.284	118.5
436.505	109.5
436.727	97.5
436.949	86.5
437.17	90.5
437.392	104.5
437.614	103.5
437.835	103.5
438.057	105.5
438.278	103.5
438.5	115.5
438.721	122.5
438.943	90.5
439.165	88.5
439.386	91.5
439.608	95.5
439.829	113.5
440.05	110.5
440.272	147.5
440.493	101.5
440.715	95.5
440.936	89.5
441.158	90.5
441.379	85.5
441.6	94.5
441.822	89.5
442.043	85.5
442.264	97.5
442.486	122.5
442.707	96.5
442.928	111.5
443.149	133.5
443.371	135.5
443.592	111.5
443.813	109.5
444.034	117.5
444.255	98.5
444.476	101.5
444.698	86.5
444.919	96.5
445.14	134.5
445.361	130.5
445.582	105.5
445.803	146.5
446.024	127.5
446.245	123.5
446.466	111.5
446.687	91.5
446.908	93.5
447.129	97.5
447.35	84.5
447.571	85.5
447.792	92.5
448.013	105.5
448.234	95.5
448.455	107.5
448.675	107.5
448.896	103.5
449.117	101.5
449.338	104.5
449.559	113.5
449.779	146.5
450	101.5
450.221	85.5
450.442	94.5
450.662	100.5
450.883	110.5
451.104	109.5
451.324	85.5
451.545	91.5
451.766	97.5
451.986	83.5
452.207	93.5
452.428	86.5
452.648	82.5
452.869	91.5
453.089	88.5
453.31	109.5
453.53	93.5
453.751	85.5
453.971	100.5
454.192	107.5
454.412	102.5
454.633	79.5
454.853	80.5
455.073	85.5
455.294	90.5
455.514	97.5
455.734	90.5
455.955	90.5
456.175	86.5
456.395	98.5
456.616	81.5
456.836	81.5
457.056	78.5
457.276	84.5
457.497	73.5
457.717	84.5
457.937	89.5
458.157	99.5
458.377	114.5
458.598	111.5
458.818	153.5
459.038	151.5
459.258	114.5
459.478	97.5
459.698	92.5
459.918	85.5
460.138	84.5
460.358	67.5
460.578	77.5
460.798	94.5
461.018	87.5
461.238	80.5
461.458	91.5
461.678	77.5
461.898	99.5
462.118	85.5
462.338	86.5
462.558	83.5
462.777	97.5
462.997	81.5
463.217	81.5
463.437	93.5
463.657	89.5
463.876	90.5
464.096	93.5
464.316	83.5
464.536	85.5
464.755	90.5
464.975	110.5
465.195	161.5
465.414	156.5
465.634	91.5
465.854	83.5
466.073	95.5
466.293	85.5
466.512	79.5
466.732	88.5
466.951	77.5
467.171	86.5
467.391	97.5
467.61	118.5
467.829	89.5
468.049	98.5
468.268	84.5
468.488	87.5
468.707	97.5
468.927	92.5
469.146	97.5
469.365	102.5
469.585	93.5
469.804	92.5
470.023	97.5
470.243	88.5
470.462	88.5
470.681	105.5
470.901	87.5
471.12	87.5
471.339	88.5
471.558	80.5
471.777	101.5
471.997	94.5
472.216	103.5
472.435	111.5
472.654	77.5
472.873	93.5
473.092	94.5
473.311	90.5
473.53	81.5
473.749	87.5
473.968	84.5
474.187	115.5
474.406	87.5
474.625	90.5
474.844	84.5
475.063	77.5
475.282	86.5
475.501	86.5
475.72	106.5
475.939	90.5
476.158	86.5
476.377	82.5
476.596	89.5
476.814	81.5
477.033	86.5
477.252	74.5
477.471	89.5
477.69	90.5
477.908	83.5
478.127	97.5
478.346	84.5
478.564	84.5
478.783	95.5
479.002	89.5
479.22	93.5
479.439	108.5
479.658	96.5
479.876	97.5
480.095	73.5
480.313	91.5
480.532	85.5
480.751	95.5
480.969	87.5
481.188	101.5
481.406	106.5
481.624	102.5
481.843	88.5
482.061	89.5
482.28	83.5
482.498	81.5
482.717	107.5
482.935	88.5
483.153	97.5
483.372	89.5
483.59	81.5
483.808	79.5
484.027	90.5
484.245	98.5
484.463	83.5
484.681	86.5
484.9	87.5
485.118	89.5
485.336	91.5
485.554	89.5
485.772	114.5
485.99	95.5
486.209	105.5
486.427	95.5
486.645	103.5
486.863	102.5
487.081	109.5
487.299	88.5
487.517	91.5
487.735	105.5
487.953	109.5
488.171	81.5
488.389	99.5
488.607	104.5
488.825	104.5
489.043	85.5
489.261	90.5
489.479	86.5
489.696	81.5
489.914	83.5
490.132	86.5
490.35	96.5
490.568	80.5
490.786	84.5
491.003	92.5
491.221	94.5
491.439	98.5
491.657	101.5
491.874	82.5
492.092	84.5
492.31	85.5
492.527	85.5
492.745	100.5
492.963	100.5
493.18	95.5
493.398	87.5
493.615	92.5
493.833	95.5
494.05	87.5
494.268	81.5
494.485	88.5
494.703	97.5
494.92	85.5
495.138	89.5
495.355	96.5
495.573	90.5
495.79	77.5
496.008	92.5
496.225	78.5
496.442	110.5
496.66	80.5
496.877	97.5
497.094	93.5
497.312	91.5
497.529	110.5
497.746	91.5
497.963	89.5
498.181	91.5
498.398	89.5
498.615	114.5
498.832	92.5
499.049	98.5
499.267	83.5
499.484	90.5
499.701	96.5
499.918	86.5
500.135	96.5
500.352	83.5
500.569	77.5
500.786	94.5
501.003	91.5
501.22	90.5
501.437	91.5
501.654	96.5
501.871	105.5
502.088	90.5
502.305	95.5
502.522	85.5
502.739	79.5
502.956	96.5
503.172	101.5
503.389	88.5
503.606	102.5
503.823	97.5
504.04	81.5
504.256	89.5
504.473	86.5
504.69	84.5
504.907	84.5
505.123	95.5
505.34	89.5
505.557	79.5
505.773	91.5
505.99	90.5
506.207	74.5
506.423	91.5
506.64	88.5
506.856	85.5
507.073	82.5
507.289	101.5
507.506	94.5
507.722	104.5
507.939	118.5
508.155	99.5
508.372	96.5
508.588	99.5
508.805	93.5
509.021	93.5
509.238	82.5
509.454	104.5
509.67	108.5
509.887	116.5
510.103	162.5
510.319	225.5
510.536	776.5
510.752	2550.5
510.968	717.5
511.184	165.5
511.401	99.5
511.617	104.5
511.833	101.5
512.049	91.5
512.265	90.5
512.481	98.5
512.698	98.5
512.914	95.5
513.13	86.5
513.346	86.5
513.562	96.5
513.778	110.5
513.994	88.5
514.21	103.5
514.426	115.5
514.642	130.5
514.858	117.5
515.074	169.5
515.29	462.5
515.506	1527.5
515.721	551.5
515.937	149.5
516.153	105.5
516.369	92.5
516.585	98.5
516.801	89.5
517.016	91.5
517.232	97.5
517.448	102.5
517.664	94.5
517.879	91.5
518.095	84.5
518.311	94.5
518.527	89.5
518.742	89.5
518.958	96.5
519.173	100.5
519.389	86.5
519.605	88.5
519.82	95.5
520.036	104.5
520.251	110.5
520.467	121.5
520.682	109.5
520.898	86.5
521.113	121.5
521.329	133.5
521.544	212.5
521.76	585.5
521.975	2445.5
522.19	1473.5
522.406	313.5
522.621	125.5
522.836	97.5
523.052	89.5
523.267	93.5
523.482	97.5
523.698	100.5
523.913	129.5
524.128	97.5
524.343	95.5
524.559	104.5
524.774	83.5
524.989	106.5
525.204	97.5
525.419	96.5
525.634	82.5
525.849	80.5
526.064	87.5
526.28	93.5
526.495	88.5
526.71	88.5
526.925	80.5
527.14	91.5
527.355	87.5
527.57	104.5
527.785	83.5
527.999	95.5
528.214	93.5
528.429	98.5
528.644	93.5
528.859	99.5
529.074	95.5
529.289	134.5
529.503	175.5
529.718	115.5
529.933	95.5
530.148	82.5
530.363	84.5
530.577	91.5
530.792	86.5
531.007	100.5
531.221	91.5
531.436	91.5
531.651	91.5
531.865	91.5
532.08	81.5
532.295	101.5
532.509	82.5
532.724	87.5
532.938	109.5
533.153	94.5
533.367	102.5
533.582	76.5
533.796	96.5
534.011	78.5
534.225	93.5
534.44	90.5
534.654	87.5
534.868	95.5
535.083	100.5
535.297	90.5
