Data from Uncirc_2003_H10_HRD10591_00091.txt Node
Date: Wed Jan 03 10:36:06 EST 2024
User: Yrep
Spectrometer: HR+D1059
Trigger mode: 1
Integration Time (sec): 1.000000E-1
Scans to average: 1
Electric dark correction enabled: true
Nonlinearity correction enabled: false
Boxcar width: 0
XAxis mode: Wavelengths
Number of Pixels in Spectrum: 2048
>>>>>Begin Spectral Data<<<<<
223.165	-25.5
223.4	-25.5
223.635	-25.5
223.869	-15.5
224.104	-13.5
224.338	-19.5
224.573	-10.5
224.808	-14.5
225.042	-16.5
225.277	4.5
225.511	-5.5
225.746	4.5
225.98	-5.5
226.215	15.5
226.449	24.5
226.683	20.5
226.918	27.5
227.152	29.5
227.387	30.5
227.621	33.5
227.856	51.5
228.09	50.5
228.324	56.5
228.559	62.5
228.793	50.5
229.027	73.5
229.262	71.5
229.496	62.5
229.73	77.5
229.964	80.5
230.199	62.5
230.433	83.5
230.667	71.5
230.901	88.5
231.136	79.5
231.37	84.5
231.604	87.5
231.838	64.5
232.072	70.5
232.306	75.5
232.541	85.5
232.775	81.5
233.009	78.5
233.243	82.5
233.477	82.5
233.711	69.5
233.945	77.5
234.179	71.5
234.413	89.5
234.647	75.5
234.881	89.5
235.115	76.5
235.349	79.5
235.583	81.5
235.817	84.5
236.051	76.5
236.285	91.5
236.519	79.5
236.753	85.5
236.987	78.5
237.221	76.5
237.455	96.5
237.689	84.5
237.922	66.5
238.156	83.5
238.39	63.5
238.624	74.5
238.858	71.5
239.091	79.5
239.325	89.5
239.559	84.5
239.793	75.5
240.027	71.5
240.26	92.5
240.494	84.5
240.728	85.5
240.961	79.5
241.195	64.5
241.429	90.5
241.662	75.5
241.896	68.5
242.13	96.5
242.363	81.5
242.597	80.5
242.83	80.5
243.064	78.5
243.298	90.5
243.531	69.5
243.765	83.5
243.998	82.5
244.232	75.5
244.465	84.5
244.699	75.5
244.932	82.5
245.166	63.5
245.399	72.5
245.633	80.5
245.866	87.5
246.099	84.5
246.333	70.5
246.566	78.5
246.8	78.5
247.033	76.5
247.266	76.5
247.5	79.5
247.733	89.5
247.966	75.5
248.2	93.5
248.433	84.5
248.666	88.5
248.899	86.5
249.133	92.5
249.366	82.5
249.599	87.5
249.832	87.5
250.066	82.5
250.299	71.5
250.532	86.5
250.765	70.5
250.998	67.5
251.231	84.5
251.465	70.5
251.698	85.5
251.931	81.5
252.164	81.5
252.397	73.5
252.63	87.5
252.863	89.5
253.096	81.5
253.329	91.5
253.562	78.5
253.795	88.5
254.028	83.5
254.261	87.5
254.494	85.5
254.727	82.5
254.96	76.5
255.193	82.5
255.426	88.5
255.659	74.5
255.892	88.5
256.124	72.5
256.357	92.5
256.59	78.5
256.823	78.5
257.056	80.5
257.289	81.5
257.521	82.5
257.754	83.5
257.987	76.5
258.22	85.5
258.452	66.5
258.685	82.5
258.918	77.5
259.151	90.5
259.383	77.5
259.616	88.5
259.849	84.5
260.081	93.5
260.314	81.5
260.547	86.5
260.779	83.5
261.012	76.5
261.244	83.5
261.477	89.5
261.71	92.5
261.942	111.5
262.175	119.5
262.407	86.5
262.64	79.5
262.872	81.5
263.105	89.5
263.337	89.5
263.57	82.5
263.802	83.5
264.035	80.5
264.267	64.5
264.499	77.5
264.732	87.5
264.964	84.5
265.197	74.5
265.429	86.5
265.661	90.5
265.894	91.5
266.126	87.5
266.358	84.5
266.591	81.5
266.823	102.5
267.055	78.5
267.287	87.5
267.52	88.5
267.752	88.5
267.984	79.5
268.216	79.5
268.448	84.5
268.681	92.5
268.913	96.5
269.145	67.5
269.377	77.5
269.609	100.5
269.841	90.5
270.073	73.5
270.306	82.5
270.538	87.5
270.77	81.5
271.002	74.5
271.234	91.5
271.466	92.5
271.698	89.5
271.93	90.5
272.162	90.5
272.394	96.5
272.626	86.5
272.858	94.5
273.09	90.5
273.322	97.5
273.553	89.5
273.785	74.5
274.017	88.5
274.249	89.5
274.481	89.5
274.713	88.5
274.945	67.5
275.176	88.5
275.408	87.5
275.64	80.5
275.872	100.5
276.104	91.5
276.335	79.5
276.567	91.5
276.799	105.5
277.031	107.5
277.262	86.5
277.494	91.5
277.726	77.5
277.957	85.5
278.189	95.5
278.421	87.5
278.652	74.5
278.884	75.5
279.115	89.5
279.347	84.5
279.579	89.5
279.81	86.5
280.042	86.5
280.273	80.5
280.505	100.5
280.736	86.5
280.968	75.5
281.199	91.5
281.431	101.5
281.662	99.5
281.894	83.5
282.125	88.5
282.356	112.5
282.588	131.5
282.819	113.5
283.051	97.5
283.282	74.5
283.513	89.5
283.745	72.5
283.976	92.5
284.207	99.5
284.439	90.5
284.67	88.5
284.901	90.5
285.132	80.5
285.364	91.5
285.595	83.5
285.826	101.5
286.057	90.5
286.288	74.5
286.52	79.5
286.751	85.5
286.982	95.5
287.213	89.5
287.444	95.5
287.675	74.5
287.906	86.5
288.138	83.5
288.369	90.5
288.6	82.5
288.831	94.5
289.062	98.5
289.293	78.5
289.524	97.5
289.755	90.5
289.986	74.5
290.217	93.5
290.448	98.5
290.679	69.5
290.91	102.5
291.141	85.5
291.371	89.5
291.602	99.5
291.833	87.5
292.064	98.5
292.295	92.5
292.526	71.5
292.757	91.5
292.987	87.5
293.218	82.5
293.449	99.5
293.68	87.5
293.91	77.5
294.141	96.5
294.372	93.5
294.603	108.5
294.833	76.5
295.064	91.5
295.295	91.5
295.525	99.5
295.756	100.5
295.987	124.5
296.217	142.5
296.448	107.5
296.679	94.5
296.909	92.5
297.14	90.5
297.37	91.5
297.601	82.5
297.831	89.5
298.062	83.5
298.292	71.5
298.523	94.5
298.753	94.5
298.984	73.5
299.214	93.5
299.445	97.5
299.675	106.5
299.905	90.5
300.136	86.5
300.366	86.5
300.597	99.5
300.827	103.5
301.057	105.5
301.288	87.5
301.518	88.5
301.748	76.5
301.979	84.5
302.209	97.5
302.439	95.5
302.669	91.5
302.9	80.5
303.13	85.5
303.36	87.5
303.59	77.5
303.82	109.5
304.051	87.5
304.281	95.5
304.511	88.5
304.741	80.5
304.971	83.5
305.201	98.5
305.431	104.5
305.661	87.5
305.891	84.5
306.121	96.5
306.352	104.5
306.582	105.5
306.812	86.5
307.042	90.5
307.272	89.5
307.502	81.5
307.731	87.5
307.961	85.5
308.191	91.5
308.421	98.5
308.651	93.5
308.881	91.5
309.111	71.5
309.341	101.5
309.571	94.5
309.8	88.5
310.03	90.5
310.26	83.5
310.49	92.5
310.72	89.5
310.949	98.5
311.179	95.5
311.409	88.5
311.639	84.5
311.868	99.5
312.098	97.5
312.328	102.5
312.557	87.5
312.787	109.5
313.017	118.5
313.246	94.5
313.476	96.5
313.706	88.5
313.935	96.5
314.165	100.5
314.394	108.5
314.624	96.5
314.853	101.5
315.083	102.5
315.312	81.5
315.542	86.5
315.771	84.5
316.001	75.5
316.23	92.5
316.46	94.5
316.689	98.5
316.919	93.5
317.148	86.5
317.377	80.5
317.607	91.5
317.836	85.5
318.065	101.5
318.295	116.5
318.524	94.5
318.753	104.5
318.983	92.5
319.212	98.5
319.441	103.5
319.67	103.5
319.9	89.5
320.129	95.5
320.358	110.5
320.587	91.5
320.816	103.5
321.046	114.5
321.275	113.5
321.504	93.5
321.733	106.5
321.962	92.5
322.191	107.5
322.42	99.5
322.649	104.5
322.878	112.5
323.108	113.5
323.337	118.5
323.566	135.5
323.795	151.5
324.024	215.5
324.253	430.5
324.482	908.5
324.71	1890.5
324.939	2490.5
325.168	883.5
325.397	254.5
325.626	154.5
325.855	129.5
326.084	135.5
326.313	129.5
326.542	165.5
326.77	263.5
326.999	488.5
327.228	1045.5
327.457	1888.5
327.686	1486.5
327.914	406.5
328.143	194.5
328.372	160.5
328.6	123.5
328.829	127.5
329.058	122.5
329.287	119.5
329.515	103.5
329.744	91.5
329.972	80.5
330.201	104.5
330.43	111.5
330.658	114.5
330.887	118.5
331.115	108.5
331.344	101.5
331.572	106.5
331.801	104.5
332.03	92.5
332.258	93.5
332.486	104.5
332.715	84.5
332.943	95.5
333.172	105.5
333.4	97.5
333.629	114.5
333.857	113.5
334.085	105.5
334.314	101.5
334.542	105.5
334.771	92.5
334.999	95.5
335.227	103.5
335.455	106.5
335.684	90.5
335.912	87.5
336.14	94.5
336.369	98.5
336.597	106.5
336.825	106.5
337.053	96.5
337.281	97.5
337.51	88.5
337.738	84.5
337.966	94.5
338.194	102.5
338.422	86.5
338.65	91.5
338.878	98.5
339.106	87.5
339.334	109.5
339.562	79.5
339.79	75.5
340.018	94.5
340.246	105.5
340.474	89.5
340.702	88.5
340.93	104.5
341.158	96.5
341.386	92.5
341.614	84.5
341.842	110.5
342.07	90.5
342.298	94.5
342.526	102.5
342.754	92.5
342.981	99.5
343.209	77.5
343.437	96.5
343.665	98.5
343.893	90.5
344.12	103.5
344.348	87.5
344.576	99.5
344.804	81.5
345.031	102.5
345.259	90.5
345.487	90.5
345.714	87.5
345.942	90.5
346.17	104.5
346.397	95.5
346.625	88.5
346.853	88.5
347.08	90.5
347.308	95.5
347.535	103.5
347.763	98.5
347.99	103.5
348.218	89.5
348.445	96.5
348.673	96.5
348.9	98.5
349.128	112.5
349.355	101.5
349.583	97.5
349.81	102.5
350.037	90.5
350.265	106.5
350.492	98.5
350.72	101.5
350.947	90.5
351.174	98.5
351.402	107.5
351.629	106.5
351.856	103.5
352.083	98.5
352.311	114.5
352.538	106.5
352.765	111.5
352.992	110.5
353.22	110.5
353.447	100.5
353.674	95.5
353.901	90.5
354.128	103.5
354.355	102.5
354.583	86.5
354.81	94.5
355.037	96.5
355.264	98.5
355.491	99.5
355.718	91.5
355.945	107.5
356.172	90.5
356.399	90.5
356.626	73.5
356.853	99.5
357.08	105.5
357.307	97.5
357.534	88.5
357.761	96.5
357.988	83.5
358.215	94.5
358.441	93.5
358.668	91.5
358.895	88.5
359.122	95.5
359.349	93.5
359.576	82.5
359.802	95.5
360.029	103.5
360.256	92.5
360.483	93.5
360.709	78.5
360.936	102.5
361.163	102.5
361.39	105.5
361.616	102.5
361.843	94.5
362.07	91.5
362.296	94.5
362.523	87.5
362.749	93.5
362.976	115.5
363.203	98.5
363.429	78.5
363.656	101.5
363.882	79.5
364.109	106.5
364.335	96.5
364.562	81.5
364.788	91.5
365.015	92.5
365.241	103.5
365.468	102.5
365.694	112.5
365.92	95.5
366.147	75.5
366.373	87.5
366.599	86.5
366.826	90.5
367.052	84.5
367.278	104.5
367.505	81.5
367.731	98.5
367.957	93.5
368.184	92.5
368.41	75.5
368.636	120.5
368.862	126.5
369.089	112.5
369.315	93.5
369.541	96.5
369.767	97.5
369.993	88.5
370.219	94.5
370.445	81.5
370.672	92.5
370.898	86.5
371.124	105.5
371.35	93.5
371.576	100.5
371.802	90.5
372.028	94.5
372.254	94.5
372.48	98.5
372.706	96.5
372.932	96.5
373.158	91.5
373.384	91.5
373.61	79.5
373.835	94.5
374.061	81.5
374.287	114.5
374.513	92.5
374.739	106.5
374.965	85.5
375.191	80.5
375.416	86.5
375.642	92.5
375.868	87.5
376.094	97.5
376.319	94.5
376.545	96.5
376.771	86.5
376.997	91.5
377.222	84.5
377.448	85.5
377.674	95.5
377.899	84.5
378.125	87.5
378.35	96.5
378.576	74.5
378.802	91.5
379.027	96.5
379.253	80.5
379.478	91.5
379.704	87.5
379.929	109.5
380.155	111.5
380.38	109.5
380.606	97.5
380.831	96.5
381.057	98.5
381.282	90.5
381.507	111.5
381.733	100.5
381.958	91.5
382.184	81.5
382.409	99.5
382.634	99.5
382.86	91.5
383.085	112.5
383.31	100.5
383.535	87.5
383.761	96.5
383.986	96.5
384.211	92.5
384.436	89.5
384.662	100.5
384.887	108.5
385.112	114.5
385.337	108.5
385.562	103.5
385.787	108.5
386.013	112.5
386.238	100.5
386.463	104.5
386.688	96.5
386.913	115.5
387.138	106.5
387.363	101.5
387.588	101.5
387.813	98.5
388.038	95.5
388.263	112.5
388.488	100.5
388.713	94.5
388.938	85.5
389.163	96.5
389.387	110.5
389.612	103.5
389.837	96.5
390.062	83.5
390.287	104.5
390.512	92.5
390.736	102.5
390.961	98.5
391.186	81.5
391.411	92.5
391.636	95.5
391.86	90.5
392.085	103.5
392.31	93.5
392.534	91.5
392.759	88.5
392.984	96.5
393.208	98.5
393.433	100.5
393.658	96.5
393.882	85.5
394.107	94.5
394.331	92.5
394.556	88.5
394.78	90.5
395.005	93.5
395.229	94.5
395.454	95.5
395.678	90.5
395.903	91.5
396.127	92.5
396.352	92.5
396.576	85.5
396.801	83.5
397.025	79.5
397.249	103.5
397.474	98.5
397.698	102.5
397.922	97.5
398.147	77.5
398.371	86.5
398.595	100.5
398.82	88.5
399.044	93.5
399.268	87.5
399.492	85.5
399.717	106.5
399.941	90.5
400.165	93.5
400.389	91.5
400.613	86.5
400.837	97.5
401.062	91.5
401.286	88.5
401.51	79.5
401.734	86.5
401.958	102.5
402.182	126.5
402.406	167.5
402.63	113.5
402.854	84.5
403.078	95.5
403.302	95.5
403.526	97.5
403.75	91.5
403.974	89.5
404.198	90.5
404.422	80.5
404.645	97.5
404.869	90.5
405.093	91.5
405.317	91.5
405.541	101.5
405.765	102.5
405.988	117.5
406.212	169.5
406.436	223.5
406.66	145.5
406.883	100.5
407.107	91.5
407.331	100.5
407.555	89.5
407.778	104.5
408.002	89.5
408.226	85.5
408.449	85.5
408.673	87.5
408.896	92.5
409.12	91.5
409.344	83.5
409.567	92.5
409.791	91.5
410.014	92.5
410.238	97.5
410.461	94.5
410.685	95.5
410.908	96.5
411.132	102.5
411.355	87.5
411.578	92.5
411.802	93.5
412.025	99.5
412.249	99.5
412.472	99.5
412.695	89.5
412.919	101.5
413.142	95.5
413.365	85.5
413.589	87.5
413.812	99.5
414.035	94.5
414.258	93.5
414.482	100.5
414.705	85.5
414.928	109.5
415.151	106.5
415.374	103.5
415.597	100.5
415.821	90.5
416.044	90.5
416.267	100.5
416.49	92.5
416.713	95.5
416.936	99.5
417.159	95.5
417.382	91.5
417.605	94.5
417.828	74.5
418.051	95.5
418.274	91.5
418.497	72.5
418.72	83.5
418.943	85.5
419.166	100.5
419.389	92.5
419.611	84.5
419.834	81.5
420.057	102.5
420.28	94.5
420.503	91.5
420.726	82.5
420.948	100.5
421.171	96.5
421.394	99.5
421.617	84.5
421.839	87.5
422.062	87.5
422.285	103.5
422.507	112.5
422.73	113.5
422.953	99.5
423.175	89.5
423.398	104.5
423.621	86.5
423.843	88.5
424.066	79.5
424.288	88.5
424.511	87.5
424.733	92.5
424.956	108.5
425.178	101.5
425.401	96.5
425.623	84.5
425.846	79.5
426.068	92.5
426.291	91.5
426.513	97.5
426.735	94.5
426.958	97.5
427.18	98.5
427.402	118.5
427.625	154.5
427.847	133.5
428.069	102.5
428.292	82.5
428.514	93.5
428.736	100.5
428.958	96.5
429.181	98.5
429.403	87.5
429.625	89.5
429.847	77.5
430.069	101.5
430.292	94.5
430.514	92.5
430.736	71.5
430.958	105.5
431.18	90.5
431.402	83.5
431.624	90.5
431.846	83.5
432.068	72.5
432.29	85.5
432.512	79.5
432.734	94.5
432.956	89.5
433.178	104.5
433.4	86.5
433.622	93.5
433.844	100.5
434.066	94.5
434.287	103.5
434.509	78.5
434.731	103.5
434.953	97.5
435.175	93.5
435.397	98.5
435.618	101.5
435.84	113.5
436.062	144.5
436.284	110.5
436.505	110.5
436.727	105.5
436.949	96.5
437.17	98.5
437.392	84.5
437.614	89.5
437.835	95.5
438.057	103.5
438.278	104.5
438.5	99.5
438.721	109.5
438.943	92.5
439.165	98.5
439.386	94.5
439.608	95.5
439.829	96.5
440.05	116.5
440.272	138.5
440.493	101.5
440.715	84.5
440.936	90.5
441.158	87.5
441.379	87.5
441.6	92.5
441.822	99.5
442.043	94.5
442.264	110.5
442.486	101.5
442.707	90.5
442.928	96.5
443.149	130.5
443.371	118.5
443.592	113.5
443.813	127.5
444.034	111.5
444.255	92.5
444.476	99.5
444.698	98.5
444.919	89.5
445.14	150.5
445.361	129.5
445.582	111.5
445.803	145.5
446.024	139.5
446.245	138.5
446.466	112.5
446.687	99.5
446.908	86.5
447.129	91.5
447.35	84.5
447.571	90.5
447.792	88.5
448.013	108.5
448.234	115.5
448.455	100.5
448.675	117.5
448.896	120.5
449.117	108.5
449.338	84.5
449.559	126.5
449.779	140.5
450	98.5
450.221	98.5
450.442	102.5
450.662	107.5
450.883	106.5
451.104	113.5
451.324	92.5
451.545	90.5
451.766	97.5
451.986	95.5
452.207	86.5
452.428	110.5
452.648	103.5
452.869	112.5
453.089	107.5
453.31	115.5
453.53	99.5
453.751	103.5
453.971	111.5
454.192	99.5
454.412	88.5
454.633	85.5
454.853	78.5
455.073	94.5
455.294	95.5
455.514	100.5
455.734	95.5
455.955	81.5
456.175	79.5
456.395	80.5
456.616	74.5
456.836	72.5
457.056	90.5
457.276	78.5
457.497	91.5
457.717	82.5
457.937	87.5
458.157	90.5
458.377	84.5
458.598	103.5
458.818	140.5
459.038	142.5
459.258	117.5
459.478	96.5
459.698	90.5
459.918	90.5
460.138	86.5
460.358	89.5
460.578	85.5
460.798	86.5
461.018	96.5
461.238	79.5
461.458	87.5
461.678	81.5
461.898	82.5
462.118	78.5
462.338	87.5
462.558	93.5
462.777	94.5
462.997	87.5
463.217	91.5
463.437	75.5
463.657	87.5
463.876	95.5
464.096	84.5
464.316	94.5
464.536	103.5
464.755	91.5
464.975	107.5
465.195	153.5
465.414	148.5
465.634	104.5
465.854	81.5
466.073	92.5
466.293	97.5
466.512	102.5
466.732	91.5
466.951	99.5
467.171	84.5
467.391	92.5
467.61	92.5
467.829	98.5
468.049	99.5
468.268	100.5
468.488	82.5
468.707	80.5
468.927	90.5
469.146	90.5
469.365	86.5
469.585	102.5
469.804	77.5
470.023	89.5
470.243	80.5
470.462	98.5
470.681	119.5
470.901	102.5
471.12	94.5
471.339	85.5
471.558	87.5
471.777	92.5
471.997	99.5
472.216	92.5
472.435	92.5
472.654	76.5
472.873	98.5
473.092	90.5
473.311	99.5
473.53	94.5
473.749	95.5
473.968	92.5
474.187	108.5
474.406	86.5
474.625	85.5
474.844	88.5
475.063	88.5
475.282	103.5
475.501	95.5
475.72	86.5
475.939	98.5
476.158	93.5
476.377	84.5
476.596	86.5
476.814	94.5
477.033	80.5
477.252	82.5
477.471	89.5
477.69	102.5
477.908	105.5
478.127	85.5
478.346	85.5
478.564	109.5
478.783	90.5
479.002	84.5
479.22	78.5
479.439	96.5
479.658	104.5
479.876	100.5
480.095	85.5
480.313	96.5
480.532	89.5
480.751	96.5
480.969	96.5
481.188	127.5
481.406	110.5
481.624	92.5
481.843	89.5
482.061	87.5
482.28	112.5
482.498	100.5
482.717	86.5
482.935	103.5
483.153	84.5
483.372	97.5
483.59	103.5
483.808	92.5
484.027	98.5
484.245	96.5
484.463	82.5
484.681	97.5
484.9	111.5
485.118	103.5
485.336	105.5
485.554	92.5
485.772	98.5
485.99	109.5
486.209	105.5
486.427	106.5
486.645	111.5
486.863	113.5
487.081	100.5
487.299	105.5
487.517	102.5
487.735	95.5
487.953	96.5
488.171	108.5
488.389	107.5
488.607	106.5
488.825	95.5
489.043	102.5
489.261	89.5
489.479	89.5
489.696	88.5
489.914	96.5
490.132	100.5
490.35	103.5
490.568	79.5
490.786	90.5
491.003	84.5
491.221	83.5
491.439	85.5
491.657	92.5
491.874	101.5
492.092	90.5
492.31	91.5
492.527	73.5
492.745	91.5
492.963	85.5
493.18	96.5
493.398	91.5
493.615	103.5
493.833	91.5
494.05	102.5
494.268	89.5
494.485	92.5
494.703	77.5
494.92	91.5
495.138	98.5
495.355	94.5
495.573	94.5
495.79	77.5
496.008	100.5
496.225	98.5
496.442	85.5
496.66	91.5
496.877	86.5
497.094	104.5
497.312	88.5
497.529	94.5
497.746	90.5
497.963	99.5
498.181	98.5
498.398	99.5
498.615	112.5
498.832	116.5
499.049	93.5
499.267	85.5
499.484	97.5
499.701	99.5
499.918	92.5
500.135	101.5
500.352	91.5
500.569	90.5
500.786	88.5
501.003	99.5
501.22	94.5
501.437	84.5
501.654	97.5
501.871	99.5
502.088	86.5
502.305	98.5
502.522	84.5
502.739	91.5
502.956	102.5
503.172	87.5
503.389	87.5
503.606	105.5
503.823	89.5
504.04	90.5
504.256	100.5
504.473	83.5
504.69	86.5
504.907	87.5
505.123	98.5
505.34	95.5
505.557	87.5
505.773	98.5
505.99	104.5
506.207	82.5
506.423	92.5
506.64	107.5
506.856	96.5
507.073	93.5
507.289	100.5
507.506	97.5
507.722	111.5
507.939	121.5
508.155	105.5
508.372	107.5
508.588	89.5
508.805	96.5
509.021	87.5
509.238	91.5
509.454	104.5
509.67	102.5
509.887	109.5
510.103	132.5
510.319	210.5
510.536	826.5
510.752	2614.5
510.968	715.5
511.184	172.5
511.401	108.5
511.617	84.5
511.833	108.5
512.049	106.5
512.265	104.5
512.481	102.5
512.698	92.5
512.914	95.5
513.13	95.5
513.346	87.5
513.562	93.5
513.778	91.5
513.994	99.5
514.21	90.5
514.426	108.5
514.642	126.5
514.858	126.5
515.074	170.5
515.29	458.5
515.506	1489.5
515.721	568.5
515.937	161.5
516.153	107.5
516.369	109.5
516.585	86.5
516.801	83.5
517.016	90.5
517.232	98.5
517.448	99.5
517.664	96.5
517.879	97.5
518.095	84.5
518.311	109.5
518.527	95.5
518.742	81.5
518.958	91.5
519.173	94.5
519.389	78.5
519.605	100.5
519.82	103.5
520.036	95.5
520.251	125.5
520.467	107.5
520.682	109.5
520.898	110.5
521.113	117.5
521.329	146.5
521.544	204.5
521.76	575.5
521.975	2494.5
522.19	1518.5
522.406	323.5
522.621	132.5
522.836	94.5
523.052	98.5
523.267	96.5
523.482	111.5
523.698	96.5
523.913	127.5
524.128	103.5
524.343	79.5
524.559	103.5
524.774	90.5
524.989	91.5
525.204	98.5
525.419	96.5
525.634	86.5
525.849	73.5
526.064	99.5
526.28	96.5
526.495	98.5
526.71	86.5
526.925	96.5
527.14	83.5
527.355	91.5
527.57	101.5
527.785	87.5
527.999	99.5
528.214	79.5
528.429	85.5
528.644	103.5
528.859	101.5
529.074	87.5
529.289	113.5
529.503	164.5
529.718	104.5
529.933	89.5
530.148	93.5
530.363	95.5
530.577	92.5
530.792	102.5
531.007	94.5
531.221	89.5
531.436	114.5
531.651	94.5
531.865	92.5
532.08	98.5
532.295	96.5
532.509	98.5
532.724	104.5
532.938	100.5
533.153	98.5
533.367	97.5
533.582	105.5
533.796	91.5
534.011	83.5
534.225	100.5
534.44	101.5
534.654	88.5
