Data from Uncirc_2003_H10_HRD10591_00084.txt Node
Date: Wed Jan 03 10:36:04 EST 2024
User: Yrep
Spectrometer: HR+D1059
Trigger mode: 1
Integration Time (sec): 1.000000E-1
Scans to average: 1
Electric dark correction enabled: true
Nonlinearity correction enabled: false
Boxcar width: 0
XAxis mode: Wavelengths
Number of Pixels in Spectrum: 2048
>>>>>Begin Spectral Data<<<<<
223.165	-22.56
223.4	-22.56
223.635	-22.56
223.869	-19.56
224.104	-7.56
224.338	-12.56
224.573	-10.56
224.808	-11.56
225.042	-6.56
225.277	-11.56
225.511	-0.56
225.746	3.44
225.98	10.44
226.215	11.44
226.449	4.44
226.683	26.44
226.918	28.44
227.152	18.44
227.387	30.44
227.621	41.44
227.856	53.44
228.09	52.44
228.324	51.44
228.559	48.44
228.793	49.44
229.027	60.44
229.262	57.44
229.496	62.44
229.73	88.44
229.964	65.44
230.199	78.44
230.433	70.44
230.667	87.44
230.901	76.44
231.136	81.44
231.37	86.44
231.604	71.44
231.838	78.44
232.072	80.44
232.306	94.44
232.541	78.44
232.775	65.44
233.009	77.44
233.243	81.44
233.477	73.44
233.711	71.44
233.945	99.44
234.179	68.44
234.413	90.44
234.647	79.44
234.881	68.44
235.115	77.44
235.349	60.44
235.583	98.44
235.817	75.44
236.051	87.44
236.285	73.44
236.519	78.44
236.753	76.44
236.987	58.44
237.221	74.44
237.455	77.44
237.689	77.44
237.922	76.44
238.156	72.44
238.39	83.44
238.624	61.44
238.858	68.44
239.091	65.44
239.325	73.44
239.559	68.44
239.793	76.44
240.027	81.44
240.26	85.44
240.494	67.44
240.728	64.44
240.961	73.44
241.195	71.44
241.429	87.44
241.662	72.44
241.896	82.44
242.13	62.44
242.363	78.44
242.597	64.44
242.83	68.44
243.064	73.44
243.298	97.44
243.531	77.44
243.765	77.44
243.998	85.44
244.232	81.44
244.465	71.44
244.699	74.44
244.932	61.44
245.166	81.44
245.399	82.44
245.633	79.44
245.866	79.44
246.099	92.44
246.333	79.44
246.566	65.44
246.8	74.44
247.033	77.44
247.266	63.44
247.5	78.44
247.733	90.44
247.966	71.44
248.2	81.44
248.433	80.44
248.666	82.44
248.899	74.44
249.133	79.44
249.366	93.44
249.599	81.44
249.832	89.44
250.066	92.44
250.299	76.44
250.532	66.44
250.765	84.44
250.998	81.44
251.231	81.44
251.465	85.44
251.698	77.44
251.931	78.44
252.164	68.44
252.397	81.44
252.63	86.44
252.863	74.44
253.096	77.44
253.329	87.44
253.562	73.44
253.795	87.44
254.028	86.44
254.261	73.44
254.494	86.44
254.727	71.44
254.96	75.44
255.193	75.44
255.426	72.44
255.659	75.44
255.892	94.44
256.124	70.44
256.357	77.44
256.59	88.44
256.823	83.44
257.056	79.44
257.289	80.44
257.521	87.44
257.754	78.44
257.987	74.44
258.22	79.44
258.452	82.44
258.685	79.44
258.918	81.44
259.151	62.44
259.383	77.44
259.616	84.44
259.849	76.44
260.081	83.44
260.314	77.44
260.547	63.44
260.779	71.44
261.012	69.44
261.244	69.44
261.477	94.44
261.71	85.44
261.942	102.44
262.175	110.44
262.407	89.44
262.64	81.44
262.872	77.44
263.105	86.44
263.337	82.44
263.57	78.44
263.802	75.44
264.035	84.44
264.267	74.44
264.499	83.44
264.732	76.44
264.964	76.44
265.197	81.44
265.429	80.44
265.661	85.44
265.894	65.44
266.126	96.44
266.358	80.44
266.591	84.44
266.823	85.44
267.055	74.44
267.287	70.44
267.52	71.44
267.752	66.44
267.984	83.44
268.216	91.44
268.448	94.44
268.681	82.44
268.913	86.44
269.145	55.44
269.377	73.44
269.609	67.44
269.841	77.44
270.073	76.44
270.306	77.44
270.538	79.44
270.77	86.44
271.002	86.44
271.234	76.44
271.466	80.44
271.698	85.44
271.93	94.44
272.162	91.44
272.394	70.44
272.626	95.44
272.858	85.44
273.09	80.44
273.322	73.44
273.553	75.44
273.785	70.44
274.017	65.44
274.249	73.44
274.481	78.44
274.713	79.44
274.945	78.44
275.176	84.44
275.408	84.44
275.64	79.44
275.872	85.44
276.104	65.44
276.335	81.44
276.567	103.44
276.799	96.44
277.031	97.44
277.262	88.44
277.494	89.44
277.726	83.44
277.957	86.44
278.189	91.44
278.421	87.44
278.652	88.44
278.884	85.44
279.115	78.44
279.347	81.44
279.579	65.44
279.81	82.44
280.042	95.44
280.273	83.44
280.505	77.44
280.736	78.44
280.968	67.44
281.199	81.44
281.431	87.44
281.662	102.44
281.894	86.44
282.125	99.44
282.356	118.44
282.588	130.44
282.819	114.44
283.051	81.44
283.282	71.44
283.513	88.44
283.745	93.44
283.976	88.44
284.207	83.44
284.439	93.44
284.67	72.44
284.901	74.44
285.132	93.44
285.364	89.44
285.595	79.44
285.826	87.44
286.057	83.44
286.288	82.44
286.52	80.44
286.751	86.44
286.982	86.44
287.213	87.44
287.444	74.44
287.675	78.44
287.906	76.44
288.138	95.44
288.369	87.44
288.6	87.44
288.831	74.44
289.062	87.44
289.293	82.44
289.524	78.44
289.755	76.44
289.986	86.44
290.217	91.44
290.448	92.44
290.679	86.44
290.91	83.44
291.141	92.44
291.371	88.44
291.602	82.44
291.833	79.44
292.064	76.44
292.295	82.44
292.526	83.44
292.757	85.44
292.987	70.44
293.218	78.44
293.449	81.44
293.68	75.44
293.91	93.44
294.141	92.44
294.372	83.44
294.603	75.44
294.833	81.44
295.064	95.44
295.295	84.44
295.525	84.44
295.756	122.44
295.987	109.44
296.217	122.44
296.448	123.44
296.679	85.44
296.909	86.44
297.14	90.44
297.37	84.44
297.601	87.44
297.831	67.44
298.062	83.44
298.292	93.44
298.523	94.44
298.753	84.44
298.984	74.44
299.214	91.44
299.445	88.44
299.675	82.44
299.905	94.44
300.136	86.44
300.366	99.44
300.597	86.44
300.827	97.44
301.057	81.44
301.288	90.44
301.518	84.44
301.748	78.44
301.979	91.44
302.209	90.44
302.439	86.44
302.669	89.44
302.9	78.44
303.13	69.44
303.36	98.44
303.59	94.44
303.82	110.44
304.051	82.44
304.281	82.44
304.511	96.44
304.741	90.44
304.971	73.44
305.201	92.44
305.431	82.44
305.661	91.44
305.891	70.44
306.121	96.44
306.352	84.44
306.582	97.44
306.812	91.44
307.042	88.44
307.272	72.44
307.502	81.44
307.731	77.44
307.961	97.44
308.191	94.44
308.421	89.44
308.651	80.44
308.881	94.44
309.111	95.44
309.341	78.44
309.571	110.44
309.8	91.44
310.03	92.44
310.26	96.44
310.49	85.44
310.72	79.44
310.949	88.44
311.179	99.44
311.409	92.44
311.639	94.44
311.868	102.44
312.098	99.44
312.328	105.44
312.557	91.44
312.787	93.44
313.017	102.44
313.246	92.44
313.476	98.44
313.706	92.44
313.935	92.44
314.165	98.44
314.394	80.44
314.624	77.44
314.853	87.44
315.083	91.44
315.312	80.44
315.542	73.44
315.771	86.44
316.001	90.44
316.23	76.44
316.46	89.44
316.689	106.44
316.919	89.44
317.148	77.44
317.377	93.44
317.607	86.44
317.836	85.44
318.065	78.44
318.295	70.44
318.524	76.44
318.753	96.44
318.983	86.44
319.212	90.44
319.441	98.44
319.67	86.44
319.9	81.44
320.129	86.44
320.358	92.44
320.587	102.44
320.816	115.44
321.046	92.44
321.275	78.44
321.504	101.44
321.733	84.44
321.962	94.44
322.191	85.44
322.42	89.44
322.649	108.44
322.878	113.44
323.108	121.44
323.337	107.44
323.566	119.44
323.795	165.44
324.024	208.44
324.253	393.44
324.482	841.44
324.71	1751.44
324.939	2327.44
325.168	862.44
325.397	239.44
325.626	158.44
325.855	105.44
326.084	122.44
326.313	139.44
326.542	163.44
326.77	234.44
326.999	473.44
327.228	949.44
327.457	1755.44
327.686	1398.44
327.914	372.44
328.143	204.44
328.372	130.44
328.6	128.44
328.829	125.44
329.058	111.44
329.287	115.44
329.515	101.44
329.744	98.44
329.972	106.44
330.201	109.44
330.43	119.44
330.658	102.44
330.887	136.44
331.115	109.44
331.344	95.44
331.572	92.44
331.801	98.44
332.03	88.44
332.258	100.44
332.486	77.44
332.715	98.44
332.943	83.44
333.172	90.44
333.4	102.44
333.629	110.44
333.857	106.44
334.085	90.44
334.314	98.44
334.542	89.44
334.771	82.44
334.999	77.44
335.227	78.44
335.455	84.44
335.684	77.44
335.912	93.44
336.14	93.44
336.369	83.44
336.597	88.44
336.825	85.44
337.053	94.44
337.281	90.44
337.51	70.44
337.738	80.44
337.966	87.44
338.194	92.44
338.422	92.44
338.65	92.44
338.878	95.44
339.106	87.44
339.334	94.44
339.562	87.44
339.79	70.44
340.018	76.44
340.246	80.44
340.474	92.44
340.702	88.44
340.93	82.44
341.158	90.44
341.386	74.44
341.614	89.44
341.842	80.44
342.07	94.44
342.298	90.44
342.526	89.44
342.754	85.44
342.981	81.44
343.209	77.44
343.437	102.44
343.665	80.44
343.893	87.44
344.12	81.44
344.348	88.44
344.576	90.44
344.804	73.44
345.031	74.44
345.259	81.44
345.487	96.44
345.714	90.44
345.942	92.44
346.17	89.44
346.397	90.44
346.625	95.44
346.853	91.44
347.08	83.44
347.308	85.44
347.535	90.44
347.763	94.44
347.99	96.44
348.218	99.44
348.445	92.44
348.673	87.44
348.9	78.44
349.128	93.44
349.355	95.44
349.583	91.44
349.81	90.44
350.037	97.44
350.265	100.44
350.492	95.44
350.72	97.44
350.947	102.44
351.174	110.44
351.402	98.44
351.629	106.44
351.856	114.44
352.083	108.44
352.311	102.44
352.538	91.44
352.765	103.44
352.992	100.44
353.22	103.44
353.447	102.44
353.674	98.44
353.901	106.44
354.128	96.44
354.355	100.44
354.583	90.44
354.81	67.44
355.037	99.44
355.264	94.44
355.491	92.44
355.718	87.44
355.945	78.44
356.172	84.44
356.399	86.44
356.626	85.44
356.853	81.44
357.08	75.44
357.307	90.44
357.534	92.44
357.761	85.44
357.988	93.44
358.215	89.44
358.441	91.44
358.668	87.44
358.895	87.44
359.122	85.44
359.349	84.44
359.576	91.44
359.802	102.44
360.029	110.44
360.256	115.44
360.483	85.44
360.709	82.44
360.936	78.44
361.163	72.44
361.39	82.44
361.616	93.44
361.843	85.44
362.07	89.44
362.296	97.44
362.523	98.44
362.749	93.44
362.976	90.44
363.203	85.44
363.429	79.44
363.656	77.44
363.882	80.44
364.109	97.44
364.335	93.44
364.562	81.44
364.788	81.44
365.015	87.44
365.241	109.44
365.468	112.44
365.694	102.44
365.92	93.44
366.147	83.44
366.373	91.44
366.599	86.44
366.826	91.44
367.052	84.44
367.278	101.44
367.505	86.44
367.731	80.44
367.957	76.44
368.184	78.44
368.41	92.44
368.636	87.44
368.862	111.44
369.089	81.44
369.315	84.44
369.541	75.44
369.767	77.44
369.993	79.44
370.219	81.44
370.445	90.44
370.672	79.44
370.898	77.44
371.124	85.44
371.35	89.44
371.576	73.44
371.802	89.44
372.028	78.44
372.254	78.44
372.48	83.44
372.706	81.44
372.932	102.44
373.158	87.44
373.384	90.44
373.61	92.44
373.835	84.44
374.061	99.44
374.287	81.44
374.513	90.44
374.739	72.44
374.965	82.44
375.191	92.44
375.416	93.44
375.642	83.44
375.868	91.44
376.094	81.44
376.319	87.44
376.545	78.44
376.771	87.44
376.997	79.44
377.222	90.44
377.448	86.44
377.674	77.44
377.899	93.44
378.125	89.44
378.35	78.44
378.576	85.44
378.802	95.44
379.027	81.44
379.253	89.44
379.478	92.44
379.704	85.44
379.929	87.44
380.155	81.44
380.38	102.44
380.606	86.44
380.831	86.44
381.057	87.44
381.282	84.44
381.507	97.44
381.733	82.44
381.958	94.44
382.184	77.44
382.409	92.44
382.634	100.44
382.86	101.44
383.085	86.44
383.31	83.44
383.535	97.44
383.761	90.44
383.986	81.44
384.211	85.44
384.436	93.44
384.662	100.44
384.887	106.44
385.112	88.44
385.337	88.44
385.562	102.44
385.787	98.44
386.013	101.44
386.238	117.44
386.463	101.44
386.688	92.44
386.913	85.44
387.138	102.44
387.363	93.44
387.588	102.44
387.813	104.44
388.038	94.44
388.263	102.44
388.488	91.44
388.713	93.44
388.938	98.44
389.163	100.44
389.387	95.44
389.612	103.44
389.837	93.44
390.062	92.44
390.287	91.44
390.512	94.44
390.736	91.44
390.961	87.44
391.186	73.44
391.411	91.44
391.636	86.44
391.86	93.44
392.085	82.44
392.31	79.44
392.534	82.44
392.759	82.44
392.984	80.44
393.208	81.44
393.433	75.44
393.658	81.44
393.882	70.44
394.107	75.44
394.331	82.44
394.556	77.44
394.78	83.44
395.005	63.44
395.229	89.44
395.454	78.44
395.678	97.44
395.903	89.44
396.127	85.44
396.352	73.44
396.576	92.44
396.801	73.44
397.025	86.44
397.249	71.44
397.474	92.44
397.698	85.44
397.922	88.44
398.147	65.44
398.371	62.44
398.595	82.44
398.82	85.44
399.044	86.44
399.268	73.44
399.492	68.44
399.717	81.44
399.941	66.44
400.165	103.44
400.389	81.44
400.613	84.44
400.837	77.44
401.062	97.44
401.286	91.44
401.51	83.44
401.734	74.44
401.958	90.44
402.182	114.44
402.406	141.44
402.63	100.44
402.854	83.44
403.078	88.44
403.302	91.44
403.526	86.44
403.75	84.44
403.974	90.44
404.198	83.44
404.422	84.44
404.645	77.44
404.869	79.44
405.093	87.44
405.317	86.44
405.541	105.44
405.765	93.44
405.988	107.44
406.212	169.44
406.436	214.44
406.66	149.44
406.883	102.44
407.107	71.44
407.331	92.44
407.555	100.44
407.778	83.44
408.002	78.44
408.226	98.44
408.449	83.44
408.673	86.44
408.896	83.44
409.12	91.44
409.344	97.44
409.567	102.44
409.791	99.44
410.014	87.44
410.238	85.44
410.461	87.44
410.685	92.44
410.908	85.44
411.132	81.44
411.355	80.44
411.578	85.44
411.802	93.44
412.025	90.44
412.249	95.44
412.472	87.44
412.695	85.44
412.919	91.44
413.142	77.44
413.365	93.44
413.589	87.44
413.812	103.44
414.035	98.44
414.258	90.44
414.482	85.44
414.705	95.44
414.928	95.44
415.151	91.44
415.374	85.44
415.597	86.44
415.821	94.44
416.044	91.44
416.267	90.44
416.49	90.44
416.713	88.44
416.936	89.44
417.159	85.44
417.382	89.44
417.605	84.44
417.828	83.44
418.051	89.44
418.274	101.44
418.497	91.44
418.72	94.44
418.943	90.44
419.166	83.44
419.389	89.44
419.611	86.44
419.834	75.44
420.057	88.44
420.28	92.44
420.503	88.44
420.726	79.44
420.948	95.44
421.171	81.44
421.394	90.44
421.617	98.44
421.839	90.44
422.062	86.44
422.285	95.44
422.507	83.44
422.73	93.44
422.953	89.44
423.175	88.44
423.398	93.44
423.621	93.44
423.843	93.44
424.066	93.44
424.288	93.44
424.511	101.44
424.733	88.44
424.956	105.44
425.178	96.44
425.401	82.44
425.623	98.44
425.846	82.44
426.068	99.44
426.291	92.44
426.513	92.44
426.735	87.44
426.958	84.44
427.18	93.44
427.402	142.44
427.625	143.44
427.847	125.44
428.069	91.44
428.292	94.44
428.514	77.44
428.736	75.44
428.958	79.44
429.181	85.44
429.403	85.44
429.625	74.44
429.847	88.44
430.069	91.44
430.292	92.44
430.514	89.44
430.736	89.44
430.958	93.44
431.18	90.44
431.402	77.44
431.624	79.44
431.846	90.44
432.068	90.44
432.29	90.44
432.512	85.44
432.734	77.44
432.956	67.44
433.178	82.44
433.4	84.44
433.622	91.44
433.844	76.44
434.066	88.44
434.287	81.44
434.509	83.44
434.731	86.44
434.953	71.44
435.175	75.44
435.397	80.44
435.618	93.44
435.84	103.44
436.062	126.44
436.284	112.44
436.505	97.44
436.727	98.44
436.949	93.44
437.17	92.44
437.392	82.44
437.614	86.44
437.835	97.44
438.057	109.44
438.278	99.44
438.5	83.44
438.721	103.44
438.943	93.44
439.165	86.44
439.386	81.44
439.608	85.44
439.829	103.44
440.05	121.44
440.272	134.44
440.493	102.44
440.715	79.44
440.936	86.44
441.158	81.44
441.379	74.44
441.6	85.44
441.822	103.44
442.043	102.44
442.264	112.44
442.486	89.44
442.707	94.44
442.928	95.44
443.149	127.44
443.371	118.44
443.592	102.44
443.813	89.44
444.034	111.44
444.255	94.44
444.476	95.44
444.698	96.44
444.919	80.44
445.14	142.44
445.361	121.44
445.582	101.44
445.803	131.44
446.024	115.44
446.245	139.44
446.466	99.44
446.687	92.44
446.908	75.44
447.129	78.44
447.35	80.44
447.571	81.44
447.792	75.44
448.013	89.44
448.234	74.44
448.455	94.44
448.675	105.44
448.896	121.44
449.117	86.44
449.338	104.44
449.559	121.44
449.779	118.44
450	89.44
450.221	89.44
450.442	93.44
450.662	95.44
450.883	105.44
451.104	104.44
451.324	85.44
451.545	90.44
451.766	72.44
451.986	73.44
452.207	94.44
452.428	76.44
452.648	92.44
452.869	114.44
453.089	106.44
453.31	110.44
453.53	98.44
453.751	91.44
453.971	99.44
454.192	106.44
454.412	80.44
454.633	76.44
454.853	83.44
455.073	86.44
455.294	83.44
455.514	85.44
455.734	89.44
455.955	91.44
456.175	88.44
456.395	83.44
456.616	92.44
456.836	97.44
457.056	92.44
457.276	93.44
457.497	79.44
457.717	80.44
457.937	80.44
458.157	89.44
458.377	93.44
458.598	87.44
458.818	145.44
459.038	163.44
459.258	100.44
459.478	81.44
459.698	86.44
459.918	84.44
460.138	70.44
460.358	85.44
460.578	93.44
460.798	82.44
461.018	87.44
461.238	93.44
461.458	74.44
461.678	81.44
461.898	75.44
462.118	75.44
462.338	85.44
462.558	66.44
462.777	82.44
462.997	64.44
463.217	63.44
463.437	85.44
463.657	87.44
463.876	83.44
464.096	94.44
464.316	87.44
464.536	91.44
464.755	85.44
464.975	103.44
465.195	161.44
465.414	143.44
465.634	87.44
465.854	74.44
466.073	84.44
466.293	88.44
466.512	85.44
466.732	71.44
466.951	73.44
467.171	90.44
467.391	85.44
467.61	80.44
467.829	102.44
468.049	94.44
468.268	91.44
468.488	78.44
468.707	79.44
468.927	71.44
469.146	94.44
469.365	75.44
469.585	85.44
469.804	99.44
470.023	106.44
470.243	99.44
470.462	92.44
470.681	99.44
470.901	78.44
471.12	77.44
471.339	76.44
471.558	89.44
471.777	79.44
471.997	83.44
472.216	81.44
472.435	93.44
472.654	85.44
472.873	72.44
473.092	92.44
473.311	81.44
473.53	85.44
473.749	77.44
473.968	91.44
474.187	105.44
474.406	102.44
474.625	79.44
474.844	91.44
475.063	81.44
475.282	94.44
475.501	85.44
475.72	86.44
475.939	87.44
476.158	83.44
476.377	91.44
476.596	92.44
476.814	88.44
477.033	79.44
477.252	77.44
477.471	79.44
477.69	94.44
477.908	93.44
478.127	87.44
478.346	85.44
478.564	78.44
478.783	97.44
479.002	89.44
479.22	86.44
479.439	104.44
479.658	102.44
479.876	98.44
480.095	70.44
480.313	81.44
480.532	85.44
480.751	86.44
480.969	85.44
481.188	108.44
481.406	89.44
481.624	83.44
481.843	83.44
482.061	83.44
482.28	85.44
482.498	85.44
482.717	87.44
482.935	76.44
483.153	85.44
483.372	84.44
483.59	84.44
483.808	95.44
484.027	99.44
484.245	89.44
484.463	94.44
484.681	97.44
484.9	106.44
485.118	90.44
485.336	81.44
485.554	88.44
485.772	99.44
485.99	107.44
486.209	96.44
486.427	89.44
486.645	102.44
486.863	110.44
487.081	81.44
487.299	94.44
487.517	82.44
487.735	93.44
487.953	79.44
488.171	89.44
488.389	107.44
488.607	103.44
488.825	96.44
489.043	83.44
489.261	110.44
489.479	78.44
489.696	83.44
489.914	81.44
490.132	78.44
490.35	99.44
490.568	81.44
490.786	72.44
491.003	90.44
491.221	101.44
491.439	94.44
491.657	93.44
491.874	85.44
492.092	77.44
492.31	92.44
492.527	89.44
492.745	69.44
492.963	82.44
493.18	91.44
493.398	84.44
493.615	83.44
493.833	86.44
494.05	89.44
494.268	87.44
494.485	88.44
494.703	91.44
494.92	85.44
495.138	88.44
495.355	95.44
495.573	91.44
495.79	93.44
496.008	92.44
496.225	75.44
496.442	93.44
496.66	99.44
496.877	80.44
497.094	93.44
497.312	89.44
497.529	74.44
497.746	75.44
497.963	102.44
498.181	95.44
498.398	96.44
498.615	111.44
498.832	100.44
499.049	81.44
499.267	81.44
499.484	89.44
499.701	93.44
499.918	99.44
500.135	85.44
500.352	84.44
500.569	82.44
500.786	84.44
501.003	93.44
501.22	80.44
501.437	82.44
501.654	101.44
501.871	106.44
502.088	71.44
502.305	84.44
502.522	78.44
502.739	65.44
502.956	93.44
503.172	106.44
503.389	83.44
503.606	110.44
503.823	85.44
504.04	97.44
504.256	86.44
504.473	93.44
504.69	99.44
504.907	80.44
505.123	97.44
505.34	81.44
505.557	80.44
505.773	100.44
505.99	79.44
506.207	82.44
506.423	82.44
506.64	90.44
506.856	77.44
507.073	83.44
507.289	84.44
507.506	95.44
507.722	99.44
507.939	114.44
508.155	100.44
508.372	90.44
508.588	73.44
508.805	86.44
509.021	93.44
509.238	92.44
509.454	100.44
509.67	100.44
509.887	119.44
510.103	127.44
510.319	233.44
510.536	799.44
510.752	2545.44
510.968	722.44
511.184	181.44
511.401	89.44
511.617	86.44
511.833	99.44
512.049	90.44
512.265	75.44
512.481	90.44
512.698	87.44
512.914	96.44
513.13	83.44
513.346	93.44
513.562	89.44
513.778	84.44
513.994	91.44
514.21	96.44
514.426	108.44
514.642	129.44
514.858	125.44
515.074	171.44
515.29	446.44
515.506	1487.44
515.721	562.44
515.937	157.44
516.153	95.44
516.369	94.44
516.585	84.44
516.801	75.44
517.016	90.44
517.232	97.44
