Data from Uncirc_2003_H10_HRD10591_00090.txt Node
Date: Wed Jan 03 10:36:05 EST 2024
User: Yrep
Spectrometer: HR+D1059
Trigger mode: 1
Integration Time (sec): 1.000000E-1
Scans to average: 1
Electric dark correction enabled: true
Nonlinearity correction enabled: false
Boxcar width: 0
XAxis mode: Wavelengths
Number of Pixels in Spectrum: 2048
>>>>>Begin Spectral Data<<<<<
223.165	-9.62
223.4	-9.62
223.635	-9.62
223.869	-26.62
224.104	-11.62
224.338	-18.62
224.573	-23.62
224.808	-13.62
225.042	-18.62
225.277	-16.62
225.511	-19.62
225.746	-3.62
225.98	7.38
226.215	23.38
226.449	23.38
226.683	44.38
226.918	20.38
227.152	43.38
227.387	37.38
227.621	44.38
227.856	50.38
228.09	40.38
228.324	54.38
228.559	56.38
228.793	61.38
229.027	49.38
229.262	53.38
229.496	67.38
229.73	56.38
229.964	75.38
230.199	81.38
230.433	77.38
230.667	63.38
230.901	82.38
231.136	84.38
231.37	74.38
231.604	89.38
231.838	85.38
232.072	78.38
232.306	87.38
232.541	85.38
232.775	76.38
233.009	76.38
233.243	87.38
233.477	74.38
233.711	79.38
233.945	64.38
234.179	71.38
234.413	72.38
234.647	87.38
234.881	57.38
235.115	82.38
235.349	79.38
235.583	81.38
235.817	65.38
236.051	77.38
236.285	63.38
236.519	87.38
236.753	73.38
236.987	79.38
237.221	80.38
237.455	86.38
237.689	79.38
237.922	71.38
238.156	69.38
238.39	80.38
238.624	78.38
238.858	78.38
239.091	54.38
239.325	83.38
239.559	85.38
239.793	79.38
240.027	84.38
240.26	76.38
240.494	68.38
240.728	78.38
240.961	72.38
241.195	73.38
241.429	79.38
241.662	69.38
241.896	69.38
242.13	73.38
242.363	81.38
242.597	59.38
242.83	79.38
243.064	65.38
243.298	75.38
243.531	71.38
243.765	81.38
243.998	80.38
244.232	81.38
244.465	84.38
244.699	79.38
244.932	80.38
245.166	68.38
245.399	73.38
245.633	61.38
245.866	70.38
246.099	82.38
246.333	63.38
246.566	77.38
246.8	71.38
247.033	73.38
247.266	83.38
247.5	79.38
247.733	69.38
247.966	76.38
248.2	93.38
248.433	76.38
248.666	66.38
248.899	76.38
249.133	89.38
249.366	95.38
249.599	95.38
249.832	76.38
250.066	73.38
250.299	75.38
250.532	80.38
250.765	85.38
250.998	74.38
251.231	80.38
251.465	69.38
251.698	70.38
251.931	77.38
252.164	83.38
252.397	92.38
252.63	67.38
252.863	72.38
253.096	75.38
253.329	78.38
253.562	78.38
253.795	79.38
254.028	84.38
254.261	81.38
254.494	71.38
254.727	72.38
254.96	75.38
255.193	86.38
255.426	88.38
255.659	104.38
255.892	81.38
256.124	77.38
256.357	79.38
256.59	86.38
256.823	73.38
257.056	93.38
257.289	74.38
257.521	87.38
257.754	87.38
257.987	90.38
258.22	69.38
258.452	82.38
258.685	80.38
258.918	79.38
259.151	54.38
259.383	84.38
259.616	83.38
259.849	87.38
260.081	102.38
260.314	86.38
260.547	69.38
260.779	83.38
261.012	83.38
261.244	76.38
261.477	83.38
261.71	102.38
261.942	100.38
262.175	117.38
262.407	86.38
262.64	80.38
262.872	80.38
263.105	81.38
263.337	78.38
263.57	69.38
263.802	78.38
264.035	73.38
264.267	77.38
264.499	85.38
264.732	69.38
264.964	87.38
265.197	77.38
265.429	89.38
265.661	87.38
265.894	76.38
266.126	81.38
266.358	69.38
266.591	92.38
266.823	81.38
267.055	81.38
267.287	74.38
267.52	74.38
267.752	62.38
267.984	80.38
268.216	65.38
268.448	88.38
268.681	81.38
268.913	71.38
269.145	69.38
269.377	91.38
269.609	75.38
269.841	91.38
270.073	68.38
270.306	70.38
270.538	76.38
270.77	77.38
271.002	86.38
271.234	87.38
271.466	83.38
271.698	91.38
271.93	74.38
272.162	81.38
272.394	87.38
272.626	70.38
272.858	93.38
273.09	86.38
273.322	81.38
273.553	85.38
273.785	76.38
274.017	85.38
274.249	77.38
274.481	85.38
274.713	82.38
274.945	84.38
275.176	93.38
275.408	80.38
275.64	87.38
275.872	85.38
276.104	86.38
276.335	84.38
276.567	91.38
276.799	114.38
277.031	111.38
277.262	95.38
277.494	77.38
277.726	82.38
277.957	73.38
278.189	65.38
278.421	85.38
278.652	80.38
278.884	87.38
279.115	86.38
279.347	80.38
279.579	92.38
279.81	80.38
280.042	69.38
280.273	99.38
280.505	68.38
280.736	86.38
280.968	82.38
281.199	81.38
281.431	70.38
281.662	83.38
281.894	90.38
282.125	90.38
282.356	109.38
282.588	137.38
282.819	110.38
283.051	98.38
283.282	91.38
283.513	92.38
283.745	75.38
283.976	88.38
284.207	95.38
284.439	82.38
284.67	74.38
284.901	80.38
285.132	85.38
285.364	99.38
285.595	80.38
285.826	81.38
286.057	78.38
286.288	79.38
286.52	79.38
286.751	88.38
286.982	95.38
287.213	86.38
287.444	82.38
287.675	86.38
287.906	92.38
288.138	91.38
288.369	105.38
288.6	68.38
288.831	100.38
289.062	92.38
289.293	83.38
289.524	71.38
289.755	79.38
289.986	102.38
290.217	95.38
290.448	82.38
290.679	70.38
290.91	82.38
291.141	80.38
291.371	92.38
291.602	76.38
291.833	65.38
292.064	85.38
292.295	88.38
292.526	81.38
292.757	82.38
292.987	86.38
293.218	88.38
293.449	75.38
293.68	88.38
293.91	82.38
294.141	81.38
294.372	78.38
294.603	85.38
294.833	86.38
295.064	91.38
295.295	99.38
295.525	90.38
295.756	88.38
295.987	98.38
296.217	137.38
296.448	112.38
296.679	89.38
296.909	97.38
297.14	80.38
297.37	77.38
297.601	72.38
297.831	100.38
298.062	80.38
298.292	89.38
298.523	98.38
298.753	87.38
298.984	92.38
299.214	84.38
299.445	85.38
299.675	85.38
299.905	78.38
300.136	99.38
300.366	84.38
300.597	97.38
300.827	94.38
301.057	100.38
301.288	106.38
301.518	89.38
301.748	74.38
301.979	103.38
302.209	81.38
302.439	84.38
302.669	91.38
302.9	83.38
303.13	73.38
303.36	94.38
303.59	108.38
303.82	105.38
304.051	83.38
304.281	90.38
304.511	85.38
304.741	86.38
304.971	88.38
305.201	87.38
305.431	105.38
305.661	86.38
305.891	100.38
306.121	103.38
306.352	97.38
306.582	106.38
306.812	89.38
307.042	88.38
307.272	84.38
307.502	95.38
307.731	80.38
307.961	91.38
308.191	80.38
308.421	87.38
308.651	92.38
308.881	94.38
309.111	92.38
309.341	88.38
309.571	89.38
309.8	97.38
310.03	95.38
310.26	92.38
310.49	84.38
310.72	93.38
310.949	95.38
311.179	95.38
311.409	99.38
311.639	94.38
311.868	97.38
312.098	81.38
312.328	92.38
312.557	81.38
312.787	74.38
313.017	100.38
313.246	81.38
313.476	72.38
313.706	93.38
313.935	102.38
314.165	100.38
314.394	94.38
314.624	102.38
314.853	94.38
315.083	92.38
315.312	86.38
315.542	95.38
315.771	63.38
316.001	80.38
316.23	86.38
316.46	92.38
316.689	94.38
316.919	97.38
317.148	85.38
317.377	101.38
317.607	102.38
317.836	108.38
318.065	86.38
318.295	83.38
318.524	88.38
318.753	86.38
318.983	83.38
319.212	108.38
319.441	101.38
319.67	109.38
319.9	93.38
320.129	94.38
320.358	98.38
320.587	87.38
320.816	98.38
321.046	84.38
321.275	89.38
321.504	100.38
321.733	97.38
321.962	89.38
322.191	97.38
322.42	99.38
322.649	92.38
322.878	109.38
323.108	128.38
323.337	124.38
323.566	137.38
323.795	161.38
324.024	208.38
324.253	429.38
324.482	897.38
324.71	1885.38
324.939	2459.38
325.168	871.38
325.397	256.38
325.626	156.38
325.855	124.38
326.084	130.38
326.313	146.38
326.542	161.38
326.77	229.38
326.999	488.38
327.228	1024.38
327.457	1891.38
327.686	1491.38
327.914	375.38
328.143	198.38
328.372	149.38
328.6	115.38
328.829	131.38
329.058	126.38
329.287	100.38
329.515	103.38
329.744	90.38
329.972	120.38
330.201	103.38
330.43	111.38
330.658	121.38
330.887	137.38
331.115	116.38
331.344	90.38
331.572	90.38
331.801	95.38
332.03	87.38
332.258	93.38
332.486	78.38
332.715	84.38
332.943	83.38
333.172	110.38
333.4	97.38
333.629	98.38
333.857	104.38
334.085	105.38
334.314	105.38
334.542	98.38
334.771	108.38
334.999	92.38
335.227	108.38
335.455	102.38
335.684	95.38
335.912	108.38
336.14	99.38
336.369	97.38
336.597	106.38
336.825	87.38
337.053	83.38
337.281	102.38
337.51	81.38
337.738	87.38
337.966	89.38
338.194	85.38
338.422	112.38
338.65	114.38
338.878	99.38
339.106	86.38
339.334	87.38
339.562	93.38
339.79	94.38
340.018	87.38
340.246	83.38
340.474	95.38
340.702	97.38
340.93	89.38
341.158	98.38
341.386	89.38
341.614	94.38
341.842	80.38
342.07	97.38
342.298	86.38
342.526	91.38
342.754	81.38
342.981	84.38
343.209	93.38
343.437	106.38
343.665	72.38
343.893	85.38
344.12	89.38
344.348	98.38
344.576	97.38
344.804	102.38
345.031	100.38
345.259	89.38
345.487	87.38
345.714	89.38
345.942	86.38
346.17	96.38
346.397	89.38
346.625	95.38
346.853	90.38
347.08	93.38
347.308	87.38
347.535	92.38
347.763	91.38
347.99	102.38
348.218	118.38
348.445	94.38
348.673	84.38
348.9	105.38
349.128	87.38
349.355	85.38
349.583	98.38
349.81	86.38
350.037	87.38
350.265	102.38
350.492	89.38
350.72	95.38
350.947	95.38
351.174	99.38
351.402	97.38
351.629	96.38
351.856	101.38
352.083	89.38
352.311	103.38
352.538	95.38
352.765	117.38
352.992	108.38
353.22	112.38
353.447	93.38
353.674	111.38
353.901	101.38
354.128	96.38
354.355	88.38
354.583	87.38
354.81	98.38
355.037	96.38
355.264	85.38
355.491	100.38
355.718	77.38
355.945	93.38
356.172	79.38
356.399	95.38
356.626	88.38
356.853	87.38
357.08	89.38
357.307	89.38
357.534	73.38
357.761	100.38
357.988	90.38
358.215	87.38
358.441	89.38
358.668	116.38
358.895	97.38
359.122	88.38
359.349	87.38
359.576	94.38
359.802	87.38
360.029	100.38
360.256	113.38
360.483	93.38
360.709	97.38
360.936	94.38
361.163	101.38
361.39	89.38
361.616	99.38
361.843	93.38
362.07	106.38
362.296	91.38
362.523	79.38
362.749	83.38
362.976	89.38
363.203	85.38
363.429	95.38
363.656	94.38
363.882	95.38
364.109	98.38
364.335	99.38
364.562	87.38
364.788	91.38
365.015	85.38
365.241	99.38
365.468	99.38
365.694	100.38
365.92	86.38
366.147	97.38
366.373	95.38
366.599	88.38
366.826	84.38
367.052	86.38
367.278	88.38
367.505	95.38
367.731	89.38
367.957	96.38
368.184	78.38
368.41	108.38
368.636	111.38
368.862	107.38
369.089	93.38
369.315	97.38
369.541	96.38
369.767	95.38
369.993	93.38
370.219	89.38
370.445	92.38
370.672	79.38
370.898	87.38
371.124	100.38
371.35	96.38
371.576	101.38
371.802	94.38
372.028	89.38
372.254	77.38
372.48	88.38
372.706	88.38
372.932	92.38
373.158	98.38
373.384	83.38
373.61	87.38
373.835	97.38
374.061	91.38
374.287	86.38
374.513	89.38
374.739	76.38
374.965	86.38
375.191	82.38
375.416	104.38
375.642	76.38
375.868	90.38
376.094	96.38
376.319	74.38
376.545	75.38
376.771	89.38
376.997	78.38
377.222	88.38
377.448	96.38
377.674	94.38
377.899	87.38
378.125	86.38
378.35	91.38
378.576	100.38
378.802	82.38
379.027	101.38
379.253	81.38
379.478	71.38
379.704	84.38
379.929	94.38
380.155	100.38
380.38	94.38
380.606	101.38
380.831	93.38
381.057	96.38
381.282	97.38
381.507	92.38
381.733	87.38
381.958	86.38
382.184	107.38
382.409	93.38
382.634	82.38
382.86	114.38
383.085	97.38
383.31	101.38
383.535	109.38
383.761	107.38
383.986	108.38
384.211	88.38
384.436	92.38
384.662	95.38
384.887	101.38
385.112	105.38
385.337	100.38
385.562	108.38
385.787	94.38
386.013	110.38
386.238	103.38
386.463	89.38
386.688	104.38
386.913	109.38
387.138	107.38
387.363	87.38
387.588	103.38
387.813	85.38
388.038	114.38
388.263	104.38
388.488	110.38
388.713	98.38
388.938	108.38
389.163	105.38
389.387	82.38
389.612	102.38
389.837	91.38
390.062	87.38
390.287	98.38
390.512	86.38
390.736	95.38
390.961	87.38
391.186	83.38
391.411	88.38
391.636	96.38
391.86	89.38
392.085	100.38
392.31	82.38
392.534	97.38
392.759	93.38
392.984	88.38
393.208	86.38
393.433	77.38
393.658	96.38
393.882	94.38
394.107	83.38
394.331	104.38
394.556	79.38
394.78	91.38
395.005	84.38
395.229	78.38
395.454	87.38
395.678	91.38
395.903	102.38
396.127	82.38
396.352	76.38
396.576	76.38
396.801	94.38
397.025	89.38
397.249	93.38
397.474	81.38
397.698	86.38
397.922	94.38
398.147	86.38
398.371	81.38
398.595	78.38
398.82	78.38
399.044	82.38
399.268	81.38
399.492	88.38
399.717	72.38
399.941	97.38
400.165	92.38
400.389	67.38
400.613	81.38
400.837	88.38
401.062	86.38
401.286	81.38
401.51	105.38
401.734	89.38
401.958	102.38
402.182	132.38
402.406	167.38
402.63	113.38
402.854	84.38
403.078	85.38
403.302	83.38
403.526	83.38
403.75	70.38
403.974	83.38
404.198	86.38
404.422	84.38
404.645	97.38
404.869	94.38
405.093	99.38
405.317	105.38
405.541	95.38
405.765	92.38
405.988	109.38
406.212	166.38
406.436	219.38
406.66	137.38
406.883	101.38
407.107	97.38
407.331	95.38
407.555	93.38
407.778	91.38
408.002	88.38
408.226	92.38
408.449	95.38
408.673	84.38
408.896	92.38
409.12	106.38
409.344	101.38
409.567	98.38
409.791	92.38
410.014	86.38
410.238	91.38
410.461	80.38
410.685	91.38
410.908	103.38
411.132	91.38
411.355	94.38
411.578	81.38
411.802	86.38
412.025	89.38
412.249	86.38
412.472	85.38
412.695	85.38
412.919	76.38
413.142	89.38
413.365	83.38
413.589	70.38
413.812	80.38
414.035	80.38
414.258	105.38
414.482	111.38
414.705	94.38
414.928	97.38
415.151	85.38
415.374	90.38
415.597	71.38
415.821	66.38
416.044	94.38
416.267	96.38
416.49	95.38
416.713	93.38
416.936	79.38
417.159	77.38
417.382	83.38
417.605	85.38
417.828	98.38
418.051	92.38
418.274	72.38
418.497	102.38
418.72	88.38
418.943	92.38
419.166	71.38
419.389	88.38
419.611	81.38
419.834	62.38
420.057	74.38
420.28	93.38
420.503	85.38
420.726	99.38
420.948	96.38
421.171	96.38
421.394	102.38
421.617	87.38
421.839	85.38
422.062	90.38
422.285	95.38
422.507	105.38
422.73	87.38
422.953	89.38
423.175	100.38
423.398	97.38
423.621	84.38
423.843	85.38
424.066	92.38
424.288	72.38
424.511	100.38
424.733	97.38
424.956	92.38
425.178	87.38
425.401	99.38
425.623	89.38
425.846	81.38
426.068	88.38
426.291	88.38
426.513	93.38
426.735	85.38
426.958	99.38
427.18	103.38
427.402	127.38
427.625	152.38
427.847	118.38
428.069	102.38
428.292	87.38
428.514	87.38
428.736	89.38
428.958	83.38
429.181	93.38
429.403	81.38
429.625	86.38
429.847	83.38
430.069	90.38
430.292	94.38
430.514	80.38
430.736	88.38
430.958	83.38
431.18	82.38
431.402	82.38
431.624	87.38
431.846	91.38
432.068	89.38
432.29	97.38
432.512	91.38
432.734	90.38
432.956	104.38
433.178	93.38
433.4	89.38
433.622	83.38
433.844	85.38
434.066	88.38
434.287	92.38
434.509	94.38
434.731	95.38
434.953	85.38
435.175	96.38
435.397	96.38
435.618	95.38
435.84	88.38
436.062	108.38
436.284	103.38
436.505	72.38
436.727	103.38
436.949	88.38
437.17	83.38
437.392	93.38
437.614	89.38
437.835	111.38
438.057	116.38
438.278	112.38
438.5	112.38
438.721	126.38
438.943	88.38
439.165	80.38
439.386	92.38
439.608	101.38
439.829	84.38
440.05	124.38
440.272	143.38
440.493	99.38
440.715	94.38
440.936	95.38
441.158	82.38
441.379	88.38
441.6	91.38
441.822	95.38
442.043	86.38
442.264	88.38
442.486	93.38
442.707	86.38
442.928	106.38
443.149	131.38
443.371	126.38
443.592	109.38
443.813	115.38
444.034	95.38
444.255	84.38
444.476	88.38
444.698	87.38
444.919	89.38
445.14	124.38
445.361	118.38
445.582	104.38
445.803	141.38
446.024	130.38
446.245	135.38
446.466	104.38
446.687	74.38
446.908	88.38
447.129	89.38
447.35	86.38
447.571	88.38
447.792	99.38
448.013	105.38
448.234	95.38
448.455	100.38
448.675	115.38
448.896	112.38
449.117	107.38
449.338	104.38
449.559	131.38
449.779	141.38
450	102.38
450.221	104.38
450.442	92.38
450.662	92.38
450.883	88.38
451.104	104.38
451.324	93.38
451.545	88.38
451.766	89.38
451.986	88.38
452.207	78.38
452.428	91.38
452.648	97.38
452.869	94.38
453.089	109.38
453.31	110.38
453.53	76.38
453.751	95.38
453.971	101.38
454.192	99.38
454.412	92.38
454.633	84.38
454.853	77.38
455.073	86.38
455.294	87.38
455.514	97.38
455.734	91.38
455.955	82.38
456.175	63.38
456.395	83.38
456.616	88.38
456.836	92.38
457.056	84.38
457.276	83.38
457.497	68.38
457.717	76.38
457.937	93.38
458.157	82.38
458.377	103.38
458.598	100.38
458.818	152.38
459.038	147.38
459.258	99.38
459.478	82.38
459.698	89.38
459.918	72.38
460.138	80.38
460.358	78.38
460.578	85.38
460.798	87.38
461.018	78.38
461.238	75.38
461.458	78.38
461.678	87.38
461.898	85.38
462.118	88.38
462.338	89.38
462.558	95.38
462.777	87.38
462.997	77.38
463.217	92.38
463.437	98.38
463.657	87.38
463.876	72.38
464.096	91.38
464.316	92.38
464.536	83.38
464.755	80.38
464.975	93.38
465.195	159.38
465.414	162.38
465.634	103.38
465.854	99.38
466.073	85.38
466.293	86.38
466.512	75.38
466.732	66.38
466.951	87.38
467.171	89.38
467.391	85.38
467.61	95.38
467.829	95.38
468.049	92.38
468.268	88.38
468.488	86.38
468.707	81.38
468.927	97.38
469.146	80.38
469.365	75.38
469.585	78.38
469.804	85.38
470.023	86.38
470.243	75.38
470.462	97.38
470.681	107.38
470.901	84.38
471.12	71.38
471.339	86.38
471.558	86.38
471.777	84.38
471.997	91.38
472.216	94.38
472.435	93.38
472.654	94.38
472.873	88.38
473.092	76.38
473.311	81.38
473.53	80.38
473.749	84.38
473.968	90.38
474.187	95.38
474.406	93.38
474.625	92.38
474.844	89.38
475.063	86.38
475.282	78.38
475.501	85.38
475.72	96.38
475.939	83.38
476.158	97.38
476.377	80.38
476.596	93.38
476.814	100.38
477.033	85.38
477.252	77.38
477.471	97.38
477.69	79.38
477.908	102.38
478.127	82.38
478.346	85.38
478.564	94.38
478.783	99.38
479.002	68.38
479.22	92.38
479.439	105.38
479.658	83.38
479.876	85.38
480.095	85.38
480.313	96.38
480.532	84.38
480.751	87.38
480.969	97.38
481.188	134.38
481.406	106.38
481.624	79.38
481.843	80.38
482.061	98.38
482.28	100.38
482.498	66.38
482.717	82.38
482.935	78.38
483.153	91.38
483.372	80.38
483.59	84.38
483.808	88.38
484.027	93.38
484.245	83.38
484.463	93.38
484.681	98.38
484.9	77.38
485.118	101.38
485.336	96.38
485.554	93.38
485.772	99.38
485.99	108.38
486.209	104.38
486.427	95.38
486.645	109.38
486.863	105.38
487.081	104.38
487.299	92.38
487.517	92.38
487.735	90.38
487.953	93.38
488.171	93.38
488.389	88.38
488.607	95.38
488.825	82.38
489.043	87.38
489.261	96.38
489.479	89.38
489.696	79.38
489.914	86.38
490.132	98.38
490.35	93.38
490.568	85.38
490.786	91.38
491.003	79.38
491.221	79.38
491.439	99.38
491.657	99.38
491.874	87.38
492.092	90.38
492.31	85.38
492.527	93.38
492.745	91.38
492.963	89.38
493.18	96.38
493.398	81.38
493.615	87.38
493.833	85.38
494.05	86.38
494.268	73.38
494.485	78.38
494.703	86.38
494.92	84.38
495.138	85.38
495.355	93.38
495.573	88.38
495.79	93.38
496.008	99.38
496.225	98.38
496.442	86.38
496.66	82.38
496.877	99.38
497.094	90.38
497.312	90.38
497.529	86.38
497.746	89.38
497.963	77.38
498.181	93.38
498.398	85.38
498.615	105.38
498.832	102.38
499.049	79.38
499.267	79.38
499.484	71.38
499.701	73.38
499.918	93.38
500.135	90.38
500.352	93.38
500.569	87.38
500.786	102.38
501.003	101.38
501.22	90.38
501.437	88.38
501.654	88.38
501.871	97.38
502.088	89.38
502.305	88.38
502.522	86.38
502.739	83.38
502.956	100.38
503.172	98.38
503.389	83.38
503.606	89.38
503.823	88.38
504.04	97.38
504.256	84.38
504.473	86.38
504.69	94.38
504.907	93.38
505.123	89.38
505.34	105.38
505.557	94.38
505.773	88.38
505.99	93.38
506.207	94.38
506.423	86.38
506.64	101.38
506.856	76.38
507.073	87.38
507.289	89.38
507.506	91.38
507.722	94.38
507.939	107.38
508.155	101.38
508.372	91.38
508.588	98.38
508.805	101.38
509.021	96.38
509.238	88.38
509.454	95.38
509.67	102.38
509.887	111.38
510.103	125.38
510.319	209.38
510.536	775.38
510.752	2479.38
510.968	685.38
511.184	163.38
511.401	119.38
511.617	111.38
511.833	85.38
512.049	96.38
512.265	88.38
512.481	94.38
512.698	87.38
512.914	88.38
513.13	84.38
513.346	81.38
513.562	92.38
513.778	105.38
513.994	95.38
514.21	102.38
514.426	107.38
514.642	132.38
514.858	116.38
515.074	157.38
515.29	449.38
515.506	1494.38
515.721	548.38
515.937	139.38
516.153	93.38
516.369	87.38
