Data from Uncirc_2003_H10_HRD10591_00093.txt Node
Date: Wed Jan 03 10:36:06 EST 2024
User: Yrep
Spectrometer: HR+D1059
Trigger mode: 1
Integration Time (sec): 1.000000E-1
Scans to average: 1
Electric dark correction enabled: true
Nonlinearity correction enabled: false
Boxcar width: 0
XAxis mode: Wavelengths
Number of Pixels in Spectrum: 2048
>>>>>Begin Spectral Data<<<<<
223.165	-27.38
223.4	-27.38
223.635	-27.38
223.869	-11.38
224.104	-7.38
224.338	-5.38
224.573	-11.38
224.808	-11.38
225.042	-6.38
225.277	-8.38
225.511	-6.38
225.746	-7.38
225.98	11.62
226.215	11.62
226.449	14.62
226.683	13.62
226.918	19.62
227.152	31.62
227.387	22.62
227.621	35.62
227.856	34.62
228.09	38.62
228.324	55.62
228.559	54.62
228.793	49.62
229.027	70.62
229.262	59.62
229.496	70.62
229.73	73.62
229.964	84.62
230.199	68.62
230.433	79.62
230.667	71.62
230.901	72.62
231.136	80.62
231.37	82.62
231.604	71.62
231.838	84.62
232.072	86.62
232.306	89.62
232.541	84.62
232.775	76.62
233.009	68.62
233.243	86.62
233.477	80.62
233.711	71.62
233.945	71.62
234.179	83.62
234.413	87.62
234.647	74.62
234.881	74.62
235.115	78.62
235.349	64.62
235.583	80.62
235.817	72.62
236.051	73.62
236.285	71.62
236.519	63.62
236.753	71.62
236.987	82.62
237.221	89.62
237.455	84.62
237.689	76.62
237.922	64.62
238.156	55.62
238.39	68.62
238.624	66.62
238.858	76.62
239.091	67.62
239.325	67.62
239.559	76.62
239.793	73.62
240.027	72.62
240.26	78.62
240.494	82.62
240.728	57.62
240.961	81.62
241.195	70.62
241.429	94.62
241.662	82.62
241.896	74.62
242.13	76.62
242.363	63.62
242.597	76.62
242.83	72.62
243.064	83.62
243.298	98.62
243.531	74.62
243.765	74.62
243.998	85.62
244.232	82.62
244.465	85.62
244.699	92.62
244.932	63.62
245.166	68.62
245.399	80.62
245.633	70.62
245.866	71.62
246.099	72.62
246.333	59.62
246.566	75.62
246.8	83.62
247.033	78.62
247.266	73.62
247.5	85.62
247.733	85.62
247.966	74.62
248.2	71.62
248.433	89.62
248.666	89.62
248.899	72.62
249.133	74.62
249.366	89.62
249.599	89.62
249.832	79.62
250.066	85.62
250.299	76.62
250.532	75.62
250.765	86.62
250.998	85.62
251.231	74.62
251.465	79.62
251.698	79.62
251.931	84.62
252.164	79.62
252.397	84.62
252.63	76.62
252.863	70.62
253.096	72.62
253.329	82.62
253.562	64.62
253.795	78.62
254.028	78.62
254.261	76.62
254.494	83.62
254.727	79.62
254.96	64.62
255.193	77.62
255.426	89.62
255.659	87.62
255.892	88.62
256.124	85.62
256.357	79.62
256.59	85.62
256.823	93.62
257.056	82.62
257.289	67.62
257.521	74.62
257.754	83.62
257.987	72.62
258.22	77.62
258.452	81.62
258.685	75.62
258.918	86.62
259.151	86.62
259.383	83.62
259.616	88.62
259.849	83.62
260.081	73.62
260.314	80.62
260.547	73.62
260.779	83.62
261.012	75.62
261.244	72.62
261.477	91.62
261.71	74.62
261.942	106.62
262.175	110.62
262.407	91.62
262.64	100.62
262.872	90.62
263.105	69.62
263.337	94.62
263.57	86.62
263.802	75.62
264.035	85.62
264.267	96.62
264.499	91.62
264.732	84.62
264.964	81.62
265.197	86.62
265.429	93.62
265.661	76.62
265.894	71.62
266.126	91.62
266.358	71.62
266.591	91.62
266.823	79.62
267.055	87.62
267.287	86.62
267.52	83.62
267.752	66.62
267.984	81.62
268.216	90.62
268.448	70.62
268.681	84.62
268.913	80.62
269.145	72.62
269.377	75.62
269.609	85.62
269.841	81.62
270.073	81.62
270.306	93.62
270.538	81.62
270.77	72.62
271.002	81.62
271.234	88.62
271.466	81.62
271.698	83.62
271.93	86.62
272.162	86.62
272.394	69.62
272.626	77.62
272.858	80.62
273.09	71.62
273.322	91.62
273.553	84.62
273.785	88.62
274.017	71.62
274.249	88.62
274.481	91.62
274.713	76.62
274.945	94.62
275.176	78.62
275.408	84.62
275.64	82.62
275.872	100.62
276.104	99.62
276.335	94.62
276.567	96.62
276.799	101.62
277.031	82.62
277.262	77.62
277.494	93.62
277.726	84.62
277.957	90.62
278.189	81.62
278.421	87.62
278.652	85.62
278.884	67.62
279.115	64.62
279.347	85.62
279.579	67.62
279.81	71.62
280.042	81.62
280.273	89.62
280.505	83.62
280.736	82.62
280.968	104.62
281.199	78.62
281.431	91.62
281.662	84.62
281.894	91.62
282.125	101.62
282.356	112.62
282.588	134.62
282.819	110.62
283.051	96.62
283.282	71.62
283.513	86.62
283.745	72.62
283.976	78.62
284.207	88.62
284.439	80.62
284.67	84.62
284.901	98.62
285.132	84.62
285.364	84.62
285.595	56.62
285.826	79.62
286.057	86.62
286.288	78.62
286.52	93.62
286.751	89.62
286.982	93.62
287.213	81.62
287.444	105.62
287.675	95.62
287.906	99.62
288.138	77.62
288.369	82.62
288.6	95.62
288.831	81.62
289.062	84.62
289.293	76.62
289.524	79.62
289.755	79.62
289.986	98.62
290.217	79.62
290.448	78.62
290.679	84.62
290.91	96.62
291.141	83.62
291.371	94.62
291.602	88.62
291.833	80.62
292.064	89.62
292.295	82.62
292.526	83.62
292.757	87.62
292.987	88.62
293.218	75.62
293.449	86.62
293.68	74.62
293.91	69.62
294.141	73.62
294.372	78.62
294.603	71.62
294.833	95.62
295.064	99.62
295.295	84.62
295.525	79.62
295.756	95.62
295.987	93.62
296.217	127.62
296.448	112.62
296.679	95.62
296.909	96.62
297.14	89.62
297.37	89.62
297.601	89.62
297.831	99.62
298.062	82.62
298.292	93.62
298.523	88.62
298.753	95.62
298.984	83.62
299.214	88.62
299.445	87.62
299.675	93.62
299.905	93.62
300.136	79.62
300.366	84.62
300.597	69.62
300.827	79.62
301.057	110.62
301.288	104.62
301.518	101.62
301.748	83.62
301.979	102.62
302.209	86.62
302.439	84.62
302.669	85.62
302.9	83.62
303.13	88.62
303.36	84.62
303.59	104.62
303.82	104.62
304.051	93.62
304.281	100.62
304.511	78.62
304.741	90.62
304.971	89.62
305.201	81.62
305.431	94.62
305.661	95.62
305.891	96.62
306.121	82.62
306.352	113.62
306.582	105.62
306.812	86.62
307.042	86.62
307.272	89.62
307.502	86.62
307.731	84.62
307.961	74.62
308.191	103.62
308.421	95.62
308.651	76.62
308.881	89.62
309.111	100.62
309.341	105.62
309.571	101.62
309.8	87.62
310.03	87.62
310.26	101.62
310.49	105.62
310.72	90.62
310.949	96.62
311.179	90.62
311.409	100.62
311.639	82.62
311.868	109.62
312.098	88.62
312.328	97.62
312.557	96.62
312.787	95.62
313.017	99.62
313.246	93.62
313.476	90.62
313.706	86.62
313.935	100.62
314.165	92.62
314.394	101.62
314.624	88.62
314.853	103.62
315.083	94.62
315.312	98.62
315.542	74.62
315.771	81.62
316.001	88.62
316.23	73.62
316.46	84.62
316.689	96.62
316.919	88.62
317.148	93.62
317.377	100.62
317.607	99.62
317.836	97.62
318.065	79.62
318.295	100.62
318.524	84.62
318.753	88.62
318.983	97.62
319.212	88.62
319.441	93.62
319.67	111.62
319.9	76.62
320.129	88.62
320.358	95.62
320.587	104.62
320.816	103.62
321.046	98.62
321.275	101.62
321.504	97.62
321.733	101.62
321.962	102.62
322.191	106.62
322.42	110.62
322.649	104.62
322.878	110.62
323.108	112.62
323.337	123.62
323.566	138.62
323.795	164.62
324.024	234.62
324.253	429.62
324.482	886.62
324.71	1853.62
324.939	2424.62
325.168	857.62
325.397	251.62
325.626	148.62
325.855	128.62
326.084	119.62
326.313	133.62
326.542	147.62
326.77	233.62
326.999	493.62
327.228	1048.62
327.457	1899.62
327.686	1475.62
327.914	375.62
328.143	191.62
328.372	150.62
328.6	143.62
328.829	114.62
329.058	121.62
329.287	119.62
329.515	103.62
329.744	101.62
329.972	115.62
330.201	96.62
330.43	121.62
330.658	123.62
330.887	136.62
331.115	117.62
331.344	94.62
331.572	93.62
331.801	93.62
332.03	93.62
332.258	100.62
332.486	85.62
332.715	85.62
332.943	96.62
333.172	103.62
333.4	96.62
333.629	115.62
333.857	113.62
334.085	111.62
334.314	106.62
334.542	96.62
334.771	99.62
334.999	98.62
335.227	104.62
335.455	101.62
335.684	84.62
335.912	106.62
336.14	94.62
336.369	99.62
336.597	111.62
336.825	95.62
337.053	105.62
337.281	100.62
337.51	82.62
337.738	104.62
337.966	93.62
338.194	95.62
338.422	86.62
338.65	89.62
338.878	94.62
339.106	76.62
339.334	89.62
339.562	85.62
339.79	100.62
340.018	83.62
340.246	91.62
340.474	88.62
340.702	87.62
340.93	91.62
341.158	86.62
341.386	76.62
341.614	97.62
341.842	92.62
342.07	98.62
342.298	106.62
342.526	82.62
342.754	103.62
342.981	98.62
343.209	86.62
343.437	93.62
343.665	81.62
343.893	88.62
344.12	105.62
344.348	100.62
344.576	86.62
344.804	83.62
345.031	94.62
345.259	108.62
345.487	82.62
345.714	95.62
345.942	87.62
346.17	89.62
346.397	89.62
346.625	94.62
346.853	78.62
347.08	81.62
347.308	81.62
347.535	71.62
347.763	108.62
347.99	100.62
348.218	87.62
348.445	94.62
348.673	95.62
348.9	95.62
349.128	97.62
349.355	95.62
349.583	101.62
349.81	101.62
350.037	102.62
350.265	95.62
350.492	91.62
350.72	85.62
350.947	117.62
351.174	100.62
351.402	107.62
351.629	101.62
351.856	103.62
352.083	82.62
352.311	105.62
352.538	101.62
352.765	109.62
352.992	124.62
353.22	107.62
353.447	99.62
353.674	103.62
353.901	94.62
354.128	91.62
354.355	95.62
354.583	96.62
354.81	76.62
355.037	109.62
355.264	100.62
355.491	95.62
355.718	95.62
355.945	100.62
356.172	97.62
356.399	89.62
356.626	103.62
356.853	98.62
357.08	84.62
357.307	103.62
357.534	79.62
357.761	92.62
357.988	111.62
358.215	88.62
358.441	96.62
358.668	89.62
358.895	91.62
359.122	89.62
359.349	86.62
359.576	79.62
359.802	86.62
360.029	114.62
360.256	120.62
360.483	106.62
360.709	98.62
360.936	97.62
361.163	88.62
361.39	88.62
361.616	108.62
361.843	108.62
362.07	100.62
362.296	90.62
362.523	84.62
362.749	84.62
362.976	79.62
363.203	85.62
363.429	90.62
363.656	82.62
363.882	95.62
364.109	78.62
364.335	86.62
364.562	85.62
364.788	102.62
365.015	103.62
365.241	108.62
365.468	113.62
365.694	99.62
365.92	83.62
366.147	81.62
366.373	99.62
366.599	93.62
366.826	98.62
367.052	92.62
367.278	91.62
367.505	89.62
367.731	87.62
367.957	94.62
368.184	96.62
368.41	101.62
368.636	101.62
368.862	105.62
369.089	105.62
369.315	84.62
369.541	101.62
369.767	91.62
369.993	97.62
370.219	89.62
370.445	82.62
370.672	91.62
370.898	78.62
371.124	81.62
371.35	75.62
371.576	92.62
371.802	86.62
372.028	86.62
372.254	97.62
372.48	79.62
372.706	71.62
372.932	89.62
373.158	84.62
373.384	93.62
373.61	97.62
373.835	92.62
374.061	78.62
374.287	88.62
374.513	90.62
374.739	86.62
374.965	81.62
375.191	80.62
375.416	91.62
375.642	98.62
375.868	92.62
376.094	81.62
376.319	100.62
376.545	95.62
376.771	87.62
376.997	84.62
377.222	79.62
377.448	86.62
377.674	88.62
377.899	98.62
378.125	79.62
378.35	96.62
378.576	78.62
378.802	95.62
379.027	95.62
379.253	93.62
379.478	84.62
379.704	92.62
379.929	83.62
380.155	77.62
380.38	86.62
380.606	81.62
380.831	91.62
381.057	101.62
381.282	97.62
381.507	78.62
381.733	95.62
381.958	85.62
382.184	100.62
382.409	82.62
382.634	92.62
382.86	89.62
383.085	89.62
383.31	104.62
383.535	88.62
383.761	99.62
383.986	92.62
384.211	93.62
384.436	103.62
384.662	80.62
384.887	97.62
385.112	111.62
385.337	105.62
385.562	91.62
385.787	128.62
386.013	94.62
386.238	105.62
386.463	97.62
386.688	108.62
386.913	87.62
387.138	91.62
387.363	88.62
387.588	86.62
387.813	91.62
388.038	93.62
388.263	109.62
388.488	100.62
388.713	92.62
388.938	94.62
389.163	101.62
389.387	98.62
389.612	75.62
389.837	95.62
390.062	101.62
390.287	101.62
390.512	86.62
390.736	82.62
390.961	84.62
391.186	100.62
391.411	104.62
391.636	93.62
391.86	75.62
392.085	78.62
392.31	81.62
392.534	78.62
392.759	78.62
392.984	86.62
393.208	84.62
393.433	80.62
393.658	88.62
393.882	93.62
394.107	99.62
394.331	73.62
394.556	86.62
394.78	96.62
395.005	99.62
395.229	85.62
395.454	99.62
395.678	78.62
395.903	92.62
396.127	79.62
396.352	93.62
396.576	78.62
396.801	76.62
397.025	85.62
397.249	78.62
397.474	84.62
397.698	85.62
397.922	89.62
398.147	80.62
398.371	84.62
398.595	79.62
398.82	93.62
399.044	81.62
399.268	82.62
399.492	98.62
399.717	94.62
399.941	80.62
400.165	103.62
400.389	89.62
400.613	104.62
400.837	87.62
401.062	88.62
401.286	69.62
401.51	88.62
401.734	88.62
401.958	86.62
402.182	116.62
402.406	147.62
402.63	129.62
402.854	86.62
403.078	87.62
403.302	90.62
403.526	93.62
403.75	99.62
403.974	78.62
404.198	88.62
404.422	83.62
404.645	86.62
404.869	100.62
405.093	97.62
405.317	97.62
405.541	92.62
405.765	108.62
405.988	107.62
406.212	173.62
406.436	213.62
406.66	145.62
406.883	88.62
407.107	85.62
407.331	79.62
407.555	94.62
407.778	80.62
408.002	87.62
408.226	100.62
408.449	85.62
408.673	82.62
408.896	90.62
409.12	94.62
409.344	83.62
409.567	81.62
409.791	100.62
410.014	80.62
410.238	91.62
410.461	94.62
410.685	94.62
410.908	92.62
411.132	108.62
411.355	93.62
411.578	86.62
411.802	88.62
412.025	68.62
412.249	84.62
412.472	85.62
412.695	90.62
412.919	69.62
413.142	88.62
413.365	82.62
413.589	91.62
413.812	96.62
414.035	92.62
414.258	99.62
414.482	94.62
414.705	88.62
414.928	98.62
415.151	84.62
415.374	81.62
415.597	82.62
415.821	93.62
416.044	79.62
416.267	84.62
416.49	89.62
416.713	96.62
416.936	86.62
417.159	75.62
417.382	79.62
417.605	76.62
417.828	84.62
418.051	89.62
418.274	88.62
418.497	84.62
418.72	87.62
418.943	89.62
419.166	85.62
419.389	96.62
419.611	89.62
419.834	95.62
420.057	93.62
420.28	72.62
420.503	79.62
420.726	84.62
420.948	100.62
421.171	100.62
421.394	95.62
421.617	89.62
421.839	88.62
422.062	97.62
422.285	88.62
422.507	107.62
422.73	105.62
422.953	100.62
423.175	92.62
423.398	78.62
423.621	91.62
423.843	72.62
424.066	83.62
424.288	97.62
424.511	100.62
424.733	86.62
424.956	95.62
425.178	91.62
425.401	95.62
425.623	82.62
425.846	83.62
426.068	90.62
426.291	93.62
426.513	89.62
426.735	97.62
426.958	104.62
427.18	97.62
427.402	141.62
427.625	157.62
427.847	115.62
428.069	110.62
428.292	90.62
428.514	84.62
428.736	92.62
428.958	87.62
429.181	82.62
429.403	78.62
429.625	100.62
429.847	104.62
430.069	100.62
430.292	88.62
430.514	78.62
430.736	73.62
430.958	84.62
431.18	80.62
431.402	81.62
431.624	88.62
431.846	82.62
432.068	79.62
432.29	92.62
432.512	89.62
432.734	91.62
432.956	80.62
433.178	88.62
433.4	96.62
433.622	98.62
433.844	79.62
434.066	86.62
434.287	93.62
434.509	84.62
434.731	92.62
434.953	83.62
435.175	71.62
435.397	98.62
435.618	91.62
435.84	102.62
436.062	114.62
436.284	112.62
436.505	95.62
436.727	91.62
436.949	81.62
437.17	78.62
437.392	76.62
437.614	91.62
437.835	109.62
438.057	106.62
438.278	100.62
438.5	96.62
438.721	109.62
438.943	89.62
439.165	92.62
439.386	77.62
439.608	88.62
439.829	94.62
440.05	110.62
440.272	129.62
440.493	81.62
440.715	80.62
440.936	85.62
441.158	81.62
441.379	76.62
441.6	92.62
441.822	90.62
442.043	100.62
442.264	100.62
442.486	91.62
442.707	80.62
442.928	110.62
443.149	127.62
443.371	95.62
443.592	109.62
443.813	93.62
444.034	119.62
444.255	90.62
444.476	85.62
444.698	91.62
444.919	88.62
445.14	127.62
445.361	117.62
445.582	96.62
445.803	133.62
446.024	123.62
446.245	121.62
446.466	112.62
446.687	84.62
446.908	94.62
447.129	95.62
447.35	92.62
447.571	86.62
447.792	95.62
448.013	93.62
448.234	103.62
448.455	97.62
448.675	113.62
448.896	116.62
449.117	88.62
449.338	93.62
449.559	123.62
449.779	124.62
450	89.62
450.221	83.62
450.442	81.62
450.662	97.62
450.883	95.62
451.104	120.62
451.324	96.62
451.545	92.62
451.766	94.62
451.986	76.62
452.207	84.62
452.428	93.62
452.648	87.62
452.869	105.62
453.089	109.62
453.31	120.62
453.53	79.62
453.751	81.62
453.971	108.62
454.192	105.62
454.412	86.62
454.633	87.62
454.853	89.62
455.073	81.62
455.294	100.62
455.514	84.62
455.734	94.62
455.955	93.62
456.175	71.62
456.395	93.62
456.616	91.62
456.836	74.62
457.056	81.62
457.276	72.62
457.497	88.62
457.717	83.62
457.937	86.62
458.157	92.62
458.377	89.62
458.598	96.62
458.818	143.62
459.038	144.62
459.258	111.62
459.478	79.62
459.698	85.62
459.918	89.62
460.138	95.62
460.358	90.62
460.578	82.62
460.798	89.62
461.018	84.62
461.238	86.62
461.458	81.62
461.678	85.62
461.898	82.62
462.118	104.62
462.338	79.62
462.558	94.62
462.777	104.62
462.997	91.62
463.217	83.62
463.437	81.62
463.657	78.62
463.876	92.62
464.096	71.62
464.316	95.62
464.536	87.62
464.755	89.62
464.975	129.62
465.195	159.62
465.414	150.62
465.634	99.62
465.854	90.62
466.073	96.62
466.293	81.62
466.512	76.62
466.732	79.62
466.951	84.62
467.171	88.62
467.391	102.62
467.61	91.62
467.829	88.62
468.049	89.62
468.268	90.62
468.488	91.62
468.707	83.62
468.927	77.62
469.146	89.62
469.365	90.62
469.585	85.62
469.804	93.62
470.023	86.62
470.243	91.62
470.462	69.62
470.681	106.62
470.901	83.62
471.12	79.62
471.339	85.62
471.558	76.62
471.777	79.62
471.997	93.62
472.216	96.62
472.435	95.62
472.654	101.62
472.873	92.62
473.092	113.62
473.311	86.62
473.53	96.62
473.749	86.62
473.968	104.62
474.187	110.62
474.406	95.62
474.625	93.62
474.844	92.62
475.063	70.62
475.282	87.62
475.501	86.62
475.72	91.62
475.939	87.62
476.158	89.62
476.377	83.62
476.596	93.62
476.814	83.62
477.033	82.62
477.252	82.62
477.471	84.62
477.69	85.62
477.908	98.62
478.127	97.62
478.346	91.62
478.564	89.62
478.783	81.62
479.002	81.62
479.22	76.62
479.439	88.62
479.658	100.62
479.876	97.62
480.095	92.62
480.313	87.62
480.532	93.62
480.751	86.62
480.969	88.62
481.188	107.62
481.406	83.62
481.624	83.62
481.843	77.62
482.061	79.62
482.28	96.62
482.498	82.62
482.717	88.62
482.935	87.62
483.153	84.62
483.372	89.62
483.59	116.62
483.808	101.62
484.027	92.62
484.245	87.62
484.463	97.62
484.681	88.62
484.9	94.62
485.118	92.62
485.336	91.62
485.554	108.62
485.772	100.62
485.99	116.62
486.209	96.62
486.427	99.62
486.645	104.62
486.863	109.62
487.081	107.62
487.299	83.62
487.517	87.62
487.735	101.62
487.953	84.62
488.171	107.62
488.389	84.62
488.607	101.62
488.825	83.62
489.043	87.62
489.261	89.62
489.479	84.62
489.696	88.62
489.914	99.62
490.132	84.62
490.35	88.62
490.568	86.62
490.786	95.62
491.003	82.62
491.221	87.62
491.439	93.62
491.657	86.62
491.874	95.62
492.092	99.62
492.31	83.62
492.527	92.62
492.745	94.62
492.963	91.62
493.18	81.62
493.398	90.62
493.615	103.62
493.833	99.62
494.05	73.62
494.268	87.62
494.485	95.62
494.703	96.62
494.92	101.62
495.138	86.62
495.355	83.62
495.573	92.62
495.79	66.62
496.008	99.62
496.225	94.62
496.442	84.62
496.66	99.62
496.877	93.62
497.094	84.62
497.312	83.62
497.529	95.62
497.746	72.62
497.963	92.62
498.181	96.62
498.398	89.62
498.615	109.62
498.832	89.62
499.049	83.62
499.267	92.62
499.484	89.62
499.701	94.62
499.918	89.62
500.135	86.62
500.352	74.62
500.569	88.62
500.786	87.62
501.003	96.62
501.22	98.62
501.437	72.62
501.654	80.62
501.871	101.62
502.088	94.62
502.305	86.62
502.522	82.62
502.739	90.62
502.956	89.62
503.172	89.62
503.389	90.62
503.606	96.62
503.823	90.62
504.04	86.62
504.256	87.62
504.473	86.62
504.69	80.62
504.907	88.62
505.123	87.62
505.34	78.62
505.557	98.62
505.773	88.62
505.99	86.62
506.207	88.62
506.423	88.62
506.64	96.62
506.856	84.62
507.073	109.62
507.289	96.62
507.506	103.62
507.722	115.62
507.939	111.62
508.155	109.62
508.372	93.62
508.588	103.62
508.805	100.62
509.021	98.62
509.238	102.62
509.454	98.62
509.67	107.62
509.887	106.62
510.103	128.62
510.319	217.62
510.536	786.62
510.752	2568.62
510.968	725.62
511.184	163.62
511.401	118.62
511.617	90.62
511.833	106.62
512.049	92.62
512.265	96.62
512.481	96.62
512.698	89.62
512.914	93.62
513.13	99.62
513.346	71.62
513.562	96.62
513.778	102.62
513.994	101.62
514.21	104.62
514.426	118.62
514.642	134.62
514.858	139.62
515.074	152.62
515.29	452.62
515.506	1491.62
515.721	541.62
515.937	157.62
516.153	109.62
