Data from Uncirc_2003_H10_HRD10591_00096.txt Node
Date: Wed Jan 03 10:36:07 EST 2024
User: Yrep
Spectrometer: HR+D1059
Trigger mode: 1
Integration Time (sec): 1.000000E-1
Scans to average: 1
Electric dark correction enabled: true
Nonlinearity correction enabled: false
Boxcar width: 0
XAxis mode: Wavelengths
Number of Pixels in Spectrum: 2048
>>>>>Begin Spectral Data<<<<<
223.165	-23.06
223.4	-23.06
223.635	-23.06
223.869	-7.06
224.104	-9.06
224.338	-16.06
224.573	-20.06
224.808	-23.06
225.042	-13.06
225.277	7.94
225.511	-15.06
225.746	-2.06
225.98	5.94
226.215	8.94
226.449	27.94
226.683	24.94
226.918	23.94
227.152	28.94
227.387	20.94
227.621	33.94
227.856	49.94
228.09	46.94
228.324	45.94
228.559	54.94
228.793	57.94
229.027	43.94
229.262	66.94
229.496	75.94
229.73	77.94
229.964	65.94
230.199	70.94
230.433	80.94
230.667	76.94
230.901	70.94
231.136	81.94
231.37	56.94
231.604	92.94
231.838	82.94
232.072	74.94
232.306	82.94
232.541	80.94
232.775	71.94
233.009	94.94
233.243	70.94
233.477	80.94
233.711	80.94
233.945	69.94
234.179	76.94
234.413	85.94
234.647	84.94
234.881	73.94
235.115	75.94
235.349	72.94
235.583	73.94
235.817	77.94
236.051	86.94
236.285	77.94
236.519	75.94
236.753	77.94
236.987	72.94
237.221	75.94
237.455	85.94
237.689	77.94
237.922	84.94
238.156	59.94
238.39	67.94
238.624	77.94
238.858	72.94
239.091	71.94
239.325	70.94
239.559	77.94
239.793	88.94
240.027	78.94
240.26	74.94
240.494	81.94
240.728	71.94
240.961	71.94
241.195	76.94
241.429	77.94
241.662	81.94
241.896	68.94
242.13	75.94
242.363	83.94
242.597	84.94
242.83	84.94
243.064	83.94
243.298	72.94
243.531	65.94
243.765	89.94
243.998	81.94
244.232	68.94
244.465	83.94
244.699	78.94
244.932	67.94
245.166	66.94
245.399	75.94
245.633	77.94
245.866	70.94
246.099	66.94
246.333	71.94
246.566	83.94
246.8	78.94
247.033	77.94
247.266	79.94
247.5	87.94
247.733	88.94
247.966	80.94
248.2	80.94
248.433	92.94
248.666	89.94
248.899	61.94
249.133	89.94
249.366	79.94
249.599	95.94
249.832	95.94
250.066	89.94
250.299	86.94
250.532	72.94
250.765	94.94
250.998	85.94
251.231	75.94
251.465	76.94
251.698	66.94
251.931	86.94
252.164	82.94
252.397	93.94
252.63	83.94
252.863	70.94
253.096	66.94
253.329	75.94
253.562	67.94
253.795	73.94
254.028	93.94
254.261	93.94
254.494	70.94
254.727	81.94
254.96	72.94
255.193	75.94
255.426	72.94
255.659	70.94
255.892	67.94
256.124	74.94
256.357	77.94
256.59	81.94
256.823	79.94
257.056	80.94
257.289	84.94
257.521	71.94
257.754	80.94
257.987	61.94
258.22	79.94
258.452	87.94
258.685	88.94
258.918	82.94
259.151	80.94
259.383	85.94
259.616	68.94
259.849	63.94
260.081	92.94
260.314	77.94
260.547	87.94
260.779	78.94
261.012	79.94
261.244	73.94
261.477	83.94
261.71	86.94
261.942	103.94
262.175	117.94
262.407	94.94
262.64	78.94
262.872	90.94
263.105	85.94
263.337	89.94
263.57	68.94
263.802	74.94
264.035	80.94
264.267	84.94
264.499	77.94
264.732	82.94
264.964	91.94
265.197	93.94
265.429	75.94
265.661	78.94
265.894	79.94
266.126	87.94
266.358	69.94
266.591	73.94
266.823	89.94
267.055	71.94
267.287	63.94
267.52	78.94
267.752	80.94
267.984	92.94
268.216	81.94
268.448	83.94
268.681	87.94
268.913	76.94
269.145	76.94
269.377	83.94
269.609	76.94
269.841	83.94
270.073	79.94
270.306	83.94
270.538	80.94
270.77	69.94
271.002	77.94
271.234	80.94
271.466	90.94
271.698	92.94
271.93	76.94
272.162	88.94
272.394	84.94
272.626	97.94
272.858	79.94
273.09	74.94
273.322	94.94
273.553	66.94
273.785	86.94
274.017	85.94
274.249	74.94
274.481	87.94
274.713	106.94
274.945	95.94
275.176	93.94
275.408	83.94
275.64	93.94
275.872	80.94
276.104	84.94
276.335	93.94
276.567	80.94
276.799	114.94
277.031	112.94
277.262	83.94
277.494	72.94
277.726	75.94
277.957	73.94
278.189	86.94
278.421	93.94
278.652	97.94
278.884	80.94
279.115	84.94
279.347	76.94
279.579	77.94
279.81	79.94
280.042	88.94
280.273	86.94
280.505	83.94
280.736	83.94
280.968	75.94
281.199	65.94
281.431	77.94
281.662	80.94
281.894	88.94
282.125	86.94
282.356	131.94
282.588	127.94
282.819	110.94
283.051	83.94
283.282	82.94
283.513	84.94
283.745	87.94
283.976	72.94
284.207	83.94
284.439	89.94
284.67	88.94
284.901	86.94
285.132	91.94
285.364	92.94
285.595	70.94
285.826	102.94
286.057	84.94
286.288	88.94
286.52	80.94
286.751	79.94
286.982	80.94
287.213	80.94
287.444	76.94
287.675	84.94
287.906	67.94
288.138	81.94
288.369	88.94
288.6	88.94
288.831	78.94
289.062	77.94
289.293	86.94
289.524	91.94
289.755	80.94
289.986	82.94
290.217	87.94
290.448	92.94
290.679	104.94
290.91	78.94
291.141	84.94
291.371	93.94
291.602	91.94
291.833	88.94
292.064	86.94
292.295	95.94
292.526	79.94
292.757	71.94
292.987	82.94
293.218	84.94
293.449	95.94
293.68	77.94
293.91	100.94
294.141	107.94
294.372	82.94
294.603	92.94
294.833	84.94
295.064	86.94
295.295	88.94
295.525	88.94
295.756	90.94
295.987	115.94
296.217	129.94
296.448	126.94
296.679	85.94
296.909	101.94
297.14	77.94
297.37	98.94
297.601	84.94
297.831	100.94
298.062	80.94
298.292	79.94
298.523	89.94
298.753	95.94
298.984	81.94
299.214	99.94
299.445	81.94
299.675	89.94
299.905	89.94
300.136	78.94
300.366	88.94
300.597	89.94
300.827	87.94
301.057	100.94
301.288	104.94
301.518	100.94
301.748	83.94
301.979	100.94
302.209	72.94
302.439	100.94
302.669	92.94
302.9	93.94
303.13	84.94
303.36	83.94
303.59	91.94
303.82	103.94
304.051	84.94
304.281	95.94
304.511	85.94
304.741	97.94
304.971	89.94
305.201	88.94
305.431	96.94
305.661	88.94
305.891	78.94
306.121	82.94
306.352	91.94
306.582	106.94
306.812	90.94
307.042	92.94
307.272	82.94
307.502	108.94
307.731	80.94
307.961	86.94
308.191	76.94
308.421	90.94
308.651	94.94
308.881	80.94
309.111	90.94
309.341	96.94
309.571	102.94
309.8	96.94
310.03	87.94
310.26	87.94
310.49	88.94
310.72	98.94
310.949	105.94
311.179	88.94
311.409	94.94
311.639	85.94
311.868	75.94
312.098	101.94
312.328	101.94
312.557	98.94
312.787	88.94
313.017	101.94
313.246	93.94
313.476	95.94
313.706	101.94
313.935	89.94
314.165	96.94
314.394	101.94
314.624	99.94
314.853	95.94
315.083	87.94
315.312	95.94
315.542	82.94
315.771	89.94
316.001	93.94
316.23	94.94
316.46	77.94
316.689	91.94
316.919	83.94
317.148	93.94
317.377	94.94
317.607	94.94
317.836	103.94
318.065	91.94
318.295	79.94
318.524	86.94
318.753	88.94
318.983	104.94
319.212	88.94
319.441	105.94
319.67	107.94
319.9	103.94
320.129	86.94
320.358	96.94
320.587	89.94
320.816	105.94
321.046	100.94
321.275	100.94
321.504	95.94
321.733	103.94
321.962	89.94
322.191	92.94
322.42	88.94
322.649	106.94
322.878	108.94
323.108	120.94
323.337	134.94
323.566	126.94
323.795	156.94
324.024	212.94
324.253	441.94
324.482	907.94
324.71	1897.94
324.939	2528.94
325.168	900.94
325.397	238.94
325.626	153.94
325.855	129.94
326.084	129.94
326.313	141.94
326.542	152.94
326.77	239.94
326.999	499.94
327.228	1051.94
327.457	1945.94
327.686	1514.94
327.914	382.94
328.143	191.94
328.372	133.94
328.6	136.94
328.829	109.94
329.058	124.94
329.287	122.94
329.515	104.94
329.744	100.94
329.972	98.94
330.201	107.94
330.43	112.94
330.658	119.94
330.887	148.94
331.115	123.94
331.344	101.94
331.572	99.94
331.801	111.94
332.03	108.94
332.258	102.94
332.486	93.94
332.715	83.94
332.943	97.94
333.172	89.94
333.4	105.94
333.629	95.94
333.857	109.94
334.085	106.94
334.314	105.94
334.542	104.94
334.771	115.94
334.999	94.94
335.227	86.94
335.455	88.94
335.684	89.94
335.912	94.94
336.14	100.94
336.369	85.94
336.597	102.94
336.825	94.94
337.053	86.94
337.281	99.94
337.51	80.94
337.738	98.94
337.966	101.94
338.194	101.94
338.422	80.94
338.65	95.94
338.878	100.94
339.106	96.94
339.334	88.94
339.562	96.94
339.79	92.94
340.018	96.94
340.246	86.94
340.474	89.94
340.702	103.94
340.93	90.94
341.158	87.94
341.386	83.94
341.614	104.94
341.842	101.94
342.07	99.94
342.298	95.94
342.526	102.94
342.754	99.94
342.981	80.94
343.209	74.94
343.437	92.94
343.665	96.94
343.893	77.94
344.12	78.94
344.348	100.94
344.576	101.94
344.804	86.94
345.031	85.94
345.259	89.94
345.487	109.94
345.714	100.94
345.942	102.94
346.17	85.94
346.397	78.94
346.625	90.94
346.853	88.94
347.08	87.94
347.308	95.94
347.535	89.94
347.763	78.94
347.99	92.94
348.218	98.94
348.445	99.94
348.673	99.94
348.9	84.94
349.128	95.94
349.355	88.94
349.583	103.94
349.81	94.94
350.037	110.94
350.265	100.94
350.492	109.94
350.72	106.94
350.947	100.94
351.174	103.94
351.402	116.94
351.629	96.94
351.856	95.94
352.083	81.94
352.311	94.94
352.538	115.94
352.765	113.94
352.992	110.94
353.22	92.94
353.447	100.94
353.674	101.94
353.901	96.94
354.128	97.94
354.355	92.94
354.583	97.94
354.81	101.94
355.037	87.94
355.264	86.94
355.491	79.94
355.718	95.94
355.945	105.94
356.172	97.94
356.399	96.94
356.626	81.94
356.853	76.94
357.08	96.94
357.307	107.94
357.534	100.94
357.761	90.94
357.988	89.94
358.215	84.94
358.441	83.94
358.668	95.94
358.895	97.94
359.122	93.94
359.349	90.94
359.576	93.94
359.802	96.94
360.029	99.94
360.256	98.94
360.483	98.94
360.709	78.94
360.936	93.94
361.163	86.94
361.39	103.94
361.616	89.94
361.843	97.94
362.07	91.94
362.296	89.94
362.523	91.94
362.749	79.94
362.976	83.94
363.203	87.94
363.429	83.94
363.656	96.94
363.882	90.94
364.109	77.94
364.335	82.94
364.562	80.94
364.788	88.94
365.015	82.94
365.241	92.94
365.468	110.94
365.694	103.94
365.92	91.94
366.147	88.94
366.373	84.94
366.599	78.94
366.826	79.94
367.052	95.94
367.278	94.94
367.505	71.94
367.731	100.94
367.957	96.94
368.184	94.94
368.41	92.94
368.636	108.94
368.862	119.94
369.089	117.94
369.315	108.94
369.541	84.94
369.767	84.94
369.993	93.94
370.219	82.94
370.445	85.94
370.672	97.94
370.898	79.94
371.124	89.94
371.35	89.94
371.576	75.94
371.802	81.94
372.028	83.94
372.254	89.94
372.48	88.94
372.706	84.94
372.932	89.94
373.158	91.94
373.384	73.94
373.61	96.94
373.835	92.94
374.061	98.94
374.287	87.94
374.513	95.94
374.739	90.94
374.965	86.94
375.191	85.94
375.416	83.94
375.642	101.94
375.868	92.94
376.094	83.94
376.319	85.94
376.545	88.94
376.771	86.94
376.997	81.94
377.222	83.94
377.448	83.94
377.674	82.94
377.899	78.94
378.125	79.94
378.35	93.94
378.576	90.94
378.802	77.94
379.027	93.94
379.253	92.94
379.478	83.94
379.704	87.94
379.929	96.94
380.155	82.94
380.38	83.94
380.606	77.94
380.831	76.94
381.057	99.94
381.282	97.94
381.507	109.94
381.733	91.94
381.958	106.94
382.184	93.94
382.409	99.94
382.634	87.94
382.86	95.94
383.085	98.94
383.31	96.94
383.535	96.94
383.761	89.94
383.986	82.94
384.211	84.94
384.436	102.94
384.662	113.94
384.887	109.94
385.112	97.94
385.337	97.94
385.562	105.94
385.787	105.94
386.013	109.94
386.238	113.94
386.463	98.94
386.688	102.94
386.913	96.94
387.138	104.94
387.363	106.94
387.588	90.94
387.813	99.94
388.038	105.94
388.263	109.94
388.488	103.94
388.713	96.94
388.938	93.94
389.163	97.94
389.387	86.94
389.612	99.94
389.837	89.94
390.062	87.94
390.287	88.94
390.512	79.94
390.736	76.94
390.961	91.94
391.186	105.94
391.411	112.94
391.636	82.94
391.86	86.94
392.085	76.94
392.31	83.94
392.534	90.94
392.759	91.94
392.984	107.94
393.208	81.94
393.433	69.94
393.658	98.94
393.882	79.94
394.107	88.94
394.331	82.94
394.556	83.94
394.78	78.94
395.005	103.94
395.229	71.94
395.454	100.94
395.678	84.94
395.903	92.94
396.127	65.94
396.352	87.94
396.576	71.94
396.801	93.94
397.025	75.94
397.249	98.94
397.474	84.94
397.698	87.94
397.922	80.94
398.147	89.94
398.371	93.94
398.595	79.94
398.82	89.94
399.044	80.94
399.268	84.94
399.492	93.94
399.717	86.94
399.941	90.94
400.165	93.94
400.389	92.94
400.613	77.94
400.837	87.94
401.062	86.94
401.286	84.94
401.51	88.94
401.734	78.94
401.958	102.94
402.182	131.94
402.406	154.94
402.63	128.94
402.854	93.94
403.078	102.94
403.302	83.94
403.526	89.94
403.75	85.94
403.974	91.94
404.198	89.94
404.422	82.94
404.645	88.94
404.869	89.94
405.093	93.94
405.317	97.94
405.541	96.94
405.765	89.94
405.988	101.94
406.212	170.94
406.436	237.94
406.66	162.94
406.883	102.94
407.107	83.94
407.331	93.94
407.555	87.94
407.778	88.94
408.002	91.94
408.226	98.94
408.449	90.94
408.673	87.94
408.896	83.94
409.12	93.94
409.344	88.94
409.567	76.94
409.791	91.94
410.014	92.94
410.238	93.94
410.461	91.94
410.685	94.94
410.908	94.94
411.132	104.94
411.355	102.94
411.578	95.94
411.802	83.94
412.025	88.94
412.249	83.94
412.472	80.94
412.695	92.94
412.919	87.94
413.142	88.94
413.365	93.94
413.589	89.94
413.812	69.94
414.035	93.94
414.258	76.94
414.482	87.94
414.705	90.94
414.928	100.94
415.151	87.94
415.374	97.94
415.597	87.94
415.821	93.94
416.044	94.94
416.267	84.94
416.49	70.94
416.713	107.94
416.936	99.94
417.159	77.94
417.382	75.94
417.605	84.94
417.828	82.94
418.051	91.94
418.274	88.94
418.497	92.94
418.72	89.94
418.943	79.94
419.166	84.94
419.389	92.94
419.611	82.94
419.834	86.94
420.057	79.94
420.28	99.94
420.503	84.94
420.726	77.94
420.948	101.94
421.171	98.94
421.394	86.94
421.617	87.94
421.839	84.94
422.062	89.94
422.285	87.94
422.507	97.94
422.73	98.94
422.953	95.94
423.175	85.94
423.398	63.94
423.621	91.94
423.843	79.94
424.066	77.94
424.288	85.94
424.511	93.94
424.733	95.94
424.956	95.94
425.178	96.94
425.401	86.94
425.623	93.94
425.846	110.94
426.068	84.94
426.291	89.94
426.513	89.94
426.735	84.94
426.958	92.94
427.18	102.94
427.402	132.94
427.625	161.94
427.847	136.94
428.069	99.94
428.292	87.94
428.514	79.94
428.736	81.94
428.958	90.94
429.181	82.94
429.403	79.94
429.625	96.94
429.847	100.94
430.069	108.94
430.292	99.94
430.514	86.94
430.736	98.94
430.958	84.94
431.18	93.94
431.402	96.94
431.624	103.94
431.846	93.94
432.068	81.94
432.29	92.94
432.512	98.94
432.734	88.94
432.956	96.94
433.178	111.94
433.4	86.94
433.622	95.94
433.844	86.94
434.066	88.94
434.287	73.94
434.509	95.94
434.731	88.94
434.953	76.94
435.175	89.94
435.397	93.94
435.618	100.94
435.84	91.94
436.062	123.94
436.284	113.94
436.505	100.94
436.727	100.94
436.949	92.94
437.17	89.94
437.392	84.94
437.614	85.94
437.835	98.94
438.057	108.94
438.278	100.94
438.5	110.94
438.721	110.94
438.943	97.94
439.165	93.94
439.386	78.94
439.608	90.94
439.829	95.94
440.05	119.94
440.272	122.94
440.493	93.94
440.715	86.94
440.936	100.94
441.158	75.94
441.379	90.94
441.6	82.94
441.822	94.94
442.043	90.94
442.264	101.94
442.486	101.94
442.707	96.94
442.928	97.94
443.149	118.94
443.371	135.94
443.592	96.94
443.813	113.94
444.034	110.94
444.255	88.94
444.476	93.94
444.698	94.94
444.919	76.94
445.14	135.94
445.361	133.94
445.582	126.94
445.803	131.94
446.024	127.94
446.245	134.94
446.466	109.94
446.687	81.94
446.908	77.94
447.129	109.94
447.35	94.94
447.571	89.94
447.792	84.94
448.013	88.94
448.234	105.94
448.455	104.94
448.675	113.94
448.896	114.94
449.117	89.94
449.338	100.94
449.559	124.94
449.779	134.94
450	103.94
450.221	79.94
450.442	80.94
450.662	77.94
450.883	99.94
451.104	114.94
451.324	94.94
451.545	85.94
451.766	85.94
451.986	83.94
452.207	85.94
452.428	86.94
452.648	97.94
452.869	101.94
453.089	116.94
453.31	91.94
453.53	101.94
453.751	89.94
453.971	96.94
454.192	107.94
454.412	86.94
454.633	84.94
454.853	87.94
455.073	84.94
455.294	87.94
455.514	101.94
455.734	80.94
455.955	93.94
456.175	89.94
456.395	71.94
456.616	84.94
456.836	70.94
457.056	72.94
457.276	95.94
457.497	96.94
457.717	82.94
457.937	88.94
458.157	79.94
458.377	102.94
458.598	104.94
458.818	126.94
459.038	155.94
459.258	114.94
459.478	105.94
459.698	86.94
459.918	81.94
460.138	89.94
460.358	82.94
460.578	94.94
460.798	101.94
461.018	99.94
461.238	94.94
461.458	89.94
461.678	92.94
461.898	86.94
462.118	89.94
462.338	94.94
462.558	92.94
462.777	76.94
462.997	95.94
463.217	94.94
463.437	97.94
463.657	87.94
463.876	78.94
464.096	89.94
464.316	89.94
464.536	94.94
464.755	98.94
464.975	100.94
465.195	150.94
465.414	158.94
465.634	97.94
465.854	97.94
466.073	101.94
466.293	92.94
466.512	93.94
466.732	88.94
466.951	86.94
467.171	89.94
467.391	97.94
467.61	104.94
467.829	99.94
468.049	97.94
468.268	87.94
468.488	84.94
468.707	67.94
468.927	77.94
469.146	89.94
469.365	71.94
469.585	94.94
469.804	93.94
470.023	93.94
470.243	101.94
470.462	106.94
470.681	96.94
470.901	80.94
471.12	93.94
471.339	84.94
471.558	80.94
471.777	77.94
471.997	94.94
472.216	80.94
472.435	101.94
472.654	83.94
472.873	92.94
473.092	94.94
473.311	101.94
473.53	98.94
473.749	75.94
473.968	105.94
474.187	124.94
474.406	88.94
474.625	104.94
474.844	83.94
475.063	83.94
475.282	81.94
475.501	90.94
475.72	97.94
475.939	95.94
476.158	93.94
476.377	95.94
476.596	85.94
476.814	87.94
477.033	94.94
477.252	103.94
477.471	83.94
477.69	83.94
477.908	100.94
478.127	87.94
478.346	111.94
478.564	91.94
478.783	87.94
479.002	89.94
479.22	92.94
479.439	95.94
479.658	101.94
479.876	87.94
480.095	84.94
480.313	89.94
480.532	98.94
480.751	89.94
480.969	92.94
481.188	117.94
481.406	110.94
481.624	79.94
481.843	90.94
482.061	94.94
482.28	92.94
482.498	81.94
482.717	87.94
482.935	86.94
483.153	83.94
483.372	87.94
483.59	89.94
483.808	90.94
484.027	96.94
484.245	88.94
484.463	92.94
484.681	96.94
484.9	95.94
485.118	95.94
485.336	85.94
485.554	84.94
485.772	110.94
485.99	102.94
486.209	96.94
486.427	104.94
486.645	104.94
486.863	115.94
487.081	83.94
487.299	97.94
487.517	92.94
487.735	96.94
487.953	79.94
488.171	79.94
488.389	91.94
488.607	87.94
488.825	93.94
489.043	89.94
489.261	82.94
489.479	87.94
489.696	99.94
489.914	95.94
490.132	88.94
490.35	88.94
490.568	108.94
490.786	77.94
491.003	93.94
491.221	92.94
491.439	94.94
491.657	97.94
491.874	95.94
492.092	89.94
492.31	97.94
492.527	76.94
492.745	95.94
492.963	92.94
493.18	93.94
493.398	97.94
493.615	101.94
493.833	101.94
494.05	80.94
494.268	88.94
494.485	89.94
494.703	82.94
494.92	67.94
495.138	90.94
495.355	96.94
495.573	84.94
495.79	104.94
496.008	82.94
496.225	92.94
496.442	102.94
496.66	87.94
496.877	97.94
497.094	87.94
497.312	97.94
497.529	87.94
497.746	97.94
497.963	98.94
498.181	106.94
498.398	100.94
498.615	107.94
498.832	108.94
499.049	87.94
499.267	88.94
499.484	70.94
499.701	93.94
499.918	92.94
500.135	87.94
500.352	85.94
500.569	97.94
500.786	94.94
501.003	88.94
501.22	88.94
501.437	95.94
501.654	101.94
501.871	106.94
502.088	93.94
502.305	89.94
502.522	96.94
502.739	91.94
502.956	81.94
503.172	101.94
503.389	95.94
503.606	93.94
503.823	111.94
504.04	104.94
504.256	95.94
504.473	95.94
504.69	94.94
504.907	92.94
505.123	78.94
505.34	84.94
505.557	97.94
505.773	86.94
505.99	88.94
506.207	80.94
506.423	84.94
506.64	96.94
506.856	87.94
507.073	80.94
507.289	93.94
507.506	97.94
507.722	111.94
507.939	110.94
508.155	88.94
508.372	94.94
508.588	89.94
508.805	99.94
509.021	97.94
509.238	101.94
509.454	91.94
509.67	95.94
509.887	90.94
510.103	139.94
510.319	219.94
510.536	800.94
510.752	2576.94
510.968	709.94
511.184	145.94
511.401	115.94
511.617	84.94
511.833	87.94
512.049	98.94
512.265	93.94
512.481	89.94
512.698	81.94
512.914	86.94
513.13	103.94
513.346	97.94
513.562	104.94
513.778	92.94
513.994	92.94
514.21	92.94
514.426	113.94
514.642	104.94
514.858	128.94
515.074	166.94
515.29	447.94
515.506	1535.94
515.721	556.94
515.937	145.94
516.153	114.94
