Data from Uncirc_2003_H10_HRD10591_00083.txt Node
Date: Wed Jan 03 10:36:04 EST 2024
User: Yrep
Spectrometer: HR+D1059
Trigger mode: 1
Integration Time (sec): 1.000000E-1
Scans to average: 1
Electric dark correction enabled: true
Nonlinearity correction enabled: false
Boxcar width: 0
XAxis mode: Wavelengths
Number of Pixels in Spectrum: 2048
>>>>>Begin Spectral Data<<<<<
223.165	-27.62
223.4	-27.62
223.635	-27.62
223.869	-21.62
224.104	-25.62
224.338	-11.62
224.573	-23.62
224.808	-5.62
225.042	-14.62
225.277	-8.62
225.511	-0.62
225.746	-0.62
225.98	2.38
226.215	21.38
226.449	33.38
226.683	31.38
226.918	20.38
227.152	31.38
227.387	41.38
227.621	43.38
227.856	53.38
228.09	41.38
228.324	56.38
228.559	48.38
228.793	57.38
229.027	63.38
229.262	71.38
229.496	78.38
229.73	84.38
229.964	91.38
230.199	65.38
230.433	69.38
230.667	75.38
230.901	80.38
231.136	80.38
231.37	86.38
231.604	85.38
231.838	89.38
232.072	79.38
232.306	83.38
232.541	76.38
232.775	89.38
233.009	91.38
233.243	80.38
233.477	97.38
233.711	68.38
233.945	76.38
234.179	82.38
234.413	67.38
234.647	93.38
234.881	83.38
235.115	84.38
235.349	80.38
235.583	88.38
235.817	75.38
236.051	81.38
236.285	77.38
236.519	82.38
236.753	81.38
236.987	90.38
237.221	82.38
237.455	89.38
237.689	77.38
237.922	75.38
238.156	83.38
238.39	75.38
238.624	74.38
238.858	80.38
239.091	84.38
239.325	81.38
239.559	90.38
239.793	79.38
240.027	80.38
240.26	79.38
240.494	62.38
240.728	76.38
240.961	73.38
241.195	85.38
241.429	80.38
241.662	75.38
241.896	78.38
242.13	81.38
242.363	72.38
242.597	79.38
242.83	79.38
243.064	74.38
243.298	80.38
243.531	88.38
243.765	89.38
243.998	68.38
244.232	81.38
244.465	67.38
244.699	79.38
244.932	81.38
245.166	79.38
245.399	91.38
245.633	85.38
245.866	78.38
246.099	70.38
246.333	74.38
246.566	79.38
246.8	77.38
247.033	72.38
247.266	86.38
247.5	69.38
247.733	83.38
247.966	78.38
248.2	69.38
248.433	75.38
248.666	75.38
248.899	71.38
249.133	85.38
249.366	88.38
249.599	88.38
249.832	83.38
250.066	67.38
250.299	80.38
250.532	75.38
250.765	67.38
250.998	85.38
251.231	72.38
251.465	79.38
251.698	86.38
251.931	79.38
252.164	69.38
252.397	78.38
252.63	81.38
252.863	77.38
253.096	72.38
253.329	92.38
253.562	90.38
253.795	91.38
254.028	93.38
254.261	79.38
254.494	69.38
254.727	86.38
254.96	68.38
255.193	79.38
255.426	76.38
255.659	86.38
255.892	89.38
256.124	75.38
256.357	69.38
256.59	81.38
256.823	92.38
257.056	90.38
257.289	83.38
257.521	89.38
257.754	73.38
257.987	87.38
258.22	99.38
258.452	87.38
258.685	78.38
258.918	65.38
259.151	73.38
259.383	72.38
259.616	78.38
259.849	84.38
260.081	89.38
260.314	77.38
260.547	82.38
260.779	86.38
261.012	85.38
261.244	83.38
261.477	88.38
261.71	82.38
261.942	104.38
262.175	109.38
262.407	82.38
262.64	75.38
262.872	81.38
263.105	71.38
263.337	87.38
263.57	88.38
263.802	92.38
264.035	89.38
264.267	85.38
264.499	79.38
264.732	81.38
264.964	84.38
265.197	73.38
265.429	71.38
265.661	86.38
265.894	77.38
266.126	84.38
266.358	79.38
266.591	89.38
266.823	76.38
267.055	71.38
267.287	87.38
267.52	97.38
267.752	76.38
267.984	83.38
268.216	82.38
268.448	80.38
268.681	87.38
268.913	81.38
269.145	90.38
269.377	90.38
269.609	84.38
269.841	89.38
270.073	73.38
270.306	92.38
270.538	95.38
270.77	85.38
271.002	89.38
271.234	79.38
271.466	89.38
271.698	82.38
271.93	78.38
272.162	91.38
272.394	86.38
272.626	86.38
272.858	81.38
273.09	87.38
273.322	88.38
273.553	91.38
273.785	82.38
274.017	89.38
274.249	76.38
274.481	71.38
274.713	88.38
274.945	90.38
275.176	85.38
275.408	89.38
275.64	85.38
275.872	67.38
276.104	82.38
276.335	95.38
276.567	97.38
276.799	100.38
277.031	91.38
277.262	88.38
277.494	94.38
277.726	87.38
277.957	78.38
278.189	89.38
278.421	82.38
278.652	64.38
278.884	75.38
279.115	86.38
279.347	86.38
279.579	83.38
279.81	88.38
280.042	81.38
280.273	87.38
280.505	85.38
280.736	90.38
280.968	91.38
281.199	103.38
281.431	79.38
281.662	73.38
281.894	90.38
282.125	93.38
282.356	117.38
282.588	129.38
282.819	110.38
283.051	89.38
283.282	84.38
283.513	97.38
283.745	95.38
283.976	91.38
284.207	84.38
284.439	90.38
284.67	80.38
284.901	88.38
285.132	86.38
285.364	91.38
285.595	88.38
285.826	82.38
286.057	84.38
286.288	95.38
286.52	93.38
286.751	87.38
286.982	86.38
287.213	85.38
287.444	91.38
287.675	89.38
287.906	93.38
288.138	89.38
288.369	79.38
288.6	99.38
288.831	78.38
289.062	91.38
289.293	105.38
289.524	92.38
289.755	91.38
289.986	88.38
290.217	84.38
290.448	88.38
290.679	80.38
290.91	86.38
291.141	70.38
291.371	94.38
291.602	84.38
291.833	78.38
292.064	90.38
292.295	94.38
292.526	75.38
292.757	72.38
292.987	95.38
293.218	94.38
293.449	73.38
293.68	88.38
293.91	101.38
294.141	95.38
294.372	102.38
294.603	89.38
294.833	96.38
295.064	88.38
295.295	85.38
295.525	91.38
295.756	102.38
295.987	100.38
296.217	135.38
296.448	114.38
296.679	98.38
296.909	88.38
297.14	89.38
297.37	79.38
297.601	98.38
297.831	100.38
298.062	95.38
298.292	84.38
298.523	107.38
298.753	83.38
298.984	86.38
299.214	103.38
299.445	99.38
299.675	93.38
299.905	93.38
300.136	91.38
300.366	87.38
300.597	97.38
300.827	98.38
301.057	106.38
301.288	126.38
301.518	98.38
301.748	95.38
301.979	90.38
302.209	95.38
302.439	82.38
302.669	82.38
302.9	87.38
303.13	99.38
303.36	97.38
303.59	102.38
303.82	107.38
304.051	99.38
304.281	85.38
304.511	103.38
304.741	101.38
304.971	90.38
305.201	94.38
305.431	85.38
305.661	85.38
305.891	95.38
306.121	92.38
306.352	98.38
306.582	101.38
306.812	85.38
307.042	86.38
307.272	89.38
307.502	110.38
307.731	89.38
307.961	92.38
308.191	90.38
308.421	101.38
308.651	96.38
308.881	86.38
309.111	94.38
309.341	82.38
309.571	106.38
309.8	77.38
310.03	103.38
310.26	99.38
310.49	100.38
310.72	97.38
310.949	94.38
311.179	100.38
311.409	108.38
311.639	91.38
311.868	96.38
312.098	99.38
312.328	99.38
312.557	92.38
312.787	119.38
313.017	111.38
313.246	91.38
313.476	89.38
313.706	94.38
313.935	95.38
314.165	95.38
314.394	106.38
314.624	105.38
314.853	87.38
315.083	90.38
315.312	86.38
315.542	95.38
315.771	94.38
316.001	98.38
316.23	101.38
316.46	100.38
316.689	96.38
316.919	97.38
317.148	95.38
317.377	90.38
317.607	94.38
317.836	85.38
318.065	88.38
318.295	93.38
318.524	98.38
318.753	84.38
318.983	106.38
319.212	101.38
319.441	114.38
319.67	119.38
319.9	106.38
320.129	94.38
320.358	97.38
320.587	105.38
320.816	98.38
321.046	99.38
321.275	112.38
321.504	101.38
321.733	102.38
321.962	105.38
322.191	89.38
322.42	98.38
322.649	112.38
322.878	116.38
323.108	106.38
323.337	135.38
323.566	143.38
323.795	146.38
324.024	213.38
324.253	410.38
324.482	895.38
324.71	1850.38
324.939	2427.38
325.168	868.38
325.397	269.38
325.626	137.38
325.855	127.38
326.084	147.38
326.313	119.38
326.542	145.38
326.77	233.38
326.999	487.38
327.228	1021.38
327.457	1840.38
327.686	1461.38
327.914	376.38
328.143	183.38
328.372	150.38
328.6	138.38
328.829	110.38
329.058	127.38
329.287	126.38
329.515	96.38
329.744	108.38
329.972	90.38
330.201	86.38
330.43	117.38
330.658	119.38
330.887	139.38
331.115	116.38
331.344	104.38
331.572	106.38
331.801	96.38
332.03	102.38
332.258	97.38
332.486	96.38
332.715	96.38
332.943	90.38
333.172	98.38
333.4	97.38
333.629	98.38
333.857	116.38
334.085	108.38
334.314	89.38
334.542	117.38
334.771	108.38
334.999	97.38
335.227	106.38
335.455	90.38
335.684	95.38
335.912	110.38
336.14	92.38
336.369	91.38
336.597	98.38
336.825	98.38
337.053	91.38
337.281	97.38
337.51	100.38
337.738	86.38
337.966	99.38
338.194	105.38
338.422	97.38
338.65	103.38
338.878	93.38
339.106	82.38
339.334	95.38
339.562	93.38
339.79	90.38
340.018	88.38
340.246	100.38
340.474	103.38
340.702	88.38
340.93	90.38
341.158	95.38
341.386	102.38
341.614	95.38
341.842	101.38
342.07	100.38
342.298	91.38
342.526	96.38
342.754	92.38
342.981	98.38
343.209	85.38
343.437	98.38
343.665	90.38
343.893	73.38
344.12	93.38
344.348	95.38
344.576	86.38
344.804	89.38
345.031	90.38
345.259	97.38
345.487	84.38
345.714	89.38
345.942	99.38
346.17	86.38
346.397	88.38
346.625	96.38
346.853	88.38
347.08	86.38
347.308	98.38
347.535	95.38
347.763	88.38
347.99	83.38
348.218	95.38
348.445	109.38
348.673	82.38
348.9	98.38
349.128	95.38
349.355	79.38
349.583	87.38
349.81	97.38
350.037	85.38
350.265	86.38
350.492	93.38
350.72	96.38
350.947	100.38
351.174	95.38
351.402	107.38
351.629	129.38
351.856	104.38
352.083	95.38
352.311	103.38
352.538	110.38
352.765	118.38
352.992	129.38
353.22	130.38
353.447	98.38
353.674	101.38
353.901	90.38
354.128	107.38
354.355	106.38
354.583	109.38
354.81	105.38
355.037	104.38
355.264	103.38
355.491	110.38
355.718	89.38
355.945	94.38
356.172	71.38
356.399	88.38
356.626	93.38
356.853	99.38
357.08	89.38
357.307	86.38
357.534	87.38
357.761	69.38
357.988	94.38
358.215	104.38
358.441	95.38
358.668	99.38
358.895	97.38
359.122	88.38
359.349	86.38
359.576	105.38
359.802	99.38
360.029	113.38
360.256	113.38
360.483	90.38
360.709	94.38
360.936	82.38
361.163	110.38
361.39	96.38
361.616	111.38
361.843	94.38
362.07	89.38
362.296	100.38
362.523	99.38
362.749	88.38
362.976	99.38
363.203	91.38
363.429	95.38
363.656	91.38
363.882	81.38
364.109	87.38
364.335	77.38
364.562	82.38
364.788	88.38
365.015	95.38
365.241	97.38
365.468	105.38
365.694	101.38
365.92	95.38
366.147	87.38
366.373	77.38
366.599	95.38
366.826	93.38
367.052	76.38
367.278	90.38
367.505	94.38
367.731	99.38
367.957	88.38
368.184	94.38
368.41	83.38
368.636	119.38
368.862	118.38
369.089	106.38
369.315	92.38
369.541	93.38
369.767	98.38
369.993	89.38
370.219	88.38
370.445	90.38
370.672	89.38
370.898	86.38
371.124	86.38
371.35	82.38
371.576	96.38
371.802	76.38
372.028	90.38
372.254	84.38
372.48	77.38
372.706	92.38
372.932	91.38
373.158	106.38
373.384	89.38
373.61	94.38
373.835	86.38
374.061	90.38
374.287	91.38
374.513	96.38
374.739	86.38
374.965	72.38
375.191	82.38
375.416	85.38
375.642	82.38
375.868	86.38
376.094	90.38
376.319	80.38
376.545	93.38
376.771	88.38
376.997	87.38
377.222	95.38
377.448	88.38
377.674	90.38
377.899	74.38
378.125	87.38
378.35	86.38
378.576	85.38
378.802	94.38
379.027	95.38
379.253	88.38
379.478	71.38
379.704	89.38
379.929	100.38
380.155	96.38
380.38	98.38
380.606	87.38
380.831	103.38
381.057	92.38
381.282	94.38
381.507	105.38
381.733	105.38
381.958	92.38
382.184	105.38
382.409	102.38
382.634	106.38
382.86	110.38
383.085	109.38
383.31	116.38
383.535	105.38
383.761	110.38
383.986	100.38
384.211	98.38
384.436	95.38
384.662	101.38
384.887	97.38
385.112	88.38
385.337	100.38
385.562	104.38
385.787	103.38
386.013	115.38
386.238	106.38
386.463	94.38
386.688	103.38
386.913	100.38
387.138	95.38
387.363	96.38
387.588	81.38
387.813	108.38
388.038	98.38
388.263	118.38
388.488	103.38
388.713	109.38
388.938	93.38
389.163	103.38
389.387	89.38
389.612	91.38
389.837	101.38
390.062	90.38
390.287	86.38
390.512	97.38
390.736	94.38
390.961	95.38
391.186	92.38
391.411	97.38
391.636	92.38
391.86	80.38
392.085	94.38
392.31	82.38
392.534	94.38
392.759	93.38
392.984	91.38
393.208	88.38
393.433	89.38
393.658	79.38
393.882	88.38
394.107	89.38
394.331	92.38
394.556	86.38
394.78	97.38
395.005	93.38
395.229	82.38
395.454	93.38
395.678	94.38
395.903	80.38
396.127	87.38
396.352	110.38
396.576	99.38
396.801	87.38
397.025	78.38
397.249	73.38
397.474	85.38
397.698	83.38
397.922	86.38
398.147	81.38
398.371	82.38
398.595	85.38
398.82	84.38
399.044	90.38
399.268	93.38
399.492	95.38
399.717	84.38
399.941	87.38
400.165	94.38
400.389	83.38
400.613	92.38
400.837	92.38
401.062	84.38
401.286	79.38
401.51	77.38
401.734	86.38
401.958	84.38
402.182	128.38
402.406	151.38
402.63	110.38
402.854	105.38
403.078	87.38
403.302	79.38
403.526	88.38
403.75	77.38
403.974	88.38
404.198	86.38
404.422	95.38
404.645	96.38
404.869	77.38
405.093	89.38
405.317	91.38
405.541	88.38
405.765	111.38
405.988	111.38
406.212	165.38
406.436	228.38
406.66	148.38
406.883	94.38
407.107	85.38
407.331	80.38
407.555	93.38
407.778	98.38
408.002	94.38
408.226	91.38
408.449	86.38
408.673	101.38
408.896	80.38
409.12	83.38
409.344	81.38
409.567	93.38
409.791	90.38
410.014	105.38
410.238	103.38
410.461	85.38
410.685	97.38
410.908	101.38
411.132	102.38
411.355	113.38
411.578	75.38
411.802	90.38
412.025	86.38
412.249	91.38
412.472	78.38
412.695	93.38
412.919	78.38
413.142	70.38
413.365	87.38
413.589	87.38
413.812	77.38
414.035	88.38
414.258	80.38
414.482	85.38
414.705	95.38
414.928	100.38
415.151	90.38
415.374	84.38
415.597	99.38
415.821	105.38
416.044	90.38
416.267	79.38
416.49	86.38
416.713	86.38
416.936	101.38
417.159	91.38
417.382	90.38
417.605	84.38
417.828	95.38
418.051	89.38
418.274	104.38
418.497	80.38
418.72	84.38
418.943	99.38
419.166	85.38
419.389	101.38
419.611	90.38
419.834	78.38
420.057	83.38
420.28	83.38
420.503	87.38
420.726	85.38
420.948	83.38
421.171	85.38
421.394	87.38
421.617	85.38
421.839	82.38
422.062	92.38
422.285	76.38
422.507	81.38
422.73	96.38
422.953	88.38
423.175	90.38
423.398	85.38
423.621	110.38
423.843	90.38
424.066	83.38
424.288	73.38
424.511	90.38
424.733	98.38
424.956	90.38
425.178	91.38
425.401	104.38
425.623	98.38
425.846	79.38
426.068	83.38
426.291	94.38
426.513	90.38
426.735	79.38
426.958	75.38
427.18	113.38
427.402	134.38
427.625	159.38
427.847	133.38
428.069	91.38
428.292	91.38
428.514	90.38
428.736	82.38
428.958	84.38
429.181	89.38
429.403	89.38
429.625	79.38
429.847	80.38
430.069	99.38
430.292	91.38
430.514	85.38
430.736	86.38
430.958	91.38
431.18	82.38
431.402	82.38
431.624	82.38
431.846	77.38
432.068	81.38
432.29	87.38
432.512	71.38
432.734	89.38
432.956	101.38
433.178	100.38
433.4	105.38
433.622	81.38
433.844	91.38
434.066	95.38
434.287	63.38
434.509	98.38
434.731	99.38
434.953	104.38
435.175	81.38
435.397	85.38
435.618	94.38
435.84	97.38
436.062	129.38
436.284	104.38
436.505	112.38
436.727	103.38
436.949	97.38
437.17	93.38
437.392	98.38
437.614	98.38
437.835	106.38
438.057	104.38
438.278	111.38
438.5	102.38
438.721	117.38
438.943	117.38
439.165	97.38
439.386	84.38
439.608	82.38
439.829	98.38
440.05	113.38
440.272	130.38
440.493	101.38
440.715	85.38
440.936	81.38
441.158	88.38
441.379	96.38
441.6	84.38
441.822	95.38
442.043	89.38
442.264	114.38
442.486	98.38
442.707	87.38
442.928	94.38
443.149	137.38
443.371	117.38
443.592	112.38
443.813	110.38
444.034	112.38
444.255	92.38
444.476	89.38
444.698	85.38
444.919	86.38
445.14	125.38
445.361	113.38
445.582	114.38
445.803	128.38
446.024	127.38
446.245	141.38
446.466	116.38
446.687	94.38
446.908	91.38
447.129	95.38
447.35	88.38
447.571	94.38
447.792	106.38
448.013	104.38
448.234	118.38
448.455	92.38
448.675	97.38
448.896	110.38
449.117	98.38
449.338	104.38
449.559	139.38
449.779	137.38
450	106.38
450.221	91.38
450.442	79.38
450.662	101.38
450.883	95.38
451.104	106.38
451.324	102.38
451.545	89.38
451.766	79.38
451.986	81.38
452.207	90.38
452.428	94.38
452.648	93.38
452.869	104.38
453.089	112.38
453.31	110.38
453.53	81.38
453.751	102.38
453.971	101.38
454.192	110.38
454.412	89.38
454.633	93.38
454.853	88.38
455.073	85.38
455.294	84.38
455.514	95.38
455.734	92.38
455.955	97.38
456.175	80.38
456.395	89.38
456.616	86.38
456.836	77.38
457.056	86.38
457.276	82.38
457.497	88.38
457.717	85.38
457.937	82.38
458.157	87.38
458.377	85.38
458.598	108.38
458.818	143.38
459.038	154.38
459.258	118.38
459.478	91.38
459.698	90.38
459.918	96.38
460.138	80.38
460.358	84.38
460.578	86.38
460.798	92.38
461.018	81.38
461.238	89.38
461.458	83.38
461.678	80.38
461.898	80.38
462.118	105.38
462.338	78.38
462.558	87.38
462.777	85.38
462.997	89.38
463.217	75.38
463.437	82.38
463.657	77.38
463.876	84.38
464.096	84.38
464.316	89.38
464.536	84.38
464.755	86.38
464.975	120.38
465.195	158.38
465.414	143.38
465.634	98.38
465.854	100.38
466.073	89.38
466.293	97.38
466.512	84.38
466.732	91.38
466.951	94.38
467.171	87.38
467.391	95.38
467.61	111.38
467.829	94.38
468.049	93.38
468.268	96.38
468.488	78.38
468.707	109.38
468.927	82.38
469.146	88.38
469.365	91.38
469.585	99.38
469.804	88.38
470.023	96.38
470.243	91.38
470.462	82.38
470.681	101.38
470.901	87.38
471.12	79.38
471.339	92.38
471.558	98.38
471.777	80.38
471.997	75.38
472.216	90.38
472.435	88.38
472.654	82.38
472.873	82.38
473.092	77.38
473.311	89.38
473.53	85.38
473.749	84.38
473.968	86.38
474.187	98.38
474.406	90.38
474.625	93.38
474.844	79.38
475.063	100.38
475.282	95.38
475.501	81.38
475.72	80.38
475.939	87.38
476.158	84.38
476.377	86.38
476.596	83.38
476.814	88.38
477.033	94.38
477.252	77.38
477.471	93.38
477.69	72.38
477.908	99.38
478.127	103.38
478.346	89.38
478.564	94.38
478.783	104.38
479.002	94.38
479.22	97.38
479.439	91.38
479.658	98.38
479.876	83.38
480.095	77.38
480.313	88.38
480.532	97.38
480.751	91.38
480.969	89.38
481.188	116.38
481.406	108.38
481.624	104.38
481.843	91.38
482.061	99.38
482.28	93.38
482.498	74.38
482.717	86.38
482.935	98.38
483.153	91.38
483.372	90.38
483.59	88.38
483.808	87.38
484.027	89.38
484.245	85.38
484.463	83.38
484.681	104.38
484.9	91.38
485.118	101.38
485.336	80.38
485.554	104.38
485.772	96.38
485.99	96.38
486.209	99.38
486.427	87.38
486.645	112.38
486.863	107.38
487.081	110.38
487.299	83.38
487.517	103.38
487.735	99.38
487.953	84.38
488.171	97.38
488.389	88.38
488.607	110.38
488.825	102.38
489.043	87.38
489.261	74.38
489.479	87.38
489.696	99.38
489.914	92.38
490.132	77.38
490.35	97.38
490.568	90.38
490.786	88.38
491.003	87.38
491.221	87.38
491.439	95.38
491.657	86.38
491.874	92.38
492.092	95.38
492.31	95.38
492.527	102.38
492.745	82.38
492.963	78.38
493.18	80.38
493.398	102.38
493.615	97.38
493.833	86.38
494.05	84.38
494.268	98.38
494.485	79.38
494.703	90.38
494.92	88.38
495.138	99.38
495.355	97.38
495.573	91.38
495.79	88.38
496.008	87.38
496.225	107.38
496.442	73.38
496.66	86.38
496.877	95.38
497.094	95.38
497.312	99.38
497.529	95.38
497.746	79.38
497.963	90.38
498.181	99.38
498.398	84.38
498.615	99.38
498.832	101.38
499.049	87.38
499.267	86.38
499.484	86.38
499.701	76.38
499.918	83.38
500.135	104.38
500.352	93.38
500.569	68.38
500.786	95.38
501.003	88.38
501.22	103.38
501.437	88.38
501.654	99.38
501.871	101.38
502.088	91.38
502.305	91.38
502.522	79.38
502.739	97.38
502.956	82.38
503.172	95.38
503.389	94.38
503.606	103.38
503.823	94.38
504.04	100.38
504.256	95.38
504.473	91.38
504.69	86.38
504.907	86.38
505.123	87.38
505.34	68.38
505.557	91.38
505.773	110.38
505.99	93.38
506.207	80.38
506.423	84.38
506.64	96.38
506.856	82.38
507.073	89.38
507.289	95.38
507.506	100.38
507.722	85.38
507.939	92.38
508.155	105.38
508.372	99.38
508.588	96.38
508.805	106.38
509.021	89.38
509.238	85.38
509.454	106.38
509.67	113.38
509.887	106.38
510.103	145.38
510.319	232.38
510.536	819.38
510.752	2669.38
510.968	723.38
511.184	161.38
511.401	107.38
511.617	107.38
511.833	85.38
512.049	91.38
512.265	79.38
512.481	93.38
512.698	98.38
512.914	86.38
513.13	97.38
513.346	87.38
513.562	97.38
513.778	115.38
513.994	94.38
514.21	114.38
514.426	121.38
514.642	135.38
514.858	120.38
515.074	172.38
515.29	467.38
515.506	1549.38
515.721	553.38
515.937	153.38
