Data from Uncirc_2003_H10_HRD10591_00044.txt Node
Date: Wed Jan 03 10:35:56 EST 2024
User: Yrep
Spectrometer: HR+D1059
Trigger mode: 1
Integration Time (sec): 1.000000E-1
Scans to average: 1
Electric dark correction enabled: true
Nonlinearity correction enabled: false
Boxcar width: 0
XAxis mode: Wavelengths
Number of Pixels in Spectrum: 2048
>>>>>Begin Spectral Data<<<<<
223.165	-16.5
223.4	-16.5
223.635	-16.5
223.869	-11.5
224.104	-26.5
224.338	-17.5
224.573	-16.5
224.808	-30.5
225.042	-7.5
225.277	-8.5
225.511	-5.5
225.746	0.5
225.98	2.5
226.215	24.5
226.449	13.5
226.683	24.5
226.918	32.5
227.152	42.5
227.387	35.5
227.621	24.5
227.856	40.5
228.09	42.5
228.324	33.5
228.559	47.5
228.793	49.5
229.027	58.5
229.262	61.5
229.496	69.5
229.73	95.5
229.964	89.5
230.199	82.5
230.433	76.5
230.667	79.5
230.901	81.5
231.136	81.5
231.37	80.5
231.604	79.5
231.838	78.5
232.072	73.5
232.306	90.5
232.541	91.5
232.775	82.5
233.009	82.5
233.243	74.5
233.477	71.5
233.711	94.5
233.945	80.5
234.179	64.5
234.413	91.5
234.647	93.5
234.881	72.5
235.115	69.5
235.349	83.5
235.583	77.5
235.817	84.5
236.051	69.5
236.285	78.5
236.519	73.5
236.753	80.5
236.987	83.5
237.221	91.5
237.455	94.5
237.689	77.5
237.922	79.5
238.156	80.5
238.39	82.5
238.624	79.5
238.858	84.5
239.091	71.5
239.325	72.5
239.559	75.5
239.793	86.5
240.027	81.5
240.26	73.5
240.494	70.5
240.728	81.5
240.961	86.5
241.195	82.5
241.429	68.5
241.662	77.5
241.896	73.5
242.13	73.5
242.363	71.5
242.597	84.5
242.83	77.5
243.064	73.5
243.298	73.5
243.531	63.5
243.765	73.5
243.998	72.5
244.232	93.5
244.465	94.5
244.699	70.5
244.932	81.5
245.166	81.5
245.399	76.5
245.633	79.5
245.866	71.5
246.099	73.5
246.333	72.5
246.566	83.5
246.8	68.5
247.033	84.5
247.266	84.5
247.5	85.5
247.733	69.5
247.966	80.5
248.2	77.5
248.433	80.5
248.666	78.5
248.899	80.5
249.133	83.5
249.366	87.5
249.599	110.5
249.832	85.5
250.066	78.5
250.299	69.5
250.532	78.5
250.765	97.5
250.998	85.5
251.231	92.5
251.465	80.5
251.698	88.5
251.931	64.5
252.164	86.5
252.397	73.5
252.63	84.5
252.863	82.5
253.096	69.5
253.329	70.5
253.562	75.5
253.795	96.5
254.028	88.5
254.261	75.5
254.494	82.5
254.727	81.5
254.96	78.5
255.193	75.5
255.426	84.5
255.659	88.5
255.892	91.5
256.124	82.5
256.357	75.5
256.59	79.5
256.823	86.5
257.056	94.5
257.289	78.5
257.521	78.5
257.754	80.5
257.987	71.5
258.22	80.5
258.452	83.5
258.685	80.5
258.918	92.5
259.151	85.5
259.383	82.5
259.616	85.5
259.849	73.5
260.081	91.5
260.314	89.5
260.547	88.5
260.779	79.5
261.012	95.5
261.244	94.5
261.477	86.5
261.71	97.5
261.942	107.5
262.175	111.5
262.407	94.5
262.64	75.5
262.872	88.5
263.105	88.5
263.337	81.5
263.57	81.5
263.802	89.5
264.035	83.5
264.267	73.5
264.499	80.5
264.732	85.5
264.964	88.5
265.197	81.5
265.429	77.5
265.661	94.5
265.894	84.5
266.126	67.5
266.358	87.5
266.591	77.5
266.823	87.5
267.055	88.5
267.287	75.5
267.52	86.5
267.752	80.5
267.984	82.5
268.216	94.5
268.448	96.5
268.681	95.5
268.913	79.5
269.145	94.5
269.377	86.5
269.609	78.5
269.841	77.5
270.073	95.5
270.306	82.5
270.538	71.5
270.77	77.5
271.002	83.5
271.234	84.5
271.466	88.5
271.698	82.5
271.93	80.5
272.162	88.5
272.394	79.5
272.626	75.5
272.858	74.5
273.09	75.5
273.322	85.5
273.553	78.5
273.785	77.5
274.017	73.5
274.249	89.5
274.481	99.5
274.713	82.5
274.945	88.5
275.176	84.5
275.408	88.5
275.64	92.5
275.872	93.5
276.104	84.5
276.335	87.5
276.567	91.5
276.799	117.5
277.031	87.5
277.262	81.5
277.494	87.5
277.726	72.5
277.957	80.5
278.189	92.5
278.421	86.5
278.652	83.5
278.884	89.5
279.115	86.5
279.347	107.5
279.579	93.5
279.81	90.5
280.042	94.5
280.273	84.5
280.505	85.5
280.736	91.5
280.968	94.5
281.199	91.5
281.431	77.5
281.662	75.5
281.894	91.5
282.125	109.5
282.356	119.5
282.588	135.5
282.819	111.5
283.051	88.5
283.282	96.5
283.513	87.5
283.745	93.5
283.976	96.5
284.207	89.5
284.439	85.5
284.67	86.5
284.901	89.5
285.132	88.5
285.364	95.5
285.595	80.5
285.826	84.5
286.057	100.5
286.288	95.5
286.52	85.5
286.751	100.5
286.982	74.5
287.213	86.5
287.444	100.5
287.675	91.5
287.906	87.5
288.138	103.5
288.369	111.5
288.6	113.5
288.831	82.5
289.062	83.5
289.293	82.5
289.524	87.5
289.755	96.5
289.986	80.5
290.217	82.5
290.448	88.5
290.679	91.5
290.91	84.5
291.141	94.5
291.371	74.5
291.602	104.5
291.833	87.5
292.064	92.5
292.295	81.5
292.526	94.5
292.757	102.5
292.987	88.5
293.218	88.5
293.449	82.5
293.68	91.5
293.91	79.5
294.141	101.5
294.372	88.5
294.603	89.5
294.833	85.5
295.064	83.5
295.295	103.5
295.525	101.5
295.756	87.5
295.987	119.5
296.217	129.5
296.448	126.5
296.679	91.5
296.909	91.5
297.14	102.5
297.37	78.5
297.601	93.5
297.831	94.5
298.062	115.5
298.292	100.5
298.523	108.5
298.753	73.5
298.984	101.5
299.214	81.5
299.445	96.5
299.675	90.5
299.905	100.5
300.136	90.5
300.366	101.5
300.597	82.5
300.827	91.5
301.057	90.5
301.288	105.5
301.518	87.5
301.748	94.5
301.979	83.5
302.209	83.5
302.439	82.5
302.669	91.5
302.9	89.5
303.13	98.5
303.36	90.5
303.59	94.5
303.82	95.5
304.051	100.5
304.281	91.5
304.511	102.5
304.741	90.5
304.971	100.5
305.201	94.5
305.431	90.5
305.661	93.5
305.891	81.5
306.121	97.5
306.352	94.5
306.582	110.5
306.812	94.5
307.042	86.5
307.272	82.5
307.502	90.5
307.731	89.5
307.961	89.5
308.191	91.5
308.421	92.5
308.651	88.5
308.881	90.5
309.111	96.5
309.341	98.5
309.571	97.5
309.8	94.5
310.03	90.5
310.26	90.5
310.49	93.5
310.72	87.5
310.949	78.5
311.179	92.5
311.409	99.5
311.639	93.5
311.868	94.5
312.098	98.5
312.328	101.5
312.557	91.5
312.787	98.5
313.017	110.5
313.246	95.5
313.476	95.5
313.706	86.5
313.935	95.5
314.165	96.5
314.394	98.5
314.624	102.5
314.853	97.5
315.083	87.5
315.312	111.5
315.542	96.5
315.771	91.5
316.001	93.5
316.23	89.5
316.46	82.5
316.689	79.5
316.919	83.5
317.148	91.5
317.377	101.5
317.607	104.5
317.836	92.5
318.065	85.5
318.295	98.5
318.524	115.5
318.753	94.5
318.983	106.5
319.212	109.5
319.441	115.5
319.67	107.5
319.9	98.5
320.129	88.5
320.358	107.5
320.587	93.5
320.816	93.5
321.046	95.5
321.275	88.5
321.504	105.5
321.733	91.5
321.962	100.5
322.191	103.5
322.42	101.5
322.649	99.5
322.878	116.5
323.108	126.5
323.337	125.5
323.566	130.5
323.795	173.5
324.024	202.5
324.253	449.5
324.482	913.5
324.71	1894.5
324.939	2581.5
325.168	919.5
325.397	266.5
325.626	161.5
325.855	119.5
326.084	124.5
326.313	138.5
326.542	159.5
326.77	248.5
326.999	490.5
327.228	1055.5
327.457	1928.5
327.686	1551.5
327.914	383.5
328.143	194.5
328.372	146.5
328.6	122.5
328.829	105.5
329.058	132.5
329.287	155.5
329.515	120.5
329.744	95.5
329.972	94.5
330.201	89.5
330.43	109.5
330.658	115.5
330.887	118.5
331.115	107.5
331.344	100.5
331.572	109.5
331.801	106.5
332.03	101.5
332.258	98.5
332.486	88.5
332.715	99.5
332.943	92.5
333.172	90.5
333.4	118.5
333.629	109.5
333.857	114.5
334.085	86.5
334.314	101.5
334.542	97.5
334.771	95.5
334.999	95.5
335.227	83.5
335.455	106.5
335.684	86.5
335.912	97.5
336.14	107.5
336.369	117.5
336.597	96.5
336.825	91.5
337.053	89.5
337.281	92.5
337.51	69.5
337.738	84.5
337.966	86.5
338.194	101.5
338.422	92.5
338.65	85.5
338.878	88.5
339.106	109.5
339.334	90.5
339.562	92.5
339.79	80.5
340.018	93.5
340.246	100.5
340.474	96.5
340.702	82.5
340.93	92.5
341.158	90.5
341.386	86.5
341.614	89.5
341.842	89.5
342.07	87.5
342.298	93.5
342.526	100.5
342.754	91.5
342.981	102.5
343.209	82.5
343.437	114.5
343.665	69.5
343.893	88.5
344.12	101.5
344.348	89.5
344.576	90.5
344.804	96.5
345.031	83.5
345.259	102.5
345.487	106.5
345.714	92.5
345.942	87.5
346.17	104.5
346.397	98.5
346.625	95.5
346.853	103.5
347.08	101.5
347.308	87.5
347.535	98.5
347.763	96.5
347.99	103.5
348.218	102.5
348.445	99.5
348.673	109.5
348.9	97.5
349.128	91.5
349.355	94.5
349.583	89.5
349.81	85.5
350.037	84.5
350.265	111.5
350.492	89.5
350.72	92.5
350.947	105.5
351.174	96.5
351.402	106.5
351.629	82.5
351.856	104.5
352.083	105.5
352.311	108.5
352.538	104.5
352.765	102.5
352.992	97.5
353.22	109.5
353.447	115.5
353.674	96.5
353.901	90.5
354.128	100.5
354.355	99.5
354.583	96.5
354.81	94.5
355.037	99.5
355.264	97.5
355.491	101.5
355.718	99.5
355.945	91.5
356.172	97.5
356.399	90.5
356.626	110.5
356.853	89.5
357.08	106.5
357.307	83.5
357.534	102.5
357.761	91.5
357.988	98.5
358.215	95.5
358.441	92.5
358.668	92.5
358.895	105.5
359.122	97.5
359.349	90.5
359.576	72.5
359.802	97.5
360.029	105.5
360.256	87.5
360.483	86.5
360.709	86.5
360.936	95.5
361.163	87.5
361.39	112.5
361.616	102.5
361.843	95.5
362.07	75.5
362.296	98.5
362.523	84.5
362.749	86.5
362.976	88.5
363.203	80.5
363.429	97.5
363.656	86.5
363.882	84.5
364.109	94.5
364.335	78.5
364.562	90.5
364.788	102.5
365.015	102.5
365.241	105.5
365.468	104.5
365.694	93.5
365.92	98.5
366.147	87.5
366.373	104.5
366.599	86.5
366.826	92.5
367.052	86.5
367.278	95.5
367.505	91.5
367.731	99.5
367.957	89.5
368.184	91.5
368.41	98.5
368.636	114.5
368.862	103.5
369.089	114.5
369.315	77.5
369.541	90.5
369.767	93.5
369.993	81.5
370.219	107.5
370.445	103.5
370.672	74.5
370.898	102.5
371.124	93.5
371.35	82.5
371.576	86.5
371.802	90.5
372.028	80.5
372.254	99.5
372.48	88.5
372.706	79.5
372.932	83.5
373.158	89.5
373.384	93.5
373.61	85.5
373.835	91.5
374.061	83.5
374.287	97.5
374.513	94.5
374.739	98.5
374.965	99.5
375.191	100.5
375.416	86.5
375.642	90.5
375.868	85.5
376.094	99.5
376.319	78.5
376.545	88.5
376.771	84.5
376.997	96.5
377.222	96.5
377.448	90.5
377.674	85.5
377.899	104.5
378.125	91.5
378.35	89.5
378.576	89.5
378.802	82.5
379.027	86.5
379.253	88.5
379.478	92.5
379.704	106.5
379.929	87.5
380.155	91.5
380.38	99.5
380.606	102.5
380.831	97.5
381.057	94.5
381.282	88.5
381.507	91.5
381.733	83.5
381.958	100.5
382.184	87.5
382.409	97.5
382.634	102.5
382.86	102.5
383.085	97.5
383.31	107.5
383.535	98.5
383.761	89.5
383.986	86.5
384.211	109.5
384.436	113.5
384.662	111.5
384.887	99.5
385.112	89.5
385.337	87.5
385.562	112.5
385.787	113.5
386.013	114.5
386.238	109.5
386.463	104.5
386.688	98.5
386.913	109.5
387.138	98.5
387.363	114.5
387.588	103.5
387.813	104.5
388.038	99.5
388.263	102.5
388.488	119.5
388.713	116.5
388.938	98.5
389.163	100.5
389.387	110.5
389.612	91.5
389.837	106.5
390.062	94.5
390.287	82.5
390.512	91.5
390.736	98.5
390.961	103.5
391.186	103.5
391.411	99.5
391.636	89.5
391.86	92.5
392.085	83.5
392.31	79.5
392.534	80.5
392.759	89.5
392.984	65.5
393.208	89.5
393.433	83.5
393.658	82.5
393.882	90.5
394.107	92.5
394.331	82.5
394.556	93.5
394.78	76.5
395.005	88.5
395.229	87.5
395.454	99.5
395.678	90.5
395.903	88.5
396.127	98.5
396.352	85.5
396.576	87.5
396.801	85.5
397.025	112.5
397.249	95.5
397.474	89.5
397.698	73.5
397.922	71.5
398.147	87.5
398.371	77.5
398.595	78.5
398.82	88.5
399.044	95.5
399.268	91.5
399.492	91.5
399.717	95.5
399.941	85.5
400.165	89.5
400.389	92.5
400.613	94.5
400.837	82.5
401.062	102.5
401.286	92.5
401.51	86.5
401.734	84.5
401.958	108.5
402.182	123.5
402.406	157.5
402.63	122.5
402.854	84.5
403.078	78.5
403.302	86.5
403.526	85.5
403.75	97.5
403.974	101.5
404.198	90.5
404.422	90.5
404.645	93.5
404.869	95.5
405.093	98.5
405.317	106.5
405.541	93.5
405.765	100.5
405.988	133.5
406.212	175.5
406.436	230.5
406.66	147.5
406.883	104.5
407.107	104.5
407.331	103.5
407.555	98.5
407.778	106.5
408.002	101.5
408.226	94.5
408.449	66.5
408.673	85.5
408.896	106.5
409.12	95.5
409.344	89.5
409.567	98.5
409.791	97.5
410.014	91.5
410.238	101.5
410.461	95.5
410.685	103.5
410.908	94.5
411.132	118.5
411.355	90.5
411.578	91.5
411.802	86.5
412.025	94.5
412.249	79.5
412.472	81.5
412.695	90.5
412.919	86.5
413.142	81.5
413.365	66.5
413.589	90.5
413.812	66.5
414.035	89.5
414.258	87.5
414.482	92.5
414.705	95.5
414.928	111.5
415.151	101.5
415.374	85.5
415.597	110.5
415.821	112.5
416.044	88.5
416.267	90.5
416.49	96.5
416.713	102.5
416.936	96.5
417.159	83.5
417.382	90.5
417.605	96.5
417.828	87.5
418.051	86.5
418.274	95.5
418.497	89.5
418.72	81.5
418.943	79.5
419.166	91.5
419.389	96.5
419.611	99.5
419.834	81.5
420.057	73.5
420.28	75.5
420.503	89.5
420.726	83.5
420.948	87.5
421.171	95.5
421.394	96.5
421.617	104.5
421.839	90.5
422.062	92.5
422.285	103.5
422.507	98.5
422.73	101.5
422.953	99.5
423.175	95.5
423.398	79.5
423.621	84.5
423.843	87.5
424.066	87.5
424.288	95.5
424.511	93.5
424.733	102.5
424.956	98.5
425.178	93.5
425.401	114.5
425.623	92.5
425.846	99.5
426.068	90.5
426.291	83.5
426.513	86.5
426.735	103.5
426.958	89.5
427.18	122.5
427.402	131.5
427.625	150.5
427.847	130.5
428.069	97.5
428.292	81.5
428.514	90.5
428.736	83.5
428.958	87.5
429.181	77.5
429.403	88.5
429.625	90.5
429.847	98.5
430.069	98.5
430.292	93.5
430.514	79.5
430.736	88.5
430.958	71.5
431.18	100.5
431.402	99.5
431.624	91.5
431.846	77.5
432.068	95.5
432.29	104.5
432.512	95.5
432.734	77.5
432.956	91.5
433.178	108.5
433.4	122.5
433.622	93.5
433.844	79.5
434.066	103.5
434.287	96.5
434.509	89.5
434.731	83.5
434.953	97.5
435.175	90.5
435.397	89.5
435.618	100.5
435.84	115.5
436.062	111.5
436.284	116.5
436.505	103.5
436.727	108.5
436.949	90.5
437.17	97.5
437.392	96.5
437.614	89.5
437.835	97.5
438.057	106.5
438.278	112.5
438.5	105.5
438.721	130.5
438.943	93.5
439.165	102.5
439.386	95.5
439.608	85.5
439.829	96.5
440.05	132.5
440.272	137.5
440.493	103.5
440.715	93.5
440.936	84.5
441.158	86.5
441.379	94.5
441.6	83.5
441.822	102.5
442.043	82.5
442.264	110.5
442.486	108.5
442.707	86.5
442.928	94.5
443.149	120.5
443.371	128.5
443.592	103.5
443.813	112.5
444.034	106.5
444.255	90.5
444.476	90.5
444.698	84.5
444.919	91.5
445.14	134.5
445.361	122.5
445.582	115.5
445.803	141.5
446.024	146.5
446.245	127.5
446.466	101.5
446.687	81.5
446.908	89.5
447.129	89.5
447.35	86.5
447.571	91.5
447.792	89.5
448.013	94.5
448.234	91.5
448.455	88.5
448.675	102.5
448.896	112.5
449.117	93.5
449.338	110.5
449.559	134.5
449.779	135.5
450	98.5
450.221	89.5
450.442	88.5
450.662	84.5
450.883	97.5
451.104	106.5
451.324	85.5
451.545	90.5
451.766	86.5
451.986	91.5
452.207	99.5
452.428	101.5
452.648	92.5
452.869	105.5
453.089	116.5
453.31	122.5
453.53	94.5
453.751	108.5
453.971	98.5
454.192	105.5
454.412	88.5
454.633	78.5
454.853	92.5
455.073	86.5
455.294	79.5
455.514	95.5
455.734	91.5
455.955	75.5
456.175	81.5
456.395	94.5
456.616	70.5
456.836	82.5
457.056	90.5
457.276	73.5
457.497	83.5
457.717	91.5
457.937	83.5
458.157	83.5
458.377	102.5
458.598	109.5
458.818	132.5
459.038	148.5
459.258	109.5
459.478	95.5
459.698	94.5
459.918	82.5
460.138	97.5
460.358	87.5
460.578	88.5
460.798	91.5
461.018	98.5
461.238	95.5
461.458	89.5
461.678	103.5
461.898	88.5
462.118	70.5
462.338	78.5
462.558	87.5
462.777	94.5
462.997	90.5
463.217	91.5
463.437	87.5
463.657	81.5
463.876	92.5
464.096	104.5
464.316	83.5
464.536	75.5
464.755	85.5
464.975	103.5
465.195	159.5
465.414	144.5
465.634	100.5
465.854	75.5
466.073	71.5
466.293	92.5
466.512	89.5
466.732	89.5
466.951	78.5
467.171	96.5
467.391	98.5
467.61	90.5
467.829	99.5
468.049	78.5
468.268	81.5
468.488	82.5
468.707	97.5
468.927	104.5
469.146	86.5
469.365	90.5
469.585	78.5
469.804	100.5
470.023	96.5
470.243	95.5
470.462	97.5
470.681	118.5
470.901	85.5
471.12	85.5
471.339	89.5
471.558	82.5
471.777	79.5
471.997	87.5
472.216	76.5
472.435	98.5
472.654	89.5
472.873	102.5
473.092	102.5
473.311	88.5
473.53	93.5
473.749	87.5
473.968	100.5
474.187	113.5
474.406	81.5
474.625	75.5
474.844	81.5
475.063	89.5
475.282	86.5
475.501	89.5
475.72	78.5
475.939	81.5
476.158	87.5
476.377	101.5
476.596	86.5
476.814	68.5
477.033	83.5
477.252	85.5
477.471	80.5
477.69	86.5
477.908	84.5
478.127	95.5
478.346	81.5
478.564	90.5
478.783	99.5
479.002	88.5
479.22	97.5
479.439	91.5
479.658	84.5
479.876	95.5
480.095	94.5
480.313	91.5
480.532	105.5
480.751	98.5
480.969	101.5
481.188	119.5
481.406	98.5
481.624	98.5
481.843	96.5
482.061	81.5
482.28	101.5
482.498	90.5
482.717	82.5
482.935	81.5
483.153	78.5
483.372	85.5
483.59	89.5
483.808	93.5
484.027	91.5
484.245	91.5
484.463	102.5
484.681	82.5
484.9	98.5
485.118	93.5
485.336	99.5
485.554	98.5
485.772	109.5
485.99	109.5
486.209	90.5
486.427	106.5
486.645	91.5
486.863	112.5
487.081	104.5
487.299	106.5
487.517	106.5
487.735	105.5
487.953	92.5
488.171	91.5
488.389	96.5
488.607	99.5
488.825	91.5
489.043	89.5
489.261	76.5
489.479	90.5
489.696	93.5
489.914	93.5
490.132	87.5
490.35	80.5
490.568	84.5
490.786	78.5
491.003	90.5
491.221	87.5
491.439	91.5
491.657	91.5
491.874	90.5
492.092	78.5
492.31	82.5
492.527	80.5
492.745	87.5
492.963	90.5
493.18	93.5
493.398	88.5
493.615	101.5
493.833	89.5
494.05	88.5
494.268	83.5
494.485	79.5
494.703	98.5
494.92	87.5
495.138	84.5
495.355	98.5
495.573	82.5
495.79	85.5
496.008	86.5
496.225	66.5
496.442	92.5
496.66	89.5
496.877	109.5
497.094	96.5
497.312	98.5
497.529	81.5
497.746	79.5
497.963	92.5
498.181	79.5
498.398	83.5
498.615	111.5
498.832	110.5
499.049	112.5
499.267	85.5
499.484	99.5
499.701	86.5
499.918	87.5
500.135	89.5
500.352	79.5
500.569	99.5
500.786	104.5
501.003	82.5
501.22	98.5
501.437	85.5
501.654	100.5
501.871	108.5
502.088	64.5
502.305	93.5
502.522	86.5
502.739	80.5
502.956	86.5
503.172	95.5
503.389	86.5
503.606	105.5
503.823	102.5
504.04	105.5
504.256	94.5
504.473	85.5
504.69	100.5
504.907	98.5
505.123	106.5
505.34	86.5
505.557	90.5
505.773	101.5
505.99	93.5
506.207	91.5
506.423	86.5
506.64	92.5
506.856	87.5
507.073	88.5
507.289	91.5
507.506	97.5
507.722	105.5
507.939	107.5
508.155	90.5
508.372	100.5
508.588	99.5
508.805	97.5
509.021	88.5
509.238	87.5
509.454	94.5
509.67	98.5
509.887	92.5
510.103	133.5
510.319	232.5
510.536	805.5
510.752	2546.5
510.968	705.5
511.184	165.5
511.401	116.5
511.617	95.5
511.833	94.5
512.049	82.5
512.265	93.5
512.481	93.5
512.698	88.5
512.914	90.5
513.13	78.5
513.346	72.5
513.562	93.5
513.778	93.5
513.994	96.5
514.21	90.5
514.426	124.5
514.642	132.5
514.858	118.5
515.074	157.5
515.29	449.5
515.506	1506.5
515.721	567.5
515.937	154.5
516.153	110.5
516.369	97.5
516.585	90.5
516.801	77.5
517.016	89.5
517.232	81.5
517.448	113.5
517.664	96.5
517.879	88.5
518.095	90.5
518.311	107.5
518.527	95.5
518.742	95.5
518.958	98.5
519.173	99.5
519.389	95.5
519.605	88.5
519.82	101.5
520.036	102.5
520.251	119.5
520.467	103.5
520.682	99.5
520.898	102.5
521.113	107.5
521.329	141.5
521.544	209.5
521.76	571.5
521.975	2479.5
522.19	1488.5
522.406	310.5
522.621	113.5
522.836	117.5
523.052	94.5
523.267	90.5
523.482	105.5
523.698	104.5
523.913	108.5
524.128	102.5
524.343	101.5
524.559	104.5
524.774	91.5
524.989	91.5
525.204	111.5
525.419	95.5
525.634	86.5
525.849	88.5
526.064	81.5
526.28	82.5
526.495	80.5
526.71	83.5
526.925	79.5
527.14	89.5
527.355	101.5
527.57	82.5
527.785	87.5
527.999	76.5
528.214	91.5
528.429	103.5
528.644	78.5
528.859	101.5
529.074	92.5
529.289	117.5
529.503	181.5
529.718	122.5
529.933	102.5
530.148	86.5
530.363	86.5
530.577	101.5
530.792	96.5
531.007	95.5
531.221	99.5
531.436	96.5
531.651	101.5
531.865	90.5
532.08	89.5
532.295	91.5
532.509	94.5
532.724	110.5
532.938	100.5
533.153	93.5
533.367	85.5
533.582	97.5
533.796	99.5
534.011	86.5
534.225	89.5
534.44	90.5
534.654	96.5
534.868	94.5
535.083	95.5
