Data from Uncirc_2003_H10_HRD10591_00043.txt Node
Date: Wed Jan 03 10:35:56 EST 2024
User: Yrep
Spectrometer: HR+D1059
Trigger mode: 1
Integration Time (sec): 1.000000E-1
Scans to average: 1
Electric dark correction enabled: true
Nonlinearity correction enabled: false
Boxcar width: 0
XAxis mode: Wavelengths
Number of Pixels in Spectrum: 2048
>>>>>Begin Spectral Data<<<<<
223.165	-20.56
223.4	-20.56
223.635	-20.56
223.869	-21.56
224.104	-28.56
224.338	-26.56
224.573	-12.56
224.808	4.44
225.042	-8.56
225.277	-9.56
225.511	-1.56
225.746	11.44
225.98	14.44
226.215	6.44
226.449	16.44
226.683	30.44
226.918	20.44
227.152	25.44
227.387	42.44
227.621	35.44
227.856	27.44
228.09	36.44
228.324	47.44
228.559	50.44
228.793	64.44
229.027	54.44
229.262	62.44
229.496	66.44
229.73	82.44
229.964	74.44
230.199	58.44
230.433	82.44
230.667	92.44
230.901	74.44
231.136	74.44
231.37	72.44
231.604	79.44
231.838	72.44
232.072	74.44
232.306	67.44
232.541	81.44
232.775	72.44
233.009	92.44
233.243	70.44
233.477	82.44
233.711	87.44
233.945	86.44
234.179	74.44
234.413	70.44
234.647	77.44
234.881	69.44
235.115	69.44
235.349	80.44
235.583	76.44
235.817	85.44
236.051	85.44
236.285	80.44
236.519	85.44
236.753	77.44
236.987	99.44
237.221	90.44
237.455	83.44
237.689	70.44
237.922	72.44
238.156	80.44
238.39	72.44
238.624	85.44
238.858	87.44
239.091	60.44
239.325	65.44
239.559	74.44
239.793	76.44
240.027	76.44
240.26	71.44
240.494	82.44
240.728	77.44
240.961	69.44
241.195	59.44
241.429	68.44
241.662	83.44
241.896	64.44
242.13	62.44
242.363	81.44
242.597	72.44
242.83	71.44
243.064	67.44
243.298	68.44
243.531	73.44
243.765	81.44
243.998	68.44
244.232	70.44
244.465	88.44
244.699	85.44
244.932	87.44
245.166	71.44
245.399	85.44
245.633	81.44
245.866	65.44
246.099	84.44
246.333	71.44
246.566	69.44
246.8	87.44
247.033	79.44
247.266	79.44
247.5	85.44
247.733	76.44
247.966	83.44
248.2	69.44
248.433	81.44
248.666	84.44
248.899	76.44
249.133	88.44
249.366	97.44
249.599	100.44
249.832	103.44
250.066	80.44
250.299	87.44
250.532	83.44
250.765	79.44
250.998	82.44
251.231	86.44
251.465	79.44
251.698	85.44
251.931	74.44
252.164	75.44
252.397	75.44
252.63	85.44
252.863	72.44
253.096	85.44
253.329	78.44
253.562	76.44
253.795	75.44
254.028	72.44
254.261	78.44
254.494	76.44
254.727	82.44
254.96	77.44
255.193	71.44
255.426	82.44
255.659	86.44
255.892	103.44
256.124	93.44
256.357	58.44
256.59	89.44
256.823	80.44
257.056	68.44
257.289	82.44
257.521	76.44
257.754	83.44
257.987	79.44
258.22	68.44
258.452	88.44
258.685	75.44
258.918	85.44
259.151	71.44
259.383	76.44
259.616	84.44
259.849	72.44
260.081	78.44
260.314	81.44
260.547	88.44
260.779	81.44
261.012	88.44
261.244	82.44
261.477	92.44
261.71	98.44
261.942	96.44
262.175	103.44
262.407	87.44
262.64	71.44
262.872	78.44
263.105	87.44
263.337	71.44
263.57	74.44
263.802	78.44
264.035	76.44
264.267	86.44
264.499	77.44
264.732	87.44
264.964	87.44
265.197	74.44
265.429	65.44
265.661	75.44
265.894	96.44
266.126	91.44
266.358	77.44
266.591	72.44
266.823	69.44
267.055	90.44
267.287	85.44
267.52	88.44
267.752	88.44
267.984	76.44
268.216	86.44
268.448	104.44
268.681	77.44
268.913	86.44
269.145	71.44
269.377	82.44
269.609	88.44
269.841	72.44
270.073	90.44
270.306	81.44
270.538	86.44
270.77	89.44
271.002	100.44
271.234	91.44
271.466	71.44
271.698	99.44
271.93	86.44
272.162	84.44
272.394	74.44
272.626	74.44
272.858	88.44
273.09	80.44
273.322	83.44
273.553	91.44
273.785	79.44
274.017	91.44
274.249	82.44
274.481	89.44
274.713	78.44
274.945	87.44
275.176	87.44
275.408	93.44
275.64	76.44
275.872	89.44
276.104	80.44
276.335	96.44
276.567	98.44
276.799	96.44
277.031	87.44
277.262	79.44
277.494	95.44
277.726	83.44
277.957	79.44
278.189	80.44
278.421	80.44
278.652	79.44
278.884	87.44
279.115	92.44
279.347	82.44
279.579	78.44
279.81	86.44
280.042	87.44
280.273	77.44
280.505	73.44
280.736	91.44
280.968	92.44
281.199	76.44
281.431	76.44
281.662	79.44
281.894	79.44
282.125	88.44
282.356	120.44
282.588	139.44
282.819	93.44
283.051	88.44
283.282	84.44
283.513	84.44
283.745	82.44
283.976	79.44
284.207	92.44
284.439	89.44
284.67	72.44
284.901	92.44
285.132	87.44
285.364	88.44
285.595	78.44
285.826	95.44
286.057	72.44
286.288	81.44
286.52	79.44
286.751	66.44
286.982	95.44
287.213	91.44
287.444	91.44
287.675	84.44
287.906	89.44
288.138	76.44
288.369	86.44
288.6	84.44
288.831	84.44
289.062	74.44
289.293	89.44
289.524	86.44
289.755	78.44
289.986	75.44
290.217	93.44
290.448	74.44
290.679	70.44
290.91	71.44
291.141	84.44
291.371	90.44
291.602	87.44
291.833	81.44
292.064	94.44
292.295	82.44
292.526	85.44
292.757	87.44
292.987	96.44
293.218	84.44
293.449	85.44
293.68	78.44
293.91	76.44
294.141	80.44
294.372	86.44
294.603	81.44
294.833	82.44
295.064	74.44
295.295	92.44
295.525	88.44
295.756	96.44
295.987	125.44
296.217	113.44
296.448	133.44
296.679	90.44
296.909	81.44
297.14	86.44
297.37	70.44
297.601	83.44
297.831	86.44
298.062	85.44
298.292	79.44
298.523	100.44
298.753	77.44
298.984	86.44
299.214	77.44
299.445	75.44
299.675	95.44
299.905	87.44
300.136	74.44
300.366	89.44
300.597	84.44
300.827	91.44
301.057	90.44
301.288	92.44
301.518	96.44
301.748	91.44
301.979	101.44
302.209	83.44
302.439	81.44
302.669	87.44
302.9	90.44
303.13	93.44
303.36	97.44
303.59	98.44
303.82	100.44
304.051	89.44
304.281	85.44
304.511	89.44
304.741	92.44
304.971	87.44
305.201	79.44
305.431	86.44
305.661	85.44
305.891	87.44
306.121	81.44
306.352	79.44
306.582	93.44
306.812	96.44
307.042	88.44
307.272	79.44
307.502	86.44
307.731	92.44
307.961	102.44
308.191	81.44
308.421	80.44
308.651	80.44
308.881	86.44
309.111	104.44
309.341	95.44
309.571	81.44
309.8	90.44
310.03	108.44
310.26	100.44
310.49	101.44
310.72	90.44
310.949	96.44
311.179	99.44
311.409	93.44
311.639	84.44
311.868	86.44
312.098	93.44
312.328	81.44
312.557	96.44
312.787	86.44
313.017	96.44
313.246	98.44
313.476	93.44
313.706	96.44
313.935	93.44
314.165	92.44
314.394	76.44
314.624	82.44
314.853	100.44
315.083	100.44
315.312	94.44
315.542	97.44
315.771	97.44
316.001	86.44
316.23	107.44
316.46	82.44
316.689	106.44
316.919	88.44
317.148	96.44
317.377	79.44
317.607	92.44
317.836	95.44
318.065	87.44
318.295	75.44
318.524	86.44
318.753	87.44
318.983	94.44
319.212	92.44
319.441	104.44
319.67	106.44
319.9	78.44
320.129	94.44
320.358	90.44
320.587	80.44
320.816	88.44
321.046	96.44
321.275	86.44
321.504	89.44
321.733	107.44
321.962	101.44
322.191	88.44
322.42	109.44
322.649	102.44
322.878	120.44
323.108	119.44
323.337	135.44
323.566	131.44
323.795	152.44
324.024	191.44
324.253	402.44
324.482	907.44
324.71	1876.44
324.939	2477.44
325.168	882.44
325.397	255.44
325.626	155.44
325.855	126.44
326.084	126.44
326.313	118.44
326.542	152.44
326.77	254.44
326.999	490.44
327.228	1023.44
327.457	1881.44
327.686	1478.44
327.914	382.44
328.143	179.44
328.372	126.44
328.6	110.44
328.829	110.44
329.058	120.44
329.287	110.44
329.515	121.44
329.744	96.44
329.972	82.44
330.201	100.44
330.43	116.44
330.658	123.44
330.887	146.44
331.115	120.44
331.344	86.44
331.572	84.44
331.801	83.44
332.03	96.44
332.258	94.44
332.486	91.44
332.715	89.44
332.943	82.44
333.172	80.44
333.4	94.44
333.629	100.44
333.857	101.44
334.085	97.44
334.314	104.44
334.542	86.44
334.771	96.44
334.999	98.44
335.227	81.44
335.455	93.44
335.684	96.44
335.912	96.44
336.14	99.44
336.369	92.44
336.597	92.44
336.825	75.44
337.053	78.44
337.281	81.44
337.51	95.44
337.738	104.44
337.966	95.44
338.194	97.44
338.422	88.44
338.65	87.44
338.878	86.44
339.106	85.44
339.334	84.44
339.562	81.44
339.79	74.44
340.018	91.44
340.246	83.44
340.474	85.44
340.702	97.44
340.93	80.44
341.158	79.44
341.386	104.44
341.614	101.44
341.842	75.44
342.07	91.44
342.298	93.44
342.526	87.44
342.754	94.44
342.981	95.44
343.209	78.44
343.437	87.44
343.665	82.44
343.893	71.44
344.12	92.44
344.348	90.44
344.576	81.44
344.804	86.44
345.031	94.44
345.259	80.44
345.487	89.44
345.714	91.44
345.942	85.44
346.17	85.44
346.397	83.44
346.625	94.44
346.853	95.44
347.08	73.44
347.308	84.44
347.535	91.44
347.763	92.44
347.99	87.44
348.218	88.44
348.445	103.44
348.673	88.44
348.9	88.44
349.128	100.44
349.355	76.44
349.583	94.44
349.81	90.44
350.037	83.44
350.265	98.44
350.492	92.44
350.72	90.44
350.947	88.44
351.174	101.44
351.402	107.44
351.629	114.44
351.856	107.44
352.083	86.44
352.311	93.44
352.538	113.44
352.765	112.44
352.992	101.44
353.22	100.44
353.447	99.44
353.674	98.44
353.901	87.44
354.128	85.44
354.355	99.44
354.583	95.44
354.81	97.44
355.037	95.44
355.264	96.44
355.491	84.44
355.718	74.44
355.945	96.44
356.172	95.44
356.399	96.44
356.626	94.44
356.853	95.44
357.08	108.44
357.307	97.44
357.534	89.44
357.761	86.44
357.988	99.44
358.215	77.44
358.441	96.44
358.668	91.44
358.895	92.44
359.122	91.44
359.349	95.44
359.576	96.44
359.802	102.44
360.029	109.44
360.256	110.44
360.483	101.44
360.709	95.44
360.936	80.44
361.163	88.44
361.39	91.44
361.616	98.44
361.843	71.44
362.07	94.44
362.296	84.44
362.523	92.44
362.749	85.44
362.976	76.44
363.203	86.44
363.429	94.44
363.656	91.44
363.882	88.44
364.109	87.44
364.335	84.44
364.562	80.44
364.788	100.44
365.015	93.44
365.241	102.44
365.468	96.44
365.694	118.44
365.92	102.44
366.147	91.44
366.373	82.44
366.599	87.44
366.826	92.44
367.052	102.44
367.278	82.44
367.505	87.44
367.731	87.44
367.957	78.44
368.184	73.44
368.41	91.44
368.636	102.44
368.862	109.44
369.089	97.44
369.315	92.44
369.541	86.44
369.767	84.44
369.993	81.44
370.219	89.44
370.445	87.44
370.672	76.44
370.898	98.44
371.124	80.44
371.35	90.44
371.576	94.44
371.802	85.44
372.028	97.44
372.254	93.44
372.48	71.44
372.706	84.44
372.932	89.44
373.158	79.44
373.384	94.44
373.61	92.44
373.835	97.44
374.061	95.44
374.287	93.44
374.513	90.44
374.739	83.44
374.965	74.44
375.191	82.44
375.416	80.44
375.642	68.44
375.868	87.44
376.094	95.44
376.319	88.44
376.545	87.44
376.771	71.44
376.997	84.44
377.222	70.44
377.448	89.44
377.674	82.44
377.899	87.44
378.125	84.44
378.35	97.44
378.576	95.44
378.802	119.44
379.027	78.44
379.253	91.44
379.478	97.44
379.704	78.44
379.929	83.44
380.155	102.44
380.38	82.44
380.606	88.44
380.831	91.44
381.057	106.44
381.282	98.44
381.507	94.44
381.733	86.44
381.958	98.44
382.184	88.44
382.409	101.44
382.634	91.44
382.86	95.44
383.085	105.44
383.31	103.44
383.535	103.44
383.761	91.44
383.986	102.44
384.211	101.44
384.436	91.44
384.662	93.44
384.887	100.44
385.112	98.44
385.337	108.44
385.562	110.44
385.787	96.44
386.013	102.44
386.238	116.44
386.463	111.44
386.688	104.44
386.913	114.44
387.138	112.44
387.363	96.44
387.588	99.44
387.813	107.44
388.038	103.44
388.263	107.44
388.488	103.44
388.713	103.44
388.938	96.44
389.163	86.44
389.387	79.44
389.612	85.44
389.837	98.44
390.062	86.44
390.287	79.44
390.512	99.44
390.736	78.44
390.961	98.44
391.186	92.44
391.411	98.44
391.636	106.44
391.86	77.44
392.085	78.44
392.31	83.44
392.534	93.44
392.759	81.44
392.984	79.44
393.208	100.44
393.433	85.44
393.658	78.44
393.882	92.44
394.107	85.44
394.331	77.44
394.556	73.44
394.78	86.44
395.005	82.44
395.229	79.44
395.454	96.44
395.678	80.44
395.903	91.44
396.127	85.44
396.352	83.44
396.576	80.44
396.801	86.44
397.025	88.44
397.249	79.44
397.474	83.44
397.698	81.44
397.922	87.44
398.147	98.44
398.371	86.44
398.595	86.44
398.82	72.44
399.044	62.44
399.268	83.44
399.492	87.44
399.717	82.44
399.941	87.44
400.165	95.44
400.389	84.44
400.613	92.44
400.837	70.44
401.062	95.44
401.286	85.44
401.51	72.44
401.734	100.44
401.958	95.44
402.182	127.44
402.406	159.44
402.63	117.44
402.854	80.44
403.078	77.44
403.302	100.44
403.526	88.44
403.75	87.44
403.974	75.44
404.198	80.44
404.422	82.44
404.645	96.44
404.869	96.44
405.093	79.44
405.317	85.44
405.541	89.44
405.765	96.44
405.988	117.44
406.212	168.44
406.436	215.44
406.66	133.44
406.883	89.44
407.107	84.44
407.331	98.44
407.555	98.44
407.778	98.44
408.002	84.44
408.226	87.44
408.449	78.44
408.673	88.44
408.896	93.44
409.12	84.44
409.344	78.44
409.567	86.44
409.791	84.44
410.014	97.44
410.238	94.44
410.461	82.44
410.685	85.44
410.908	95.44
411.132	104.44
411.355	100.44
411.578	92.44
411.802	95.44
412.025	86.44
412.249	93.44
412.472	87.44
412.695	94.44
412.919	82.44
413.142	84.44
413.365	88.44
413.589	93.44
413.812	85.44
414.035	87.44
414.258	94.44
414.482	81.44
414.705	85.44
414.928	92.44
415.151	106.44
415.374	84.44
415.597	99.44
415.821	87.44
416.044	94.44
416.267	87.44
416.49	95.44
416.713	81.44
416.936	82.44
417.159	83.44
417.382	83.44
417.605	84.44
417.828	80.44
418.051	84.44
418.274	85.44
418.497	84.44
418.72	74.44
418.943	85.44
419.166	95.44
419.389	89.44
419.611	91.44
419.834	89.44
420.057	91.44
420.28	89.44
420.503	82.44
420.726	88.44
420.948	72.44
421.171	92.44
421.394	82.44
421.617	80.44
421.839	83.44
422.062	84.44
422.285	79.44
422.507	87.44
422.73	91.44
422.953	93.44
423.175	84.44
423.398	86.44
423.621	91.44
423.843	70.44
424.066	89.44
424.288	75.44
424.511	78.44
424.733	96.44
424.956	99.44
425.178	93.44
425.401	90.44
425.623	93.44
425.846	98.44
426.068	90.44
426.291	87.44
426.513	92.44
426.735	87.44
426.958	100.44
427.18	106.44
427.402	141.44
427.625	143.44
427.847	124.44
428.069	95.44
428.292	91.44
428.514	91.44
428.736	98.44
428.958	74.44
429.181	75.44
429.403	91.44
429.625	101.44
429.847	85.44
430.069	95.44
430.292	85.44
430.514	70.44
430.736	86.44
430.958	91.44
431.18	84.44
431.402	90.44
431.624	83.44
431.846	82.44
432.068	86.44
432.29	74.44
432.512	80.44
432.734	82.44
432.956	91.44
433.178	97.44
433.4	108.44
433.622	81.44
433.844	92.44
434.066	86.44
434.287	99.44
434.509	87.44
434.731	77.44
434.953	75.44
435.175	77.44
435.397	92.44
435.618	84.44
435.84	106.44
436.062	107.44
436.284	106.44
436.505	98.44
436.727	104.44
436.949	96.44
437.17	89.44
437.392	82.44
437.614	100.44
437.835	97.44
438.057	105.44
438.278	104.44
438.5	108.44
438.721	105.44
438.943	89.44
439.165	93.44
439.386	75.44
439.608	74.44
439.829	99.44
440.05	109.44
440.272	135.44
440.493	104.44
440.715	88.44
440.936	93.44
441.158	91.44
441.379	77.44
441.6	96.44
441.822	96.44
442.043	96.44
442.264	81.44
442.486	96.44
442.707	101.44
442.928	100.44
443.149	104.44
443.371	118.44
443.592	106.44
443.813	100.44
444.034	93.44
444.255	103.44
444.476	93.44
444.698	98.44
444.919	86.44
445.14	135.44
445.361	115.44
445.582	114.44
445.803	140.44
446.024	130.44
446.245	140.44
446.466	101.44
446.687	81.44
446.908	94.44
447.129	82.44
447.35	89.44
447.571	74.44
447.792	100.44
448.013	79.44
448.234	114.44
448.455	109.44
448.675	104.44
448.896	115.44
449.117	104.44
449.338	85.44
449.559	117.44
449.779	123.44
450	90.44
450.221	73.44
450.442	90.44
450.662	94.44
450.883	102.44
451.104	108.44
451.324	84.44
451.545	90.44
451.766	93.44
451.986	82.44
452.207	87.44
452.428	92.44
452.648	100.44
452.869	110.44
453.089	100.44
453.31	113.44
453.53	85.44
453.751	91.44
453.971	96.44
454.192	109.44
454.412	87.44
454.633	87.44
454.853	85.44
455.073	83.44
455.294	78.44
455.514	93.44
455.734	84.44
455.955	84.44
456.175	80.44
456.395	71.44
456.616	95.44
456.836	86.44
457.056	88.44
457.276	86.44
457.497	72.44
457.717	93.44
457.937	98.44
458.157	91.44
458.377	95.44
458.598	111.44
458.818	141.44
459.038	146.44
459.258	98.44
459.478	75.44
459.698	96.44
459.918	84.44
460.138	78.44
460.358	79.44
460.578	69.44
460.798	88.44
461.018	90.44
461.238	83.44
461.458	82.44
461.678	95.44
461.898	85.44
462.118	86.44
462.338	97.44
462.558	98.44
462.777	88.44
462.997	78.44
463.217	84.44
463.437	98.44
463.657	94.44
463.876	86.44
464.096	84.44
464.316	84.44
464.536	91.44
464.755	89.44
464.975	108.44
465.195	146.44
465.414	158.44
465.634	89.44
465.854	79.44
466.073	90.44
466.293	96.44
466.512	81.44
466.732	99.44
466.951	83.44
467.171	96.44
467.391	92.44
467.61	88.44
467.829	105.44
468.049	85.44
468.268	92.44
468.488	76.44
468.707	83.44
468.927	86.44
469.146	83.44
469.365	72.44
469.585	84.44
469.804	105.44
470.023	96.44
470.243	87.44
470.462	108.44
470.681	108.44
470.901	88.44
471.12	95.44
471.339	85.44
471.558	85.44
471.777	92.44
471.997	97.44
472.216	86.44
472.435	96.44
472.654	91.44
472.873	82.44
473.092	98.44
473.311	101.44
473.53	91.44
473.749	80.44
473.968	92.44
474.187	95.44
474.406	101.44
474.625	91.44
474.844	76.44
475.063	78.44
475.282	77.44
475.501	78.44
475.72	83.44
475.939	73.44
476.158	79.44
476.377	86.44
476.596	99.44
476.814	96.44
477.033	96.44
477.252	98.44
477.471	72.44
477.69	95.44
477.908	88.44
478.127	90.44
478.346	86.44
478.564	77.44
478.783	86.44
479.002	82.44
479.22	93.44
479.439	98.44
479.658	96.44
479.876	97.44
480.095	85.44
480.313	82.44
480.532	84.44
480.751	81.44
480.969	87.44
481.188	122.44
481.406	112.44
481.624	80.44
481.843	98.44
482.061	90.44
482.28	81.44
482.498	89.44
482.717	96.44
482.935	76.44
483.153	86.44
483.372	83.44
483.59	100.44
483.808	102.44
484.027	89.44
484.245	99.44
484.463	85.44
484.681	93.44
484.9	98.44
485.118	105.44
485.336	95.44
485.554	101.44
485.772	97.44
485.99	93.44
486.209	106.44
486.427	112.44
486.645	104.44
486.863	106.44
487.081	90.44
487.299	96.44
487.517	82.44
487.735	94.44
487.953	92.44
488.171	97.44
488.389	92.44
488.607	92.44
488.825	98.44
489.043	87.44
489.261	93.44
489.479	85.44
489.696	85.44
489.914	96.44
490.132	74.44
490.35	92.44
490.568	101.44
490.786	80.44
491.003	84.44
491.221	96.44
491.439	91.44
491.657	88.44
491.874	95.44
492.092	77.44
492.31	83.44
492.527	86.44
492.745	78.44
492.963	84.44
493.18	91.44
493.398	98.44
493.615	86.44
493.833	103.44
494.05	90.44
494.268	81.44
494.485	85.44
494.703	87.44
494.92	88.44
495.138	113.44
495.355	109.44
495.573	94.44
495.79	86.44
496.008	105.44
496.225	92.44
496.442	83.44
496.66	96.44
496.877	87.44
497.094	101.44
497.312	89.44
497.529	106.44
497.746	102.44
497.963	91.44
498.181	82.44
498.398	102.44
498.615	110.44
498.832	98.44
499.049	85.44
499.267	85.44
499.484	84.44
499.701	100.44
499.918	91.44
500.135	87.44
500.352	96.44
500.569	95.44
500.786	93.44
501.003	91.44
501.22	95.44
501.437	94.44
501.654	89.44
501.871	100.44
502.088	98.44
502.305	74.44
502.522	95.44
502.739	94.44
502.956	91.44
503.172	85.44
503.389	93.44
503.606	86.44
503.823	94.44
504.04	80.44
504.256	85.44
504.473	83.44
504.69	95.44
504.907	102.44
505.123	92.44
505.34	88.44
505.557	83.44
505.773	102.44
505.99	93.44
506.207	76.44
506.423	82.44
506.64	88.44
506.856	85.44
507.073	98.44
507.289	91.44
507.506	99.44
507.722	117.44
507.939	109.44
508.155	96.44
508.372	91.44
508.588	88.44
508.805	92.44
509.021	102.44
509.238	113.44
509.454	100.44
509.67	93.44
509.887	87.44
510.103	117.44
510.319	224.44
510.536	788.44
510.752	2482.44
510.968	687.44
511.184	164.44
511.401	103.44
511.617	101.44
511.833	95.44
512.049	88.44
512.265	94.44
512.481	102.44
512.698	94.44
512.914	86.44
513.13	94.44
513.346	96.44
513.562	93.44
513.778	94.44
513.994	93.44
514.21	87.44
514.426	115.44
514.642	122.44
514.858	117.44
515.074	148.44
515.29	467.44
515.506	1480.44
515.721	551.44
515.937	142.44
516.153	104.44
516.369	95.44
516.585	96.44
516.801	95.44
