Data from Uncirc_2003_H10_HRD10591_00010.txt Node
Date: Wed Jan 03 10:35:49 EST 2024
User: Yrep
Spectrometer: HR+D1059
Trigger mode: 1
Integration Time (sec): 1.000000E-1
Scans to average: 1
Electric dark correction enabled: true
Nonlinearity correction enabled: false
Boxcar width: 0
XAxis mode: Wavelengths
Number of Pixels in Spectrum: 2048
>>>>>Begin Spectral Data<<<<<
223.165	-17.31
223.4	-17.31
223.635	-17.31
223.869	-25.31
224.104	-13.31
224.338	-22.31
224.573	-7.31
224.808	-14.31
225.042	-6.31
225.277	-11.31
225.511	-0.31
225.746	4.69
225.98	1.69
226.215	8.69
226.449	15.69
226.683	23.69
226.918	21.69
227.152	41.69
227.387	31.69
227.621	25.69
227.856	57.69
228.09	51.69
228.324	44.69
228.559	56.69
228.793	65.69
229.027	61.69
229.262	57.69
229.496	60.69
229.73	70.69
229.964	76.69
230.199	89.69
230.433	62.69
230.667	88.69
230.901	76.69
231.136	66.69
231.37	62.69
231.604	81.69
231.838	71.69
232.072	82.69
232.306	77.69
232.541	88.69
232.775	80.69
233.009	77.69
233.243	81.69
233.477	84.69
233.711	79.69
233.945	71.69
234.179	82.69
234.413	82.69
234.647	76.69
234.881	69.69
235.115	80.69
235.349	73.69
235.583	80.69
235.817	80.69
236.051	85.69
236.285	94.69
236.519	70.69
236.753	87.69
236.987	68.69
237.221	87.69
237.455	88.69
237.689	74.69
237.922	70.69
238.156	76.69
238.39	94.69
238.624	69.69
238.858	60.69
239.091	78.69
239.325	84.69
239.559	62.69
239.793	80.69
240.027	74.69
240.26	73.69
240.494	69.69
240.728	63.69
240.961	80.69
241.195	100.69
241.429	72.69
241.662	83.69
241.896	83.69
242.13	76.69
242.363	60.69
242.597	78.69
242.83	80.69
243.064	80.69
243.298	73.69
243.531	67.69
243.765	77.69
243.998	86.69
244.232	77.69
244.465	85.69
244.699	94.69
244.932	72.69
245.166	78.69
245.399	73.69
245.633	94.69
245.866	74.69
246.099	74.69
246.333	87.69
246.566	89.69
246.8	71.69
247.033	81.69
247.266	89.69
247.5	91.69
247.733	77.69
247.966	84.69
248.2	81.69
248.433	73.69
248.666	69.69
248.899	77.69
249.133	90.69
249.366	88.69
249.599	86.69
249.832	102.69
250.066	86.69
250.299	88.69
250.532	85.69
250.765	86.69
250.998	64.69
251.231	74.69
251.465	71.69
251.698	86.69
251.931	74.69
252.164	79.69
252.397	69.69
252.63	72.69
252.863	75.69
253.096	89.69
253.329	86.69
253.562	76.69
253.795	73.69
254.028	88.69
254.261	85.69
254.494	88.69
254.727	98.69
254.96	68.69
255.193	82.69
255.426	82.69
255.659	82.69
255.892	88.69
256.124	79.69
256.357	81.69
256.59	73.69
256.823	79.69
257.056	91.69
257.289	83.69
257.521	84.69
257.754	84.69
257.987	85.69
258.22	73.69
258.452	89.69
258.685	82.69
258.918	80.69
259.151	76.69
259.383	79.69
259.616	65.69
259.849	84.69
260.081	85.69
260.314	85.69
260.547	96.69
260.779	76.69
261.012	75.69
261.244	71.69
261.477	81.69
261.71	103.69
261.942	105.69
262.175	113.69
262.407	87.69
262.64	87.69
262.872	78.69
263.105	80.69
263.337	75.69
263.57	86.69
263.802	81.69
264.035	77.69
264.267	85.69
264.499	82.69
264.732	89.69
264.964	64.69
265.197	80.69
265.429	77.69
265.661	76.69
265.894	86.69
266.126	74.69
266.358	82.69
266.591	82.69
266.823	82.69
267.055	80.69
267.287	75.69
267.52	91.69
267.752	72.69
267.984	67.69
268.216	82.69
268.448	78.69
268.681	81.69
268.913	84.69
269.145	85.69
269.377	84.69
269.609	71.69
269.841	81.69
270.073	72.69
270.306	87.69
270.538	79.69
270.77	87.69
271.002	95.69
271.234	87.69
271.466	84.69
271.698	92.69
271.93	97.69
272.162	90.69
272.394	89.69
272.626	88.69
272.858	85.69
273.09	85.69
273.322	86.69
273.553	65.69
273.785	77.69
274.017	82.69
274.249	103.69
274.481	66.69
274.713	82.69
274.945	74.69
275.176	71.69
275.408	94.69
275.64	86.69
275.872	86.69
276.104	93.69
276.335	81.69
276.567	98.69
276.799	89.69
277.031	113.69
277.262	86.69
277.494	79.69
277.726	89.69
277.957	84.69
278.189	96.69
278.421	78.69
278.652	94.69
278.884	85.69
279.115	86.69
279.347	82.69
279.579	81.69
279.81	96.69
280.042	85.69
280.273	86.69
280.505	86.69
280.736	74.69
280.968	100.69
281.199	86.69
281.431	89.69
281.662	98.69
281.894	95.69
282.125	102.69
282.356	91.69
282.588	133.69
282.819	116.69
283.051	91.69
283.282	76.69
283.513	84.69
283.745	93.69
283.976	93.69
284.207	91.69
284.439	76.69
284.67	94.69
284.901	90.69
285.132	93.69
285.364	79.69
285.595	76.69
285.826	93.69
286.057	88.69
286.288	79.69
286.52	82.69
286.751	80.69
286.982	92.69
287.213	75.69
287.444	90.69
287.675	90.69
287.906	87.69
288.138	91.69
288.369	88.69
288.6	92.69
288.831	90.69
289.062	97.69
289.293	89.69
289.524	84.69
289.755	81.69
289.986	77.69
290.217	88.69
290.448	98.69
290.679	86.69
290.91	84.69
291.141	87.69
291.371	77.69
291.602	94.69
291.833	95.69
292.064	89.69
292.295	84.69
292.526	94.69
292.757	77.69
292.987	99.69
293.218	95.69
293.449	81.69
293.68	79.69
293.91	97.69
294.141	78.69
294.372	99.69
294.603	90.69
294.833	111.69
295.064	86.69
295.295	100.69
295.525	90.69
295.756	86.69
295.987	112.69
296.217	120.69
296.448	94.69
296.679	82.69
296.909	94.69
297.14	90.69
297.37	82.69
297.601	92.69
297.831	96.69
298.062	98.69
298.292	68.69
298.523	77.69
298.753	90.69
298.984	93.69
299.214	93.69
299.445	93.69
299.675	94.69
299.905	94.69
300.136	84.69
300.366	80.69
300.597	95.69
300.827	82.69
301.057	95.69
301.288	95.69
301.518	92.69
301.748	79.69
301.979	94.69
302.209	80.69
302.439	102.69
302.669	83.69
302.9	84.69
303.13	95.69
303.36	98.69
303.59	104.69
303.82	114.69
304.051	89.69
304.281	83.69
304.511	79.69
304.741	81.69
304.971	98.69
305.201	86.69
305.431	87.69
305.661	70.69
305.891	102.69
306.121	91.69
306.352	109.69
306.582	95.69
306.812	90.69
307.042	90.69
307.272	103.69
307.502	101.69
307.731	92.69
307.961	90.69
308.191	89.69
308.421	92.69
308.651	91.69
308.881	81.69
309.111	88.69
309.341	85.69
309.571	102.69
309.8	103.69
310.03	101.69
310.26	113.69
310.49	94.69
310.72	97.69
310.949	94.69
311.179	95.69
311.409	100.69
311.639	96.69
311.868	83.69
312.098	96.69
312.328	97.69
312.557	104.69
312.787	95.69
313.017	92.69
313.246	97.69
313.476	84.69
313.706	98.69
313.935	89.69
314.165	103.69
314.394	98.69
314.624	92.69
314.853	106.69
315.083	101.69
315.312	96.69
315.542	82.69
315.771	98.69
316.001	100.69
316.23	97.69
316.46	71.69
316.689	83.69
316.919	90.69
317.148	98.69
317.377	80.69
317.607	99.69
317.836	100.69
318.065	89.69
318.295	94.69
318.524	84.69
318.753	96.69
318.983	86.69
319.212	90.69
319.441	102.69
319.67	103.69
319.9	94.69
320.129	93.69
320.358	84.69
320.587	98.69
320.816	88.69
321.046	96.69
321.275	86.69
321.504	88.69
321.733	88.69
321.962	100.69
322.191	102.69
322.42	91.69
322.649	111.69
322.878	101.69
323.108	120.69
323.337	130.69
323.566	152.69
323.795	163.69
324.024	210.69
324.253	409.69
324.482	867.69
324.71	1823.69
324.939	2368.69
325.168	849.69
325.397	250.69
325.626	153.69
325.855	124.69
326.084	119.69
326.313	132.69
326.542	154.69
326.77	242.69
326.999	481.69
327.228	1010.69
327.457	1858.69
327.686	1439.69
327.914	387.69
328.143	192.69
328.372	150.69
328.6	108.69
328.829	118.69
329.058	123.69
329.287	128.69
329.515	114.69
329.744	97.69
329.972	103.69
330.201	92.69
330.43	103.69
330.658	125.69
330.887	128.69
331.115	131.69
331.344	108.69
331.572	114.69
331.801	118.69
332.03	110.69
332.258	81.69
332.486	102.69
332.715	103.69
332.943	89.69
333.172	105.69
333.4	98.69
333.629	102.69
333.857	126.69
334.085	96.69
334.314	98.69
334.542	101.69
334.771	92.69
334.999	85.69
335.227	85.69
335.455	83.69
335.684	90.69
335.912	100.69
336.14	83.69
336.369	94.69
336.597	104.69
336.825	103.69
337.053	92.69
337.281	90.69
337.51	90.69
337.738	91.69
337.966	96.69
338.194	102.69
338.422	96.69
338.65	84.69
338.878	89.69
339.106	90.69
339.334	89.69
339.562	83.69
339.79	82.69
340.018	82.69
340.246	102.69
340.474	89.69
340.702	92.69
340.93	96.69
341.158	96.69
341.386	105.69
341.614	93.69
341.842	99.69
342.07	88.69
342.298	117.69
342.526	92.69
342.754	85.69
342.981	92.69
343.209	100.69
343.437	93.69
343.665	95.69
343.893	80.69
344.12	95.69
344.348	93.69
344.576	80.69
344.804	101.69
345.031	85.69
345.259	105.69
345.487	78.69
345.714	96.69
345.942	90.69
346.17	83.69
346.397	83.69
346.625	89.69
346.853	87.69
347.08	101.69
347.308	98.69
347.535	84.69
347.763	98.69
347.99	106.69
348.218	105.69
348.445	108.69
348.673	103.69
348.9	89.69
349.128	101.69
349.355	77.69
349.583	92.69
349.81	94.69
350.037	104.69
350.265	93.69
350.492	108.69
350.72	93.69
350.947	91.69
351.174	99.69
351.402	103.69
351.629	90.69
351.856	113.69
352.083	94.69
352.311	101.69
352.538	104.69
352.765	97.69
352.992	119.69
353.22	116.69
353.447	104.69
353.674	109.69
353.901	99.69
354.128	84.69
354.355	96.69
354.583	96.69
354.81	106.69
355.037	97.69
355.264	93.69
355.491	104.69
355.718	97.69
355.945	86.69
356.172	106.69
356.399	99.69
356.626	93.69
356.853	90.69
357.08	84.69
357.307	83.69
357.534	82.69
357.761	87.69
357.988	89.69
358.215	89.69
358.441	102.69
358.668	79.69
358.895	93.69
359.122	98.69
359.349	96.69
359.576	85.69
359.802	103.69
360.029	102.69
360.256	105.69
360.483	85.69
360.709	77.69
360.936	93.69
361.163	104.69
361.39	85.69
361.616	101.69
361.843	83.69
362.07	82.69
362.296	105.69
362.523	91.69
362.749	94.69
362.976	89.69
363.203	86.69
363.429	94.69
363.656	95.69
363.882	88.69
364.109	80.69
364.335	90.69
364.562	90.69
364.788	90.69
365.015	89.69
365.241	107.69
365.468	96.69
365.694	105.69
365.92	106.69
366.147	77.69
366.373	85.69
366.599	88.69
366.826	84.69
367.052	75.69
367.278	90.69
367.505	96.69
367.731	95.69
367.957	76.69
368.184	88.69
368.41	99.69
368.636	124.69
368.862	110.69
369.089	87.69
369.315	96.69
369.541	86.69
369.767	82.69
369.993	93.69
370.219	89.69
370.445	90.69
370.672	95.69
370.898	97.69
371.124	89.69
371.35	101.69
371.576	86.69
371.802	82.69
372.028	89.69
372.254	97.69
372.48	87.69
372.706	94.69
372.932	89.69
373.158	88.69
373.384	105.69
373.61	101.69
373.835	88.69
374.061	90.69
374.287	105.69
374.513	90.69
374.739	95.69
374.965	80.69
375.191	81.69
375.416	82.69
375.642	86.69
375.868	98.69
376.094	97.69
376.319	85.69
376.545	83.69
376.771	97.69
376.997	96.69
377.222	81.69
377.448	93.69
377.674	80.69
377.899	80.69
378.125	97.69
378.35	95.69
378.576	100.69
378.802	94.69
379.027	81.69
379.253	84.69
379.478	95.69
379.704	103.69
379.929	73.69
380.155	91.69
380.38	103.69
380.606	100.69
380.831	109.69
381.057	108.69
381.282	92.69
381.507	90.69
381.733	90.69
381.958	109.69
382.184	82.69
382.409	98.69
382.634	106.69
382.86	99.69
383.085	93.69
383.31	95.69
383.535	106.69
383.761	98.69
383.986	102.69
384.211	88.69
384.436	98.69
384.662	88.69
384.887	113.69
385.112	103.69
385.337	106.69
385.562	94.69
385.787	97.69
386.013	116.69
386.238	118.69
386.463	108.69
386.688	122.69
386.913	100.69
387.138	95.69
387.363	95.69
387.588	88.69
387.813	89.69
388.038	115.69
388.263	102.69
388.488	101.69
388.713	96.69
388.938	95.69
389.163	92.69
389.387	96.69
389.612	102.69
389.837	77.69
390.062	77.69
390.287	80.69
390.512	93.69
390.736	100.69
390.961	93.69
391.186	97.69
391.411	116.69
391.636	87.69
391.86	77.69
392.085	79.69
392.31	77.69
392.534	95.69
392.759	89.69
392.984	77.69
393.208	94.69
393.433	90.69
393.658	94.69
393.882	90.69
394.107	97.69
394.331	69.69
394.556	83.69
394.78	86.69
395.005	96.69
395.229	68.69
395.454	74.69
395.678	84.69
395.903	82.69
396.127	101.69
396.352	85.69
396.576	82.69
396.801	81.69
397.025	84.69
397.249	93.69
397.474	82.69
397.698	96.69
397.922	67.69
398.147	100.69
398.371	82.69
398.595	89.69
398.82	82.69
399.044	91.69
399.268	80.69
399.492	74.69
399.717	86.69
399.941	69.69
400.165	99.69
400.389	100.69
400.613	96.69
400.837	94.69
401.062	93.69
401.286	82.69
401.51	85.69
401.734	89.69
401.958	91.69
402.182	119.69
402.406	144.69
402.63	118.69
402.854	100.69
403.078	75.69
403.302	97.69
403.526	87.69
403.75	91.69
403.974	89.69
404.198	92.69
404.422	89.69
404.645	90.69
404.869	104.69
405.093	80.69
405.317	78.69
405.541	84.69
405.765	102.69
405.988	121.69
406.212	180.69
406.436	209.69
406.66	131.69
406.883	93.69
407.107	96.69
407.331	96.69
407.555	101.69
407.778	89.69
408.002	86.69
408.226	100.69
408.449	80.69
408.673	76.69
408.896	80.69
409.12	95.69
409.344	103.69
409.567	91.69
409.791	82.69
410.014	108.69
410.238	104.69
410.461	91.69
410.685	96.69
410.908	104.69
411.132	102.69
411.355	86.69
411.578	87.69
411.802	82.69
412.025	85.69
412.249	98.69
412.472	87.69
412.695	90.69
412.919	92.69
413.142	78.69
413.365	71.69
413.589	88.69
413.812	91.69
414.035	97.69
414.258	87.69
414.482	92.69
414.705	79.69
414.928	89.69
415.151	86.69
415.374	90.69
415.597	85.69
415.821	94.69
416.044	78.69
416.267	96.69
416.49	89.69
416.713	96.69
416.936	81.69
417.159	85.69
417.382	90.69
417.605	93.69
417.828	86.69
418.051	73.69
418.274	89.69
418.497	90.69
418.72	87.69
418.943	88.69
419.166	90.69
419.389	83.69
419.611	98.69
419.834	81.69
420.057	86.69
420.28	91.69
420.503	80.69
420.726	90.69
420.948	86.69
421.171	95.69
421.394	81.69
421.617	105.69
421.839	92.69
422.062	101.69
422.285	93.69
422.507	103.69
422.73	105.69
422.953	81.69
423.175	97.69
423.398	79.69
423.621	95.69
423.843	81.69
424.066	71.69
424.288	78.69
424.511	84.69
424.733	91.69
424.956	95.69
425.178	106.69
425.401	96.69
425.623	96.69
425.846	86.69
426.068	98.69
426.291	91.69
426.513	78.69
426.735	95.69
426.958	88.69
427.18	107.69
427.402	121.69
427.625	154.69
427.847	124.69
428.069	104.69
428.292	93.69
428.514	82.69
428.736	85.69
428.958	65.69
429.181	81.69
429.403	67.69
429.625	93.69
429.847	94.69
430.069	90.69
430.292	100.69
430.514	82.69
430.736	68.69
430.958	78.69
431.18	77.69
431.402	82.69
431.624	78.69
431.846	87.69
432.068	88.69
432.29	78.69
432.512	80.69
432.734	89.69
432.956	87.69
433.178	98.69
433.4	103.69
433.622	92.69
433.844	96.69
434.066	88.69
434.287	100.69
434.509	87.69
434.731	89.69
434.953	82.69
435.175	96.69
435.397	101.69
435.618	81.69
435.84	93.69
436.062	115.69
436.284	98.69
436.505	100.69
436.727	94.69
436.949	95.69
437.17	99.69
437.392	98.69
437.614	90.69
437.835	104.69
438.057	126.69
438.278	104.69
438.5	116.69
438.721	118.69
438.943	101.69
439.165	86.69
439.386	80.69
439.608	78.69
439.829	94.69
440.05	105.69
440.272	134.69
440.493	98.69
440.715	93.69
440.936	90.69
441.158	84.69
441.379	81.69
441.6	86.69
441.822	87.69
442.043	90.69
442.264	94.69
442.486	94.69
442.707	97.69
442.928	112.69
443.149	121.69
443.371	112.69
443.592	109.69
443.813	101.69
444.034	114.69
444.255	88.69
444.476	90.69
444.698	88.69
444.919	80.69
445.14	137.69
445.361	118.69
445.582	110.69
445.803	134.69
446.024	125.69
446.245	134.69
446.466	108.69
446.687	79.69
446.908	96.69
447.129	73.69
447.35	97.69
447.571	85.69
447.792	97.69
448.013	97.69
448.234	98.69
448.455	99.69
448.675	102.69
448.896	112.69
449.117	90.69
449.338	86.69
449.559	129.69
449.779	141.69
450	94.69
450.221	87.69
450.442	77.69
450.662	90.69
450.883	84.69
451.104	104.69
451.324	94.69
451.545	87.69
451.766	73.69
451.986	72.69
452.207	102.69
452.428	88.69
452.648	102.69
452.869	101.69
453.089	103.69
453.31	124.69
453.53	97.69
453.751	84.69
453.971	113.69
454.192	112.69
454.412	84.69
454.633	92.69
454.853	98.69
455.073	93.69
455.294	94.69
455.514	89.69
455.734	101.69
455.955	80.69
456.175	80.69
456.395	89.69
456.616	80.69
456.836	89.69
457.056	81.69
457.276	84.69
457.497	77.69
457.717	76.69
457.937	84.69
458.157	88.69
458.377	97.69
458.598	104.69
458.818	145.69
459.038	147.69
459.258	116.69
459.478	84.69
459.698	97.69
459.918	84.69
460.138	76.69
460.358	87.69
460.578	89.69
460.798	79.69
461.018	91.69
461.238	99.69
461.458	73.69
461.678	101.69
461.898	99.69
462.118	84.69
462.338	84.69
462.558	89.69
462.777	96.69
462.997	95.69
463.217	88.69
463.437	86.69
463.657	97.69
463.876	91.69
464.096	103.69
464.316	115.69
464.536	93.69
464.755	91.69
464.975	101.69
465.195	166.69
465.414	134.69
465.634	100.69
465.854	96.69
466.073	95.69
466.293	98.69
466.512	85.69
466.732	81.69
466.951	86.69
467.171	100.69
467.391	93.69
467.61	109.69
467.829	110.69
468.049	86.69
468.268	90.69
468.488	85.69
468.707	78.69
468.927	72.69
469.146	84.69
469.365	82.69
469.585	95.69
469.804	97.69
470.023	96.69
470.243	94.69
470.462	95.69
470.681	110.69
470.901	89.69
471.12	90.69
471.339	84.69
471.558	72.69
471.777	85.69
471.997	98.69
472.216	77.69
472.435	86.69
472.654	91.69
472.873	87.69
473.092	92.69
473.311	96.69
473.53	90.69
473.749	82.69
473.968	89.69
474.187	91.69
474.406	97.69
474.625	105.69
474.844	95.69
475.063	101.69
475.282	78.69
475.501	94.69
475.72	81.69
475.939	88.69
476.158	78.69
476.377	97.69
476.596	92.69
476.814	89.69
477.033	91.69
477.252	79.69
477.471	84.69
477.69	92.69
477.908	71.69
478.127	76.69
478.346	83.69
478.564	89.69
478.783	102.69
479.002	93.69
479.22	93.69
479.439	81.69
479.658	97.69
479.876	92.69
480.095	81.69
480.313	85.69
480.532	88.69
480.751	77.69
480.969	90.69
481.188	111.69
481.406	90.69
481.624	97.69
481.843	84.69
482.061	104.69
482.28	105.69
482.498	90.69
482.717	90.69
482.935	71.69
483.153	90.69
483.372	103.69
483.59	83.69
483.808	87.69
484.027	95.69
484.245	103.69
484.463	87.69
484.681	96.69
484.9	94.69
485.118	93.69
485.336	87.69
485.554	105.69
485.772	105.69
485.99	84.69
486.209	101.69
486.427	97.69
486.645	113.69
486.863	103.69
487.081	100.69
487.299	85.69
487.517	92.69
487.735	86.69
487.953	98.69
488.171	99.69
488.389	93.69
488.607	78.69
488.825	85.69
489.043	89.69
489.261	103.69
489.479	84.69
489.696	88.69
489.914	81.69
490.132	102.69
490.35	105.69
490.568	100.69
490.786	99.69
491.003	97.69
491.221	90.69
491.439	90.69
491.657	95.69
491.874	102.69
492.092	79.69
492.31	106.69
492.527	83.69
492.745	81.69
492.963	104.69
493.18	90.69
493.398	91.69
493.615	89.69
493.833	107.69
494.05	83.69
494.268	84.69
494.485	103.69
494.703	80.69
494.92	78.69
495.138	84.69
495.355	83.69
495.573	89.69
495.79	95.69
496.008	79.69
496.225	79.69
496.442	94.69
496.66	88.69
496.877	72.69
497.094	93.69
497.312	86.69
497.529	95.69
497.746	90.69
497.963	91.69
498.181	97.69
498.398	95.69
498.615	113.69
498.832	103.69
499.049	84.69
499.267	84.69
499.484	81.69
499.701	89.69
499.918	94.69
500.135	93.69
500.352	87.69
500.569	93.69
500.786	93.69
501.003	85.69
501.22	85.69
501.437	105.69
501.654	107.69
501.871	104.69
502.088	87.69
502.305	93.69
502.522	92.69
502.739	97.69
502.956	86.69
503.172	81.69
503.389	101.69
503.606	96.69
503.823	97.69
504.04	65.69
504.256	80.69
504.473	90.69
504.69	101.69
504.907	108.69
505.123	78.69
505.34	84.69
505.557	95.69
505.773	97.69
505.99	79.69
506.207	92.69
506.423	93.69
506.64	75.69
506.856	91.69
507.073	82.69
507.289	88.69
507.506	103.69
507.722	119.69
507.939	113.69
508.155	107.69
508.372	92.69
508.588	82.69
508.805	96.69
509.021	101.69
509.238	93.69
509.454	81.69
509.67	114.69
509.887	105.69
510.103	129.69
510.319	204.69
510.536	788.69
510.752	2383.69
510.968	677.69
511.184	174.69
511.401	112.69
511.617	109.69
511.833	93.69
512.049	100.69
512.265	104.69
512.481	89.69
512.698	94.69
512.914	90.69
513.13	100.69
513.346	90.69
513.562	96.69
513.778	78.69
513.994	92.69
514.21	97.69
514.426	115.69
514.642	128.69
514.858	126.69
515.074	159.69
515.29	446.69
515.506	1465.69
515.721	536.69
515.937	158.69
