Data from Uncirc_2003_H10_HRD10591_00014.txt Node
Date: Wed Jan 03 10:35:50 EST 2024
User: Yrep
Spectrometer: HR+D1059
Trigger mode: 1
Integration Time (sec): 1.000000E-1
Scans to average: 1
Electric dark correction enabled: true
Nonlinearity correction enabled: false
Boxcar width: 0
XAxis mode: Wavelengths
Number of Pixels in Spectrum: 2048
>>>>>Begin Spectral Data<<<<<
223.165	-18.69
223.4	-18.69
223.635	-18.69
223.869	-19.69
224.104	-18.69
224.338	-14.69
224.573	-20.69
224.808	-16.69
225.042	-8.69
225.277	-1.69
225.511	4.31
225.746	4.31
225.98	1.31
226.215	17.31
226.449	13.31
226.683	13.31
226.918	29.31
227.152	36.31
227.387	23.31
227.621	22.31
227.856	39.31
228.09	44.31
228.324	24.31
228.559	42.31
228.793	51.31
229.027	50.31
229.262	62.31
229.496	81.31
229.73	80.31
229.964	70.31
230.199	70.31
230.433	69.31
230.667	64.31
230.901	69.31
231.136	71.31
231.37	66.31
231.604	65.31
231.838	61.31
232.072	73.31
232.306	64.31
232.541	66.31
232.775	72.31
233.009	78.31
233.243	69.31
233.477	68.31
233.711	73.31
233.945	85.31
234.179	76.31
234.413	70.31
234.647	67.31
234.881	73.31
235.115	72.31
235.349	82.31
235.583	72.31
235.817	82.31
236.051	68.31
236.285	69.31
236.519	76.31
236.753	77.31
236.987	69.31
237.221	81.31
237.455	72.31
237.689	64.31
237.922	58.31
238.156	59.31
238.39	64.31
238.624	80.31
238.858	61.31
239.091	70.31
239.325	75.31
239.559	85.31
239.793	73.31
240.027	77.31
240.26	70.31
240.494	73.31
240.728	62.31
240.961	77.31
241.195	76.31
241.429	55.31
241.662	64.31
241.896	64.31
242.13	88.31
242.363	69.31
242.597	73.31
242.83	76.31
243.064	70.31
243.298	66.31
243.531	69.31
243.765	67.31
243.998	74.31
244.232	81.31
244.465	76.31
244.699	80.31
244.932	64.31
245.166	68.31
245.399	70.31
245.633	68.31
245.866	70.31
246.099	73.31
246.333	77.31
246.566	65.31
246.8	72.31
247.033	88.31
247.266	72.31
247.5	68.31
247.733	82.31
247.966	74.31
248.2	76.31
248.433	76.31
248.666	78.31
248.899	79.31
249.133	81.31
249.366	85.31
249.599	99.31
249.832	88.31
250.066	75.31
250.299	72.31
250.532	87.31
250.765	75.31
250.998	80.31
251.231	90.31
251.465	83.31
251.698	73.31
251.931	69.31
252.164	70.31
252.397	85.31
252.63	82.31
252.863	76.31
253.096	86.31
253.329	90.31
253.562	81.31
253.795	79.31
254.028	63.31
254.261	67.31
254.494	54.31
254.727	63.31
254.96	82.31
255.193	69.31
255.426	86.31
255.659	80.31
255.892	78.31
256.124	72.31
256.357	58.31
256.59	77.31
256.823	81.31
257.056	73.31
257.289	77.31
257.521	79.31
257.754	76.31
257.987	81.31
258.22	79.31
258.452	83.31
258.685	80.31
258.918	83.31
259.151	76.31
259.383	79.31
259.616	78.31
259.849	68.31
260.081	82.31
260.314	84.31
260.547	72.31
260.779	71.31
261.012	66.31
261.244	73.31
261.477	90.31
261.71	79.31
261.942	96.31
262.175	102.31
262.407	88.31
262.64	81.31
262.872	72.31
263.105	85.31
263.337	77.31
263.57	76.31
263.802	89.31
264.035	69.31
264.267	75.31
264.499	70.31
264.732	71.31
264.964	83.31
265.197	78.31
265.429	77.31
265.661	88.31
265.894	83.31
266.126	72.31
266.358	67.31
266.591	65.31
266.823	71.31
267.055	87.31
267.287	88.31
267.52	80.31
267.752	67.31
267.984	81.31
268.216	75.31
268.448	80.31
268.681	76.31
268.913	93.31
269.145	85.31
269.377	77.31
269.609	73.31
269.841	80.31
270.073	72.31
270.306	66.31
270.538	78.31
270.77	84.31
271.002	74.31
271.234	94.31
271.466	94.31
271.698	83.31
271.93	69.31
272.162	76.31
272.394	82.31
272.626	83.31
272.858	84.31
273.09	85.31
273.322	85.31
273.553	71.31
273.785	79.31
274.017	68.31
274.249	77.31
274.481	60.31
274.713	89.31
274.945	94.31
275.176	84.31
275.408	80.31
275.64	77.31
275.872	80.31
276.104	72.31
276.335	88.31
276.567	93.31
276.799	100.31
277.031	96.31
277.262	80.31
277.494	82.31
277.726	73.31
277.957	78.31
278.189	93.31
278.421	72.31
278.652	74.31
278.884	85.31
279.115	82.31
279.347	102.31
279.579	80.31
279.81	98.31
280.042	83.31
280.273	86.31
280.505	70.31
280.736	91.31
280.968	82.31
281.199	77.31
281.431	66.31
281.662	72.31
281.894	95.31
282.125	95.31
282.356	108.31
282.588	128.31
282.819	111.31
283.051	88.31
283.282	75.31
283.513	92.31
283.745	81.31
283.976	97.31
284.207	80.31
284.439	77.31
284.67	91.31
284.901	67.31
285.132	87.31
285.364	87.31
285.595	82.31
285.826	70.31
286.057	86.31
286.288	88.31
286.52	78.31
286.751	79.31
286.982	73.31
287.213	78.31
287.444	76.31
287.675	83.31
287.906	85.31
288.138	82.31
288.369	92.31
288.6	75.31
288.831	80.31
289.062	68.31
289.293	82.31
289.524	70.31
289.755	99.31
289.986	83.31
290.217	72.31
290.448	70.31
290.679	64.31
290.91	81.31
291.141	83.31
291.371	73.31
291.602	72.31
291.833	90.31
292.064	90.31
292.295	80.31
292.526	88.31
292.757	86.31
292.987	93.31
293.218	86.31
293.449	82.31
293.68	94.31
293.91	73.31
294.141	82.31
294.372	67.31
294.603	76.31
294.833	69.31
295.064	82.31
295.295	81.31
295.525	77.31
295.756	98.31
295.987	117.31
296.217	131.31
296.448	113.31
296.679	74.31
296.909	76.31
297.14	86.31
297.37	83.31
297.601	87.31
297.831	87.31
298.062	79.31
298.292	80.31
298.523	81.31
298.753	73.31
298.984	82.31
299.214	69.31
299.445	91.31
299.675	77.31
299.905	88.31
300.136	80.31
300.366	90.31
300.597	94.31
300.827	89.31
301.057	87.31
301.288	81.31
301.518	86.31
301.748	85.31
301.979	93.31
302.209	67.31
302.439	68.31
302.669	91.31
302.9	78.31
303.13	83.31
303.36	85.31
303.59	79.31
303.82	90.31
304.051	70.31
304.281	94.31
304.511	92.31
304.741	78.31
304.971	65.31
305.201	93.31
305.431	82.31
305.661	76.31
305.891	86.31
306.121	88.31
306.352	86.31
306.582	95.31
306.812	89.31
307.042	89.31
307.272	101.31
307.502	80.31
307.731	101.31
307.961	91.31
308.191	93.31
308.421	79.31
308.651	73.31
308.881	87.31
309.111	92.31
309.341	92.31
309.571	89.31
309.8	91.31
310.03	106.31
310.26	89.31
310.49	88.31
310.72	90.31
310.949	91.31
311.179	94.31
311.409	77.31
311.639	94.31
311.868	85.31
312.098	86.31
312.328	80.31
312.557	86.31
312.787	106.31
313.017	87.31
313.246	92.31
313.476	92.31
313.706	90.31
313.935	83.31
314.165	86.31
314.394	101.31
314.624	96.31
314.853	99.31
315.083	88.31
315.312	89.31
315.542	81.31
315.771	98.31
316.001	94.31
316.23	93.31
316.46	83.31
316.689	68.31
316.919	74.31
317.148	102.31
317.377	92.31
317.607	84.31
317.836	91.31
318.065	79.31
318.295	100.31
318.524	83.31
318.753	83.31
318.983	93.31
319.212	100.31
319.441	89.31
319.67	105.31
319.9	81.31
320.129	82.31
320.358	89.31
320.587	91.31
320.816	92.31
321.046	89.31
321.275	92.31
321.504	91.31
321.733	97.31
321.962	96.31
322.191	90.31
322.42	100.31
322.649	102.31
322.878	111.31
323.108	116.31
323.337	116.31
323.566	122.31
323.795	144.31
324.024	218.31
324.253	397.31
324.482	898.31
324.71	1761.31
324.939	2345.31
325.168	826.31
325.397	224.31
325.626	138.31
325.855	132.31
326.084	115.31
326.313	122.31
326.542	148.31
326.77	228.31
326.999	476.31
327.228	956.31
327.457	1739.31
327.686	1413.31
327.914	377.31
328.143	180.31
328.372	124.31
328.6	107.31
328.829	106.31
329.058	117.31
329.287	123.31
329.515	121.31
329.744	95.31
329.972	81.31
330.201	107.31
330.43	112.31
330.658	104.31
330.887	126.31
331.115	128.31
331.344	100.31
331.572	99.31
331.801	99.31
332.03	103.31
332.258	84.31
332.486	93.31
332.715	92.31
332.943	77.31
333.172	101.31
333.4	91.31
333.629	100.31
333.857	108.31
334.085	92.31
334.314	77.31
334.542	97.31
334.771	94.31
334.999	93.31
335.227	92.31
335.455	99.31
335.684	91.31
335.912	92.31
336.14	85.31
336.369	91.31
336.597	91.31
336.825	94.31
337.053	101.31
337.281	89.31
337.51	99.31
337.738	83.31
337.966	90.31
338.194	75.31
338.422	91.31
338.65	91.31
338.878	93.31
339.106	89.31
339.334	90.31
339.562	87.31
339.79	94.31
340.018	92.31
340.246	92.31
340.474	84.31
340.702	86.31
340.93	90.31
341.158	82.31
341.386	98.31
341.614	86.31
341.842	89.31
342.07	80.31
342.298	87.31
342.526	82.31
342.754	84.31
342.981	82.31
343.209	92.31
343.437	85.31
343.665	91.31
343.893	91.31
344.12	94.31
344.348	98.31
344.576	82.31
344.804	104.31
345.031	101.31
345.259	93.31
345.487	104.31
345.714	77.31
345.942	78.31
346.17	81.31
346.397	74.31
346.625	95.31
346.853	95.31
347.08	89.31
347.308	88.31
347.535	84.31
347.763	93.31
347.99	90.31
348.218	89.31
348.445	105.31
348.673	91.31
348.9	92.31
349.128	92.31
349.355	86.31
349.583	98.31
349.81	100.31
350.037	98.31
350.265	91.31
350.492	86.31
350.72	90.31
350.947	96.31
351.174	102.31
351.402	104.31
351.629	103.31
351.856	92.31
352.083	102.31
352.311	106.31
352.538	99.31
352.765	109.31
352.992	106.31
353.22	92.31
353.447	97.31
353.674	107.31
353.901	94.31
354.128	91.31
354.355	100.31
354.583	94.31
354.81	84.31
355.037	68.31
355.264	84.31
355.491	90.31
355.718	74.31
355.945	82.31
356.172	97.31
356.399	107.31
356.626	87.31
356.853	94.31
357.08	96.31
357.307	95.31
357.534	87.31
357.761	97.31
357.988	106.31
358.215	96.31
358.441	99.31
358.668	78.31
358.895	88.31
359.122	75.31
359.349	79.31
359.576	89.31
359.802	89.31
360.029	97.31
360.256	94.31
360.483	86.31
360.709	94.31
360.936	85.31
361.163	93.31
361.39	90.31
361.616	94.31
361.843	82.31
362.07	88.31
362.296	74.31
362.523	79.31
362.749	89.31
362.976	82.31
363.203	103.31
363.429	93.31
363.656	92.31
363.882	95.31
364.109	95.31
364.335	82.31
364.562	89.31
364.788	91.31
365.015	104.31
365.241	95.31
365.468	96.31
365.694	100.31
365.92	92.31
366.147	82.31
366.373	89.31
366.599	91.31
366.826	84.31
367.052	92.31
367.278	74.31
367.505	85.31
367.731	88.31
367.957	82.31
368.184	79.31
368.41	92.31
368.636	119.31
368.862	111.31
369.089	97.31
369.315	105.31
369.541	96.31
369.767	87.31
369.993	98.31
370.219	92.31
370.445	87.31
370.672	81.31
370.898	83.31
371.124	80.31
371.35	89.31
371.576	105.31
371.802	77.31
372.028	83.31
372.254	84.31
372.48	106.31
372.706	75.31
372.932	87.31
373.158	77.31
373.384	64.31
373.61	80.31
373.835	78.31
374.061	71.31
374.287	80.31
374.513	79.31
374.739	90.31
374.965	99.31
375.191	76.31
375.416	79.31
375.642	86.31
375.868	94.31
376.094	89.31
376.319	92.31
376.545	73.31
376.771	80.31
376.997	90.31
377.222	95.31
377.448	84.31
377.674	82.31
377.899	70.31
378.125	78.31
378.35	87.31
378.576	85.31
378.802	89.31
379.027	85.31
379.253	100.31
379.478	73.31
379.704	78.31
379.929	74.31
380.155	104.31
380.38	96.31
380.606	96.31
380.831	82.31
381.057	89.31
381.282	105.31
381.507	87.31
381.733	89.31
381.958	86.31
382.184	85.31
382.409	92.31
382.634	97.31
382.86	96.31
383.085	108.31
383.31	97.31
383.535	94.31
383.761	102.31
383.986	101.31
384.211	104.31
384.436	102.31
384.662	102.31
384.887	98.31
385.112	105.31
385.337	99.31
385.562	96.31
385.787	99.31
386.013	98.31
386.238	130.31
386.463	101.31
386.688	98.31
386.913	108.31
387.138	102.31
387.363	103.31
387.588	106.31
387.813	92.31
388.038	105.31
388.263	97.31
388.488	96.31
388.713	89.31
388.938	81.31
389.163	102.31
389.387	86.31
389.612	82.31
389.837	87.31
390.062	87.31
390.287	89.31
390.512	83.31
390.736	88.31
390.961	87.31
391.186	84.31
391.411	98.31
391.636	90.31
391.86	77.31
392.085	91.31
392.31	64.31
392.534	79.31
392.759	69.31
392.984	66.31
393.208	77.31
393.433	104.31
393.658	84.31
393.882	85.31
394.107	95.31
394.331	83.31
394.556	76.31
394.78	81.31
395.005	92.31
395.229	96.31
395.454	104.31
395.678	76.31
395.903	86.31
396.127	96.31
396.352	80.31
396.576	86.31
396.801	77.31
397.025	81.31
397.249	84.31
397.474	80.31
397.698	70.31
397.922	73.31
398.147	70.31
398.371	92.31
398.595	88.31
398.82	75.31
399.044	70.31
399.268	74.31
399.492	79.31
399.717	97.31
399.941	81.31
400.165	74.31
400.389	99.31
400.613	84.31
400.837	80.31
401.062	94.31
401.286	89.31
401.51	88.31
401.734	88.31
401.958	91.31
402.182	107.31
402.406	163.31
402.63	103.31
402.854	77.31
403.078	94.31
403.302	74.31
403.526	85.31
403.75	96.31
403.974	83.31
404.198	84.31
404.422	71.31
404.645	82.31
404.869	90.31
405.093	87.31
405.317	98.31
405.541	86.31
405.765	96.31
405.988	101.31
406.212	169.31
406.436	218.31
406.66	149.31
406.883	75.31
407.107	83.31
407.331	98.31
407.555	92.31
407.778	85.31
408.002	78.31
408.226	79.31
408.449	83.31
408.673	94.31
408.896	79.31
409.12	96.31
409.344	89.31
409.567	83.31
409.791	91.31
410.014	98.31
410.238	96.31
410.461	81.31
410.685	82.31
410.908	90.31
411.132	100.31
411.355	97.31
411.578	95.31
411.802	88.31
412.025	90.31
412.249	97.31
412.472	96.31
412.695	76.31
412.919	80.31
413.142	91.31
413.365	77.31
413.589	82.31
413.812	78.31
414.035	81.31
414.258	84.31
414.482	86.31
414.705	96.31
414.928	96.31
415.151	81.31
415.374	97.31
415.597	98.31
415.821	79.31
416.044	96.31
416.267	77.31
416.49	70.31
416.713	92.31
416.936	76.31
417.159	91.31
417.382	68.31
417.605	88.31
417.828	82.31
418.051	76.31
418.274	72.31
418.497	77.31
418.72	76.31
418.943	76.31
419.166	89.31
419.389	83.31
419.611	83.31
419.834	79.31
420.057	88.31
420.28	80.31
420.503	71.31
420.726	78.31
420.948	85.31
421.171	100.31
421.394	90.31
421.617	77.31
421.839	81.31
422.062	103.31
422.285	86.31
422.507	89.31
422.73	79.31
422.953	83.31
423.175	84.31
423.398	95.31
423.621	93.31
423.843	83.31
424.066	78.31
424.288	84.31
424.511	71.31
424.733	95.31
424.956	92.31
425.178	79.31
425.401	89.31
425.623	99.31
425.846	83.31
426.068	91.31
426.291	79.31
426.513	80.31
426.735	85.31
426.958	93.31
427.18	88.31
427.402	124.31
427.625	147.31
427.847	120.31
428.069	80.31
428.292	81.31
428.514	80.31
428.736	98.31
428.958	79.31
429.181	81.31
429.403	72.31
429.625	76.31
429.847	87.31
430.069	58.31
430.292	86.31
430.514	78.31
430.736	96.31
430.958	85.31
431.18	91.31
431.402	82.31
431.624	90.31
431.846	79.31
432.068	80.31
432.29	86.31
432.512	66.31
432.734	85.31
432.956	83.31
433.178	83.31
433.4	90.31
433.622	71.31
433.844	84.31
434.066	80.31
434.287	73.31
434.509	83.31
434.731	86.31
434.953	82.31
435.175	80.31
435.397	81.31
435.618	100.31
435.84	92.31
436.062	123.31
436.284	92.31
436.505	104.31
436.727	86.31
436.949	99.31
437.17	91.31
437.392	92.31
437.614	92.31
437.835	114.31
438.057	100.31
438.278	106.31
438.5	112.31
438.721	112.31
438.943	90.31
439.165	73.31
439.386	82.31
439.608	93.31
439.829	87.31
440.05	114.31
440.272	142.31
440.493	92.31
440.715	84.31
440.936	97.31
441.158	81.31
441.379	86.31
441.6	93.31
441.822	100.31
442.043	96.31
442.264	93.31
442.486	89.31
442.707	88.31
442.928	97.31
443.149	121.31
443.371	117.31
443.592	91.31
443.813	89.31
444.034	88.31
444.255	75.31
444.476	90.31
444.698	101.31
444.919	79.31
445.14	122.31
445.361	107.31
445.582	111.31
445.803	112.31
446.024	117.31
446.245	117.31
446.466	95.31
446.687	92.31
446.908	88.31
447.129	81.31
447.35	87.31
447.571	90.31
447.792	92.31
448.013	91.31
448.234	120.31
448.455	83.31
448.675	106.31
448.896	102.31
449.117	80.31
449.338	94.31
449.559	112.31
449.779	114.31
450	93.31
450.221	90.31
450.442	77.31
450.662	74.31
450.883	92.31
451.104	113.31
451.324	74.31
451.545	88.31
451.766	87.31
451.986	88.31
452.207	87.31
452.428	77.31
452.648	89.31
452.869	105.31
453.089	98.31
453.31	133.31
453.53	95.31
453.751	74.31
453.971	92.31
454.192	107.31
454.412	80.31
454.633	77.31
454.853	78.31
455.073	82.31
455.294	85.31
455.514	92.31
455.734	85.31
455.955	83.31
456.175	82.31
456.395	76.31
456.616	75.31
456.836	88.31
457.056	84.31
457.276	90.31
457.497	77.31
457.717	80.31
457.937	83.31
458.157	81.31
458.377	99.31
458.598	96.31
458.818	137.31
459.038	129.31
459.258	113.31
459.478	91.31
459.698	83.31
459.918	73.31
460.138	85.31
460.358	69.31
460.578	90.31
460.798	79.31
461.018	81.31
461.238	84.31
461.458	89.31
461.678	89.31
461.898	76.31
462.118	102.31
462.338	88.31
462.558	96.31
462.777	80.31
462.997	80.31
463.217	88.31
463.437	81.31
463.657	78.31
463.876	95.31
464.096	86.31
464.316	96.31
464.536	78.31
464.755	84.31
464.975	95.31
465.195	155.31
465.414	146.31
465.634	92.31
465.854	81.31
466.073	85.31
466.293	95.31
466.512	81.31
466.732	69.31
466.951	92.31
467.171	87.31
467.391	86.31
467.61	92.31
467.829	96.31
468.049	88.31
468.268	90.31
468.488	82.31
468.707	95.31
468.927	80.31
469.146	79.31
469.365	81.31
469.585	88.31
469.804	92.31
470.023	88.31
470.243	84.31
470.462	100.31
470.681	101.31
470.901	85.31
471.12	85.31
471.339	74.31
471.558	92.31
471.777	81.31
471.997	79.31
472.216	86.31
472.435	91.31
472.654	87.31
472.873	69.31
473.092	94.31
473.311	78.31
473.53	93.31
473.749	90.31
473.968	92.31
474.187	95.31
474.406	76.31
474.625	81.31
474.844	84.31
475.063	84.31
475.282	87.31
475.501	82.31
475.72	91.31
475.939	68.31
476.158	75.31
476.377	61.31
476.596	91.31
476.814	94.31
477.033	83.31
477.252	80.31
477.471	100.31
477.69	76.31
477.908	94.31
478.127	75.31
478.346	78.31
478.564	73.31
478.783	96.31
479.002	90.31
479.22	85.31
479.439	80.31
479.658	108.31
479.876	92.31
480.095	81.31
480.313	109.31
480.532	85.31
480.751	95.31
480.969	88.31
481.188	87.31
481.406	93.31
481.624	81.31
481.843	60.31
482.061	81.31
482.28	69.31
482.498	81.31
482.717	76.31
482.935	97.31
483.153	82.31
483.372	76.31
483.59	98.31
483.808	86.31
484.027	82.31
484.245	88.31
484.463	102.31
484.681	95.31
484.9	84.31
485.118	92.31
485.336	103.31
485.554	91.31
485.772	100.31
485.99	82.31
486.209	106.31
486.427	96.31
486.645	102.31
486.863	101.31
487.081	94.31
487.299	92.31
487.517	95.31
487.735	98.31
487.953	107.31
488.171	94.31
488.389	102.31
488.607	88.31
488.825	68.31
489.043	87.31
489.261	71.31
489.479	88.31
489.696	94.31
489.914	88.31
490.132	75.31
490.35	96.31
490.568	84.31
490.786	91.31
491.003	81.31
491.221	80.31
491.439	80.31
491.657	97.31
491.874	100.31
492.092	102.31
492.31	90.31
492.527	99.31
492.745	90.31
492.963	84.31
493.18	99.31
493.398	88.31
493.615	92.31
493.833	84.31
494.05	91.31
494.268	94.31
494.485	91.31
494.703	93.31
494.92	82.31
495.138	87.31
495.355	89.31
495.573	104.31
495.79	80.31
496.008	82.31
496.225	102.31
496.442	97.31
496.66	75.31
496.877	84.31
497.094	71.31
497.312	84.31
497.529	101.31
497.746	79.31
497.963	80.31
498.181	98.31
498.398	83.31
498.615	98.31
498.832	99.31
499.049	85.31
499.267	80.31
499.484	92.31
499.701	98.31
499.918	86.31
500.135	90.31
500.352	82.31
500.569	90.31
500.786	84.31
501.003	84.31
501.22	97.31
501.437	88.31
501.654	85.31
501.871	89.31
502.088	83.31
502.305	84.31
502.522	89.31
502.739	82.31
502.956	73.31
503.172	90.31
503.389	104.31
503.606	87.31
503.823	91.31
504.04	83.31
504.256	88.31
504.473	96.31
504.69	82.31
504.907	90.31
505.123	80.31
505.34	82.31
505.557	93.31
505.773	97.31
505.99	98.31
506.207	79.31
506.423	96.31
506.64	84.31
506.856	76.31
507.073	80.31
507.289	93.31
507.506	94.31
507.722	110.31
507.939	107.31
508.155	87.31
508.372	86.31
508.588	106.31
508.805	92.31
509.021	99.31
509.238	98.31
509.454	89.31
509.67	104.31
509.887	106.31
510.103	134.31
510.319	221.31
510.536	776.31
510.752	2476.31
510.968	686.31
511.184	149.31
511.401	109.31
511.617	94.31
511.833	77.31
512.049	82.31
512.265	89.31
512.481	80.31
512.698	83.31
512.914	86.31
513.13	92.31
513.346	91.31
513.562	89.31
513.778	95.31
513.994	80.31
514.21	104.31
514.426	108.31
514.642	118.31
514.858	110.31
515.074	149.31
515.29	438.31
515.506	1449.31
515.721	530.31
515.937	141.31
516.153	112.31
516.369	95.31
516.585	90.31
516.801	85.31
517.016	80.31
517.232	85.31
