Data from Uncirc_2003_H10_HRD10591_00051.txt Node
Date: Wed Jan 03 10:35:58 EST 2024
User: Yrep
Spectrometer: HR+D1059
Trigger mode: 1
Integration Time (sec): 1.000000E-1
Scans to average: 1
Electric dark correction enabled: true
Nonlinearity correction enabled: false
Boxcar width: 0
XAxis mode: Wavelengths
Number of Pixels in Spectrum: 2048
>>>>>Begin Spectral Data<<<<<
223.165	-17.62
223.4	-17.62
223.635	-17.62
223.869	-20.62
224.104	-19.62
224.338	-16.62
224.573	-6.62
224.808	-17.62
225.042	-12.62
225.277	-15.62
225.511	-3.62
225.746	2.38
225.98	2.38
226.215	5.38
226.449	19.38
226.683	24.38
226.918	41.38
227.152	35.38
227.387	47.38
227.621	50.38
227.856	40.38
228.09	50.38
228.324	29.38
228.559	55.38
228.793	61.38
229.027	55.38
229.262	68.38
229.496	75.38
229.73	89.38
229.964	95.38
230.199	78.38
230.433	79.38
230.667	79.38
230.901	76.38
231.136	72.38
231.37	74.38
231.604	74.38
231.838	88.38
232.072	74.38
232.306	85.38
232.541	71.38
232.775	80.38
233.009	80.38
233.243	79.38
233.477	89.38
233.711	84.38
233.945	69.38
234.179	73.38
234.413	77.38
234.647	69.38
234.881	84.38
235.115	88.38
235.349	82.38
235.583	81.38
235.817	67.38
236.051	79.38
236.285	96.38
236.519	84.38
236.753	89.38
236.987	89.38
237.221	82.38
237.455	80.38
237.689	67.38
237.922	82.38
238.156	73.38
238.39	74.38
238.624	86.38
238.858	76.38
239.091	72.38
239.325	87.38
239.559	94.38
239.793	89.38
240.027	79.38
240.26	71.38
240.494	73.38
240.728	84.38
240.961	80.38
241.195	68.38
241.429	86.38
241.662	77.38
241.896	74.38
242.13	70.38
242.363	88.38
242.597	77.38
242.83	84.38
243.064	82.38
243.298	83.38
243.531	83.38
243.765	82.38
243.998	84.38
244.232	95.38
244.465	69.38
244.699	91.38
244.932	81.38
245.166	85.38
245.399	82.38
245.633	85.38
245.866	94.38
246.099	74.38
246.333	75.38
246.566	84.38
246.8	82.38
247.033	86.38
247.266	77.38
247.5	78.38
247.733	76.38
247.966	78.38
248.2	77.38
248.433	68.38
248.666	81.38
248.899	84.38
249.133	81.38
249.366	90.38
249.599	110.38
249.832	80.38
250.066	82.38
250.299	69.38
250.532	83.38
250.765	90.38
250.998	88.38
251.231	79.38
251.465	71.38
251.698	90.38
251.931	77.38
252.164	81.38
252.397	85.38
252.63	86.38
252.863	80.38
253.096	73.38
253.329	87.38
253.562	85.38
253.795	81.38
254.028	85.38
254.261	84.38
254.494	93.38
254.727	89.38
254.96	77.38
255.193	86.38
255.426	90.38
255.659	82.38
255.892	76.38
256.124	70.38
256.357	78.38
256.59	91.38
256.823	89.38
257.056	83.38
257.289	88.38
257.521	87.38
257.754	73.38
257.987	73.38
258.22	81.38
258.452	88.38
258.685	78.38
258.918	80.38
259.151	63.38
259.383	101.38
259.616	78.38
259.849	97.38
260.081	71.38
260.314	84.38
260.547	93.38
260.779	75.38
261.012	89.38
261.244	74.38
261.477	91.38
261.71	90.38
261.942	114.38
262.175	105.38
262.407	81.38
262.64	86.38
262.872	100.38
263.105	84.38
263.337	101.38
263.57	88.38
263.802	86.38
264.035	75.38
264.267	68.38
264.499	77.38
264.732	80.38
264.964	81.38
265.197	73.38
265.429	76.38
265.661	70.38
265.894	80.38
266.126	84.38
266.358	86.38
266.591	85.38
266.823	78.38
267.055	95.38
267.287	73.38
267.52	86.38
267.752	85.38
267.984	87.38
268.216	85.38
268.448	93.38
268.681	85.38
268.913	74.38
269.145	102.38
269.377	92.38
269.609	93.38
269.841	97.38
270.073	85.38
270.306	78.38
270.538	87.38
270.77	96.38
271.002	89.38
271.234	90.38
271.466	83.38
271.698	81.38
271.93	74.38
272.162	96.38
272.394	94.38
272.626	82.38
272.858	86.38
273.09	83.38
273.322	106.38
273.553	79.38
273.785	69.38
274.017	97.38
274.249	92.38
274.481	86.38
274.713	77.38
274.945	86.38
275.176	77.38
275.408	102.38
275.64	91.38
275.872	90.38
276.104	90.38
276.335	75.38
276.567	107.38
276.799	101.38
277.031	102.38
277.262	81.38
277.494	89.38
277.726	80.38
277.957	96.38
278.189	84.38
278.421	82.38
278.652	89.38
278.884	86.38
279.115	93.38
279.347	89.38
279.579	95.38
279.81	83.38
280.042	91.38
280.273	89.38
280.505	81.38
280.736	87.38
280.968	79.38
281.199	83.38
281.431	89.38
281.662	89.38
281.894	95.38
282.125	101.38
282.356	131.38
282.588	138.38
282.819	105.38
283.051	85.38
283.282	97.38
283.513	95.38
283.745	88.38
283.976	84.38
284.207	84.38
284.439	87.38
284.67	85.38
284.901	93.38
285.132	84.38
285.364	85.38
285.595	74.38
285.826	80.38
286.057	97.38
286.288	81.38
286.52	87.38
286.751	97.38
286.982	87.38
287.213	71.38
287.444	87.38
287.675	87.38
287.906	87.38
288.138	87.38
288.369	102.38
288.6	101.38
288.831	75.38
289.062	94.38
289.293	99.38
289.524	96.38
289.755	86.38
289.986	88.38
290.217	93.38
290.448	88.38
290.679	96.38
290.91	101.38
291.141	85.38
291.371	101.38
291.602	96.38
291.833	74.38
292.064	100.38
292.295	77.38
292.526	93.38
292.757	71.38
292.987	113.38
293.218	91.38
293.449	78.38
293.68	84.38
293.91	81.38
294.141	79.38
294.372	93.38
294.603	89.38
294.833	95.38
295.064	78.38
295.295	80.38
295.525	107.38
295.756	101.38
295.987	107.38
296.217	133.38
296.448	145.38
296.679	88.38
296.909	84.38
297.14	84.38
297.37	98.38
297.601	92.38
297.831	91.38
298.062	101.38
298.292	80.38
298.523	94.38
298.753	85.38
298.984	87.38
299.214	98.38
299.445	88.38
299.675	94.38
299.905	88.38
300.136	78.38
300.366	67.38
300.597	78.38
300.827	101.38
301.057	101.38
301.288	98.38
301.518	102.38
301.748	91.38
301.979	92.38
302.209	85.38
302.439	81.38
302.669	86.38
302.9	93.38
303.13	96.38
303.36	91.38
303.59	96.38
303.82	117.38
304.051	87.38
304.281	86.38
304.511	95.38
304.741	84.38
304.971	90.38
305.201	96.38
305.431	83.38
305.661	94.38
305.891	88.38
306.121	94.38
306.352	106.38
306.582	103.38
306.812	101.38
307.042	93.38
307.272	109.38
307.502	104.38
307.731	94.38
307.961	81.38
308.191	101.38
308.421	98.38
308.651	88.38
308.881	96.38
309.111	88.38
309.341	93.38
309.571	104.38
309.8	102.38
310.03	85.38
310.26	87.38
310.49	107.38
310.72	88.38
310.949	93.38
311.179	96.38
311.409	97.38
311.639	97.38
311.868	89.38
312.098	95.38
312.328	105.38
312.557	99.38
312.787	102.38
313.017	89.38
313.246	97.38
313.476	105.38
313.706	96.38
313.935	83.38
314.165	107.38
314.394	87.38
314.624	102.38
314.853	100.38
315.083	94.38
315.312	88.38
315.542	90.38
315.771	105.38
316.001	89.38
316.23	95.38
316.46	105.38
316.689	100.38
316.919	87.38
317.148	106.38
317.377	102.38
317.607	87.38
317.836	95.38
318.065	81.38
318.295	96.38
318.524	101.38
318.753	99.38
318.983	101.38
319.212	97.38
319.441	99.38
319.67	100.38
319.9	108.38
320.129	95.38
320.358	85.38
320.587	94.38
320.816	90.38
321.046	90.38
321.275	101.38
321.504	111.38
321.733	102.38
321.962	108.38
322.191	101.38
322.42	95.38
322.649	117.38
322.878	111.38
323.108	133.38
323.337	136.38
323.566	128.38
323.795	143.38
324.024	231.38
324.253	438.38
324.482	908.38
324.71	1856.38
324.939	2465.38
325.168	889.38
325.397	267.38
325.626	151.38
325.855	140.38
326.084	128.38
326.313	143.38
326.542	160.38
326.77	257.38
326.999	498.38
327.228	1032.38
327.457	1883.38
327.686	1465.38
327.914	383.38
328.143	206.38
328.372	123.38
328.6	125.38
328.829	113.38
329.058	125.38
329.287	109.38
329.515	118.38
329.744	95.38
329.972	97.38
330.201	96.38
330.43	118.38
330.658	118.38
330.887	130.38
331.115	128.38
331.344	88.38
331.572	91.38
331.801	104.38
332.03	97.38
332.258	96.38
332.486	86.38
332.715	90.38
332.943	102.38
333.172	95.38
333.4	96.38
333.629	102.38
333.857	117.38
334.085	99.38
334.314	89.38
334.542	99.38
334.771	115.38
334.999	97.38
335.227	95.38
335.455	98.38
335.684	86.38
335.912	99.38
336.14	97.38
336.369	101.38
336.597	94.38
336.825	106.38
337.053	105.38
337.281	95.38
337.51	107.38
337.738	98.38
337.966	99.38
338.194	90.38
338.422	86.38
338.65	90.38
338.878	89.38
339.106	103.38
339.334	100.38
339.562	97.38
339.79	100.38
340.018	97.38
340.246	93.38
340.474	87.38
340.702	104.38
340.93	95.38
341.158	104.38
341.386	87.38
341.614	95.38
341.842	103.38
342.07	86.38
342.298	89.38
342.526	89.38
342.754	81.38
342.981	99.38
343.209	99.38
343.437	88.38
343.665	90.38
343.893	109.38
344.12	89.38
344.348	90.38
344.576	94.38
344.804	97.38
345.031	85.38
345.259	107.38
345.487	81.38
345.714	96.38
345.942	98.38
346.17	81.38
346.397	90.38
346.625	97.38
346.853	83.38
347.08	98.38
347.308	93.38
347.535	104.38
347.763	88.38
347.99	104.38
348.218	96.38
348.445	94.38
348.673	105.38
348.9	95.38
349.128	102.38
349.355	106.38
349.583	93.38
349.81	91.38
350.037	95.38
350.265	109.38
350.492	100.38
350.72	93.38
350.947	87.38
351.174	104.38
351.402	96.38
351.629	94.38
351.856	99.38
352.083	101.38
352.311	105.38
352.538	111.38
352.765	125.38
352.992	115.38
353.22	97.38
353.447	107.38
353.674	86.38
353.901	95.38
354.128	105.38
354.355	95.38
354.583	99.38
354.81	93.38
355.037	104.38
355.264	103.38
355.491	104.38
355.718	97.38
355.945	99.38
356.172	99.38
356.399	102.38
356.626	101.38
356.853	98.38
357.08	79.38
357.307	96.38
357.534	106.38
357.761	115.38
357.988	99.38
358.215	90.38
358.441	96.38
358.668	90.38
358.895	101.38
359.122	86.38
359.349	102.38
359.576	71.38
359.802	107.38
360.029	113.38
360.256	107.38
360.483	98.38
360.709	108.38
360.936	101.38
361.163	91.38
361.39	98.38
361.616	99.38
361.843	86.38
362.07	96.38
362.296	91.38
362.523	97.38
362.749	87.38
362.976	93.38
363.203	90.38
363.429	100.38
363.656	94.38
363.882	97.38
364.109	78.38
364.335	94.38
364.562	86.38
364.788	88.38
365.015	87.38
365.241	89.38
365.468	97.38
365.694	94.38
365.92	89.38
366.147	106.38
366.373	103.38
366.599	77.38
366.826	96.38
367.052	94.38
367.278	88.38
367.505	83.38
367.731	90.38
367.957	88.38
368.184	79.38
368.41	104.38
368.636	107.38
368.862	139.38
369.089	111.38
369.315	116.38
369.541	97.38
369.767	86.38
369.993	81.38
370.219	98.38
370.445	91.38
370.672	87.38
370.898	98.38
371.124	86.38
371.35	100.38
371.576	80.38
371.802	88.38
372.028	78.38
372.254	107.38
372.48	84.38
372.706	79.38
372.932	94.38
373.158	85.38
373.384	97.38
373.61	90.38
373.835	98.38
374.061	95.38
374.287	116.38
374.513	111.38
374.739	101.38
374.965	82.38
375.191	90.38
375.416	89.38
375.642	80.38
375.868	89.38
376.094	102.38
376.319	100.38
376.545	84.38
376.771	90.38
376.997	79.38
377.222	86.38
377.448	109.38
377.674	95.38
377.899	86.38
378.125	84.38
378.35	103.38
378.576	102.38
378.802	84.38
379.027	84.38
379.253	89.38
379.478	97.38
379.704	82.38
379.929	97.38
380.155	93.38
380.38	106.38
380.606	75.38
380.831	97.38
381.057	104.38
381.282	93.38
381.507	98.38
381.733	102.38
381.958	100.38
382.184	115.38
382.409	103.38
382.634	95.38
382.86	99.38
383.085	103.38
383.31	111.38
383.535	104.38
383.761	93.38
383.986	91.38
384.211	89.38
384.436	113.38
384.662	90.38
384.887	111.38
385.112	105.38
385.337	116.38
385.562	101.38
385.787	105.38
386.013	116.38
386.238	108.38
386.463	110.38
386.688	111.38
386.913	98.38
387.138	114.38
387.363	109.38
387.588	98.38
387.813	97.38
388.038	109.38
388.263	117.38
388.488	121.38
388.713	93.38
388.938	95.38
389.163	86.38
389.387	102.38
389.612	90.38
389.837	95.38
390.062	103.38
390.287	94.38
390.512	110.38
390.736	97.38
390.961	101.38
391.186	105.38
391.411	102.38
391.636	84.38
391.86	77.38
392.085	84.38
392.31	80.38
392.534	91.38
392.759	88.38
392.984	78.38
393.208	81.38
393.433	95.38
393.658	87.38
393.882	76.38
394.107	95.38
394.331	98.38
394.556	102.38
394.78	86.38
395.005	81.38
395.229	87.38
395.454	88.38
395.678	74.38
395.903	85.38
396.127	99.38
396.352	85.38
396.576	100.38
396.801	82.38
397.025	85.38
397.249	79.38
397.474	103.38
397.698	94.38
397.922	94.38
398.147	78.38
398.371	87.38
398.595	58.38
398.82	91.38
399.044	80.38
399.268	84.38
399.492	86.38
399.717	93.38
399.941	98.38
400.165	94.38
400.389	100.38
400.613	94.38
400.837	101.38
401.062	98.38
401.286	87.38
401.51	95.38
401.734	81.38
401.958	97.38
402.182	118.38
402.406	162.38
402.63	119.38
402.854	86.38
403.078	98.38
403.302	90.38
403.526	81.38
403.75	105.38
403.974	90.38
404.198	86.38
404.422	85.38
404.645	98.38
404.869	91.38
405.093	92.38
405.317	95.38
405.541	98.38
405.765	101.38
405.988	132.38
406.212	176.38
406.436	225.38
406.66	147.38
406.883	101.38
407.107	91.38
407.331	112.38
407.555	87.38
407.778	96.38
408.002	85.38
408.226	84.38
408.449	86.38
408.673	80.38
408.896	97.38
409.12	100.38
409.344	83.38
409.567	81.38
409.791	80.38
410.014	111.38
410.238	91.38
410.461	96.38
410.685	101.38
410.908	90.38
411.132	114.38
411.355	85.38
411.578	96.38
411.802	95.38
412.025	97.38
412.249	83.38
412.472	85.38
412.695	98.38
412.919	87.38
413.142	92.38
413.365	95.38
413.589	87.38
413.812	77.38
414.035	93.38
414.258	87.38
414.482	93.38
414.705	92.38
414.928	83.38
415.151	97.38
415.374	100.38
415.597	84.38
415.821	91.38
416.044	98.38
416.267	95.38
416.49	101.38
416.713	87.38
416.936	88.38
417.159	79.38
417.382	88.38
417.605	87.38
417.828	99.38
418.051	107.38
418.274	93.38
418.497	85.38
418.72	83.38
418.943	93.38
419.166	98.38
419.389	79.38
419.611	88.38
419.834	89.38
420.057	83.38
420.28	85.38
420.503	83.38
420.726	100.38
420.948	91.38
421.171	90.38
421.394	91.38
421.617	89.38
421.839	94.38
422.062	90.38
422.285	90.38
422.507	113.38
422.73	100.38
422.953	96.38
423.175	91.38
423.398	90.38
423.621	104.38
423.843	97.38
424.066	88.38
424.288	94.38
424.511	95.38
424.733	94.38
424.956	109.38
425.178	109.38
425.401	100.38
425.623	92.38
425.846	95.38
426.068	80.38
426.291	68.38
426.513	97.38
426.735	103.38
426.958	90.38
427.18	107.38
427.402	142.38
427.625	168.38
427.847	126.38
428.069	98.38
428.292	91.38
428.514	82.38
428.736	89.38
428.958	97.38
429.181	89.38
429.403	99.38
429.625	85.38
429.847	78.38
430.069	91.38
430.292	105.38
430.514	82.38
430.736	99.38
430.958	93.38
431.18	86.38
431.402	86.38
431.624	82.38
431.846	96.38
432.068	92.38
432.29	93.38
432.512	82.38
432.734	85.38
432.956	95.38
433.178	90.38
433.4	101.38
433.622	85.38
433.844	92.38
434.066	99.38
434.287	87.38
434.509	93.38
434.731	92.38
434.953	82.38
435.175	97.38
435.397	91.38
435.618	95.38
435.84	101.38
436.062	110.38
436.284	123.38
436.505	110.38
436.727	114.38
436.949	102.38
437.17	88.38
437.392	90.38
437.614	92.38
437.835	101.38
438.057	106.38
438.278	87.38
438.5	126.38
438.721	105.38
438.943	107.38
439.165	79.38
439.386	75.38
439.608	89.38
439.829	97.38
440.05	114.38
440.272	139.38
440.493	85.38
440.715	99.38
440.936	94.38
441.158	87.38
441.379	62.38
441.6	84.38
441.822	90.38
442.043	84.38
442.264	103.38
442.486	110.38
442.707	97.38
442.928	106.38
443.149	138.38
443.371	128.38
443.592	108.38
443.813	109.38
444.034	113.38
444.255	102.38
444.476	89.38
444.698	84.38
444.919	88.38
445.14	113.38
445.361	123.38
445.582	112.38
445.803	125.38
446.024	127.38
446.245	146.38
446.466	132.38
446.687	87.38
446.908	82.38
447.129	105.38
447.35	88.38
447.571	88.38
447.792	102.38
448.013	106.38
448.234	99.38
448.455	100.38
448.675	97.38
448.896	100.38
449.117	90.38
449.338	103.38
449.559	126.38
449.779	129.38
450	97.38
450.221	79.38
450.442	100.38
450.662	88.38
450.883	103.38
451.104	104.38
451.324	108.38
451.545	102.38
451.766	97.38
451.986	106.38
452.207	81.38
452.428	80.38
452.648	94.38
452.869	119.38
453.089	115.38
453.31	128.38
453.53	109.38
453.751	100.38
453.971	91.38
454.192	107.38
454.412	81.38
454.633	90.38
454.853	75.38
455.073	80.38
455.294	102.38
455.514	94.38
455.734	79.38
455.955	77.38
456.175	97.38
456.395	77.38
456.616	74.38
456.836	88.38
457.056	83.38
457.276	84.38
457.497	93.38
457.717	77.38
457.937	77.38
458.157	96.38
458.377	88.38
458.598	109.38
458.818	144.38
459.038	167.38
459.258	116.38
459.478	101.38
459.698	81.38
459.918	79.38
460.138	84.38
460.358	85.38
460.578	79.38
460.798	90.38
461.018	81.38
461.238	79.38
461.458	82.38
461.678	85.38
461.898	84.38
462.118	90.38
462.338	81.38
462.558	78.38
462.777	94.38
462.997	106.38
463.217	92.38
463.437	83.38
463.657	95.38
463.876	88.38
464.096	90.38
464.316	78.38
464.536	89.38
464.755	97.38
464.975	83.38
465.195	154.38
465.414	161.38
465.634	102.38
465.854	90.38
466.073	81.38
466.293	88.38
466.512	85.38
466.732	91.38
466.951	101.38
467.171	101.38
467.391	101.38
467.61	93.38
467.829	90.38
468.049	93.38
468.268	100.38
468.488	82.38
468.707	90.38
468.927	93.38
469.146	81.38
469.365	83.38
469.585	98.38
469.804	86.38
470.023	90.38
470.243	94.38
470.462	105.38
470.681	110.38
470.901	95.38
471.12	91.38
471.339	83.38
471.558	89.38
471.777	63.38
471.997	85.38
472.216	110.38
472.435	104.38
472.654	87.38
472.873	87.38
473.092	97.38
473.311	80.38
473.53	88.38
473.749	82.38
473.968	83.38
474.187	92.38
474.406	111.38
474.625	90.38
474.844	94.38
475.063	96.38
475.282	72.38
475.501	84.38
475.72	75.38
475.939	87.38
476.158	88.38
476.377	92.38
476.596	78.38
476.814	98.38
477.033	95.38
477.252	90.38
477.471	90.38
477.69	94.38
477.908	97.38
478.127	86.38
478.346	86.38
478.564	86.38
478.783	98.38
479.002	89.38
479.22	83.38
479.439	92.38
479.658	94.38
479.876	103.38
480.095	91.38
480.313	79.38
480.532	95.38
480.751	97.38
480.969	98.38
481.188	102.38
481.406	98.38
481.624	102.38
481.843	84.38
482.061	87.38
482.28	99.38
482.498	89.38
482.717	78.38
482.935	85.38
483.153	92.38
483.372	96.38
483.59	86.38
483.808	83.38
484.027	79.38
484.245	100.38
484.463	89.38
484.681	97.38
484.9	103.38
485.118	98.38
485.336	86.38
485.554	89.38
485.772	98.38
485.99	107.38
486.209	118.38
486.427	104.38
486.645	95.38
486.863	104.38
487.081	104.38
487.299	100.38
487.517	89.38
487.735	92.38
487.953	104.38
488.171	110.38
488.389	115.38
488.607	98.38
488.825	91.38
489.043	89.38
489.261	90.38
489.479	90.38
489.696	79.38
489.914	81.38
490.132	98.38
490.35	86.38
490.568	94.38
490.786	87.38
491.003	97.38
491.221	73.38
491.439	89.38
491.657	89.38
491.874	91.38
492.092	99.38
492.31	99.38
492.527	94.38
492.745	81.38
492.963	85.38
493.18	86.38
493.398	99.38
493.615	104.38
493.833	97.38
494.05	91.38
494.268	97.38
494.485	81.38
494.703	95.38
494.92	83.38
495.138	103.38
495.355	88.38
495.573	91.38
495.79	77.38
496.008	80.38
496.225	84.38
496.442	83.38
496.66	94.38
496.877	94.38
497.094	98.38
497.312	94.38
497.529	97.38
497.746	99.38
497.963	95.38
498.181	95.38
498.398	102.38
498.615	111.38
498.832	102.38
499.049	98.38
499.267	95.38
499.484	84.38
499.701	89.38
499.918	91.38
500.135	85.38
500.352	84.38
500.569	91.38
500.786	102.38
501.003	97.38
501.22	90.38
501.437	87.38
501.654	104.38
501.871	91.38
502.088	104.38
502.305	94.38
502.522	89.38
502.739	85.38
502.956	91.38
503.172	84.38
503.389	93.38
503.606	103.38
503.823	100.38
504.04	91.38
504.256	93.38
504.473	95.38
504.69	81.38
504.907	95.38
505.123	88.38
505.34	93.38
505.557	88.38
505.773	92.38
505.99	91.38
506.207	85.38
506.423	88.38
506.64	86.38
506.856	85.38
507.073	92.38
507.289	96.38
507.506	96.38
507.722	112.38
507.939	109.38
508.155	86.38
508.372	90.38
508.588	107.38
508.805	95.38
509.021	95.38
509.238	101.38
509.454	107.38
509.67	105.38
509.887	118.38
510.103	156.38
510.319	231.38
510.536	819.38
510.752	2586.38
510.968	734.38
511.184	151.38
511.401	106.38
511.617	86.38
511.833	98.38
512.049	96.38
512.265	95.38
512.481	91.38
512.698	95.38
512.914	98.38
513.13	89.38
513.346	95.38
513.562	101.38
513.778	96.38
513.994	103.38
514.21	97.38
514.426	112.38
514.642	131.38
514.858	129.38
515.074	174.38
515.29	454.38
