Data from Uncirc_2003_H10_HRD10591_00019.txt Node
Date: Wed Jan 03 10:35:51 EST 2024
User: Yrep
Spectrometer: HR+D1059
Trigger mode: 1
Integration Time (sec): 1.000000E-1
Scans to average: 1
Electric dark correction enabled: true
Nonlinearity correction enabled: false
Boxcar width: 0
XAxis mode: Wavelengths
Number of Pixels in Spectrum: 2048
>>>>>Begin Spectral Data<<<<<
223.165	3.12
223.4	3.12
223.635	3.12
223.869	-24.88
224.104	-22.88
224.338	-31.88
224.573	-18.88
224.808	-7.88
225.042	-8.88
225.277	-3.88
225.511	0.12
225.746	-0.88
225.98	-4.88
226.215	10.12
226.449	30.12
226.683	26.12
226.918	30.12
227.152	25.12
227.387	23.12
227.621	50.12
227.856	31.12
228.09	42.12
228.324	52.12
228.559	60.12
228.793	67.12
229.027	65.12
229.262	74.12
229.496	78.12
229.73	68.12
229.964	96.12
230.199	74.12
230.433	77.12
230.667	85.12
230.901	88.12
231.136	87.12
231.37	77.12
231.604	93.12
231.838	80.12
232.072	79.12
232.306	77.12
232.541	77.12
232.775	80.12
233.009	88.12
233.243	69.12
233.477	86.12
233.711	78.12
233.945	85.12
234.179	91.12
234.413	82.12
234.647	89.12
234.881	82.12
235.115	84.12
235.349	75.12
235.583	82.12
235.817	83.12
236.051	80.12
236.285	80.12
236.519	79.12
236.753	68.12
236.987	83.12
237.221	86.12
237.455	77.12
237.689	88.12
237.922	75.12
238.156	83.12
238.39	68.12
238.624	89.12
238.858	81.12
239.091	78.12
239.325	86.12
239.559	98.12
239.793	85.12
240.027	83.12
240.26	84.12
240.494	79.12
240.728	67.12
240.961	68.12
241.195	69.12
241.429	77.12
241.662	76.12
241.896	73.12
242.13	63.12
242.363	65.12
242.597	84.12
242.83	69.12
243.064	81.12
243.298	82.12
243.531	70.12
243.765	88.12
243.998	77.12
244.232	74.12
244.465	88.12
244.699	76.12
244.932	85.12
245.166	84.12
245.399	86.12
245.633	77.12
245.866	83.12
246.099	81.12
246.333	83.12
246.566	73.12
246.8	81.12
247.033	80.12
247.266	78.12
247.5	87.12
247.733	92.12
247.966	82.12
248.2	75.12
248.433	84.12
248.666	72.12
248.899	77.12
249.133	85.12
249.366	86.12
249.599	99.12
249.832	84.12
250.066	79.12
250.299	76.12
250.532	72.12
250.765	78.12
250.998	68.12
251.231	76.12
251.465	88.12
251.698	79.12
251.931	85.12
252.164	89.12
252.397	72.12
252.63	76.12
252.863	81.12
253.096	101.12
253.329	80.12
253.562	83.12
253.795	85.12
254.028	81.12
254.261	95.12
254.494	92.12
254.727	84.12
254.96	90.12
255.193	85.12
255.426	93.12
255.659	72.12
255.892	92.12
256.124	76.12
256.357	71.12
256.59	77.12
256.823	84.12
257.056	70.12
257.289	82.12
257.521	87.12
257.754	77.12
257.987	84.12
258.22	81.12
258.452	90.12
258.685	75.12
258.918	86.12
259.151	70.12
259.383	84.12
259.616	83.12
259.849	92.12
260.081	80.12
260.314	71.12
260.547	84.12
260.779	82.12
261.012	79.12
261.244	87.12
261.477	83.12
261.71	81.12
261.942	101.12
262.175	120.12
262.407	84.12
262.64	81.12
262.872	86.12
263.105	83.12
263.337	76.12
263.57	79.12
263.802	77.12
264.035	82.12
264.267	75.12
264.499	70.12
264.732	68.12
264.964	85.12
265.197	82.12
265.429	84.12
265.661	77.12
265.894	83.12
266.126	82.12
266.358	80.12
266.591	80.12
266.823	84.12
267.055	82.12
267.287	80.12
267.52	69.12
267.752	97.12
267.984	82.12
268.216	93.12
268.448	88.12
268.681	94.12
268.913	77.12
269.145	90.12
269.377	86.12
269.609	75.12
269.841	96.12
270.073	81.12
270.306	86.12
270.538	82.12
270.77	89.12
271.002	74.12
271.234	85.12
271.466	92.12
271.698	96.12
271.93	89.12
272.162	75.12
272.394	89.12
272.626	100.12
272.858	105.12
273.09	71.12
273.322	97.12
273.553	81.12
273.785	86.12
274.017	83.12
274.249	92.12
274.481	75.12
274.713	79.12
274.945	83.12
275.176	77.12
275.408	87.12
275.64	86.12
275.872	88.12
276.104	75.12
276.335	87.12
276.567	93.12
276.799	94.12
277.031	86.12
277.262	91.12
277.494	79.12
277.726	103.12
277.957	93.12
278.189	88.12
278.421	78.12
278.652	90.12
278.884	84.12
279.115	82.12
279.347	83.12
279.579	97.12
279.81	87.12
280.042	93.12
280.273	81.12
280.505	96.12
280.736	82.12
280.968	87.12
281.199	82.12
281.431	88.12
281.662	86.12
281.894	98.12
282.125	108.12
282.356	100.12
282.588	140.12
282.819	115.12
283.051	87.12
283.282	82.12
283.513	71.12
283.745	85.12
283.976	84.12
284.207	78.12
284.439	92.12
284.67	89.12
284.901	88.12
285.132	97.12
285.364	87.12
285.595	87.12
285.826	93.12
286.057	85.12
286.288	99.12
286.52	88.12
286.751	91.12
286.982	76.12
287.213	85.12
287.444	93.12
287.675	95.12
287.906	98.12
288.138	86.12
288.369	90.12
288.6	90.12
288.831	84.12
289.062	93.12
289.293	80.12
289.524	80.12
289.755	97.12
289.986	77.12
290.217	80.12
290.448	95.12
290.679	87.12
290.91	93.12
291.141	81.12
291.371	80.12
291.602	85.12
291.833	106.12
292.064	105.12
292.295	96.12
292.526	88.12
292.757	89.12
292.987	71.12
293.218	66.12
293.449	79.12
293.68	89.12
293.91	98.12
294.141	87.12
294.372	81.12
294.603	91.12
294.833	99.12
295.064	90.12
295.295	92.12
295.525	90.12
295.756	95.12
295.987	125.12
296.217	141.12
296.448	116.12
296.679	99.12
296.909	98.12
297.14	82.12
297.37	82.12
297.601	92.12
297.831	94.12
298.062	89.12
298.292	84.12
298.523	85.12
298.753	85.12
298.984	86.12
299.214	87.12
299.445	96.12
299.675	97.12
299.905	99.12
300.136	101.12
300.366	73.12
300.597	91.12
300.827	98.12
301.057	100.12
301.288	107.12
301.518	91.12
301.748	92.12
301.979	112.12
302.209	87.12
302.439	86.12
302.669	73.12
302.9	77.12
303.13	97.12
303.36	105.12
303.59	112.12
303.82	109.12
304.051	97.12
304.281	93.12
304.511	93.12
304.741	90.12
304.971	81.12
305.201	92.12
305.431	105.12
305.661	83.12
305.891	92.12
306.121	103.12
306.352	99.12
306.582	89.12
306.812	107.12
307.042	95.12
307.272	88.12
307.502	96.12
307.731	97.12
307.961	98.12
308.191	92.12
308.421	88.12
308.651	99.12
308.881	97.12
309.111	93.12
309.341	92.12
309.571	101.12
309.8	88.12
310.03	93.12
310.26	103.12
310.49	96.12
310.72	96.12
310.949	104.12
311.179	104.12
311.409	85.12
311.639	81.12
311.868	94.12
312.098	95.12
312.328	93.12
312.557	87.12
312.787	100.12
313.017	103.12
313.246	106.12
313.476	89.12
313.706	109.12
313.935	92.12
314.165	98.12
314.394	89.12
314.624	90.12
314.853	105.12
315.083	88.12
315.312	80.12
315.542	88.12
315.771	105.12
316.001	100.12
316.23	93.12
316.46	94.12
316.689	80.12
316.919	100.12
317.148	98.12
317.377	96.12
317.607	91.12
317.836	94.12
318.065	97.12
318.295	96.12
318.524	88.12
318.753	87.12
318.983	107.12
319.212	102.12
319.441	109.12
319.67	110.12
319.9	93.12
320.129	102.12
320.358	90.12
320.587	92.12
320.816	106.12
321.046	111.12
321.275	112.12
321.504	101.12
321.733	85.12
321.962	105.12
322.191	121.12
322.42	106.12
322.649	119.12
322.878	129.12
323.108	114.12
323.337	130.12
323.566	131.12
323.795	170.12
324.024	202.12
324.253	417.12
324.482	872.12
324.71	1814.12
324.939	2370.12
325.168	826.12
325.397	243.12
325.626	144.12
325.855	122.12
326.084	128.12
326.313	131.12
326.542	159.12
326.77	256.12
326.999	498.12
327.228	1006.12
327.457	1832.12
327.686	1466.12
327.914	370.12
328.143	179.12
328.372	149.12
328.6	116.12
328.829	108.12
329.058	129.12
329.287	117.12
329.515	111.12
329.744	96.12
329.972	98.12
330.201	100.12
330.43	108.12
330.658	109.12
330.887	128.12
331.115	124.12
331.344	83.12
331.572	84.12
331.801	113.12
332.03	94.12
332.258	94.12
332.486	88.12
332.715	90.12
332.943	98.12
333.172	104.12
333.4	98.12
333.629	98.12
333.857	102.12
334.085	107.12
334.314	98.12
334.542	93.12
334.771	94.12
334.999	88.12
335.227	103.12
335.455	85.12
335.684	112.12
335.912	95.12
336.14	100.12
336.369	95.12
336.597	96.12
336.825	100.12
337.053	101.12
337.281	99.12
337.51	96.12
337.738	100.12
337.966	90.12
338.194	104.12
338.422	107.12
338.65	96.12
338.878	84.12
339.106	91.12
339.334	93.12
339.562	110.12
339.79	91.12
340.018	103.12
340.246	97.12
340.474	100.12
340.702	76.12
340.93	103.12
341.158	100.12
341.386	87.12
341.614	104.12
341.842	99.12
342.07	99.12
342.298	94.12
342.526	89.12
342.754	82.12
342.981	102.12
343.209	88.12
343.437	103.12
343.665	100.12
343.893	93.12
344.12	97.12
344.348	87.12
344.576	91.12
344.804	86.12
345.031	104.12
345.259	103.12
345.487	112.12
345.714	100.12
345.942	96.12
346.17	91.12
346.397	97.12
346.625	108.12
346.853	97.12
347.08	89.12
347.308	92.12
347.535	103.12
347.763	103.12
347.99	104.12
348.218	104.12
348.445	99.12
348.673	96.12
348.9	96.12
349.128	100.12
349.355	96.12
349.583	105.12
349.81	106.12
350.037	99.12
350.265	111.12
350.492	105.12
350.72	92.12
350.947	100.12
351.174	103.12
351.402	111.12
351.629	104.12
351.856	105.12
352.083	102.12
352.311	116.12
352.538	101.12
352.765	113.12
352.992	105.12
353.22	103.12
353.447	103.12
353.674	102.12
353.901	101.12
354.128	105.12
354.355	96.12
354.583	94.12
354.81	102.12
355.037	104.12
355.264	115.12
355.491	93.12
355.718	102.12
355.945	84.12
356.172	98.12
356.399	97.12
356.626	103.12
356.853	102.12
357.08	102.12
357.307	102.12
357.534	92.12
357.761	89.12
357.988	108.12
358.215	110.12
358.441	97.12
358.668	96.12
358.895	104.12
359.122	86.12
359.349	92.12
359.576	96.12
359.802	97.12
360.029	105.12
360.256	115.12
360.483	85.12
360.709	97.12
360.936	95.12
361.163	102.12
361.39	86.12
361.616	100.12
361.843	87.12
362.07	95.12
362.296	87.12
362.523	101.12
362.749	103.12
362.976	90.12
363.203	95.12
363.429	95.12
363.656	105.12
363.882	83.12
364.109	91.12
364.335	87.12
364.562	96.12
364.788	93.12
365.015	101.12
365.241	100.12
365.468	93.12
365.694	96.12
365.92	101.12
366.147	103.12
366.373	84.12
366.599	90.12
366.826	93.12
367.052	74.12
367.278	86.12
367.505	96.12
367.731	87.12
367.957	92.12
368.184	92.12
368.41	98.12
368.636	96.12
368.862	122.12
369.089	110.12
369.315	99.12
369.541	91.12
369.767	107.12
369.993	93.12
370.219	93.12
370.445	88.12
370.672	91.12
370.898	113.12
371.124	102.12
371.35	90.12
371.576	86.12
371.802	92.12
372.028	87.12
372.254	105.12
372.48	93.12
372.706	94.12
372.932	105.12
373.158	92.12
373.384	93.12
373.61	94.12
373.835	100.12
374.061	89.12
374.287	100.12
374.513	98.12
374.739	90.12
374.965	97.12
375.191	101.12
375.416	90.12
375.642	96.12
375.868	106.12
376.094	98.12
376.319	81.12
376.545	88.12
376.771	87.12
376.997	107.12
377.222	99.12
377.448	83.12
377.674	83.12
377.899	97.12
378.125	80.12
378.35	90.12
378.576	90.12
378.802	91.12
379.027	86.12
379.253	101.12
379.478	100.12
379.704	62.12
379.929	104.12
380.155	97.12
380.38	106.12
380.606	89.12
380.831	90.12
381.057	90.12
381.282	92.12
381.507	97.12
381.733	107.12
381.958	88.12
382.184	99.12
382.409	106.12
382.634	93.12
382.86	111.12
383.085	95.12
383.31	111.12
383.535	97.12
383.761	99.12
383.986	95.12
384.211	88.12
384.436	107.12
384.662	94.12
384.887	112.12
385.112	104.12
385.337	110.12
385.562	103.12
385.787	112.12
386.013	109.12
386.238	127.12
386.463	101.12
386.688	117.12
386.913	89.12
387.138	105.12
387.363	98.12
387.588	105.12
387.813	100.12
388.038	108.12
388.263	111.12
388.488	111.12
388.713	96.12
388.938	90.12
389.163	93.12
389.387	105.12
389.612	95.12
389.837	93.12
390.062	92.12
390.287	97.12
390.512	99.12
390.736	90.12
390.961	83.12
391.186	104.12
391.411	92.12
391.636	92.12
391.86	95.12
392.085	83.12
392.31	87.12
392.534	80.12
392.759	99.12
392.984	87.12
393.208	93.12
393.433	80.12
393.658	91.12
393.882	80.12
394.107	84.12
394.331	95.12
394.556	85.12
394.78	89.12
395.005	87.12
395.229	89.12
395.454	89.12
395.678	96.12
395.903	78.12
396.127	97.12
396.352	92.12
396.576	102.12
396.801	93.12
397.025	97.12
397.249	91.12
397.474	73.12
397.698	86.12
397.922	90.12
398.147	82.12
398.371	90.12
398.595	92.12
398.82	73.12
399.044	88.12
399.268	85.12
399.492	82.12
399.717	88.12
399.941	84.12
400.165	86.12
400.389	91.12
400.613	88.12
400.837	97.12
401.062	93.12
401.286	81.12
401.51	93.12
401.734	89.12
401.958	110.12
402.182	115.12
402.406	152.12
402.63	115.12
402.854	99.12
403.078	90.12
403.302	78.12
403.526	79.12
403.75	89.12
403.974	85.12
404.198	79.12
404.422	87.12
404.645	96.12
404.869	92.12
405.093	92.12
405.317	98.12
405.541	103.12
405.765	111.12
405.988	115.12
406.212	167.12
406.436	215.12
406.66	140.12
406.883	95.12
407.107	101.12
407.331	103.12
407.555	96.12
407.778	99.12
408.002	91.12
408.226	84.12
408.449	91.12
408.673	73.12
408.896	96.12
409.12	91.12
409.344	98.12
409.567	100.12
409.791	92.12
410.014	86.12
410.238	97.12
410.461	97.12
410.685	91.12
410.908	108.12
411.132	115.12
411.355	98.12
411.578	93.12
411.802	92.12
412.025	96.12
412.249	87.12
412.472	91.12
412.695	96.12
412.919	96.12
413.142	89.12
413.365	91.12
413.589	113.12
413.812	87.12
414.035	88.12
414.258	99.12
414.482	90.12
414.705	97.12
414.928	93.12
415.151	79.12
415.374	92.12
415.597	92.12
415.821	85.12
416.044	96.12
416.267	82.12
416.49	87.12
416.713	87.12
416.936	97.12
417.159	83.12
417.382	88.12
417.605	91.12
417.828	103.12
418.051	97.12
418.274	89.12
418.497	89.12
418.72	101.12
418.943	94.12
419.166	83.12
419.389	93.12
419.611	105.12
419.834	91.12
420.057	99.12
420.28	98.12
420.503	97.12
420.726	91.12
420.948	102.12
421.171	92.12
421.394	81.12
421.617	102.12
421.839	80.12
422.062	99.12
422.285	95.12
422.507	100.12
422.73	107.12
422.953	88.12
423.175	91.12
423.398	86.12
423.621	92.12
423.843	89.12
424.066	85.12
424.288	97.12
424.511	99.12
424.733	85.12
424.956	100.12
425.178	96.12
425.401	81.12
425.623	102.12
425.846	91.12
426.068	95.12
426.291	87.12
426.513	70.12
426.735	97.12
426.958	107.12
427.18	109.12
427.402	136.12
427.625	156.12
427.847	121.12
428.069	107.12
428.292	87.12
428.514	93.12
428.736	74.12
428.958	89.12
429.181	91.12
429.403	87.12
429.625	91.12
429.847	96.12
430.069	97.12
430.292	97.12
430.514	92.12
430.736	96.12
430.958	86.12
431.18	99.12
431.402	82.12
431.624	86.12
431.846	91.12
432.068	95.12
432.29	73.12
432.512	85.12
432.734	98.12
432.956	91.12
433.178	102.12
433.4	93.12
433.622	91.12
433.844	80.12
434.066	93.12
434.287	78.12
434.509	100.12
434.731	88.12
434.953	100.12
435.175	101.12
435.397	93.12
435.618	106.12
435.84	85.12
436.062	118.12
436.284	121.12
436.505	95.12
436.727	100.12
436.949	95.12
437.17	107.12
437.392	91.12
437.614	84.12
437.835	98.12
438.057	116.12
438.278	102.12
438.5	111.12
438.721	122.12
438.943	105.12
439.165	97.12
439.386	84.12
439.608	92.12
439.829	106.12
440.05	128.12
440.272	136.12
440.493	108.12
440.715	106.12
440.936	76.12
441.158	113.12
441.379	89.12
441.6	97.12
441.822	81.12
442.043	115.12
442.264	106.12
442.486	97.12
442.707	101.12
442.928	104.12
443.149	127.12
443.371	132.12
443.592	107.12
443.813	111.12
444.034	103.12
444.255	90.12
444.476	93.12
444.698	83.12
444.919	77.12
445.14	129.12
445.361	128.12
445.582	121.12
445.803	135.12
446.024	118.12
446.245	142.12
446.466	112.12
446.687	95.12
446.908	89.12
447.129	106.12
447.35	79.12
447.571	90.12
447.792	97.12
448.013	101.12
448.234	119.12
448.455	108.12
448.675	111.12
448.896	109.12
449.117	102.12
449.338	99.12
449.559	127.12
449.779	122.12
450	108.12
450.221	116.12
450.442	79.12
450.662	89.12
450.883	113.12
451.104	109.12
451.324	111.12
451.545	104.12
451.766	98.12
451.986	97.12
452.207	89.12
452.428	90.12
452.648	81.12
452.869	102.12
453.089	101.12
453.31	100.12
453.53	106.12
453.751	91.12
453.971	102.12
454.192	94.12
454.412	101.12
454.633	90.12
454.853	79.12
455.073	83.12
455.294	93.12
455.514	98.12
455.734	100.12
455.955	106.12
456.175	91.12
456.395	108.12
456.616	92.12
456.836	98.12
457.056	89.12
457.276	85.12
457.497	95.12
457.717	90.12
457.937	87.12
458.157	90.12
458.377	89.12
458.598	98.12
458.818	147.12
459.038	143.12
459.258	96.12
459.478	94.12
459.698	87.12
459.918	93.12
460.138	81.12
460.358	90.12
460.578	90.12
460.798	89.12
461.018	83.12
461.238	89.12
461.458	97.12
461.678	87.12
461.898	91.12
462.118	95.12
462.338	113.12
462.558	91.12
462.777	88.12
462.997	89.12
463.217	99.12
463.437	98.12
463.657	87.12
463.876	99.12
464.096	91.12
464.316	87.12
464.536	87.12
464.755	104.12
464.975	91.12
465.195	150.12
465.414	138.12
465.634	97.12
465.854	91.12
466.073	85.12
466.293	87.12
466.512	93.12
466.732	86.12
466.951	108.12
467.171	93.12
467.391	117.12
467.61	90.12
467.829	84.12
468.049	93.12
468.268	89.12
468.488	84.12
468.707	98.12
468.927	78.12
469.146	88.12
469.365	92.12
469.585	93.12
469.804	89.12
470.023	101.12
470.243	91.12
470.462	110.12
470.681	120.12
470.901	84.12
471.12	100.12
471.339	82.12
471.558	96.12
471.777	96.12
471.997	100.12
472.216	96.12
472.435	94.12
472.654	98.12
472.873	79.12
473.092	97.12
473.311	97.12
473.53	84.12
473.749	89.12
473.968	99.12
474.187	105.12
474.406	95.12
474.625	98.12
474.844	84.12
475.063	98.12
475.282	93.12
475.501	69.12
475.72	92.12
475.939	81.12
476.158	90.12
476.377	90.12
476.596	92.12
476.814	105.12
477.033	97.12
477.252	93.12
477.471	83.12
477.69	91.12
477.908	91.12
478.127	98.12
478.346	85.12
478.564	97.12
478.783	98.12
479.002	95.12
479.22	96.12
479.439	108.12
479.658	105.12
479.876	103.12
480.095	98.12
480.313	91.12
480.532	98.12
480.751	85.12
480.969	97.12
481.188	115.12
481.406	97.12
481.624	97.12
481.843	101.12
482.061	91.12
482.28	99.12
482.498	81.12
482.717	99.12
482.935	75.12
483.153	91.12
483.372	98.12
483.59	89.12
483.808	85.12
484.027	99.12
484.245	101.12
484.463	109.12
484.681	102.12
484.9	98.12
485.118	109.12
485.336	80.12
485.554	102.12
485.772	96.12
485.99	102.12
486.209	91.12
486.427	87.12
486.645	103.12
486.863	121.12
487.081	102.12
487.299	100.12
487.517	107.12
487.735	100.12
487.953	91.12
488.171	102.12
488.389	92.12
488.607	113.12
488.825	106.12
489.043	84.12
489.261	104.12
489.479	77.12
489.696	95.12
489.914	87.12
490.132	99.12
490.35	78.12
490.568	107.12
490.786	104.12
491.003	104.12
491.221	80.12
491.439	93.12
491.657	96.12
491.874	102.12
492.092	102.12
492.31	89.12
492.527	87.12
492.745	95.12
492.963	97.12
493.18	96.12
493.398	102.12
493.615	104.12
493.833	107.12
494.05	104.12
494.268	99.12
494.485	92.12
494.703	88.12
494.92	89.12
495.138	75.12
495.355	96.12
495.573	91.12
495.79	79.12
496.008	91.12
496.225	105.12
496.442	98.12
496.66	95.12
496.877	103.12
497.094	93.12
497.312	86.12
497.529	95.12
497.746	95.12
497.963	106.12
498.181	100.12
498.398	109.12
498.615	106.12
498.832	89.12
499.049	101.12
499.267	99.12
499.484	100.12
499.701	81.12
499.918	96.12
500.135	91.12
500.352	93.12
500.569	94.12
500.786	101.12
501.003	79.12
501.22	91.12
501.437	93.12
501.654	96.12
501.871	100.12
502.088	90.12
502.305	83.12
502.522	88.12
502.739	104.12
502.956	105.12
503.172	93.12
503.389	95.12
503.606	104.12
503.823	91.12
504.04	92.12
504.256	89.12
504.473	93.12
504.69	100.12
504.907	97.12
505.123	79.12
505.34	89.12
505.557	93.12
505.773	103.12
505.99	94.12
506.207	91.12
506.423	95.12
506.64	91.12
506.856	98.12
507.073	89.12
507.289	107.12
507.506	103.12
507.722	107.12
507.939	113.12
508.155	98.12
508.372	101.12
508.588	112.12
508.805	106.12
509.021	101.12
509.238	98.12
509.454	103.12
509.67	104.12
509.887	116.12
510.103	130.12
510.319	229.12
510.536	767.12
510.752	2403.12
510.968	675.12
511.184	149.12
511.401	120.12
511.617	106.12
511.833	83.12
512.049	80.12
512.265	93.12
512.481	94.12
512.698	102.12
512.914	105.12
513.13	103.12
513.346	99.12
513.562	100.12
513.778	92.12
513.994	95.12
514.21	92.12
514.426	117.12
514.642	136.12
514.858	123.12
