Data from Uncirc_2003_H10_HRD10591_00071.txt Node
Date: Wed Jan 03 10:36:02 EST 2024
User: Yrep
Spectrometer: HR+D1059
Trigger mode: 1
Integration Time (sec): 1.000000E-1
Scans to average: 1
Electric dark correction enabled: true
Nonlinearity correction enabled: false
Boxcar width: 0
XAxis mode: Wavelengths
Number of Pixels in Spectrum: 2048
>>>>>Begin Spectral Data<<<<<
223.165	-22.56
223.4	-22.56
223.635	-22.56
223.869	-6.56
224.104	-21.56
224.338	-11.56
224.573	-24.56
224.808	-12.56
225.042	-9.56
225.277	-3.56
225.511	-6.56
225.746	4.44
225.98	1.44
226.215	18.44
226.449	14.44
226.683	24.44
226.918	22.44
227.152	33.44
227.387	23.44
227.621	51.44
227.856	41.44
228.09	40.44
228.324	47.44
228.559	61.44
228.793	56.44
229.027	64.44
229.262	76.44
229.496	73.44
229.73	71.44
229.964	67.44
230.199	80.44
230.433	76.44
230.667	70.44
230.901	81.44
231.136	71.44
231.37	90.44
231.604	93.44
231.838	76.44
232.072	94.44
232.306	90.44
232.541	73.44
232.775	79.44
233.009	85.44
233.243	90.44
233.477	72.44
233.711	73.44
233.945	70.44
234.179	85.44
234.413	74.44
234.647	87.44
234.881	84.44
235.115	88.44
235.349	68.44
235.583	77.44
235.817	82.44
236.051	66.44
236.285	70.44
236.519	69.44
236.753	73.44
236.987	69.44
237.221	72.44
237.455	80.44
237.689	74.44
237.922	87.44
238.156	89.44
238.39	83.44
238.624	91.44
238.858	85.44
239.091	85.44
239.325	81.44
239.559	93.44
239.793	84.44
240.027	66.44
240.26	70.44
240.494	82.44
240.728	66.44
240.961	80.44
241.195	83.44
241.429	83.44
241.662	62.44
241.896	78.44
242.13	77.44
242.363	79.44
242.597	70.44
242.83	76.44
243.064	74.44
243.298	76.44
243.531	74.44
243.765	71.44
243.998	70.44
244.232	79.44
244.465	81.44
244.699	93.44
244.932	76.44
245.166	74.44
245.399	96.44
245.633	82.44
245.866	80.44
246.099	85.44
246.333	89.44
246.566	77.44
246.8	96.44
247.033	72.44
247.266	89.44
247.5	78.44
247.733	78.44
247.966	95.44
248.2	79.44
248.433	87.44
248.666	76.44
248.899	85.44
249.133	69.44
249.366	85.44
249.599	107.44
249.832	89.44
250.066	76.44
250.299	68.44
250.532	82.44
250.765	79.44
250.998	77.44
251.231	78.44
251.465	84.44
251.698	81.44
251.931	84.44
252.164	80.44
252.397	68.44
252.63	98.44
252.863	87.44
253.096	80.44
253.329	83.44
253.562	82.44
253.795	72.44
254.028	89.44
254.261	77.44
254.494	83.44
254.727	96.44
254.96	87.44
255.193	84.44
255.426	94.44
255.659	88.44
255.892	88.44
256.124	87.44
256.357	90.44
256.59	78.44
256.823	82.44
257.056	80.44
257.289	88.44
257.521	89.44
257.754	71.44
257.987	84.44
258.22	82.44
258.452	82.44
258.685	81.44
258.918	78.44
259.151	80.44
259.383	73.44
259.616	87.44
259.849	86.44
260.081	81.44
260.314	74.44
260.547	87.44
260.779	90.44
261.012	91.44
261.244	90.44
261.477	89.44
261.71	101.44
261.942	111.44
262.175	103.44
262.407	90.44
262.64	91.44
262.872	88.44
263.105	63.44
263.337	78.44
263.57	69.44
263.802	74.44
264.035	77.44
264.267	80.44
264.499	76.44
264.732	80.44
264.964	85.44
265.197	87.44
265.429	77.44
265.661	63.44
265.894	90.44
266.126	90.44
266.358	84.44
266.591	89.44
266.823	73.44
267.055	87.44
267.287	75.44
267.52	83.44
267.752	78.44
267.984	81.44
268.216	76.44
268.448	94.44
268.681	88.44
268.913	93.44
269.145	79.44
269.377	74.44
269.609	101.44
269.841	82.44
270.073	73.44
270.306	86.44
270.538	83.44
270.77	72.44
271.002	82.44
271.234	90.44
271.466	83.44
271.698	93.44
271.93	77.44
272.162	81.44
272.394	81.44
272.626	93.44
272.858	104.44
273.09	89.44
273.322	94.44
273.553	85.44
273.785	82.44
274.017	85.44
274.249	77.44
274.481	87.44
274.713	84.44
274.945	75.44
275.176	86.44
275.408	94.44
275.64	79.44
275.872	88.44
276.104	80.44
276.335	96.44
276.567	97.44
276.799	103.44
277.031	84.44
277.262	84.44
277.494	83.44
277.726	94.44
277.957	85.44
278.189	81.44
278.421	87.44
278.652	82.44
278.884	96.44
279.115	90.44
279.347	90.44
279.579	87.44
279.81	91.44
280.042	66.44
280.273	79.44
280.505	87.44
280.736	91.44
280.968	76.44
281.199	87.44
281.431	93.44
281.662	83.44
281.894	86.44
282.125	105.44
282.356	113.44
282.588	142.44
282.819	120.44
283.051	81.44
283.282	86.44
283.513	94.44
283.745	74.44
283.976	86.44
284.207	71.44
284.439	92.44
284.67	88.44
284.901	85.44
285.132	95.44
285.364	76.44
285.595	95.44
285.826	94.44
286.057	83.44
286.288	89.44
286.52	92.44
286.751	90.44
286.982	89.44
287.213	84.44
287.444	93.44
287.675	85.44
287.906	88.44
288.138	94.44
288.369	99.44
288.6	97.44
288.831	91.44
289.062	100.44
289.293	77.44
289.524	80.44
289.755	82.44
289.986	114.44
290.217	97.44
290.448	84.44
290.679	92.44
290.91	86.44
291.141	93.44
291.371	87.44
291.602	86.44
291.833	72.44
292.064	82.44
292.295	89.44
292.526	93.44
292.757	90.44
292.987	79.44
293.218	82.44
293.449	80.44
293.68	96.44
293.91	84.44
294.141	79.44
294.372	72.44
294.603	87.44
294.833	84.44
295.064	90.44
295.295	84.44
295.525	76.44
295.756	92.44
295.987	92.44
296.217	141.44
296.448	115.44
296.679	91.44
296.909	88.44
297.14	74.44
297.37	83.44
297.601	105.44
297.831	90.44
298.062	83.44
298.292	94.44
298.523	78.44
298.753	82.44
298.984	93.44
299.214	101.44
299.445	82.44
299.675	95.44
299.905	90.44
300.136	95.44
300.366	86.44
300.597	98.44
300.827	98.44
301.057	97.44
301.288	96.44
301.518	88.44
301.748	84.44
301.979	87.44
302.209	86.44
302.439	90.44
302.669	96.44
302.9	87.44
303.13	95.44
303.36	88.44
303.59	94.44
303.82	100.44
304.051	93.44
304.281	87.44
304.511	91.44
304.741	84.44
304.971	86.44
305.201	87.44
305.431	86.44
305.661	94.44
305.891	89.44
306.121	84.44
306.352	89.44
306.582	95.44
306.812	97.44
307.042	93.44
307.272	83.44
307.502	83.44
307.731	81.44
307.961	84.44
308.191	81.44
308.421	93.44
308.651	104.44
308.881	87.44
309.111	92.44
309.341	93.44
309.571	104.44
309.8	82.44
310.03	93.44
310.26	105.44
310.49	96.44
310.72	117.44
310.949	101.44
311.179	95.44
311.409	111.44
311.639	86.44
311.868	102.44
312.098	89.44
312.328	89.44
312.557	110.44
312.787	108.44
313.017	92.44
313.246	94.44
313.476	88.44
313.706	99.44
313.935	103.44
314.165	96.44
314.394	107.44
314.624	88.44
314.853	91.44
315.083	89.44
315.312	102.44
315.542	102.44
315.771	89.44
316.001	93.44
316.23	89.44
316.46	104.44
316.689	98.44
316.919	99.44
317.148	98.44
317.377	102.44
317.607	95.44
317.836	92.44
318.065	87.44
318.295	89.44
318.524	87.44
318.753	100.44
318.983	93.44
319.212	99.44
319.441	111.44
319.67	94.44
319.9	86.44
320.129	98.44
320.358	89.44
320.587	95.44
320.816	86.44
321.046	101.44
321.275	85.44
321.504	89.44
321.733	88.44
321.962	101.44
322.191	103.44
322.42	109.44
322.649	112.44
322.878	121.44
323.108	109.44
323.337	130.44
323.566	129.44
323.795	158.44
324.024	224.44
324.253	454.44
324.482	972.44
324.71	1969.44
324.939	2574.44
325.168	897.44
325.397	264.44
325.626	160.44
325.855	142.44
326.084	148.44
326.313	140.44
326.542	164.44
326.77	255.44
326.999	520.44
327.228	1067.44
327.457	1959.44
327.686	1524.44
327.914	388.44
328.143	193.44
328.372	152.44
328.6	134.44
328.829	129.44
329.058	133.44
329.287	129.44
329.515	104.44
329.744	106.44
329.972	109.44
330.201	89.44
330.43	114.44
330.658	116.44
330.887	137.44
331.115	106.44
331.344	86.44
331.572	104.44
331.801	103.44
332.03	99.44
332.258	94.44
332.486	88.44
332.715	86.44
332.943	99.44
333.172	108.44
333.4	96.44
333.629	101.44
333.857	114.44
334.085	101.44
334.314	94.44
334.542	95.44
334.771	101.44
334.999	96.44
335.227	96.44
335.455	87.44
335.684	89.44
335.912	87.44
336.14	94.44
336.369	102.44
336.597	95.44
336.825	94.44
337.053	88.44
337.281	68.44
337.51	78.44
337.738	82.44
337.966	95.44
338.194	100.44
338.422	97.44
338.65	100.44
338.878	87.44
339.106	89.44
339.334	85.44
339.562	86.44
339.79	101.44
340.018	83.44
340.246	120.44
340.474	106.44
340.702	104.44
340.93	95.44
341.158	105.44
341.386	99.44
341.614	100.44
341.842	94.44
342.07	90.44
342.298	92.44
342.526	85.44
342.754	85.44
342.981	84.44
343.209	88.44
343.437	91.44
343.665	97.44
343.893	93.44
344.12	96.44
344.348	92.44
344.576	87.44
344.804	83.44
345.031	101.44
345.259	103.44
345.487	84.44
345.714	81.44
345.942	93.44
346.17	93.44
346.397	88.44
346.625	100.44
346.853	91.44
347.08	88.44
347.308	94.44
347.535	95.44
347.763	97.44
347.99	97.44
348.218	105.44
348.445	111.44
348.673	104.44
348.9	103.44
349.128	81.44
349.355	88.44
349.583	94.44
349.81	89.44
350.037	104.44
350.265	87.44
350.492	108.44
350.72	85.44
350.947	101.44
351.174	114.44
351.402	112.44
351.629	100.44
351.856	97.44
352.083	100.44
352.311	93.44
352.538	112.44
352.765	110.44
352.992	126.44
353.22	109.44
353.447	97.44
353.674	90.44
353.901	105.44
354.128	100.44
354.355	95.44
354.583	109.44
354.81	94.44
355.037	89.44
355.264	92.44
355.491	89.44
355.718	95.44
355.945	106.44
356.172	80.44
356.399	105.44
356.626	97.44
356.853	85.44
357.08	96.44
357.307	99.44
357.534	109.44
357.761	90.44
357.988	104.44
358.215	109.44
358.441	83.44
358.668	88.44
358.895	89.44
359.122	93.44
359.349	85.44
359.576	103.44
359.802	102.44
360.029	100.44
360.256	124.44
360.483	116.44
360.709	94.44
360.936	92.44
361.163	92.44
361.39	95.44
361.616	94.44
361.843	96.44
362.07	94.44
362.296	97.44
362.523	95.44
362.749	99.44
362.976	85.44
363.203	88.44
363.429	88.44
363.656	96.44
363.882	84.44
364.109	92.44
364.335	96.44
364.562	90.44
364.788	93.44
365.015	96.44
365.241	103.44
365.468	99.44
365.694	110.44
365.92	97.44
366.147	74.44
366.373	92.44
366.599	77.44
366.826	83.44
367.052	86.44
367.278	87.44
367.505	86.44
367.731	86.44
367.957	94.44
368.184	95.44
368.41	110.44
368.636	106.44
368.862	99.44
369.089	94.44
369.315	90.44
369.541	93.44
369.767	90.44
369.993	98.44
370.219	105.44
370.445	97.44
370.672	93.44
370.898	97.44
371.124	96.44
371.35	97.44
371.576	101.44
371.802	102.44
372.028	85.44
372.254	81.44
372.48	84.44
372.706	85.44
372.932	96.44
373.158	82.44
373.384	101.44
373.61	81.44
373.835	102.44
374.061	100.44
374.287	98.44
374.513	83.44
374.739	93.44
374.965	88.44
375.191	94.44
375.416	95.44
375.642	90.44
375.868	98.44
376.094	94.44
376.319	88.44
376.545	86.44
376.771	95.44
376.997	97.44
377.222	81.44
377.448	86.44
377.674	88.44
377.899	112.44
378.125	86.44
378.35	86.44
378.576	85.44
378.802	93.44
379.027	82.44
379.253	85.44
379.478	88.44
379.704	77.44
379.929	93.44
380.155	97.44
380.38	87.44
380.606	88.44
380.831	83.44
381.057	86.44
381.282	89.44
381.507	90.44
381.733	91.44
381.958	79.44
382.184	94.44
382.409	90.44
382.634	94.44
382.86	103.44
383.085	114.44
383.31	101.44
383.535	94.44
383.761	104.44
383.986	104.44
384.211	106.44
384.436	100.44
384.662	101.44
384.887	97.44
385.112	98.44
385.337	92.44
385.562	95.44
385.787	112.44
386.013	103.44
386.238	114.44
386.463	104.44
386.688	111.44
386.913	89.44
387.138	97.44
387.363	106.44
387.588	102.44
387.813	96.44
388.038	125.44
388.263	113.44
388.488	122.44
388.713	100.44
388.938	92.44
389.163	93.44
389.387	89.44
389.612	86.44
389.837	103.44
390.062	97.44
390.287	89.44
390.512	87.44
390.736	86.44
390.961	90.44
391.186	100.44
391.411	101.44
391.636	94.44
391.86	87.44
392.085	81.44
392.31	82.44
392.534	81.44
392.759	96.44
392.984	76.44
393.208	79.44
393.433	74.44
393.658	86.44
393.882	84.44
394.107	89.44
394.331	90.44
394.556	100.44
394.78	98.44
395.005	93.44
395.229	80.44
395.454	85.44
395.678	85.44
395.903	96.44
396.127	104.44
396.352	77.44
396.576	97.44
396.801	75.44
397.025	93.44
397.249	95.44
397.474	84.44
397.698	89.44
397.922	95.44
398.147	84.44
398.371	93.44
398.595	84.44
398.82	89.44
399.044	87.44
399.268	85.44
399.492	77.44
399.717	87.44
399.941	107.44
400.165	105.44
400.389	94.44
400.613	74.44
400.837	98.44
401.062	101.44
401.286	88.44
401.51	89.44
401.734	101.44
401.958	96.44
402.182	119.44
402.406	166.44
402.63	132.44
402.854	117.44
403.078	97.44
403.302	89.44
403.526	93.44
403.75	96.44
403.974	79.44
404.198	95.44
404.422	88.44
404.645	94.44
404.869	85.44
405.093	83.44
405.317	89.44
405.541	89.44
405.765	98.44
405.988	104.44
406.212	158.44
406.436	233.44
406.66	142.44
406.883	104.44
407.107	82.44
407.331	83.44
407.555	101.44
407.778	88.44
408.002	81.44
408.226	88.44
408.449	107.44
408.673	81.44
408.896	89.44
409.12	94.44
409.344	89.44
409.567	80.44
409.791	103.44
410.014	84.44
410.238	89.44
410.461	105.44
410.685	96.44
410.908	103.44
411.132	116.44
411.355	96.44
411.578	98.44
411.802	87.44
412.025	84.44
412.249	90.44
412.472	80.44
412.695	76.44
412.919	87.44
413.142	76.44
413.365	82.44
413.589	100.44
413.812	89.44
414.035	88.44
414.258	97.44
414.482	80.44
414.705	83.44
414.928	96.44
415.151	88.44
415.374	85.44
415.597	89.44
415.821	92.44
416.044	77.44
416.267	94.44
416.49	80.44
416.713	90.44
416.936	85.44
417.159	79.44
417.382	85.44
417.605	84.44
417.828	79.44
418.051	94.44
418.274	87.44
418.497	82.44
418.72	84.44
418.943	96.44
419.166	89.44
419.389	87.44
419.611	78.44
419.834	86.44
420.057	83.44
420.28	91.44
420.503	76.44
420.726	83.44
420.948	85.44
421.171	98.44
421.394	95.44
421.617	83.44
421.839	88.44
422.062	87.44
422.285	81.44
422.507	107.44
422.73	96.44
422.953	83.44
423.175	70.44
423.398	86.44
423.621	89.44
423.843	100.44
424.066	97.44
424.288	89.44
424.511	93.44
424.733	98.44
424.956	103.44
425.178	86.44
425.401	96.44
425.623	90.44
425.846	94.44
426.068	95.44
426.291	92.44
426.513	90.44
426.735	78.44
426.958	89.44
427.18	112.44
427.402	126.44
427.625	161.44
427.847	127.44
428.069	103.44
428.292	84.44
428.514	86.44
428.736	86.44
428.958	82.44
429.181	83.44
429.403	77.44
429.625	76.44
429.847	85.44
430.069	81.44
430.292	86.44
430.514	77.44
430.736	82.44
430.958	87.44
431.18	99.44
431.402	79.44
431.624	82.44
431.846	95.44
432.068	89.44
432.29	89.44
432.512	76.44
432.734	100.44
432.956	93.44
433.178	88.44
433.4	93.44
433.622	84.44
433.844	97.44
434.066	90.44
434.287	88.44
434.509	89.44
434.731	97.44
434.953	92.44
435.175	90.44
435.397	93.44
435.618	83.44
435.84	103.44
436.062	121.44
436.284	124.44
436.505	88.44
436.727	106.44
436.949	99.44
437.17	81.44
437.392	80.44
437.614	93.44
437.835	110.44
438.057	128.44
438.278	117.44
438.5	105.44
438.721	117.44
438.943	101.44
439.165	104.44
439.386	94.44
439.608	90.44
439.829	112.44
440.05	105.44
440.272	129.44
440.493	113.44
440.715	90.44
440.936	89.44
441.158	85.44
441.379	79.44
441.6	100.44
441.822	94.44
442.043	94.44
442.264	104.44
442.486	86.44
442.707	82.44
442.928	100.44
443.149	119.44
443.371	137.44
443.592	128.44
443.813	132.44
444.034	92.44
444.255	94.44
444.476	107.44
444.698	94.44
444.919	105.44
445.14	134.44
445.361	121.44
445.582	115.44
445.803	151.44
446.024	130.44
446.245	141.44
446.466	104.44
446.687	90.44
446.908	94.44
447.129	85.44
447.35	83.44
447.571	111.44
447.792	88.44
448.013	92.44
448.234	102.44
448.455	96.44
448.675	116.44
448.896	106.44
449.117	89.44
449.338	96.44
449.559	125.44
449.779	145.44
450	89.44
450.221	88.44
450.442	86.44
450.662	94.44
450.883	109.44
451.104	117.44
451.324	89.44
451.545	83.44
451.766	98.44
451.986	88.44
452.207	89.44
452.428	82.44
452.648	96.44
452.869	110.44
453.089	106.44
453.31	133.44
453.53	104.44
453.751	85.44
453.971	95.44
454.192	110.44
454.412	96.44
454.633	86.44
454.853	81.44
455.073	82.44
455.294	96.44
455.514	90.44
455.734	79.44
455.955	78.44
456.175	82.44
456.395	66.44
456.616	82.44
456.836	90.44
457.056	88.44
457.276	94.44
457.497	88.44
457.717	86.44
457.937	90.44
458.157	80.44
458.377	77.44
458.598	92.44
458.818	152.44
459.038	151.44
459.258	112.44
459.478	84.44
459.698	96.44
459.918	81.44
460.138	73.44
460.358	88.44
460.578	80.44
460.798	73.44
461.018	97.44
461.238	89.44
461.458	105.44
461.678	87.44
461.898	94.44
462.118	74.44
462.338	82.44
462.558	90.44
462.777	89.44
462.997	87.44
463.217	91.44
463.437	76.44
463.657	74.44
463.876	81.44
464.096	91.44
464.316	82.44
464.536	101.44
464.755	103.44
464.975	109.44
465.195	157.44
465.414	148.44
465.634	101.44
465.854	104.44
466.073	78.44
466.293	74.44
466.512	90.44
466.732	85.44
466.951	79.44
467.171	84.44
467.391	92.44
467.61	94.44
467.829	102.44
468.049	104.44
468.268	93.44
468.488	80.44
468.707	93.44
468.927	86.44
469.146	74.44
469.365	88.44
469.585	80.44
469.804	96.44
470.023	104.44
470.243	99.44
470.462	108.44
470.681	111.44
470.901	86.44
471.12	83.44
471.339	82.44
471.558	100.44
471.777	81.44
471.997	79.44
472.216	91.44
472.435	90.44
472.654	94.44
472.873	84.44
473.092	91.44
473.311	78.44
473.53	96.44
473.749	94.44
473.968	94.44
474.187	108.44
474.406	105.44
474.625	87.44
474.844	95.44
475.063	82.44
475.282	87.44
475.501	87.44
475.72	90.44
475.939	91.44
476.158	78.44
476.377	79.44
476.596	91.44
476.814	100.44
477.033	95.44
477.252	88.44
477.471	83.44
477.69	85.44
477.908	97.44
478.127	91.44
478.346	86.44
478.564	98.44
478.783	82.44
479.002	91.44
479.22	97.44
479.439	94.44
479.658	102.44
479.876	90.44
480.095	98.44
480.313	79.44
480.532	91.44
480.751	99.44
480.969	96.44
481.188	90.44
481.406	93.44
481.624	99.44
481.843	101.44
482.061	96.44
482.28	83.44
482.498	95.44
482.717	86.44
482.935	93.44
483.153	85.44
483.372	93.44
483.59	87.44
483.808	76.44
484.027	92.44
484.245	111.44
484.463	87.44
484.681	112.44
484.9	91.44
485.118	104.44
485.336	103.44
485.554	106.44
485.772	101.44
485.99	98.44
486.209	99.44
486.427	108.44
486.645	113.44
486.863	103.44
487.081	113.44
487.299	110.44
487.517	102.44
487.735	88.44
487.953	95.44
488.171	89.44
488.389	90.44
488.607	90.44
488.825	97.44
489.043	102.44
489.261	92.44
489.479	90.44
489.696	90.44
489.914	82.44
490.132	91.44
490.35	79.44
490.568	94.44
490.786	93.44
491.003	82.44
491.221	95.44
491.439	96.44
491.657	91.44
491.874	109.44
492.092	87.44
492.31	94.44
492.527	93.44
492.745	93.44
492.963	109.44
493.18	80.44
493.398	84.44
493.615	94.44
493.833	106.44
494.05	89.44
494.268	104.44
494.485	80.44
494.703	95.44
494.92	97.44
495.138	99.44
495.355	96.44
495.573	100.44
495.79	88.44
496.008	96.44
496.225	83.44
496.442	96.44
496.66	87.44
496.877	90.44
497.094	88.44
497.312	84.44
497.529	73.44
497.746	78.44
497.963	86.44
498.181	80.44
498.398	103.44
498.615	106.44
498.832	104.44
499.049	80.44
499.267	88.44
499.484	79.44
499.701	99.44
499.918	87.44
500.135	112.44
500.352	94.44
500.569	94.44
500.786	93.44
501.003	88.44
501.22	94.44
501.437	103.44
501.654	94.44
501.871	108.44
502.088	97.44
502.305	101.44
502.522	84.44
502.739	93.44
502.956	86.44
503.172	84.44
503.389	84.44
503.606	103.44
503.823	117.44
504.04	78.44
504.256	100.44
504.473	75.44
504.69	88.44
504.907	98.44
505.123	95.44
505.34	88.44
505.557	81.44
505.773	84.44
505.99	80.44
506.207	89.44
506.423	98.44
506.64	88.44
506.856	82.44
507.073	84.44
507.289	89.44
507.506	92.44
507.722	115.44
507.939	104.44
508.155	99.44
508.372	97.44
508.588	97.44
508.805	100.44
509.021	90.44
509.238	110.44
509.454	112.44
509.67	93.44
509.887	101.44
510.103	130.44
510.319	231.44
510.536	786.44
510.752	2636.44
510.968	716.44
511.184	150.44
511.401	111.44
511.617	103.44
511.833	88.44
512.049	102.44
512.265	75.44
512.481	84.44
512.698	103.44
512.914	93.44
513.13	89.44
513.346	94.44
513.562	80.44
513.778	89.44
513.994	94.44
514.21	85.44
514.426	113.44
514.642	135.44
514.858	140.44
515.074	161.44
515.29	477.44
515.506	1573.44
515.721	568.44
