Data from Uncirc_2003_H10_HRD10591_00026.txt Node
Date: Wed Jan 03 10:35:53 EST 2024
User: Yrep
Spectrometer: HR+D1059
Trigger mode: 1
Integration Time (sec): 1.000000E-1
Scans to average: 1
Electric dark correction enabled: true
Nonlinearity correction enabled: false
Boxcar width: 0
XAxis mode: Wavelengths
Number of Pixels in Spectrum: 2048
>>>>>Begin Spectral Data<<<<<
223.165	-13.19
223.4	-13.19
223.635	-13.19
223.869	-23.19
224.104	-24.19
224.338	-7.19
224.573	-19.19
224.808	3.81
225.042	-9.19
225.277	-15.19
225.511	14.81
225.746	3.81
225.98	6.81
226.215	9.81
226.449	17.81
226.683	24.81
226.918	8.81
227.152	20.81
227.387	38.81
227.621	23.81
227.856	41.81
228.09	45.81
228.324	57.81
228.559	54.81
228.793	52.81
229.027	59.81
229.262	56.81
229.496	87.81
229.73	90.81
229.964	92.81
230.199	65.81
230.433	65.81
230.667	66.81
230.901	61.81
231.136	73.81
231.37	78.81
231.604	63.81
231.838	89.81
232.072	75.81
232.306	89.81
232.541	88.81
232.775	82.81
233.009	72.81
233.243	68.81
233.477	89.81
233.711	91.81
233.945	82.81
234.179	61.81
234.413	82.81
234.647	79.81
234.881	80.81
235.115	79.81
235.349	67.81
235.583	84.81
235.817	79.81
236.051	75.81
236.285	81.81
236.519	70.81
236.753	90.81
236.987	76.81
237.221	74.81
237.455	83.81
237.689	81.81
237.922	68.81
238.156	79.81
238.39	73.81
238.624	77.81
238.858	85.81
239.091	73.81
239.325	79.81
239.559	79.81
239.793	73.81
240.027	66.81
240.26	85.81
240.494	83.81
240.728	77.81
240.961	73.81
241.195	66.81
241.429	81.81
241.662	69.81
241.896	78.81
242.13	77.81
242.363	95.81
242.597	89.81
242.83	87.81
243.064	86.81
243.298	73.81
243.531	63.81
243.765	95.81
243.998	84.81
244.232	101.81
244.465	85.81
244.699	97.81
244.932	72.81
245.166	84.81
245.399	82.81
245.633	74.81
245.866	71.81
246.099	74.81
246.333	89.81
246.566	87.81
246.8	79.81
247.033	85.81
247.266	82.81
247.5	81.81
247.733	87.81
247.966	91.81
248.2	91.81
248.433	76.81
248.666	79.81
248.899	78.81
249.133	89.81
249.366	102.81
249.599	91.81
249.832	76.81
250.066	84.81
250.299	68.81
250.532	80.81
250.765	89.81
250.998	80.81
251.231	74.81
251.465	82.81
251.698	67.81
251.931	79.81
252.164	81.81
252.397	84.81
252.63	70.81
252.863	76.81
253.096	85.81
253.329	86.81
253.562	80.81
253.795	87.81
254.028	82.81
254.261	73.81
254.494	99.81
254.727	89.81
254.96	74.81
255.193	82.81
255.426	61.81
255.659	79.81
255.892	83.81
256.124	83.81
256.357	86.81
256.59	77.81
256.823	76.81
257.056	82.81
257.289	85.81
257.521	80.81
257.754	91.81
257.987	76.81
258.22	85.81
258.452	78.81
258.685	80.81
258.918	82.81
259.151	79.81
259.383	83.81
259.616	74.81
259.849	91.81
260.081	94.81
260.314	81.81
260.547	74.81
260.779	88.81
261.012	81.81
261.244	72.81
261.477	90.81
261.71	97.81
261.942	103.81
262.175	102.81
262.407	92.81
262.64	82.81
262.872	79.81
263.105	98.81
263.337	88.81
263.57	83.81
263.802	70.81
264.035	70.81
264.267	90.81
264.499	80.81
264.732	79.81
264.964	68.81
265.197	73.81
265.429	75.81
265.661	69.81
265.894	95.81
266.126	92.81
266.358	87.81
266.591	86.81
266.823	79.81
267.055	69.81
267.287	86.81
267.52	63.81
267.752	84.81
267.984	79.81
268.216	85.81
268.448	74.81
268.681	86.81
268.913	87.81
269.145	78.81
269.377	91.81
269.609	85.81
269.841	88.81
270.073	86.81
270.306	83.81
270.538	87.81
270.77	77.81
271.002	80.81
271.234	74.81
271.466	89.81
271.698	81.81
271.93	88.81
272.162	85.81
272.394	87.81
272.626	74.81
272.858	90.81
273.09	95.81
273.322	106.81
273.553	85.81
273.785	87.81
274.017	82.81
274.249	91.81
274.481	99.81
274.713	78.81
274.945	76.81
275.176	96.81
275.408	98.81
275.64	84.81
275.872	101.81
276.104	72.81
276.335	94.81
276.567	96.81
276.799	107.81
277.031	95.81
277.262	90.81
277.494	87.81
277.726	89.81
277.957	89.81
278.189	85.81
278.421	74.81
278.652	86.81
278.884	89.81
279.115	89.81
279.347	94.81
279.579	79.81
279.81	77.81
280.042	94.81
280.273	88.81
280.505	101.81
280.736	77.81
280.968	89.81
281.199	101.81
281.431	95.81
281.662	88.81
281.894	84.81
282.125	106.81
282.356	121.81
282.588	134.81
282.819	112.81
283.051	83.81
283.282	89.81
283.513	87.81
283.745	83.81
283.976	82.81
284.207	99.81
284.439	80.81
284.67	93.81
284.901	97.81
285.132	76.81
285.364	77.81
285.595	81.81
285.826	82.81
286.057	80.81
286.288	84.81
286.52	84.81
286.751	81.81
286.982	89.81
287.213	82.81
287.444	83.81
287.675	86.81
287.906	97.81
288.138	96.81
288.369	80.81
288.6	89.81
288.831	97.81
289.062	95.81
289.293	85.81
289.524	83.81
289.755	81.81
289.986	79.81
290.217	83.81
290.448	89.81
290.679	85.81
290.91	86.81
291.141	87.81
291.371	78.81
291.602	83.81
291.833	84.81
292.064	88.81
292.295	81.81
292.526	78.81
292.757	95.81
292.987	86.81
293.218	100.81
293.449	105.81
293.68	73.81
293.91	79.81
294.141	88.81
294.372	103.81
294.603	95.81
294.833	89.81
295.064	90.81
295.295	79.81
295.525	72.81
295.756	97.81
295.987	111.81
296.217	135.81
296.448	115.81
296.679	89.81
296.909	91.81
297.14	96.81
297.37	97.81
297.601	97.81
297.831	69.81
298.062	91.81
298.292	90.81
298.523	95.81
298.753	83.81
298.984	90.81
299.214	87.81
299.445	91.81
299.675	88.81
299.905	97.81
300.136	90.81
300.366	83.81
300.597	87.81
300.827	93.81
301.057	96.81
301.288	98.81
301.518	95.81
301.748	106.81
301.979	97.81
302.209	81.81
302.439	86.81
302.669	93.81
302.9	97.81
303.13	98.81
303.36	100.81
303.59	103.81
303.82	98.81
304.051	86.81
304.281	94.81
304.511	96.81
304.741	91.81
304.971	80.81
305.201	83.81
305.431	90.81
305.661	86.81
305.891	105.81
306.121	98.81
306.352	97.81
306.582	102.81
306.812	90.81
307.042	92.81
307.272	83.81
307.502	91.81
307.731	92.81
307.961	91.81
308.191	89.81
308.421	96.81
308.651	97.81
308.881	96.81
309.111	91.81
309.341	96.81
309.571	92.81
309.8	65.81
310.03	95.81
310.26	94.81
310.49	107.81
310.72	85.81
310.949	103.81
311.179	95.81
311.409	84.81
311.639	97.81
311.868	99.81
312.098	109.81
312.328	99.81
312.557	96.81
312.787	104.81
313.017	98.81
313.246	95.81
313.476	79.81
313.706	93.81
313.935	95.81
314.165	109.81
314.394	114.81
314.624	107.81
314.853	86.81
315.083	77.81
315.312	91.81
315.542	92.81
315.771	97.81
316.001	92.81
316.23	98.81
316.46	100.81
316.689	88.81
316.919	86.81
317.148	87.81
317.377	82.81
317.607	95.81
317.836	82.81
318.065	85.81
318.295	104.81
318.524	96.81
318.753	101.81
318.983	96.81
319.212	101.81
319.441	92.81
319.67	102.81
319.9	105.81
320.129	92.81
320.358	88.81
320.587	93.81
320.816	102.81
321.046	107.81
321.275	85.81
321.504	91.81
321.733	87.81
321.962	94.81
322.191	93.81
322.42	94.81
322.649	103.81
322.878	117.81
323.108	110.81
323.337	107.81
323.566	122.81
323.795	153.81
324.024	238.81
324.253	419.81
324.482	905.81
324.71	1903.81
324.939	2526.81
325.168	924.81
325.397	257.81
325.626	155.81
325.855	144.81
326.084	131.81
326.313	117.81
326.542	155.81
326.77	259.81
326.999	504.81
327.228	1028.81
327.457	1904.81
327.686	1533.81
327.914	410.81
328.143	194.81
328.372	150.81
328.6	133.81
328.829	115.81
329.058	115.81
329.287	142.81
329.515	112.81
329.744	94.81
329.972	111.81
330.201	110.81
330.43	110.81
330.658	125.81
330.887	135.81
331.115	118.81
331.344	101.81
331.572	97.81
331.801	104.81
332.03	101.81
332.258	92.81
332.486	102.81
332.715	101.81
332.943	82.81
333.172	88.81
333.4	91.81
333.629	112.81
333.857	105.81
334.085	110.81
334.314	87.81
334.542	104.81
334.771	104.81
334.999	98.81
335.227	103.81
335.455	101.81
335.684	86.81
335.912	94.81
336.14	93.81
336.369	102.81
336.597	96.81
336.825	80.81
337.053	93.81
337.281	91.81
337.51	81.81
337.738	89.81
337.966	98.81
338.194	100.81
338.422	90.81
338.65	86.81
338.878	106.81
339.106	107.81
339.334	102.81
339.562	90.81
339.79	93.81
340.018	85.81
340.246	91.81
340.474	95.81
340.702	95.81
340.93	91.81
341.158	109.81
341.386	90.81
341.614	93.81
341.842	88.81
342.07	97.81
342.298	93.81
342.526	100.81
342.754	81.81
342.981	80.81
343.209	92.81
343.437	88.81
343.665	85.81
343.893	86.81
344.12	91.81
344.348	91.81
344.576	104.81
344.804	94.81
345.031	102.81
345.259	95.81
345.487	97.81
345.714	103.81
345.942	94.81
346.17	98.81
346.397	87.81
346.625	80.81
346.853	86.81
347.08	87.81
347.308	98.81
347.535	103.81
347.763	101.81
347.99	100.81
348.218	120.81
348.445	108.81
348.673	104.81
348.9	98.81
349.128	89.81
349.355	87.81
349.583	102.81
349.81	96.81
350.037	83.81
350.265	108.81
350.492	91.81
350.72	94.81
350.947	100.81
351.174	104.81
351.402	117.81
351.629	97.81
351.856	94.81
352.083	113.81
352.311	116.81
352.538	101.81
352.765	110.81
352.992	114.81
353.22	98.81
353.447	99.81
353.674	90.81
353.901	102.81
354.128	96.81
354.355	108.81
354.583	100.81
354.81	102.81
355.037	96.81
355.264	91.81
355.491	90.81
355.718	88.81
355.945	90.81
356.172	104.81
356.399	88.81
356.626	99.81
356.853	100.81
357.08	74.81
357.307	87.81
357.534	96.81
357.761	93.81
357.988	97.81
358.215	97.81
358.441	97.81
358.668	101.81
358.895	88.81
359.122	93.81
359.349	98.81
359.576	90.81
359.802	97.81
360.029	110.81
360.256	109.81
360.483	107.81
360.709	84.81
360.936	88.81
361.163	93.81
361.39	87.81
361.616	96.81
361.843	93.81
362.07	93.81
362.296	107.81
362.523	79.81
362.749	97.81
362.976	97.81
363.203	95.81
363.429	102.81
363.656	96.81
363.882	83.81
364.109	88.81
364.335	83.81
364.562	82.81
364.788	85.81
365.015	86.81
365.241	97.81
365.468	97.81
365.694	102.81
365.92	81.81
366.147	93.81
366.373	90.81
366.599	100.81
366.826	94.81
367.052	90.81
367.278	89.81
367.505	87.81
367.731	86.81
367.957	91.81
368.184	98.81
368.41	91.81
368.636	126.81
368.862	105.81
369.089	108.81
369.315	107.81
369.541	95.81
369.767	92.81
369.993	98.81
370.219	97.81
370.445	85.81
370.672	83.81
370.898	90.81
371.124	93.81
371.35	88.81
371.576	92.81
371.802	91.81
372.028	96.81
372.254	85.81
372.48	93.81
372.706	85.81
372.932	90.81
373.158	75.81
373.384	90.81
373.61	86.81
373.835	88.81
374.061	90.81
374.287	108.81
374.513	99.81
374.739	86.81
374.965	94.81
375.191	87.81
375.416	82.81
375.642	81.81
375.868	105.81
376.094	98.81
376.319	91.81
376.545	91.81
376.771	88.81
376.997	101.81
377.222	93.81
377.448	96.81
377.674	94.81
377.899	101.81
378.125	80.81
378.35	81.81
378.576	90.81
378.802	90.81
379.027	95.81
379.253	92.81
379.478	80.81
379.704	95.81
379.929	101.81
380.155	89.81
380.38	102.81
380.606	87.81
380.831	99.81
381.057	88.81
381.282	88.81
381.507	93.81
381.733	108.81
381.958	101.81
382.184	102.81
382.409	111.81
382.634	107.81
382.86	102.81
383.085	101.81
383.31	99.81
383.535	107.81
383.761	102.81
383.986	82.81
384.211	99.81
384.436	97.81
384.662	111.81
384.887	103.81
385.112	91.81
385.337	106.81
385.562	118.81
385.787	103.81
386.013	119.81
386.238	125.81
386.463	95.81
386.688	114.81
386.913	106.81
387.138	110.81
387.363	96.81
387.588	104.81
387.813	121.81
388.038	103.81
388.263	120.81
388.488	103.81
388.713	85.81
388.938	90.81
389.163	98.81
389.387	95.81
389.612	89.81
389.837	92.81
390.062	96.81
390.287	108.81
390.512	86.81
390.736	77.81
390.961	89.81
391.186	113.81
391.411	97.81
391.636	95.81
391.86	76.81
392.085	79.81
392.31	82.81
392.534	95.81
392.759	95.81
392.984	86.81
393.208	107.81
393.433	98.81
393.658	100.81
393.882	83.81
394.107	86.81
394.331	86.81
394.556	72.81
394.78	104.81
395.005	103.81
395.229	84.81
395.454	98.81
395.678	87.81
395.903	91.81
396.127	75.81
396.352	83.81
396.576	76.81
396.801	87.81
397.025	88.81
397.249	88.81
397.474	87.81
397.698	81.81
397.922	69.81
398.147	79.81
398.371	97.81
398.595	96.81
398.82	72.81
399.044	87.81
399.268	85.81
399.492	97.81
399.717	101.81
399.941	101.81
400.165	100.81
400.389	78.81
400.613	93.81
400.837	90.81
401.062	93.81
401.286	97.81
401.51	80.81
401.734	89.81
401.958	101.81
402.182	121.81
402.406	161.81
402.63	116.81
402.854	85.81
403.078	89.81
403.302	86.81
403.526	89.81
403.75	65.81
403.974	94.81
404.198	93.81
404.422	79.81
404.645	96.81
404.869	112.81
405.093	89.81
405.317	103.81
405.541	93.81
405.765	100.81
405.988	126.81
406.212	180.81
406.436	242.81
406.66	141.81
406.883	88.81
407.107	92.81
407.331	88.81
407.555	81.81
407.778	98.81
408.002	102.81
408.226	81.81
408.449	90.81
408.673	88.81
408.896	99.81
409.12	87.81
409.344	103.81
409.567	93.81
409.791	90.81
410.014	101.81
410.238	90.81
410.461	87.81
410.685	90.81
410.908	117.81
411.132	107.81
411.355	91.81
411.578	86.81
411.802	80.81
412.025	96.81
412.249	92.81
412.472	83.81
412.695	95.81
412.919	85.81
413.142	90.81
413.365	85.81
413.589	95.81
413.812	87.81
414.035	95.81
414.258	97.81
414.482	97.81
414.705	81.81
414.928	95.81
415.151	91.81
415.374	83.81
415.597	85.81
415.821	97.81
416.044	85.81
416.267	96.81
416.49	90.81
416.713	87.81
416.936	80.81
417.159	87.81
417.382	90.81
417.605	81.81
417.828	72.81
418.051	91.81
418.274	87.81
418.497	89.81
418.72	89.81
418.943	77.81
419.166	83.81
419.389	93.81
419.611	87.81
419.834	90.81
420.057	98.81
420.28	84.81
420.503	89.81
420.726	84.81
420.948	99.81
421.171	83.81
421.394	104.81
421.617	94.81
421.839	102.81
422.062	82.81
422.285	83.81
422.507	117.81
422.73	104.81
422.953	93.81
423.175	80.81
423.398	75.81
423.621	95.81
423.843	93.81
424.066	99.81
424.288	105.81
424.511	102.81
424.733	99.81
424.956	102.81
425.178	93.81
425.401	97.81
425.623	96.81
425.846	98.81
426.068	86.81
426.291	85.81
426.513	96.81
426.735	96.81
426.958	84.81
427.18	111.81
427.402	133.81
427.625	155.81
427.847	127.81
428.069	97.81
428.292	88.81
428.514	76.81
428.736	83.81
428.958	88.81
429.181	65.81
429.403	83.81
429.625	88.81
429.847	92.81
430.069	101.81
430.292	105.81
430.514	82.81
430.736	77.81
430.958	78.81
431.18	77.81
431.402	92.81
431.624	85.81
431.846	81.81
432.068	74.81
432.29	82.81
432.512	110.81
432.734	95.81
432.956	95.81
433.178	107.81
433.4	103.81
433.622	95.81
433.844	80.81
434.066	83.81
434.287	98.81
434.509	87.81
434.731	84.81
434.953	82.81
435.175	89.81
435.397	90.81
435.618	112.81
435.84	109.81
436.062	126.81
436.284	106.81
436.505	99.81
436.727	96.81
436.949	95.81
437.17	81.81
437.392	95.81
437.614	81.81
437.835	102.81
438.057	120.81
438.278	119.81
438.5	109.81
438.721	117.81
438.943	88.81
439.165	93.81
439.386	87.81
439.608	96.81
439.829	98.81
440.05	111.81
440.272	134.81
440.493	95.81
440.715	73.81
440.936	86.81
441.158	82.81
441.379	80.81
441.6	95.81
441.822	97.81
442.043	89.81
442.264	101.81
442.486	97.81
442.707	84.81
442.928	98.81
443.149	123.81
443.371	125.81
443.592	102.81
443.813	131.81
444.034	109.81
444.255	104.81
444.476	80.81
444.698	93.81
444.919	77.81
445.14	141.81
445.361	114.81
445.582	114.81
445.803	133.81
446.024	143.81
446.245	153.81
446.466	131.81
446.687	105.81
446.908	98.81
447.129	86.81
447.35	86.81
447.571	80.81
447.792	101.81
448.013	91.81
448.234	107.81
448.455	93.81
448.675	111.81
448.896	121.81
449.117	97.81
449.338	113.81
449.559	142.81
449.779	129.81
450	101.81
450.221	82.81
450.442	87.81
450.662	100.81
450.883	102.81
451.104	92.81
451.324	96.81
451.545	92.81
451.766	92.81
451.986	73.81
452.207	71.81
452.428	84.81
452.648	101.81
452.869	103.81
453.089	114.81
453.31	104.81
453.53	87.81
453.751	90.81
453.971	98.81
454.192	112.81
454.412	109.81
454.633	89.81
454.853	71.81
455.073	88.81
455.294	81.81
455.514	99.81
455.734	104.81
455.955	88.81
456.175	91.81
456.395	88.81
456.616	85.81
456.836	87.81
457.056	85.81
457.276	97.81
457.497	79.81
457.717	87.81
457.937	88.81
458.157	82.81
458.377	102.81
458.598	123.81
458.818	149.81
459.038	157.81
459.258	115.81
459.478	87.81
459.698	97.81
459.918	76.81
460.138	91.81
460.358	85.81
460.578	89.81
460.798	82.81
461.018	93.81
461.238	90.81
461.458	83.81
461.678	84.81
461.898	85.81
462.118	73.81
462.338	74.81
462.558	101.81
462.777	82.81
462.997	88.81
463.217	83.81
463.437	74.81
463.657	81.81
463.876	94.81
464.096	95.81
464.316	89.81
464.536	98.81
464.755	85.81
464.975	104.81
465.195	154.81
465.414	150.81
465.634	104.81
465.854	81.81
466.073	94.81
466.293	83.81
466.512	104.81
466.732	91.81
466.951	89.81
467.171	88.81
467.391	101.81
467.61	93.81
467.829	94.81
468.049	91.81
468.268	88.81
468.488	79.81
468.707	74.81
468.927	88.81
469.146	92.81
469.365	86.81
469.585	87.81
469.804	90.81
470.023	104.81
470.243	84.81
470.462	87.81
470.681	101.81
470.901	106.81
471.12	89.81
471.339	92.81
471.558	84.81
471.777	80.81
471.997	86.81
472.216	85.81
472.435	91.81
472.654	68.81
472.873	90.81
473.092	78.81
473.311	96.81
473.53	86.81
473.749	77.81
473.968	82.81
474.187	101.81
474.406	97.81
474.625	95.81
474.844	83.81
475.063	79.81
475.282	85.81
475.501	86.81
475.72	83.81
475.939	92.81
476.158	85.81
476.377	79.81
476.596	85.81
476.814	88.81
477.033	92.81
477.252	102.81
477.471	88.81
477.69	95.81
477.908	85.81
478.127	87.81
478.346	75.81
478.564	87.81
478.783	95.81
479.002	98.81
479.22	90.81
479.439	86.81
479.658	93.81
479.876	92.81
480.095	91.81
480.313	94.81
480.532	105.81
480.751	85.81
480.969	86.81
481.188	106.81
481.406	90.81
481.624	83.81
481.843	96.81
482.061	98.81
482.28	77.81
482.498	91.81
482.717	82.81
482.935	102.81
483.153	90.81
483.372	93.81
483.59	88.81
483.808	95.81
484.027	88.81
484.245	78.81
484.463	92.81
484.681	115.81
484.9	98.81
485.118	89.81
485.336	95.81
485.554	101.81
485.772	110.81
485.99	95.81
486.209	103.81
486.427	101.81
486.645	113.81
486.863	103.81
487.081	117.81
487.299	95.81
487.517	102.81
487.735	76.81
487.953	93.81
488.171	95.81
488.389	88.81
488.607	99.81
488.825	88.81
489.043	90.81
489.261	103.81
489.479	80.81
489.696	77.81
489.914	95.81
490.132	91.81
490.35	82.81
490.568	91.81
490.786	80.81
491.003	92.81
491.221	95.81
491.439	87.81
491.657	97.81
491.874	93.81
492.092	96.81
492.31	90.81
492.527	87.81
492.745	85.81
492.963	86.81
493.18	97.81
493.398	85.81
493.615	93.81
493.833	91.81
494.05	101.81
494.268	83.81
494.485	82.81
494.703	96.81
494.92	86.81
495.138	93.81
495.355	91.81
495.573	95.81
495.79	100.81
496.008	87.81
496.225	92.81
496.442	104.81
496.66	94.81
496.877	81.81
497.094	104.81
497.312	81.81
497.529	98.81
497.746	98.81
497.963	92.81
498.181	88.81
498.398	102.81
498.615	109.81
498.832	101.81
499.049	91.81
499.267	107.81
499.484	79.81
499.701	83.81
499.918	88.81
500.135	89.81
500.352	94.81
500.569	93.81
500.786	84.81
501.003	103.81
501.22	96.81
501.437	89.81
501.654	82.81
501.871	101.81
502.088	93.81
502.305	86.81
502.522	96.81
502.739	100.81
502.956	75.81
503.172	98.81
503.389	97.81
503.606	99.81
503.823	91.81
504.04	84.81
504.256	112.81
504.473	99.81
504.69	94.81
504.907	97.81
505.123	79.81
505.34	72.81
505.557	81.81
505.773	111.81
505.99	90.81
506.207	94.81
506.423	83.81
506.64	95.81
506.856	91.81
507.073	84.81
507.289	91.81
507.506	93.81
507.722	110.81
507.939	96.81
508.155	97.81
508.372	88.81
508.588	87.81
508.805	85.81
509.021	96.81
509.238	102.81
509.454	100.81
509.67	95.81
509.887	100.81
510.103	112.81
510.319	214.81
510.536	820.81
510.752	2507.81
510.968	691.81
511.184	141.81
511.401	121.81
511.617	104.81
511.833	109.81
512.049	97.81
512.265	97.81
512.481	90.81
512.698	88.81
512.914	85.81
513.13	92.81
513.346	88.81
513.562	88.81
513.778	91.81
513.994	90.81
514.21	109.81
514.426	120.81
514.642	131.81
514.858	106.81
515.074	177.81
515.29	459.81
515.506	1555.81
515.721	571.81
