Data from Uncirc_2003_H10_HRD10591_00048.txt Node
Date: Wed Jan 03 10:35:57 EST 2024
User: Yrep
Spectrometer: HR+D1059
Trigger mode: 1
Integration Time (sec): 1.000000E-1
Scans to average: 1
Electric dark correction enabled: true
Nonlinearity correction enabled: false
Boxcar width: 0
XAxis mode: Wavelengths
Number of Pixels in Spectrum: 2048
>>>>>Begin Spectral Data<<<<<
223.165	-14.5
223.4	-14.5
223.635	-14.5
223.869	-15.5
224.104	-24.5
224.338	-8.5
224.573	-19.5
224.808	-16.5
225.042	-4.5
225.277	-10.5
225.511	5.5
225.746	5.5
225.98	13.5
226.215	1.5
226.449	3.5
226.683	21.5
226.918	27.5
227.152	35.5
227.387	37.5
227.621	35.5
227.856	42.5
228.09	60.5
228.324	45.5
228.559	50.5
228.793	63.5
229.027	59.5
229.262	57.5
229.496	68.5
229.73	81.5
229.964	86.5
230.199	80.5
230.433	74.5
230.667	67.5
230.901	82.5
231.136	80.5
231.37	80.5
231.604	65.5
231.838	73.5
232.072	82.5
232.306	85.5
232.541	64.5
232.775	69.5
233.009	83.5
233.243	83.5
233.477	82.5
233.711	77.5
233.945	86.5
234.179	71.5
234.413	79.5
234.647	69.5
234.881	87.5
235.115	73.5
235.349	91.5
235.583	68.5
235.817	84.5
236.051	84.5
236.285	68.5
236.519	69.5
236.753	81.5
236.987	81.5
237.221	92.5
237.455	84.5
237.689	80.5
237.922	73.5
238.156	75.5
238.39	82.5
238.624	87.5
238.858	82.5
239.091	62.5
239.325	83.5
239.559	74.5
239.793	71.5
240.027	71.5
240.26	70.5
240.494	64.5
240.728	58.5
240.961	79.5
241.195	80.5
241.429	74.5
241.662	75.5
241.896	72.5
242.13	69.5
242.363	83.5
242.597	71.5
242.83	78.5
243.064	76.5
243.298	74.5
243.531	66.5
243.765	77.5
243.998	74.5
244.232	73.5
244.465	83.5
244.699	70.5
244.932	67.5
245.166	86.5
245.399	75.5
245.633	75.5
245.866	73.5
246.099	77.5
246.333	73.5
246.566	82.5
246.8	67.5
247.033	69.5
247.266	76.5
247.5	71.5
247.733	68.5
247.966	87.5
248.2	76.5
248.433	68.5
248.666	76.5
248.899	82.5
249.133	78.5
249.366	98.5
249.599	89.5
249.832	88.5
250.066	86.5
250.299	82.5
250.532	75.5
250.765	77.5
250.998	84.5
251.231	80.5
251.465	88.5
251.698	76.5
251.931	86.5
252.164	76.5
252.397	76.5
252.63	62.5
252.863	90.5
253.096	71.5
253.329	82.5
253.562	82.5
253.795	77.5
254.028	84.5
254.261	74.5
254.494	82.5
254.727	73.5
254.96	89.5
255.193	78.5
255.426	83.5
255.659	87.5
255.892	76.5
256.124	86.5
256.357	83.5
256.59	85.5
256.823	74.5
257.056	80.5
257.289	76.5
257.521	73.5
257.754	81.5
257.987	86.5
258.22	95.5
258.452	79.5
258.685	76.5
258.918	87.5
259.151	73.5
259.383	84.5
259.616	81.5
259.849	77.5
260.081	82.5
260.314	78.5
260.547	63.5
260.779	81.5
261.012	80.5
261.244	80.5
261.477	86.5
261.71	76.5
261.942	116.5
262.175	118.5
262.407	100.5
262.64	67.5
262.872	79.5
263.105	76.5
263.337	92.5
263.57	90.5
263.802	93.5
264.035	69.5
264.267	73.5
264.499	80.5
264.732	81.5
264.964	77.5
265.197	70.5
265.429	82.5
265.661	71.5
265.894	77.5
266.126	80.5
266.358	83.5
266.591	82.5
266.823	73.5
267.055	71.5
267.287	84.5
267.52	66.5
267.752	71.5
267.984	73.5
268.216	74.5
268.448	77.5
268.681	85.5
268.913	96.5
269.145	84.5
269.377	85.5
269.609	85.5
269.841	61.5
270.073	77.5
270.306	87.5
270.538	87.5
270.77	68.5
271.002	84.5
271.234	81.5
271.466	84.5
271.698	84.5
271.93	81.5
272.162	80.5
272.394	102.5
272.626	92.5
272.858	76.5
273.09	76.5
273.322	86.5
273.553	81.5
273.785	73.5
274.017	78.5
274.249	82.5
274.481	79.5
274.713	88.5
274.945	78.5
275.176	80.5
275.408	80.5
275.64	93.5
275.872	76.5
276.104	81.5
276.335	90.5
276.567	99.5
276.799	97.5
277.031	91.5
277.262	94.5
277.494	90.5
277.726	91.5
277.957	83.5
278.189	92.5
278.421	75.5
278.652	81.5
278.884	83.5
279.115	74.5
279.347	78.5
279.579	92.5
279.81	87.5
280.042	84.5
280.273	87.5
280.505	95.5
280.736	62.5
280.968	87.5
281.199	83.5
281.431	85.5
281.662	97.5
281.894	85.5
282.125	110.5
282.356	130.5
282.588	134.5
282.819	109.5
283.051	87.5
283.282	80.5
283.513	89.5
283.745	87.5
283.976	90.5
284.207	84.5
284.439	89.5
284.67	93.5
284.901	70.5
285.132	93.5
285.364	83.5
285.595	85.5
285.826	90.5
286.057	83.5
286.288	84.5
286.52	82.5
286.751	83.5
286.982	102.5
287.213	84.5
287.444	88.5
287.675	83.5
287.906	96.5
288.138	75.5
288.369	91.5
288.6	86.5
288.831	83.5
289.062	85.5
289.293	83.5
289.524	83.5
289.755	100.5
289.986	85.5
290.217	98.5
290.448	79.5
290.679	91.5
290.91	91.5
291.141	87.5
291.371	88.5
291.602	85.5
291.833	85.5
292.064	78.5
292.295	91.5
292.526	73.5
292.757	77.5
292.987	93.5
293.218	85.5
293.449	87.5
293.68	83.5
293.91	88.5
294.141	80.5
294.372	85.5
294.603	84.5
294.833	79.5
295.064	87.5
295.295	99.5
295.525	92.5
295.756	80.5
295.987	101.5
296.217	137.5
296.448	100.5
296.679	80.5
296.909	88.5
297.14	82.5
297.37	93.5
297.601	68.5
297.831	78.5
298.062	74.5
298.292	87.5
298.523	86.5
298.753	77.5
298.984	109.5
299.214	81.5
299.445	86.5
299.675	80.5
299.905	93.5
300.136	93.5
300.366	83.5
300.597	94.5
300.827	95.5
301.057	102.5
301.288	92.5
301.518	98.5
301.748	81.5
301.979	103.5
302.209	100.5
302.439	102.5
302.669	101.5
302.9	85.5
303.13	93.5
303.36	90.5
303.59	86.5
303.82	90.5
304.051	86.5
304.281	82.5
304.511	81.5
304.741	95.5
304.971	83.5
305.201	91.5
305.431	83.5
305.661	90.5
305.891	84.5
306.121	95.5
306.352	99.5
306.582	106.5
306.812	100.5
307.042	97.5
307.272	77.5
307.502	90.5
307.731	91.5
307.961	86.5
308.191	86.5
308.421	91.5
308.651	74.5
308.881	88.5
309.111	93.5
309.341	93.5
309.571	96.5
309.8	99.5
310.03	96.5
310.26	93.5
310.49	91.5
310.72	90.5
310.949	98.5
311.179	103.5
311.409	108.5
311.639	95.5
311.868	99.5
312.098	103.5
312.328	92.5
312.557	116.5
312.787	90.5
313.017	103.5
313.246	95.5
313.476	93.5
313.706	86.5
313.935	88.5
314.165	93.5
314.394	82.5
314.624	95.5
314.853	89.5
315.083	99.5
315.312	93.5
315.542	93.5
315.771	89.5
316.001	88.5
316.23	90.5
316.46	81.5
316.689	77.5
316.919	86.5
317.148	93.5
317.377	86.5
317.607	85.5
317.836	90.5
318.065	97.5
318.295	83.5
318.524	82.5
318.753	73.5
318.983	86.5
319.212	95.5
319.441	98.5
319.67	105.5
319.9	93.5
320.129	85.5
320.358	80.5
320.587	90.5
320.816	96.5
321.046	93.5
321.275	84.5
321.504	86.5
321.733	88.5
321.962	71.5
322.191	90.5
322.42	108.5
322.649	114.5
322.878	119.5
323.108	110.5
323.337	100.5
323.566	134.5
323.795	147.5
324.024	196.5
324.253	403.5
324.482	852.5
324.71	1765.5
324.939	2317.5
325.168	852.5
325.397	229.5
325.626	150.5
325.855	121.5
326.084	118.5
326.313	143.5
326.542	155.5
326.77	228.5
326.999	473.5
327.228	998.5
327.457	1821.5
327.686	1441.5
327.914	386.5
328.143	164.5
328.372	127.5
328.6	122.5
328.829	112.5
329.058	103.5
329.287	114.5
329.515	117.5
329.744	114.5
329.972	94.5
330.201	96.5
330.43	104.5
330.658	115.5
330.887	135.5
331.115	102.5
331.344	110.5
331.572	94.5
331.801	93.5
332.03	104.5
332.258	87.5
332.486	93.5
332.715	86.5
332.943	99.5
333.172	77.5
333.4	84.5
333.629	99.5
333.857	113.5
334.085	106.5
334.314	98.5
334.542	89.5
334.771	106.5
334.999	100.5
335.227	87.5
335.455	92.5
335.684	99.5
335.912	94.5
336.14	90.5
336.369	91.5
336.597	89.5
336.825	69.5
337.053	85.5
337.281	78.5
337.51	102.5
337.738	87.5
337.966	87.5
338.194	89.5
338.422	94.5
338.65	76.5
338.878	91.5
339.106	87.5
339.334	92.5
339.562	92.5
339.79	105.5
340.018	99.5
340.246	76.5
340.474	93.5
340.702	92.5
340.93	84.5
341.158	89.5
341.386	94.5
341.614	100.5
341.842	103.5
342.07	87.5
342.298	80.5
342.526	89.5
342.754	87.5
342.981	103.5
343.209	89.5
343.437	97.5
343.665	79.5
343.893	94.5
344.12	89.5
344.348	83.5
344.576	85.5
344.804	80.5
345.031	79.5
345.259	98.5
345.487	101.5
345.714	95.5
345.942	99.5
346.17	92.5
346.397	85.5
346.625	91.5
346.853	77.5
347.08	78.5
347.308	82.5
347.535	83.5
347.763	95.5
347.99	100.5
348.218	102.5
348.445	99.5
348.673	93.5
348.9	103.5
349.128	99.5
349.355	82.5
349.583	96.5
349.81	88.5
350.037	99.5
350.265	78.5
350.492	86.5
350.72	101.5
350.947	105.5
351.174	107.5
351.402	107.5
351.629	98.5
351.856	100.5
352.083	95.5
352.311	102.5
352.538	102.5
352.765	97.5
352.992	121.5
353.22	109.5
353.447	95.5
353.674	95.5
353.901	100.5
354.128	94.5
354.355	85.5
354.583	105.5
354.81	80.5
355.037	90.5
355.264	92.5
355.491	105.5
355.718	90.5
355.945	84.5
356.172	86.5
356.399	97.5
356.626	89.5
356.853	92.5
357.08	81.5
357.307	83.5
357.534	84.5
357.761	88.5
357.988	94.5
358.215	87.5
358.441	86.5
358.668	86.5
358.895	83.5
359.122	84.5
359.349	85.5
359.576	94.5
359.802	87.5
360.029	84.5
360.256	100.5
360.483	94.5
360.709	92.5
360.936	77.5
361.163	82.5
361.39	91.5
361.616	91.5
361.843	81.5
362.07	87.5
362.296	94.5
362.523	95.5
362.749	93.5
362.976	85.5
363.203	87.5
363.429	77.5
363.656	86.5
363.882	97.5
364.109	85.5
364.335	102.5
364.562	76.5
364.788	91.5
365.015	92.5
365.241	107.5
365.468	100.5
365.694	89.5
365.92	86.5
366.147	85.5
366.373	83.5
366.599	98.5
366.826	98.5
367.052	91.5
367.278	85.5
367.505	91.5
367.731	104.5
367.957	93.5
368.184	86.5
368.41	94.5
368.636	107.5
368.862	97.5
369.089	94.5
369.315	91.5
369.541	77.5
369.767	89.5
369.993	73.5
370.219	94.5
370.445	83.5
370.672	83.5
370.898	96.5
371.124	90.5
371.35	81.5
371.576	80.5
371.802	89.5
372.028	97.5
372.254	84.5
372.48	94.5
372.706	87.5
372.932	89.5
373.158	85.5
373.384	104.5
373.61	87.5
373.835	77.5
374.061	82.5
374.287	77.5
374.513	86.5
374.739	104.5
374.965	71.5
375.191	96.5
375.416	90.5
375.642	82.5
375.868	95.5
376.094	79.5
376.319	82.5
376.545	90.5
376.771	101.5
376.997	73.5
377.222	101.5
377.448	101.5
377.674	90.5
377.899	98.5
378.125	97.5
378.35	76.5
378.576	104.5
378.802	95.5
379.027	88.5
379.253	84.5
379.478	75.5
379.704	70.5
379.929	98.5
380.155	97.5
380.38	106.5
380.606	90.5
380.831	86.5
381.057	91.5
381.282	88.5
381.507	92.5
381.733	83.5
381.958	100.5
382.184	89.5
382.409	85.5
382.634	110.5
382.86	106.5
383.085	107.5
383.31	84.5
383.535	92.5
383.761	86.5
383.986	100.5
384.211	82.5
384.436	96.5
384.662	84.5
384.887	108.5
385.112	101.5
385.337	108.5
385.562	108.5
385.787	109.5
386.013	106.5
386.238	110.5
386.463	104.5
386.688	96.5
386.913	94.5
387.138	105.5
387.363	96.5
387.588	103.5
387.813	111.5
388.038	102.5
388.263	96.5
388.488	91.5
388.713	90.5
388.938	87.5
389.163	97.5
389.387	90.5
389.612	90.5
389.837	81.5
390.062	94.5
390.287	89.5
390.512	91.5
390.736	86.5
390.961	92.5
391.186	81.5
391.411	77.5
391.636	90.5
391.86	93.5
392.085	83.5
392.31	85.5
392.534	84.5
392.759	94.5
392.984	92.5
393.208	78.5
393.433	80.5
393.658	81.5
393.882	85.5
394.107	77.5
394.331	88.5
394.556	93.5
394.78	92.5
395.005	81.5
395.229	89.5
395.454	88.5
395.678	81.5
395.903	79.5
396.127	94.5
396.352	84.5
396.576	81.5
396.801	80.5
397.025	70.5
397.249	85.5
397.474	94.5
397.698	96.5
397.922	92.5
398.147	83.5
398.371	70.5
398.595	87.5
398.82	91.5
399.044	69.5
399.268	90.5
399.492	85.5
399.717	89.5
399.941	93.5
400.165	81.5
400.389	83.5
400.613	90.5
400.837	91.5
401.062	78.5
401.286	78.5
401.51	86.5
401.734	87.5
401.958	101.5
402.182	115.5
402.406	138.5
402.63	120.5
402.854	94.5
403.078	83.5
403.302	81.5
403.526	80.5
403.75	90.5
403.974	91.5
404.198	77.5
404.422	84.5
404.645	84.5
404.869	88.5
405.093	93.5
405.317	96.5
405.541	86.5
405.765	88.5
405.988	97.5
406.212	150.5
406.436	221.5
406.66	147.5
406.883	101.5
407.107	74.5
407.331	92.5
407.555	98.5
407.778	92.5
408.002	81.5
408.226	87.5
408.449	83.5
408.673	100.5
408.896	87.5
409.12	83.5
409.344	84.5
409.567	86.5
409.791	87.5
410.014	94.5
410.238	96.5
410.461	90.5
410.685	84.5
410.908	96.5
411.132	97.5
411.355	93.5
411.578	102.5
411.802	75.5
412.025	79.5
412.249	83.5
412.472	85.5
412.695	78.5
412.919	79.5
413.142	78.5
413.365	77.5
413.589	82.5
413.812	84.5
414.035	99.5
414.258	82.5
414.482	95.5
414.705	101.5
414.928	82.5
415.151	93.5
415.374	89.5
415.597	91.5
415.821	86.5
416.044	81.5
416.267	87.5
416.49	102.5
416.713	69.5
416.936	86.5
417.159	95.5
417.382	75.5
417.605	73.5
417.828	84.5
418.051	80.5
418.274	94.5
418.497	70.5
418.72	81.5
418.943	78.5
419.166	93.5
419.389	87.5
419.611	91.5
419.834	93.5
420.057	90.5
420.28	81.5
420.503	91.5
420.726	84.5
420.948	73.5
421.171	81.5
421.394	85.5
421.617	81.5
421.839	95.5
422.062	89.5
422.285	91.5
422.507	98.5
422.73	94.5
422.953	103.5
423.175	84.5
423.398	85.5
423.621	100.5
423.843	79.5
424.066	76.5
424.288	63.5
424.511	98.5
424.733	89.5
424.956	92.5
425.178	102.5
425.401	101.5
425.623	85.5
425.846	87.5
426.068	82.5
426.291	90.5
426.513	90.5
426.735	81.5
426.958	79.5
427.18	90.5
427.402	121.5
427.625	162.5
427.847	119.5
428.069	90.5
428.292	76.5
428.514	91.5
428.736	87.5
428.958	73.5
429.181	83.5
429.403	77.5
429.625	99.5
429.847	88.5
430.069	100.5
430.292	68.5
430.514	73.5
430.736	81.5
430.958	88.5
431.18	85.5
431.402	71.5
431.624	77.5
431.846	84.5
432.068	86.5
432.29	90.5
432.512	91.5
432.734	86.5
432.956	86.5
433.178	104.5
433.4	98.5
433.622	84.5
433.844	91.5
434.066	91.5
434.287	91.5
434.509	92.5
434.731	73.5
434.953	84.5
435.175	95.5
435.397	81.5
435.618	82.5
435.84	89.5
436.062	107.5
436.284	85.5
436.505	89.5
436.727	98.5
436.949	93.5
437.17	93.5
437.392	98.5
437.614	92.5
437.835	103.5
438.057	113.5
438.278	93.5
438.5	94.5
438.721	114.5
438.943	89.5
439.165	83.5
439.386	88.5
439.608	89.5
439.829	85.5
440.05	106.5
440.272	118.5
440.493	96.5
440.715	86.5
440.936	90.5
441.158	80.5
441.379	76.5
441.6	100.5
441.822	84.5
442.043	86.5
442.264	89.5
442.486	93.5
442.707	95.5
442.928	97.5
443.149	105.5
443.371	132.5
443.592	97.5
443.813	106.5
444.034	93.5
444.255	91.5
444.476	85.5
444.698	78.5
444.919	92.5
445.14	134.5
445.361	114.5
445.582	100.5
445.803	122.5
446.024	115.5
446.245	126.5
446.466	104.5
446.687	82.5
446.908	92.5
447.129	87.5
447.35	85.5
447.571	94.5
447.792	89.5
448.013	91.5
448.234	101.5
448.455	98.5
448.675	97.5
448.896	100.5
449.117	83.5
449.338	111.5
449.559	118.5
449.779	128.5
450	104.5
450.221	80.5
450.442	98.5
450.662	98.5
450.883	101.5
451.104	97.5
451.324	97.5
451.545	86.5
451.766	84.5
451.986	70.5
452.207	80.5
452.428	108.5
452.648	97.5
452.869	106.5
453.089	87.5
453.31	105.5
453.53	79.5
453.751	79.5
453.971	93.5
454.192	115.5
454.412	101.5
454.633	98.5
454.853	82.5
455.073	77.5
455.294	77.5
455.514	82.5
455.734	79.5
455.955	80.5
456.175	78.5
456.395	79.5
456.616	85.5
456.836	82.5
457.056	76.5
457.276	82.5
457.497	75.5
457.717	88.5
457.937	85.5
458.157	85.5
458.377	86.5
458.598	92.5
458.818	121.5
459.038	131.5
459.258	121.5
459.478	92.5
459.698	86.5
459.918	97.5
460.138	92.5
460.358	86.5
460.578	86.5
460.798	81.5
461.018	92.5
461.238	76.5
461.458	95.5
461.678	76.5
461.898	87.5
462.118	75.5
462.338	82.5
462.558	97.5
462.777	83.5
462.997	77.5
463.217	83.5
463.437	74.5
463.657	90.5
463.876	74.5
464.096	89.5
464.316	93.5
464.536	95.5
464.755	92.5
464.975	116.5
465.195	149.5
465.414	146.5
465.634	106.5
465.854	97.5
466.073	92.5
466.293	87.5
466.512	81.5
466.732	87.5
466.951	77.5
467.171	71.5
467.391	89.5
467.61	113.5
467.829	91.5
468.049	90.5
468.268	85.5
468.488	73.5
468.707	89.5
468.927	88.5
469.146	82.5
469.365	92.5
469.585	98.5
469.804	102.5
470.023	87.5
470.243	84.5
470.462	86.5
470.681	116.5
470.901	87.5
471.12	89.5
471.339	96.5
471.558	91.5
471.777	85.5
471.997	82.5
472.216	100.5
472.435	102.5
472.654	80.5
472.873	72.5
473.092	82.5
473.311	82.5
473.53	79.5
473.749	74.5
473.968	92.5
474.187	92.5
474.406	93.5
474.625	77.5
474.844	73.5
475.063	92.5
475.282	78.5
475.501	84.5
475.72	90.5
475.939	89.5
476.158	74.5
476.377	92.5
476.596	89.5
476.814	90.5
477.033	79.5
477.252	92.5
477.471	98.5
477.69	88.5
477.908	84.5
478.127	76.5
478.346	93.5
478.564	82.5
478.783	63.5
479.002	91.5
479.22	88.5
479.439	102.5
479.658	86.5
479.876	93.5
480.095	87.5
480.313	87.5
480.532	88.5
480.751	76.5
480.969	81.5
481.188	84.5
481.406	104.5
481.624	81.5
481.843	82.5
482.061	82.5
482.28	86.5
482.498	83.5
482.717	87.5
482.935	87.5
483.153	85.5
483.372	86.5
483.59	88.5
483.808	105.5
484.027	101.5
484.245	101.5
484.463	92.5
484.681	99.5
484.9	96.5
485.118	85.5
485.336	94.5
485.554	90.5
485.772	88.5
485.99	110.5
486.209	99.5
486.427	98.5
486.645	105.5
486.863	109.5
487.081	94.5
487.299	96.5
487.517	101.5
487.735	80.5
487.953	76.5
488.171	93.5
488.389	90.5
488.607	91.5
488.825	89.5
489.043	87.5
489.261	90.5
489.479	83.5
489.696	82.5
489.914	79.5
490.132	75.5
490.35	75.5
490.568	81.5
490.786	99.5
491.003	98.5
491.221	82.5
491.439	90.5
491.657	83.5
491.874	95.5
492.092	87.5
492.31	77.5
492.527	79.5
492.745	86.5
492.963	86.5
493.18	85.5
493.398	94.5
493.615	97.5
493.833	103.5
494.05	93.5
494.268	96.5
494.485	83.5
494.703	90.5
494.92	85.5
495.138	86.5
495.355	79.5
495.573	91.5
495.79	95.5
496.008	90.5
496.225	95.5
496.442	92.5
496.66	102.5
496.877	93.5
497.094	76.5
497.312	87.5
497.529	91.5
497.746	91.5
497.963	98.5
498.181	91.5
498.398	99.5
498.615	113.5
498.832	92.5
499.049	84.5
499.267	89.5
499.484	92.5
499.701	88.5
499.918	96.5
500.135	85.5
500.352	97.5
500.569	83.5
500.786	77.5
501.003	95.5
501.22	97.5
501.437	96.5
501.654	92.5
501.871	85.5
502.088	85.5
502.305	80.5
502.522	106.5
502.739	89.5
502.956	110.5
503.172	90.5
503.389	96.5
503.606	93.5
503.823	100.5
504.04	81.5
504.256	93.5
504.473	86.5
504.69	80.5
504.907	97.5
505.123	92.5
505.34	76.5
505.557	83.5
505.773	86.5
505.99	105.5
506.207	76.5
506.423	83.5
506.64	91.5
506.856	86.5
507.073	93.5
507.289	92.5
507.506	93.5
507.722	112.5
507.939	109.5
508.155	86.5
508.372	96.5
508.588	72.5
508.805	89.5
509.021	93.5
509.238	116.5
509.454	98.5
509.67	102.5
509.887	107.5
510.103	126.5
510.319	218.5
510.536	767.5
510.752	2463.5
510.968	678.5
511.184	160.5
511.401	116.5
511.617	91.5
511.833	84.5
512.049	94.5
512.265	102.5
512.481	84.5
512.698	89.5
512.914	93.5
513.13	97.5
513.346	96.5
513.562	96.5
513.778	92.5
513.994	83.5
514.21	90.5
514.426	110.5
514.642	121.5
514.858	125.5
515.074	168.5
515.29	429.5
515.506	1493.5
515.721	551.5
515.937	155.5
516.153	114.5
516.369	119.5
516.585	93.5
516.801	88.5
517.016	96.5
517.232	88.5
517.448	101.5
517.664	67.5
517.879	82.5
518.095	75.5
518.311	82.5
518.527	102.5
518.742	94.5
518.958	105.5
519.173	107.5
519.389	91.5
519.605	101.5
519.82	97.5
520.036	94.5
520.251	108.5
520.467	102.5
520.682	112.5
520.898	110.5
521.113	103.5
521.329	118.5
521.544	207.5
521.76	549.5
521.975	2401.5
522.19	1455.5
522.406	308.5
522.621	114.5
522.836	96.5
523.052	93.5
523.267	93.5
523.482	94.5
523.698	86.5
523.913	97.5
524.128	87.5
524.343	93.5
524.559	92.5
524.774	91.5
524.989	97.5
525.204	100.5
525.419	96.5
525.634	91.5
525.849	87.5
526.064	104.5
526.28	76.5
526.495	76.5
526.71	81.5
526.925	77.5
527.14	84.5
527.355	89.5
527.57	103.5
527.785	84.5
527.999	76.5
528.214	99.5
528.429	90.5
528.644	94.5
528.859	97.5
529.074	89.5
529.289	116.5
529.503	172.5
529.718	101.5
529.933	100.5
530.148	92.5
530.363	87.5
530.577	81.5
530.792	84.5
531.007	86.5
531.221	90.5
531.436	80.5
531.651	82.5
531.865	88.5
532.08	74.5
532.295	93.5
532.509	91.5
532.724	90.5
532.938	90.5
533.153	98.5
533.367	95.5
533.582	102.5
533.796	86.5
534.011	78.5
534.225	77.5
534.44	89.5
534.654	98.5
534.868	78.5
535.083	99.5
535.297	90.5
535.511	109.5
535.726	99.5
535.94	88.5
536.154	101.5
536.369	93.5
536.583	88.5
