Data from Uncirc_2003_H10_HRD10591_00023.txt Node
Date: Wed Jan 03 10:35:52 EST 2024
User: Yrep
Spectrometer: HR+D1059
Trigger mode: 1
Integration Time (sec): 1.000000E-1
Scans to average: 1
Electric dark correction enabled: true
Nonlinearity correction enabled: false
Boxcar width: 0
XAxis mode: Wavelengths
Number of Pixels in Spectrum: 2048
>>>>>Begin Spectral Data<<<<<
223.165	-26.75
223.4	-26.75
223.635	-26.75
223.869	-18.75
224.104	-18.75
224.338	-15.75
224.573	-17.75
224.808	-11.75
225.042	0.25
225.277	-3.75
225.511	4.25
225.746	-5.75
225.98	6.25
226.215	13.25
226.449	22.25
226.683	19.25
226.918	24.25
227.152	29.25
227.387	24.25
227.621	18.25
227.856	45.25
228.09	38.25
228.324	53.25
228.559	47.25
228.793	62.25
229.027	78.25
229.262	70.25
229.496	63.25
229.73	77.25
229.964	84.25
230.199	71.25
230.433	82.25
230.667	67.25
230.901	61.25
231.136	78.25
231.37	76.25
231.604	68.25
231.838	85.25
232.072	72.25
232.306	70.25
232.541	70.25
232.775	80.25
233.009	73.25
233.243	71.25
233.477	77.25
233.711	77.25
233.945	96.25
234.179	79.25
234.413	73.25
234.647	81.25
234.881	77.25
235.115	75.25
235.349	85.25
235.583	66.25
235.817	77.25
236.051	71.25
236.285	74.25
236.519	75.25
236.753	72.25
236.987	64.25
237.221	81.25
237.455	81.25
237.689	75.25
237.922	72.25
238.156	66.25
238.39	78.25
238.624	60.25
238.858	66.25
239.091	90.25
239.325	72.25
239.559	75.25
239.793	80.25
240.027	62.25
240.26	87.25
240.494	72.25
240.728	67.25
240.961	75.25
241.195	70.25
241.429	76.25
241.662	78.25
241.896	70.25
242.13	63.25
242.363	81.25
242.597	71.25
242.83	85.25
243.064	81.25
243.298	93.25
243.531	64.25
243.765	74.25
243.998	70.25
244.232	73.25
244.465	81.25
244.699	74.25
244.932	83.25
245.166	80.25
245.399	79.25
245.633	76.25
245.866	88.25
246.099	79.25
246.333	92.25
246.566	87.25
246.8	73.25
247.033	69.25
247.266	79.25
247.5	70.25
247.733	74.25
247.966	52.25
248.2	62.25
248.433	83.25
248.666	73.25
248.899	81.25
249.133	87.25
249.366	94.25
249.599	104.25
249.832	86.25
250.066	89.25
250.299	70.25
250.532	77.25
250.765	83.25
250.998	81.25
251.231	83.25
251.465	82.25
251.698	63.25
251.931	68.25
252.164	81.25
252.397	88.25
252.63	82.25
252.863	78.25
253.096	68.25
253.329	77.25
253.562	78.25
253.795	85.25
254.028	86.25
254.261	82.25
254.494	87.25
254.727	66.25
254.96	71.25
255.193	87.25
255.426	85.25
255.659	78.25
255.892	85.25
256.124	81.25
256.357	85.25
256.59	83.25
256.823	74.25
257.056	69.25
257.289	68.25
257.521	74.25
257.754	83.25
257.987	76.25
258.22	71.25
258.452	78.25
258.685	77.25
258.918	80.25
259.151	86.25
259.383	87.25
259.616	83.25
259.849	71.25
260.081	87.25
260.314	87.25
260.547	83.25
260.779	72.25
261.012	82.25
261.244	84.25
261.477	96.25
261.71	98.25
261.942	102.25
262.175	101.25
262.407	76.25
262.64	78.25
262.872	90.25
263.105	83.25
263.337	81.25
263.57	88.25
263.802	82.25
264.035	66.25
264.267	73.25
264.499	82.25
264.732	76.25
264.964	89.25
265.197	70.25
265.429	71.25
265.661	75.25
265.894	83.25
266.126	77.25
266.358	78.25
266.591	74.25
266.823	85.25
267.055	88.25
267.287	87.25
267.52	84.25
267.752	75.25
267.984	85.25
268.216	82.25
268.448	77.25
268.681	82.25
268.913	78.25
269.145	86.25
269.377	81.25
269.609	81.25
269.841	74.25
270.073	69.25
270.306	84.25
270.538	90.25
270.77	101.25
271.002	85.25
271.234	79.25
271.466	96.25
271.698	74.25
271.93	77.25
272.162	91.25
272.394	84.25
272.626	77.25
272.858	76.25
273.09	72.25
273.322	79.25
273.553	86.25
273.785	84.25
274.017	77.25
274.249	77.25
274.481	66.25
274.713	82.25
274.945	76.25
275.176	78.25
275.408	67.25
275.64	88.25
275.872	94.25
276.104	77.25
276.335	78.25
276.567	92.25
276.799	107.25
277.031	95.25
277.262	85.25
277.494	83.25
277.726	87.25
277.957	83.25
278.189	90.25
278.421	81.25
278.652	89.25
278.884	79.25
279.115	86.25
279.347	89.25
279.579	82.25
279.81	71.25
280.042	87.25
280.273	83.25
280.505	101.25
280.736	93.25
280.968	79.25
281.199	84.25
281.431	84.25
281.662	83.25
281.894	87.25
282.125	93.25
282.356	126.25
282.588	122.25
282.819	93.25
283.051	84.25
283.282	88.25
283.513	79.25
283.745	79.25
283.976	88.25
284.207	84.25
284.439	99.25
284.67	76.25
284.901	87.25
285.132	95.25
285.364	93.25
285.595	92.25
285.826	90.25
286.057	106.25
286.288	86.25
286.52	95.25
286.751	90.25
286.982	85.25
287.213	89.25
287.444	91.25
287.675	88.25
287.906	87.25
288.138	88.25
288.369	89.25
288.6	89.25
288.831	85.25
289.062	85.25
289.293	87.25
289.524	78.25
289.755	84.25
289.986	87.25
290.217	87.25
290.448	82.25
290.679	86.25
290.91	79.25
291.141	72.25
291.371	98.25
291.602	58.25
291.833	85.25
292.064	101.25
292.295	74.25
292.526	88.25
292.757	95.25
292.987	86.25
293.218	79.25
293.449	77.25
293.68	80.25
293.91	63.25
294.141	84.25
294.372	87.25
294.603	84.25
294.833	81.25
295.064	91.25
295.295	72.25
295.525	95.25
295.756	102.25
295.987	96.25
296.217	142.25
296.448	134.25
296.679	96.25
296.909	90.25
297.14	77.25
297.37	76.25
297.601	86.25
297.831	73.25
298.062	80.25
298.292	79.25
298.523	88.25
298.753	80.25
298.984	85.25
299.214	81.25
299.445	86.25
299.675	101.25
299.905	93.25
300.136	96.25
300.366	82.25
300.597	97.25
300.827	95.25
301.057	93.25
301.288	97.25
301.518	93.25
301.748	85.25
301.979	88.25
302.209	89.25
302.439	77.25
302.669	100.25
302.9	90.25
303.13	99.25
303.36	86.25
303.59	87.25
303.82	105.25
304.051	99.25
304.281	88.25
304.511	91.25
304.741	92.25
304.971	98.25
305.201	85.25
305.431	100.25
305.661	86.25
305.891	89.25
306.121	94.25
306.352	86.25
306.582	107.25
306.812	82.25
307.042	100.25
307.272	76.25
307.502	76.25
307.731	103.25
307.961	80.25
308.191	78.25
308.421	69.25
308.651	90.25
308.881	75.25
309.111	91.25
309.341	94.25
309.571	79.25
309.8	94.25
310.03	95.25
310.26	86.25
310.49	99.25
310.72	101.25
310.949	88.25
311.179	100.25
311.409	95.25
311.639	104.25
311.868	101.25
312.098	96.25
312.328	95.25
312.557	98.25
312.787	107.25
313.017	98.25
313.246	97.25
313.476	90.25
313.706	94.25
313.935	92.25
314.165	99.25
314.394	102.25
314.624	100.25
314.853	92.25
315.083	82.25
315.312	92.25
315.542	83.25
315.771	71.25
316.001	92.25
316.23	96.25
316.46	86.25
316.689	106.25
316.919	92.25
317.148	98.25
317.377	95.25
317.607	76.25
317.836	75.25
318.065	95.25
318.295	94.25
318.524	98.25
318.753	88.25
318.983	83.25
319.212	90.25
319.441	99.25
319.67	108.25
319.9	98.25
320.129	93.25
320.358	86.25
320.587	81.25
320.816	100.25
321.046	84.25
321.275	98.25
321.504	82.25
321.733	83.25
321.962	89.25
322.191	101.25
322.42	118.25
322.649	95.25
322.878	108.25
323.108	100.25
323.337	109.25
323.566	138.25
323.795	141.25
324.024	186.25
324.253	372.25
324.482	833.25
324.71	1746.25
324.939	2282.25
325.168	821.25
325.397	234.25
325.626	144.25
325.855	134.25
326.084	118.25
326.313	131.25
326.542	162.25
326.77	235.25
326.999	469.25
327.228	990.25
327.457	1764.25
327.686	1374.25
327.914	383.25
328.143	180.25
328.372	127.25
328.6	120.25
328.829	133.25
329.058	116.25
329.287	121.25
329.515	96.25
329.744	100.25
329.972	91.25
330.201	110.25
330.43	93.25
330.658	113.25
330.887	121.25
331.115	110.25
331.344	95.25
331.572	96.25
331.801	84.25
332.03	97.25
332.258	96.25
332.486	84.25
332.715	84.25
332.943	93.25
333.172	90.25
333.4	90.25
333.629	94.25
333.857	101.25
334.085	117.25
334.314	102.25
334.542	92.25
334.771	87.25
334.999	98.25
335.227	99.25
335.455	92.25
335.684	90.25
335.912	94.25
336.14	92.25
336.369	95.25
336.597	109.25
336.825	95.25
337.053	83.25
337.281	113.25
337.51	81.25
337.738	97.25
337.966	88.25
338.194	98.25
338.422	94.25
338.65	94.25
338.878	74.25
339.106	92.25
339.334	72.25
339.562	83.25
339.79	88.25
340.018	96.25
340.246	81.25
340.474	90.25
340.702	93.25
340.93	94.25
341.158	97.25
341.386	98.25
341.614	84.25
341.842	83.25
342.07	87.25
342.298	90.25
342.526	79.25
342.754	77.25
342.981	86.25
343.209	87.25
343.437	100.25
343.665	90.25
343.893	90.25
344.12	91.25
344.348	93.25
344.576	86.25
344.804	93.25
345.031	83.25
345.259	114.25
345.487	91.25
345.714	95.25
345.942	94.25
346.17	102.25
346.397	92.25
346.625	94.25
346.853	103.25
347.08	86.25
347.308	95.25
347.535	96.25
347.763	118.25
347.99	96.25
348.218	84.25
348.445	92.25
348.673	92.25
348.9	94.25
349.128	89.25
349.355	85.25
349.583	88.25
349.81	77.25
350.037	92.25
350.265	99.25
350.492	79.25
350.72	84.25
350.947	95.25
351.174	100.25
351.402	95.25
351.629	101.25
351.856	90.25
352.083	78.25
352.311	96.25
352.538	99.25
352.765	92.25
352.992	110.25
353.22	102.25
353.447	96.25
353.674	95.25
353.901	100.25
354.128	99.25
354.355	93.25
354.583	101.25
354.81	101.25
355.037	97.25
355.264	92.25
355.491	92.25
355.718	81.25
355.945	95.25
356.172	90.25
356.399	108.25
356.626	99.25
356.853	87.25
357.08	88.25
357.307	98.25
357.534	95.25
357.761	82.25
357.988	106.25
358.215	90.25
358.441	91.25
358.668	93.25
358.895	96.25
359.122	90.25
359.349	79.25
359.576	96.25
359.802	106.25
360.029	110.25
360.256	113.25
360.483	100.25
360.709	106.25
360.936	92.25
361.163	100.25
361.39	84.25
361.616	96.25
361.843	93.25
362.07	96.25
362.296	104.25
362.523	95.25
362.749	94.25
362.976	113.25
363.203	85.25
363.429	87.25
363.656	94.25
363.882	73.25
364.109	84.25
364.335	81.25
364.562	90.25
364.788	86.25
365.015	82.25
365.241	87.25
365.468	100.25
365.694	103.25
365.92	95.25
366.147	87.25
366.373	92.25
366.599	84.25
366.826	87.25
367.052	90.25
367.278	88.25
367.505	93.25
367.731	74.25
367.957	98.25
368.184	94.25
368.41	89.25
368.636	104.25
368.862	112.25
369.089	93.25
369.315	78.25
369.541	84.25
369.767	91.25
369.993	81.25
370.219	90.25
370.445	102.25
370.672	69.25
370.898	71.25
371.124	94.25
371.35	89.25
371.576	91.25
371.802	80.25
372.028	93.25
372.254	79.25
372.48	79.25
372.706	75.25
372.932	86.25
373.158	79.25
373.384	86.25
373.61	86.25
373.835	94.25
374.061	89.25
374.287	95.25
374.513	91.25
374.739	98.25
374.965	82.25
375.191	78.25
375.416	86.25
375.642	92.25
375.868	85.25
376.094	89.25
376.319	80.25
376.545	85.25
376.771	87.25
376.997	83.25
377.222	87.25
377.448	79.25
377.674	83.25
377.899	76.25
378.125	82.25
378.35	82.25
378.576	77.25
378.802	81.25
379.027	87.25
379.253	103.25
379.478	95.25
379.704	84.25
379.929	89.25
380.155	88.25
380.38	86.25
380.606	80.25
380.831	91.25
381.057	106.25
381.282	85.25
381.507	98.25
381.733	98.25
381.958	111.25
382.184	101.25
382.409	88.25
382.634	105.25
382.86	103.25
383.085	101.25
383.31	95.25
383.535	94.25
383.761	102.25
383.986	89.25
384.211	91.25
384.436	107.25
384.662	102.25
384.887	101.25
385.112	94.25
385.337	94.25
385.562	99.25
385.787	113.25
386.013	110.25
386.238	107.25
386.463	106.25
386.688	114.25
386.913	92.25
387.138	115.25
387.363	99.25
387.588	106.25
387.813	99.25
388.038	89.25
388.263	101.25
388.488	108.25
388.713	83.25
388.938	97.25
389.163	94.25
389.387	106.25
389.612	99.25
389.837	92.25
390.062	83.25
390.287	88.25
390.512	93.25
390.736	78.25
390.961	97.25
391.186	89.25
391.411	89.25
391.636	85.25
391.86	87.25
392.085	85.25
392.31	68.25
392.534	84.25
392.759	85.25
392.984	86.25
393.208	73.25
393.433	86.25
393.658	87.25
393.882	81.25
394.107	80.25
394.331	94.25
394.556	71.25
394.78	89.25
395.005	90.25
395.229	79.25
395.454	71.25
395.678	75.25
395.903	92.25
396.127	97.25
396.352	92.25
396.576	84.25
396.801	88.25
397.025	86.25
397.249	80.25
397.474	95.25
397.698	88.25
397.922	102.25
398.147	88.25
398.371	84.25
398.595	82.25
398.82	88.25
399.044	81.25
399.268	75.25
399.492	77.25
399.717	80.25
399.941	95.25
400.165	87.25
400.389	100.25
400.613	95.25
400.837	87.25
401.062	86.25
401.286	83.25
401.51	98.25
401.734	91.25
401.958	93.25
402.182	118.25
402.406	135.25
402.63	116.25
402.854	89.25
403.078	83.25
403.302	90.25
403.526	89.25
403.75	91.25
403.974	85.25
404.198	84.25
404.422	83.25
404.645	77.25
404.869	89.25
405.093	94.25
405.317	71.25
405.541	98.25
405.765	97.25
405.988	112.25
406.212	143.25
406.436	216.25
406.66	140.25
406.883	111.25
407.107	96.25
407.331	106.25
407.555	85.25
407.778	84.25
408.002	75.25
408.226	90.25
408.449	97.25
408.673	92.25
408.896	85.25
409.12	97.25
409.344	78.25
409.567	99.25
409.791	88.25
410.014	80.25
410.238	84.25
410.461	95.25
410.685	80.25
410.908	95.25
411.132	90.25
411.355	89.25
411.578	94.25
411.802	85.25
412.025	78.25
412.249	90.25
412.472	92.25
412.695	92.25
412.919	86.25
413.142	98.25
413.365	88.25
413.589	84.25
413.812	93.25
414.035	84.25
414.258	86.25
414.482	89.25
414.705	81.25
414.928	87.25
415.151	88.25
415.374	99.25
415.597	64.25
415.821	86.25
416.044	93.25
416.267	76.25
416.49	82.25
416.713	83.25
416.936	96.25
417.159	92.25
417.382	90.25
417.605	75.25
417.828	90.25
418.051	79.25
418.274	82.25
418.497	78.25
418.72	100.25
418.943	89.25
419.166	75.25
419.389	94.25
419.611	80.25
419.834	72.25
420.057	87.25
420.28	88.25
420.503	70.25
420.726	89.25
420.948	91.25
421.171	92.25
421.394	90.25
421.617	85.25
421.839	98.25
422.062	85.25
422.285	77.25
422.507	98.25
422.73	98.25
422.953	93.25
423.175	98.25
423.398	85.25
423.621	88.25
423.843	96.25
424.066	76.25
424.288	77.25
424.511	82.25
424.733	86.25
424.956	95.25
425.178	92.25
425.401	90.25
425.623	68.25
425.846	88.25
426.068	91.25
426.291	85.25
426.513	83.25
426.735	90.25
426.958	89.25
427.18	81.25
427.402	130.25
427.625	142.25
427.847	124.25
428.069	97.25
428.292	89.25
428.514	70.25
428.736	92.25
428.958	89.25
429.181	78.25
429.403	80.25
429.625	69.25
429.847	90.25
430.069	88.25
430.292	93.25
430.514	92.25
430.736	79.25
430.958	85.25
431.18	81.25
431.402	80.25
431.624	91.25
431.846	78.25
432.068	74.25
432.29	89.25
432.512	84.25
432.734	83.25
432.956	91.25
433.178	95.25
433.4	84.25
433.622	86.25
433.844	95.25
434.066	84.25
434.287	77.25
434.509	85.25
434.731	89.25
434.953	92.25
435.175	77.25
435.397	84.25
435.618	96.25
435.84	100.25
436.062	119.25
436.284	109.25
436.505	107.25
436.727	91.25
436.949	76.25
437.17	79.25
437.392	87.25
437.614	86.25
437.835	101.25
438.057	123.25
438.278	102.25
438.5	98.25
438.721	118.25
438.943	83.25
439.165	84.25
439.386	81.25
439.608	77.25
439.829	95.25
440.05	108.25
440.272	127.25
440.493	82.25
440.715	76.25
440.936	96.25
441.158	92.25
441.379	94.25
441.6	97.25
441.822	95.25
442.043	93.25
442.264	92.25
442.486	99.25
442.707	79.25
442.928	91.25
443.149	118.25
443.371	116.25
443.592	103.25
443.813	98.25
444.034	110.25
444.255	87.25
444.476	86.25
444.698	75.25
444.919	76.25
445.14	132.25
445.361	124.25
445.582	100.25
445.803	120.25
446.024	123.25
446.245	136.25
446.466	106.25
446.687	95.25
446.908	86.25
447.129	86.25
447.35	90.25
447.571	86.25
447.792	96.25
448.013	103.25
448.234	106.25
448.455	92.25
448.675	100.25
448.896	104.25
449.117	86.25
449.338	100.25
449.559	108.25
449.779	140.25
450	92.25
450.221	83.25
450.442	68.25
450.662	83.25
450.883	109.25
451.104	119.25
451.324	108.25
451.545	83.25
451.766	84.25
451.986	76.25
452.207	84.25
452.428	106.25
452.648	100.25
452.869	77.25
453.089	103.25
453.31	99.25
453.53	89.25
453.751	96.25
453.971	106.25
454.192	96.25
454.412	88.25
454.633	77.25
454.853	83.25
455.073	82.25
455.294	94.25
455.514	88.25
455.734	83.25
455.955	85.25
456.175	80.25
456.395	75.25
456.616	85.25
456.836	81.25
457.056	87.25
457.276	80.25
457.497	66.25
457.717	88.25
457.937	71.25
458.157	83.25
458.377	86.25
458.598	99.25
458.818	127.25
459.038	147.25
459.258	100.25
459.478	91.25
459.698	82.25
459.918	81.25
460.138	81.25
460.358	78.25
460.578	84.25
460.798	88.25
461.018	84.25
461.238	81.25
461.458	83.25
461.678	87.25
461.898	87.25
462.118	79.25
462.338	89.25
462.558	80.25
462.777	98.25
462.997	75.25
463.217	80.25
463.437	95.25
463.657	66.25
463.876	86.25
464.096	75.25
464.316	81.25
464.536	100.25
464.755	90.25
464.975	87.25
465.195	160.25
465.414	147.25
465.634	107.25
465.854	86.25
466.073	100.25
466.293	75.25
466.512	91.25
466.732	92.25
466.951	89.25
467.171	85.25
467.391	83.25
467.61	95.25
467.829	80.25
468.049	81.25
468.268	95.25
468.488	88.25
468.707	66.25
468.927	71.25
469.146	77.25
469.365	84.25
469.585	93.25
469.804	74.25
470.023	94.25
470.243	77.25
470.462	76.25
470.681	103.25
470.901	92.25
471.12	77.25
471.339	77.25
471.558	90.25
471.777	77.25
471.997	76.25
472.216	98.25
472.435	87.25
472.654	85.25
472.873	86.25
473.092	74.25
473.311	84.25
473.53	76.25
473.749	90.25
473.968	93.25
474.187	82.25
474.406	81.25
474.625	80.25
474.844	73.25
475.063	99.25
475.282	88.25
475.501	92.25
475.72	86.25
475.939	86.25
476.158	93.25
476.377	84.25
476.596	90.25
476.814	92.25
477.033	86.25
477.252	93.25
477.471	87.25
477.69	87.25
477.908	89.25
478.127	92.25
478.346	83.25
478.564	91.25
478.783	79.25
479.002	79.25
479.22	83.25
479.439	90.25
479.658	96.25
479.876	98.25
480.095	87.25
480.313	84.25
480.532	80.25
480.751	86.25
480.969	84.25
481.188	104.25
481.406	93.25
481.624	85.25
481.843	92.25
482.061	86.25
482.28	87.25
482.498	77.25
482.717	80.25
482.935	78.25
483.153	91.25
483.372	88.25
483.59	86.25
483.808	94.25
484.027	92.25
484.245	92.25
484.463	79.25
484.681	95.25
484.9	86.25
485.118	107.25
485.336	91.25
485.554	92.25
485.772	103.25
485.99	93.25
486.209	102.25
486.427	90.25
486.645	119.25
486.863	108.25
487.081	100.25
487.299	89.25
487.517	100.25
487.735	89.25
487.953	77.25
488.171	94.25
488.389	96.25
488.607	74.25
488.825	100.25
489.043	80.25
489.261	90.25
489.479	93.25
489.696	86.25
489.914	82.25
490.132	88.25
490.35	94.25
490.568	86.25
490.786	93.25
491.003	85.25
491.221	84.25
491.439	99.25
491.657	93.25
491.874	91.25
492.092	94.25
492.31	92.25
492.527	88.25
492.745	93.25
492.963	105.25
493.18	81.25
493.398	93.25
493.615	96.25
493.833	96.25
494.05	83.25
494.268	80.25
494.485	83.25
494.703	87.25
494.92	99.25
495.138	92.25
495.355	91.25
495.573	83.25
495.79	76.25
496.008	99.25
496.225	98.25
496.442	81.25
496.66	88.25
496.877	86.25
497.094	92.25
497.312	94.25
497.529	101.25
497.746	89.25
497.963	96.25
498.181	92.25
498.398	88.25
498.615	109.25
498.832	102.25
499.049	85.25
499.267	92.25
499.484	99.25
499.701	83.25
499.918	91.25
500.135	73.25
500.352	89.25
500.569	87.25
500.786	88.25
501.003	84.25
501.22	81.25
501.437	91.25
501.654	90.25
501.871	96.25
502.088	88.25
502.305	84.25
502.522	100.25
502.739	111.25
502.956	88.25
503.172	89.25
503.389	90.25
503.606	75.25
503.823	80.25
504.04	90.25
504.256	96.25
504.473	86.25
504.69	107.25
504.907	75.25
505.123	72.25
505.34	74.25
505.557	92.25
505.773	82.25
505.99	106.25
506.207	89.25
506.423	80.25
506.64	87.25
506.856	83.25
507.073	97.25
507.289	97.25
507.506	88.25
507.722	103.25
507.939	114.25
508.155	87.25
508.372	90.25
508.588	96.25
508.805	93.25
509.021	99.25
509.238	95.25
509.454	92.25
509.67	105.25
509.887	101.25
510.103	121.25
510.319	211.25
510.536	735.25
510.752	2334.25
510.968	661.25
511.184	152.25
511.401	101.25
511.617	94.25
511.833	86.25
512.049	82.25
512.265	89.25
512.481	95.25
512.698	94.25
512.914	82.25
513.13	94.25
513.346	89.25
513.562	92.25
513.778	101.25
513.994	96.25
514.21	112.25
514.426	102.25
514.642	129.25
514.858	135.25
515.074	163.25
515.29	420.25
515.506	1343.25
515.721	486.25
515.937	142.25
516.153	99.25
516.369	89.25
516.585	96.25
516.801	86.25
517.016	95.25
