Data from Uncirc_2003_H10_HRD10591_00034.txt Node
Date: Wed Jan 03 10:35:54 EST 2024
User: Yrep
Spectrometer: HR+D1059
Trigger mode: 1
Integration Time (sec): 1.000000E-1
Scans to average: 1
Electric dark correction enabled: true
Nonlinearity correction enabled: false
Boxcar width: 0
XAxis mode: Wavelengths
Number of Pixels in Spectrum: 2048
>>>>>Begin Spectral Data<<<<<
223.165	-15.69
223.4	-15.69
223.635	-15.69
223.869	-12.69
224.104	-16.69
224.338	-8.69
224.573	-16.69
224.808	-23.69
225.042	-1.69
225.277	-4.69
225.511	8.31
225.746	3.31
225.98	12.31
226.215	12.31
226.449	6.31
226.683	11.31
226.918	15.31
227.152	31.31
227.387	45.31
227.621	42.31
227.856	53.31
228.09	44.31
228.324	69.31
228.559	57.31
228.793	66.31
229.027	61.31
229.262	67.31
229.496	90.31
229.73	88.31
229.964	100.31
230.199	81.31
230.433	66.31
230.667	103.31
230.901	77.31
231.136	72.31
231.37	89.31
231.604	84.31
231.838	84.31
232.072	83.31
232.306	100.31
232.541	89.31
232.775	93.31
233.009	75.31
233.243	85.31
233.477	79.31
233.711	95.31
233.945	91.31
234.179	79.31
234.413	90.31
234.647	97.31
234.881	83.31
235.115	94.31
235.349	79.31
235.583	87.31
235.817	81.31
236.051	71.31
236.285	84.31
236.519	77.31
236.753	76.31
236.987	76.31
237.221	87.31
237.455	83.31
237.689	79.31
237.922	59.31
238.156	73.31
238.39	89.31
238.624	97.31
238.858	97.31
239.091	86.31
239.325	63.31
239.559	84.31
239.793	89.31
240.027	98.31
240.26	77.31
240.494	96.31
240.728	94.31
240.961	90.31
241.195	70.31
241.429	78.31
241.662	69.31
241.896	91.31
242.13	65.31
242.363	80.31
242.597	78.31
242.83	73.31
243.064	92.31
243.298	81.31
243.531	84.31
243.765	73.31
243.998	82.31
244.232	84.31
244.465	83.31
244.699	82.31
244.932	74.31
245.166	84.31
245.399	73.31
245.633	88.31
245.866	61.31
246.099	79.31
246.333	73.31
246.566	80.31
246.8	84.31
247.033	76.31
247.266	68.31
247.5	84.31
247.733	83.31
247.966	84.31
248.2	84.31
248.433	83.31
248.666	94.31
248.899	86.31
249.133	101.31
249.366	87.31
249.599	96.31
249.832	97.31
250.066	82.31
250.299	87.31
250.532	104.31
250.765	90.31
250.998	86.31
251.231	79.31
251.465	89.31
251.698	81.31
251.931	83.31
252.164	91.31
252.397	97.31
252.63	75.31
252.863	84.31
253.096	71.31
253.329	90.31
253.562	85.31
253.795	88.31
254.028	78.31
254.261	81.31
254.494	89.31
254.727	81.31
254.96	89.31
255.193	85.31
255.426	90.31
255.659	75.31
255.892	87.31
256.124	90.31
256.357	75.31
256.59	90.31
256.823	92.31
257.056	85.31
257.289	92.31
257.521	90.31
257.754	94.31
257.987	90.31
258.22	86.31
258.452	84.31
258.685	98.31
258.918	93.31
259.151	92.31
259.383	92.31
259.616	87.31
259.849	78.31
260.081	88.31
260.314	90.31
260.547	72.31
260.779	87.31
261.012	86.31
261.244	84.31
261.477	93.31
261.71	79.31
261.942	109.31
262.175	109.31
262.407	85.31
262.64	83.31
262.872	93.31
263.105	81.31
263.337	101.31
263.57	84.31
263.802	77.31
264.035	85.31
264.267	90.31
264.499	80.31
264.732	79.31
264.964	88.31
265.197	83.31
265.429	80.31
265.661	97.31
265.894	92.31
266.126	77.31
266.358	94.31
266.591	83.31
266.823	92.31
267.055	77.31
267.287	89.31
267.52	77.31
267.752	90.31
267.984	100.31
268.216	80.31
268.448	84.31
268.681	81.31
268.913	80.31
269.145	95.31
269.377	91.31
269.609	86.31
269.841	92.31
270.073	72.31
270.306	96.31
270.538	88.31
270.77	98.31
271.002	85.31
271.234	85.31
271.466	73.31
271.698	85.31
271.93	84.31
272.162	97.31
272.394	81.31
272.626	71.31
272.858	78.31
273.09	74.31
273.322	77.31
273.553	83.31
273.785	90.31
274.017	103.31
274.249	83.31
274.481	89.31
274.713	93.31
274.945	91.31
275.176	99.31
275.408	98.31
275.64	101.31
275.872	95.31
276.104	81.31
276.335	85.31
276.567	111.31
276.799	100.31
277.031	94.31
277.262	94.31
277.494	94.31
277.726	90.31
277.957	92.31
278.189	91.31
278.421	92.31
278.652	90.31
278.884	91.31
279.115	99.31
279.347	90.31
279.579	82.31
279.81	83.31
280.042	75.31
280.273	77.31
280.505	79.31
280.736	77.31
280.968	101.31
281.199	92.31
281.431	84.31
281.662	72.31
281.894	93.31
282.125	92.31
282.356	123.31
282.588	128.31
282.819	109.31
283.051	100.31
283.282	99.31
283.513	99.31
283.745	71.31
283.976	89.31
284.207	85.31
284.439	94.31
284.67	88.31
284.901	92.31
285.132	101.31
285.364	89.31
285.595	94.31
285.826	93.31
286.057	99.31
286.288	89.31
286.52	105.31
286.751	94.31
286.982	94.31
287.213	89.31
287.444	85.31
287.675	94.31
287.906	95.31
288.138	80.31
288.369	107.31
288.6	87.31
288.831	92.31
289.062	101.31
289.293	88.31
289.524	87.31
289.755	95.31
289.986	84.31
290.217	98.31
290.448	74.31
290.679	93.31
290.91	87.31
291.141	95.31
291.371	81.31
291.602	88.31
291.833	99.31
292.064	87.31
292.295	100.31
292.526	95.31
292.757	94.31
292.987	90.31
293.218	102.31
293.449	94.31
293.68	93.31
293.91	79.31
294.141	102.31
294.372	88.31
294.603	99.31
294.833	105.31
295.064	104.31
295.295	100.31
295.525	105.31
295.756	100.31
295.987	109.31
296.217	139.31
296.448	113.31
296.679	98.31
296.909	94.31
297.14	102.31
297.37	87.31
297.601	96.31
297.831	89.31
298.062	82.31
298.292	92.31
298.523	107.31
298.753	90.31
298.984	91.31
299.214	94.31
299.445	94.31
299.675	87.31
299.905	89.31
300.136	91.31
300.366	86.31
300.597	89.31
300.827	95.31
301.057	97.31
301.288	98.31
301.518	89.31
301.748	83.31
301.979	115.31
302.209	92.31
302.439	99.31
302.669	92.31
302.9	102.31
303.13	88.31
303.36	95.31
303.59	105.31
303.82	98.31
304.051	88.31
304.281	86.31
304.511	101.31
304.741	99.31
304.971	99.31
305.201	95.31
305.431	88.31
305.661	111.31
305.891	99.31
306.121	92.31
306.352	94.31
306.582	96.31
306.812	88.31
307.042	75.31
307.272	90.31
307.502	105.31
307.731	83.31
307.961	90.31
308.191	93.31
308.421	92.31
308.651	76.31
308.881	110.31
309.111	92.31
309.341	113.31
309.571	99.31
309.8	86.31
310.03	110.31
310.26	102.31
310.49	97.31
310.72	99.31
310.949	106.31
311.179	118.31
311.409	94.31
311.639	94.31
311.868	100.31
312.098	92.31
312.328	110.31
312.557	115.31
312.787	107.31
313.017	103.31
313.246	95.31
313.476	98.31
313.706	86.31
313.935	90.31
314.165	97.31
314.394	101.31
314.624	104.31
314.853	103.31
315.083	103.31
315.312	95.31
315.542	104.31
315.771	81.31
316.001	100.31
316.23	95.31
316.46	94.31
316.689	100.31
316.919	99.31
317.148	87.31
317.377	111.31
317.607	83.31
317.836	94.31
318.065	88.31
318.295	98.31
318.524	84.31
318.753	107.31
318.983	102.31
319.212	118.31
319.441	103.31
319.67	116.31
319.9	103.31
320.129	83.31
320.358	97.31
320.587	101.31
320.816	104.31
321.046	101.31
321.275	109.31
321.504	92.31
321.733	107.31
321.962	98.31
322.191	96.31
322.42	113.31
322.649	112.31
322.878	122.31
323.108	115.31
323.337	122.31
323.566	130.31
323.795	150.31
324.024	218.31
324.253	385.31
324.482	826.31
324.71	1706.31
324.939	2212.31
325.168	833.31
325.397	257.31
325.626	159.31
325.855	114.31
326.084	141.31
326.313	132.31
326.542	158.31
326.77	226.31
326.999	482.31
327.228	980.31
327.457	1735.31
327.686	1383.31
327.914	364.31
328.143	177.31
328.372	149.31
328.6	123.31
328.829	125.31
329.058	108.31
329.287	121.31
329.515	112.31
329.744	99.31
329.972	98.31
330.201	115.31
330.43	135.31
330.658	121.31
330.887	143.31
331.115	121.31
331.344	106.31
331.572	103.31
331.801	103.31
332.03	100.31
332.258	111.31
332.486	73.31
332.715	100.31
332.943	97.31
333.172	106.31
333.4	101.31
333.629	101.31
333.857	108.31
334.085	106.31
334.314	97.31
334.542	108.31
334.771	95.31
334.999	94.31
335.227	102.31
335.455	95.31
335.684	98.31
335.912	94.31
336.14	90.31
336.369	103.31
336.597	100.31
336.825	92.31
337.053	105.31
337.281	97.31
337.51	110.31
337.738	89.31
337.966	86.31
338.194	106.31
338.422	101.31
338.65	104.31
338.878	94.31
339.106	103.31
339.334	87.31
339.562	102.31
339.79	95.31
340.018	105.31
340.246	83.31
340.474	97.31
340.702	110.31
340.93	105.31
341.158	94.31
341.386	92.31
341.614	110.31
341.842	101.31
342.07	101.31
342.298	89.31
342.526	100.31
342.754	105.31
342.981	94.31
343.209	104.31
343.437	104.31
343.665	93.31
343.893	95.31
344.12	109.31
344.348	88.31
344.576	84.31
344.804	86.31
345.031	112.31
345.259	112.31
345.487	95.31
345.714	101.31
345.942	97.31
346.17	86.31
346.397	96.31
346.625	98.31
346.853	85.31
347.08	94.31
347.308	94.31
347.535	86.31
347.763	109.31
347.99	98.31
348.218	101.31
348.445	117.31
348.673	107.31
348.9	102.31
349.128	99.31
349.355	101.31
349.583	97.31
349.81	106.31
350.037	96.31
350.265	106.31
350.492	96.31
350.72	96.31
350.947	100.31
351.174	109.31
351.402	112.31
351.629	94.31
351.856	93.31
352.083	101.31
352.311	106.31
352.538	106.31
352.765	109.31
352.992	115.31
353.22	110.31
353.447	110.31
353.674	102.31
353.901	89.31
354.128	106.31
354.355	98.31
354.583	106.31
354.81	115.31
355.037	98.31
355.264	98.31
355.491	122.31
355.718	95.31
355.945	104.31
356.172	101.31
356.399	102.31
356.626	102.31
356.853	98.31
357.08	91.31
357.307	95.31
357.534	86.31
357.761	96.31
357.988	108.31
358.215	104.31
358.441	98.31
358.668	99.31
358.895	96.31
359.122	87.31
359.349	95.31
359.576	88.31
359.802	94.31
360.029	103.31
360.256	121.31
360.483	104.31
360.709	100.31
360.936	102.31
361.163	101.31
361.39	83.31
361.616	88.31
361.843	85.31
362.07	116.31
362.296	90.31
362.523	99.31
362.749	87.31
362.976	98.31
363.203	112.31
363.429	99.31
363.656	98.31
363.882	80.31
364.109	101.31
364.335	102.31
364.562	87.31
364.788	116.31
365.015	98.31
365.241	95.31
365.468	102.31
365.694	111.31
365.92	105.31
366.147	99.31
366.373	94.31
366.599	96.31
366.826	97.31
367.052	91.31
367.278	90.31
367.505	91.31
367.731	105.31
367.957	90.31
368.184	89.31
368.41	97.31
368.636	111.31
368.862	119.31
369.089	96.31
369.315	105.31
369.541	104.31
369.767	93.31
369.993	100.31
370.219	91.31
370.445	106.31
370.672	92.31
370.898	98.31
371.124	94.31
371.35	86.31
371.576	91.31
371.802	94.31
372.028	94.31
372.254	85.31
372.48	90.31
372.706	86.31
372.932	95.31
373.158	108.31
373.384	92.31
373.61	85.31
373.835	90.31
374.061	85.31
374.287	94.31
374.513	89.31
374.739	76.31
374.965	103.31
375.191	83.31
375.416	94.31
375.642	92.31
375.868	92.31
376.094	103.31
376.319	93.31
376.545	91.31
376.771	103.31
376.997	105.31
377.222	97.31
377.448	97.31
377.674	99.31
377.899	81.31
378.125	103.31
378.35	106.31
378.576	84.31
378.802	92.31
379.027	99.31
379.253	97.31
379.478	103.31
379.704	110.31
379.929	94.31
380.155	96.31
380.38	107.31
380.606	94.31
380.831	99.31
381.057	109.31
381.282	81.31
381.507	91.31
381.733	95.31
381.958	105.31
382.184	97.31
382.409	101.31
382.634	105.31
382.86	100.31
383.085	105.31
383.31	110.31
383.535	107.31
383.761	103.31
383.986	117.31
384.211	94.31
384.436	101.31
384.662	97.31
384.887	111.31
385.112	97.31
385.337	97.31
385.562	104.31
385.787	106.31
386.013	99.31
386.238	107.31
386.463	108.31
386.688	116.31
386.913	105.31
387.138	101.31
387.363	112.31
387.588	91.31
387.813	102.31
388.038	103.31
388.263	102.31
388.488	101.31
388.713	109.31
388.938	109.31
389.163	87.31
389.387	88.31
389.612	105.31
389.837	108.31
390.062	95.31
390.287	106.31
390.512	96.31
390.736	94.31
390.961	82.31
391.186	93.31
391.411	92.31
391.636	98.31
391.86	78.31
392.085	85.31
392.31	89.31
392.534	97.31
392.759	101.31
392.984	91.31
393.208	83.31
393.433	97.31
393.658	92.31
393.882	87.31
394.107	91.31
394.331	81.31
394.556	85.31
394.78	93.31
395.005	88.31
395.229	85.31
395.454	94.31
395.678	89.31
395.903	89.31
396.127	92.31
396.352	84.31
396.576	87.31
396.801	85.31
397.025	102.31
397.249	86.31
397.474	82.31
397.698	74.31
397.922	90.31
398.147	95.31
398.371	89.31
398.595	96.31
398.82	103.31
399.044	78.31
399.268	77.31
399.492	94.31
399.717	99.31
399.941	98.31
400.165	95.31
400.389	100.31
400.613	91.31
400.837	90.31
401.062	99.31
401.286	97.31
401.51	100.31
401.734	105.31
401.958	109.31
402.182	127.31
402.406	137.31
402.63	114.31
402.854	94.31
403.078	104.31
403.302	101.31
403.526	89.31
403.75	110.31
403.974	89.31
404.198	93.31
404.422	100.31
404.645	84.31
404.869	78.31
405.093	90.31
405.317	95.31
405.541	111.31
405.765	99.31
405.988	122.31
406.212	163.31
406.436	210.31
406.66	130.31
406.883	79.31
407.107	99.31
407.331	101.31
407.555	104.31
407.778	110.31
408.002	104.31
408.226	92.31
408.449	77.31
408.673	97.31
408.896	105.31
409.12	102.31
409.344	103.31
409.567	93.31
409.791	97.31
410.014	99.31
410.238	91.31
410.461	93.31
410.685	100.31
410.908	105.31
411.132	100.31
411.355	102.31
411.578	108.31
411.802	94.31
412.025	93.31
412.249	100.31
412.472	103.31
412.695	95.31
412.919	93.31
413.142	89.31
413.365	103.31
413.589	83.31
413.812	89.31
414.035	100.31
414.258	93.31
414.482	97.31
414.705	95.31
414.928	106.31
415.151	91.31
415.374	95.31
415.597	85.31
415.821	91.31
416.044	96.31
416.267	86.31
416.49	89.31
416.713	98.31
416.936	98.31
417.159	83.31
417.382	101.31
417.605	95.31
417.828	100.31
418.051	92.31
418.274	86.31
418.497	96.31
418.72	89.31
418.943	91.31
419.166	95.31
419.389	88.31
419.611	87.31
419.834	94.31
420.057	108.31
420.28	101.31
420.503	98.31
420.726	92.31
420.948	93.31
421.171	90.31
421.394	95.31
421.617	81.31
421.839	83.31
422.062	94.31
422.285	105.31
422.507	115.31
422.73	108.31
422.953	93.31
423.175	101.31
423.398	80.31
423.621	87.31
423.843	104.31
424.066	99.31
424.288	82.31
424.511	74.31
424.733	96.31
424.956	102.31
425.178	102.31
425.401	105.31
425.623	99.31
425.846	95.31
426.068	82.31
426.291	101.31
426.513	84.31
426.735	95.31
426.958	103.31
427.18	106.31
427.402	141.31
427.625	148.31
427.847	115.31
428.069	106.31
428.292	95.31
428.514	89.31
428.736	92.31
428.958	98.31
429.181	81.31
429.403	86.31
429.625	79.31
429.847	89.31
430.069	107.31
430.292	102.31
430.514	92.31
430.736	100.31
430.958	101.31
431.18	92.31
431.402	76.31
431.624	103.31
431.846	93.31
432.068	88.31
432.29	77.31
432.512	98.31
432.734	91.31
432.956	81.31
433.178	94.31
433.4	106.31
433.622	93.31
433.844	91.31
434.066	100.31
434.287	100.31
434.509	93.31
434.731	90.31
434.953	81.31
435.175	105.31
435.397	99.31
435.618	108.31
435.84	107.31
436.062	119.31
436.284	110.31
436.505	96.31
436.727	102.31
436.949	94.31
437.17	113.31
437.392	90.31
437.614	88.31
437.835	119.31
438.057	109.31
438.278	118.31
438.5	108.31
438.721	115.31
438.943	102.31
439.165	93.31
439.386	83.31
439.608	95.31
439.829	111.31
440.05	114.31
440.272	148.31
440.493	95.31
440.715	93.31
440.936	90.31
441.158	93.31
441.379	105.31
441.6	102.31
441.822	104.31
442.043	104.31
442.264	95.31
442.486	90.31
442.707	91.31
442.928	104.31
443.149	126.31
443.371	131.31
443.592	105.31
443.813	115.31
444.034	114.31
444.255	102.31
444.476	104.31
444.698	91.31
444.919	74.31
445.14	142.31
445.361	134.31
445.582	111.31
445.803	137.31
446.024	147.31
446.245	123.31
446.466	106.31
446.687	103.31
446.908	81.31
447.129	81.31
447.35	87.31
447.571	112.31
447.792	100.31
448.013	114.31
448.234	110.31
448.455	92.31
448.675	117.31
448.896	116.31
449.117	106.31
449.338	102.31
449.559	126.31
449.779	139.31
450	84.31
450.221	92.31
450.442	97.31
450.662	99.31
450.883	103.31
451.104	118.31
451.324	102.31
451.545	79.31
451.766	80.31
451.986	92.31
452.207	92.31
452.428	106.31
452.648	110.31
452.869	118.31
453.089	134.31
453.31	92.31
453.53	82.31
453.751	102.31
453.971	112.31
454.192	114.31
454.412	90.31
454.633	86.31
454.853	92.31
455.073	102.31
455.294	88.31
455.514	108.31
455.734	87.31
455.955	84.31
456.175	73.31
456.395	92.31
456.616	104.31
456.836	77.31
457.056	86.31
457.276	80.31
457.497	83.31
457.717	85.31
457.937	93.31
458.157	88.31
458.377	71.31
458.598	94.31
458.818	135.31
459.038	138.31
459.258	134.31
459.478	85.31
459.698	98.31
459.918	99.31
460.138	99.31
460.358	90.31
460.578	98.31
460.798	84.31
461.018	73.31
461.238	88.31
461.458	90.31
461.678	85.31
461.898	78.31
462.118	90.31
462.338	95.31
462.558	76.31
462.777	91.31
462.997	90.31
463.217	82.31
463.437	81.31
463.657	100.31
463.876	91.31
464.096	89.31
464.316	87.31
464.536	96.31
464.755	93.31
464.975	106.31
465.195	139.31
465.414	137.31
465.634	106.31
465.854	98.31
466.073	102.31
466.293	83.31
466.512	85.31
466.732	98.31
466.951	93.31
467.171	96.31
467.391	89.31
467.61	108.31
467.829	85.31
468.049	91.31
468.268	105.31
468.488	93.31
468.707	87.31
468.927	91.31
469.146	82.31
469.365	79.31
469.585	82.31
469.804	99.31
470.023	86.31
470.243	101.31
470.462	104.31
470.681	114.31
470.901	87.31
471.12	98.31
471.339	95.31
471.558	98.31
471.777	89.31
471.997	94.31
472.216	95.31
472.435	90.31
472.654	92.31
472.873	88.31
473.092	94.31
473.311	74.31
473.53	86.31
473.749	81.31
473.968	91.31
474.187	99.31
474.406	85.31
474.625	89.31
474.844	89.31
475.063	105.31
475.282	89.31
475.501	83.31
475.72	101.31
475.939	76.31
476.158	94.31
476.377	98.31
476.596	102.31
476.814	101.31
477.033	82.31
477.252	77.31
477.471	76.31
477.69	92.31
477.908	104.31
478.127	94.31
478.346	84.31
478.564	84.31
478.783	99.31
479.002	106.31
479.22	89.31
479.439	103.31
479.658	98.31
479.876	99.31
480.095	91.31
480.313	94.31
480.532	89.31
480.751	97.31
480.969	103.31
481.188	99.31
481.406	94.31
481.624	90.31
481.843	94.31
482.061	90.31
482.28	93.31
482.498	90.31
482.717	84.31
482.935	85.31
483.153	98.31
483.372	82.31
483.59	90.31
483.808	88.31
484.027	92.31
484.245	93.31
484.463	98.31
484.681	90.31
484.9	104.31
485.118	81.31
485.336	92.31
485.554	95.31
485.772	98.31
485.99	100.31
486.209	105.31
486.427	104.31
486.645	108.31
486.863	114.31
487.081	103.31
487.299	105.31
487.517	108.31
487.735	99.31
487.953	93.31
488.171	98.31
488.389	94.31
488.607	85.31
488.825	106.31
489.043	101.31
489.261	97.31
489.479	84.31
489.696	98.31
489.914	94.31
490.132	83.31
490.35	94.31
490.568	78.31
490.786	79.31
491.003	93.31
491.221	111.31
491.439	103.31
491.657	104.31
491.874	97.31
492.092	93.31
492.31	97.31
492.527	84.31
492.745	92.31
492.963	92.31
493.18	96.31
493.398	86.31
493.615	98.31
493.833	93.31
494.05	99.31
494.268	100.31
494.485	95.31
494.703	87.31
494.92	92.31
495.138	78.31
495.355	92.31
495.573	91.31
495.79	94.31
496.008	93.31
496.225	94.31
496.442	100.31
496.66	88.31
496.877	91.31
497.094	90.31
497.312	88.31
497.529	96.31
497.746	116.31
497.963	95.31
498.181	105.31
498.398	95.31
498.615	111.31
498.832	107.31
499.049	101.31
499.267	108.31
499.484	100.31
499.701	88.31
499.918	77.31
500.135	102.31
500.352	104.31
500.569	86.31
500.786	102.31
501.003	84.31
501.22	101.31
501.437	95.31
501.654	82.31
501.871	97.31
502.088	96.31
502.305	94.31
502.522	87.31
502.739	85.31
502.956	92.31
503.172	98.31
503.389	94.31
503.606	112.31
503.823	106.31
504.04	103.31
504.256	95.31
504.473	90.31
504.69	92.31
504.907	84.31
505.123	93.31
505.34	105.31
505.557	87.31
505.773	99.31
505.99	91.31
506.207	87.31
506.423	90.31
506.64	84.31
506.856	90.31
507.073	98.31
507.289	95.31
507.506	109.31
507.722	116.31
507.939	108.31
508.155	101.31
508.372	110.31
508.588	101.31
508.805	103.31
509.021	92.31
509.238	99.31
509.454	110.31
509.67	100.31
509.887	122.31
510.103	139.31
510.319	216.31
510.536	699.31
510.752	2154.31
510.968	621.31
511.184	157.31
511.401	106.31
511.617	98.31
511.833	92.31
512.049	99.31
512.265	86.31
512.481	86.31
512.698	85.31
512.914	85.31
513.13	93.31
513.346	95.31
513.562	105.31
513.778	91.31
513.994	102.31
