Data from Uncirc_2003_H10_HRD10591_00088.txt Node
Date: Wed Jan 03 10:36:05 EST 2024
User: Yrep
Spectrometer: HR+D1059
Trigger mode: 1
Integration Time (sec): 1.000000E-1
Scans to average: 1
Electric dark correction enabled: true
Nonlinearity correction enabled: false
Boxcar width: 0
XAxis mode: Wavelengths
Number of Pixels in Spectrum: 2048
>>>>>Begin Spectral Data<<<<<
223.165	-13
223.4	-13
223.635	-13
223.869	-10
224.104	-30
224.338	-5
224.573	-22
224.808	-22
225.042	3
225.277	5
225.511	5
225.746	-2
225.98	1
226.215	-2
226.449	3
226.683	31
226.918	27
227.152	31
227.387	35
227.621	40
227.856	50
228.09	57
228.324	56
228.559	41
228.793	83
229.027	48
229.262	61
229.496	78
229.73	68
229.964	86
230.199	70
230.433	77
230.667	77
230.901	88
231.136	84
231.37	62
231.604	82
231.838	75
232.072	77
232.306	72
232.541	83
232.775	80
233.009	78
233.243	73
233.477	79
233.711	82
233.945	85
234.179	82
234.413	81
234.647	77
234.881	69
235.115	83
235.349	73
235.583	75
235.817	64
236.051	88
236.285	74
236.519	72
236.753	71
236.987	84
237.221	69
237.455	82
237.689	77
237.922	77
238.156	75
238.39	63
238.624	74
238.858	81
239.091	78
239.325	79
239.559	98
239.793	84
240.027	74
240.26	81
240.494	78
240.728	79
240.961	87
241.195	87
241.429	79
241.662	79
241.896	71
242.13	84
242.363	85
242.597	91
242.83	76
243.064	95
243.298	83
243.531	87
243.765	85
243.998	73
244.232	70
244.465	82
244.699	88
244.932	82
245.166	83
245.399	77
245.633	73
245.866	77
246.099	64
246.333	68
246.566	77
246.8	85
247.033	70
247.266	81
247.5	85
247.733	77
247.966	71
248.2	75
248.433	82
248.666	68
248.899	72
249.133	87
249.366	98
249.599	98
249.832	86
250.066	70
250.299	83
250.532	83
250.765	96
250.998	86
251.231	69
251.465	86
251.698	91
251.931	83
252.164	71
252.397	84
252.63	87
252.863	87
253.096	94
253.329	97
253.562	72
253.795	88
254.028	73
254.261	78
254.494	79
254.727	77
254.96	78
255.193	94
255.426	81
255.659	79
255.892	83
256.124	89
256.357	90
256.59	80
256.823	61
257.056	74
257.289	83
257.521	94
257.754	88
257.987	83
258.22	72
258.452	74
258.685	91
258.918	78
259.151	76
259.383	84
259.616	81
259.849	68
260.081	75
260.314	79
260.547	70
260.779	88
261.012	90
261.244	105
261.477	85
261.71	72
261.942	106
262.175	100
262.407	89
262.64	78
262.872	87
263.105	75
263.337	87
263.57	75
263.802	65
264.035	91
264.267	72
264.499	90
264.732	80
264.964	83
265.197	82
265.429	62
265.661	85
265.894	86
266.126	87
266.358	78
266.591	98
266.823	77
267.055	82
267.287	90
267.52	71
267.752	81
267.984	85
268.216	89
268.448	75
268.681	84
268.913	77
269.145	86
269.377	87
269.609	93
269.841	78
270.073	78
270.306	83
270.538	76
270.77	76
271.002	95
271.234	87
271.466	95
271.698	92
271.93	90
272.162	75
272.394	83
272.626	88
272.858	83
273.09	75
273.322	73
273.553	86
273.785	90
274.017	88
274.249	94
274.481	74
274.713	83
274.945	93
275.176	97
275.408	88
275.64	82
275.872	87
276.104	90
276.335	86
276.567	87
276.799	98
277.031	103
277.262	87
277.494	101
277.726	89
277.957	84
278.189	87
278.421	87
278.652	82
278.884	87
279.115	89
279.347	76
279.579	81
279.81	83
280.042	86
280.273	89
280.505	88
280.736	79
280.968	97
281.199	89
281.431	94
281.662	90
281.894	90
282.125	88
282.356	114
282.588	113
282.819	114
283.051	87
283.282	84
283.513	97
283.745	93
283.976	87
284.207	87
284.439	98
284.67	88
284.901	84
285.132	76
285.364	72
285.595	77
285.826	82
286.057	95
286.288	93
286.52	99
286.751	85
286.982	79
287.213	97
287.444	91
287.675	75
287.906	82
288.138	101
288.369	85
288.6	94
288.831	76
289.062	91
289.293	94
289.524	96
289.755	86
289.986	88
290.217	85
290.448	83
290.679	85
290.91	88
291.141	86
291.371	91
291.602	89
291.833	95
292.064	100
292.295	89
292.526	86
292.757	99
292.987	78
293.218	89
293.449	89
293.68	106
293.91	79
294.141	92
294.372	78
294.603	81
294.833	73
295.064	91
295.295	96
295.525	95
295.756	98
295.987	103
296.217	139
296.448	111
296.679	77
296.909	105
297.14	77
297.37	87
297.601	96
297.831	77
298.062	91
298.292	105
298.523	91
298.753	84
298.984	82
299.214	87
299.445	97
299.675	99
299.905	97
300.136	104
300.366	99
300.597	84
300.827	88
301.057	86
301.288	102
301.518	99
301.748	90
301.979	99
302.209	87
302.439	88
302.669	95
302.9	81
303.13	94
303.36	105
303.59	95
303.82	88
304.051	97
304.281	90
304.511	94
304.741	75
304.971	92
305.201	85
305.431	94
305.661	79
305.891	102
306.121	97
306.352	95
306.582	80
306.812	102
307.042	84
307.272	106
307.502	110
307.731	90
307.961	99
308.191	97
308.421	106
308.651	93
308.881	96
309.111	91
309.341	100
309.571	91
309.8	90
310.03	99
310.26	84
310.49	93
310.72	91
310.949	83
311.179	104
311.409	110
311.639	84
311.868	102
312.098	97
312.328	98
312.557	106
312.787	97
313.017	97
313.246	86
313.476	81
313.706	81
313.935	86
314.165	101
314.394	106
314.624	104
314.853	108
315.083	107
315.312	84
315.542	75
315.771	98
316.001	106
316.23	83
316.46	97
316.689	73
316.919	88
317.148	103
317.377	87
317.607	90
317.836	82
318.065	88
318.295	103
318.524	89
318.753	101
318.983	98
319.212	107
319.441	114
319.67	97
319.9	90
320.129	94
320.358	94
320.587	90
320.816	94
321.046	95
321.275	96
321.504	91
321.733	103
321.962	102
322.191	105
322.42	111
322.649	93
322.878	99
323.108	112
323.337	135
323.566	136
323.795	146
324.024	234
324.253	408
324.482	874
324.71	1745
324.939	2362
325.168	874
325.397	242
325.626	163
325.855	133
326.084	118
326.313	133
326.542	139
326.77	223
326.999	475
327.228	978
327.457	1812
327.686	1406
327.914	376
328.143	217
328.372	153
328.6	141
328.829	124
329.058	129
329.287	121
329.515	112
329.744	117
329.972	100
330.201	103
330.43	97
330.658	129
330.887	131
331.115	99
331.344	91
331.572	79
331.801	109
332.03	94
332.258	94
332.486	93
332.715	91
332.943	94
333.172	90
333.4	89
333.629	103
333.857	118
334.085	95
334.314	113
334.542	97
334.771	111
334.999	93
335.227	99
335.455	100
335.684	96
335.912	98
336.14	92
336.369	104
336.597	94
336.825	97
337.053	90
337.281	88
337.51	80
337.738	98
337.966	92
338.194	90
338.422	100
338.65	84
338.878	83
339.106	97
339.334	96
339.562	85
339.79	78
340.018	87
340.246	85
340.474	101
340.702	91
340.93	90
341.158	88
341.386	87
341.614	103
341.842	98
342.07	91
342.298	79
342.526	86
342.754	96
342.981	82
343.209	78
343.437	85
343.665	82
343.893	99
344.12	94
344.348	73
344.576	97
344.804	101
345.031	85
345.259	93
345.487	113
345.714	87
345.942	86
346.17	89
346.397	94
346.625	91
346.853	99
347.08	95
347.308	87
347.535	95
347.763	105
347.99	111
348.218	97
348.445	95
348.673	98
348.9	101
349.128	90
349.355	97
349.583	93
349.81	90
350.037	87
350.265	90
350.492	93
350.72	98
350.947	108
351.174	104
351.402	99
351.629	109
351.856	109
352.083	99
352.311	115
352.538	112
352.765	104
352.992	122
353.22	110
353.447	107
353.674	100
353.901	80
354.128	93
354.355	81
354.583	104
354.81	107
355.037	104
355.264	99
355.491	96
355.718	98
355.945	87
356.172	98
356.399	104
356.626	110
356.853	90
357.08	94
357.307	102
357.534	83
357.761	96
357.988	82
358.215	100
358.441	108
358.668	88
358.895	82
359.122	91
359.349	95
359.576	87
359.802	108
360.029	115
360.256	116
360.483	91
360.709	85
360.936	97
361.163	97
361.39	94
361.616	84
361.843	102
362.07	110
362.296	82
362.523	93
362.749	97
362.976	89
363.203	86
363.429	80
363.656	89
363.882	104
364.109	89
364.335	93
364.562	99
364.788	95
365.015	96
365.241	110
365.468	100
365.694	103
365.92	99
366.147	85
366.373	88
366.599	89
366.826	99
367.052	87
367.278	102
367.505	82
367.731	101
367.957	79
368.184	100
368.41	95
368.636	107
368.862	110
369.089	114
369.315	96
369.541	99
369.767	79
369.993	94
370.219	79
370.445	75
370.672	81
370.898	88
371.124	90
371.35	76
371.576	99
371.802	87
372.028	84
372.254	85
372.48	87
372.706	95
372.932	95
373.158	84
373.384	104
373.61	93
373.835	90
374.061	85
374.287	76
374.513	98
374.739	84
374.965	94
375.191	108
375.416	85
375.642	90
375.868	88
376.094	103
376.319	99
376.545	118
376.771	100
376.997	90
377.222	95
377.448	95
377.674	97
377.899	93
378.125	82
378.35	97
378.576	91
378.802	99
379.027	81
379.253	96
379.478	88
379.704	88
379.929	85
380.155	85
380.38	99
380.606	90
380.831	101
381.057	97
381.282	91
381.507	106
381.733	93
381.958	103
382.184	97
382.409	99
382.634	94
382.86	97
383.085	91
383.31	105
383.535	109
383.761	103
383.986	91
384.211	98
384.436	101
384.662	98
384.887	92
385.112	94
385.337	93
385.562	98
385.787	100
386.013	111
386.238	107
386.463	114
386.688	106
386.913	112
387.138	113
387.363	95
387.588	109
387.813	96
388.038	97
388.263	104
388.488	117
388.713	107
388.938	94
389.163	99
389.387	93
389.612	94
389.837	93
390.062	99
390.287	95
390.512	96
390.736	83
390.961	96
391.186	105
391.411	97
391.636	88
391.86	81
392.085	87
392.31	82
392.534	82
392.759	78
392.984	73
393.208	80
393.433	89
393.658	94
393.882	91
394.107	89
394.331	70
394.556	96
394.78	103
395.005	83
395.229	92
395.454	93
395.678	82
395.903	76
396.127	85
396.352	87
396.576	86
396.801	87
397.025	91
397.249	84
397.474	100
397.698	92
397.922	90
398.147	82
398.371	93
398.595	82
398.82	100
399.044	88
399.268	87
399.492	84
399.717	89
399.941	87
400.165	101
400.389	104
400.613	91
400.837	92
401.062	90
401.286	79
401.51	86
401.734	89
401.958	105
402.182	133
402.406	163
402.63	125
402.854	103
403.078	71
403.302	84
403.526	92
403.75	92
403.974	89
404.198	80
404.422	74
404.645	88
404.869	92
405.093	82
405.317	103
405.541	89
405.765	100
405.988	118
406.212	166
406.436	210
406.66	141
406.883	98
407.107	80
407.331	97
407.555	106
407.778	101
408.002	87
408.226	108
408.449	77
408.673	87
408.896	88
409.12	85
409.344	90
409.567	76
409.791	106
410.014	91
410.238	96
410.461	101
410.685	109
410.908	100
411.132	98
411.355	95
411.578	96
411.802	83
412.025	95
412.249	99
412.472	95
412.695	90
412.919	91
413.142	86
413.365	88
413.589	79
413.812	87
414.035	102
414.258	104
414.482	77
414.705	92
414.928	84
415.151	81
415.374	103
415.597	92
415.821	105
416.044	100
416.267	101
416.49	78
416.713	92
416.936	99
417.159	96
417.382	94
417.605	72
417.828	94
418.051	90
418.274	105
418.497	89
418.72	94
418.943	89
419.166	90
419.389	97
419.611	77
419.834	85
420.057	86
420.28	98
420.503	77
420.726	90
420.948	83
421.171	91
421.394	91
421.617	96
421.839	84
422.062	83
422.285	113
422.507	102
422.73	91
422.953	100
423.175	84
423.398	71
423.621	83
423.843	90
424.066	84
424.288	80
424.511	84
424.733	95
424.956	103
425.178	93
425.401	106
425.623	89
425.846	106
426.068	99
426.291	91
426.513	86
426.735	104
426.958	95
427.18	98
427.402	131
427.625	169
427.847	135
428.069	106
428.292	70
428.514	90
428.736	87
428.958	89
429.181	93
429.403	98
429.625	81
429.847	95
430.069	95
430.292	88
430.514	89
430.736	89
430.958	73
431.18	84
431.402	86
431.624	85
431.846	84
432.068	93
432.29	91
432.512	76
432.734	76
432.956	86
433.178	96
433.4	88
433.622	101
433.844	93
434.066	95
434.287	84
434.509	91
434.731	81
434.953	75
435.175	85
435.397	82
435.618	84
435.84	94
436.062	120
436.284	123
436.505	99
436.727	97
436.949	79
437.17	82
437.392	91
437.614	97
437.835	102
438.057	105
438.278	119
438.5	99
438.721	111
438.943	90
439.165	94
439.386	103
439.608	98
439.829	90
440.05	119
440.272	126
440.493	94
440.715	91
440.936	87
441.158	99
441.379	85
441.6	102
441.822	86
442.043	98
442.264	95
442.486	98
442.707	97
442.928	105
443.149	125
443.371	115
443.592	108
443.813	99
444.034	104
444.255	98
444.476	93
444.698	64
444.919	86
445.14	129
445.361	108
445.582	117
445.803	120
446.024	143
446.245	128
446.466	114
446.687	77
446.908	91
447.129	94
447.35	75
447.571	96
447.792	79
448.013	93
448.234	114
448.455	91
448.675	89
448.896	131
449.117	102
449.338	96
449.559	111
449.779	119
450	85
450.221	102
450.442	89
450.662	92
450.883	100
451.104	106
451.324	88
451.545	88
451.766	84
451.986	102
452.207	78
452.428	99
452.648	98
452.869	99
453.089	111
453.31	107
453.53	90
453.751	87
453.971	101
454.192	109
454.412	91
454.633	96
454.853	75
455.073	85
455.294	90
455.514	102
455.734	97
455.955	84
456.175	85
456.395	91
456.616	90
456.836	99
457.056	79
457.276	83
457.497	83
457.717	83
457.937	87
458.157	88
458.377	104
458.598	100
458.818	128
459.038	143
459.258	110
459.478	90
459.698	88
459.918	105
460.138	89
460.358	88
460.578	81
460.798	84
461.018	92
461.238	94
461.458	81
461.678	85
461.898	79
462.118	84
462.338	97
462.558	81
462.777	88
462.997	96
463.217	87
463.437	97
463.657	84
463.876	87
464.096	98
464.316	82
464.536	88
464.755	94
464.975	105
465.195	142
465.414	143
465.634	88
465.854	87
466.073	80
466.293	82
466.512	93
466.732	82
466.951	85
467.171	89
467.391	93
467.61	103
467.829	93
468.049	84
468.268	103
468.488	103
468.707	78
468.927	91
469.146	79
469.365	88
469.585	86
469.804	92
470.023	85
470.243	89
470.462	99
470.681	109
470.901	89
471.12	90
471.339	83
471.558	94
471.777	79
471.997	95
472.216	84
472.435	110
472.654	93
472.873	94
473.092	77
473.311	84
473.53	87
473.749	97
473.968	81
474.187	97
474.406	96
474.625	103
474.844	93
475.063	91
475.282	80
475.501	91
475.72	90
475.939	85
476.158	83
476.377	85
476.596	82
476.814	93
477.033	95
477.252	90
477.471	94
477.69	86
477.908	94
478.127	91
478.346	97
478.564	87
478.783	85
479.002	87
479.22	92
479.439	104
479.658	105
479.876	87
480.095	97
480.313	97
480.532	91
480.751	98
480.969	88
481.188	109
481.406	113
481.624	94
481.843	95
482.061	98
482.28	93
482.498	82
482.717	97
482.935	77
483.153	92
483.372	97
483.59	75
483.808	91
484.027	89
484.245	89
484.463	91
484.681	90
484.9	91
485.118	104
485.336	103
485.554	97
485.772	94
485.99	98
486.209	108
486.427	102
486.645	129
486.863	108
487.081	100
487.299	108
487.517	91
487.735	97
487.953	95
488.171	88
488.389	97
488.607	112
488.825	86
489.043	97
489.261	91
489.479	80
489.696	91
489.914	90
490.132	84
490.35	85
490.568	82
490.786	93
491.003	90
491.221	101
491.439	87
491.657	91
491.874	93
492.092	105
492.31	102
492.527	87
492.745	91
492.963	96
493.18	94
493.398	101
493.615	82
493.833	89
494.05	91
494.268	89
494.485	90
494.703	79
494.92	92
495.138	90
495.355	103
495.573	86
495.79	93
496.008	92
496.225	94
496.442	85
496.66	81
496.877	83
497.094	119
497.312	84
497.529	102
497.746	92
497.963	101
498.181	75
498.398	102
498.615	106
498.832	90
499.049	94
499.267	90
499.484	93
499.701	90
499.918	80
500.135	89
500.352	87
500.569	88
500.786	85
501.003	80
501.22	89
501.437	104
501.654	104
501.871	116
502.088	93
502.305	91
502.522	89
502.739	100
502.956	95
503.172	81
503.389	92
503.606	102
503.823	105
504.04	97
504.256	91
504.473	103
504.69	88
504.907	85
505.123	80
505.34	102
505.557	90
505.773	83
505.99	74
506.207	87
506.423	78
506.64	91
506.856	95
507.073	93
507.289	100
507.506	100
507.722	131
507.939	105
508.155	106
508.372	117
508.588	86
508.805	96
509.021	98
509.238	104
509.454	95
509.67	101
509.887	117
510.103	136
510.319	241
510.536	765
510.752	2526
510.968	704
511.184	159
511.401	120
511.617	105
511.833	106
512.049	97
512.265	95
512.481	93
512.698	101
512.914	99
513.13	87
513.346	110
513.562	86
513.778	84
513.994	87
514.21	99
514.426	126
514.642	133
514.858	129
515.074	172
515.29	435
515.506	1454
515.721	536
515.937	156
516.153	101
516.369	100
516.585	111
516.801	92
517.016	102
517.232	103
517.448	87
517.664	102
517.879	109
518.095	92
518.311	87
518.527	81
518.742	86
518.958	110
519.173	95
519.389	85
519.605	91
519.82	98
520.036	104
520.251	119
520.467	102
520.682	110
520.898	95
521.113	98
521.329	123
521.544	187
521.76	555
521.975	2392
522.19	1468
522.406	331
522.621	115
522.836	99
523.052	101
523.267	82
523.482	98
523.698	109
523.913	119
524.128	100
524.343	97
524.559	108
524.774	83
524.989	98
525.204	105
525.419	107
525.634	90
525.849	94
526.064	87
526.28	95
526.495	88
526.71	90
526.925	88
527.14	86
527.355	91
527.57	82
527.785	99
527.999	93
528.214	103
528.429	90
528.644	90
528.859	100
529.074	91
529.289	134
529.503	179
529.718	108
529.933	99
530.148	89
530.363	106
530.577	86
530.792	99
531.007	87
531.221	91
531.436	100
531.651	92
531.865	83
532.08	97
532.295	96
532.509	87
532.724	103
532.938	90
533.153	90
533.367	96
533.582	92
533.796	102
534.011	97
534.225	93
534.44	101
534.654	87
534.868	95
535.083	89
535.297	91
535.511	92
535.726	96
535.94	83
536.154	102
536.369	95
536.583	81
536.797	90
537.011	89
537.225	99
537.44	91
537.654	101
537.868	79
538.082	83
538.296	86
538.51	84
538.724	83
538.938	106
539.153	87
539.367	91
539.581	80
539.795	92
540.009	94
540.222	90
540.436	90
540.65	83
540.864	96
541.078	96
541.292	106
541.506	97
541.72	88
541.934	86
542.147	91
542.361	100
542.575	88
542.789	92
543.002	88
543.216	78
543.43	101
543.644	103
543.857	81
544.071	95
544.285	97
544.498	90
544.712	99
544.925	98
545.139	106
545.352	97
545.566	97
545.779	96
545.993	102
546.206	90
546.42	93
546.633	98
546.847	103
547.06	87
547.274	94
547.487	94
547.7	71
547.914	98
548.127	98
548.34	84
548.554	86
548.767	93
548.98	82
549.193	86
549.407	96
549.62	83
549.833	74
550.046	77
550.259	95
550.473	110
550.686	99
550.899	85
551.112	97
551.325	88
551.538	75
551.751	83
551.964	94
552.177	77
552.39	86
552.603	94
552.816	85
553.029	97
553.242	108
553.455	91
553.667	110
553.88	87
554.093	108
554.306	88
554.519	77
554.732	84
554.944	106
555.157	86
555.37	93
555.583	98
555.795	88
556.008	82
556.221	90
556.433	81
556.646	89
556.859	109
557.071	87
557.284	93
557.496	91
557.709	101
557.921	97
558.134	94
558.346	88
558.559	88
558.771	90
558.984	98
559.196	94
559.409	100
559.621	86
559.833	77
560.046	99
560.258	96
560.47	85
560.683	75
560.895	101
561.107	90
561.32	94
561.532	99
561.744	84
561.956	90
562.168	88
562.381	74
562.593	87
562.805	87
563.017	81
563.229	75
563.441	84
563.653	95
563.865	84
564.077	94
564.289	94
564.501	86
564.713	101
564.925	94
565.137	97
565.349	89
565.561	89
565.773	88
565.985	94
566.197	89
566.408	100
566.62	82
566.832	89
567.044	87
567.255	100
567.467	83
567.679	82
567.891	87
568.102	93
568.314	100
568.526	92
568.737	87
568.949	104
569.161	83
569.372	84
569.584	83
569.795	84
570.007	119
570.218	249
570.43	141
570.641	102
570.853	79
571.064	85
571.276	86
571.487	86
571.698	99
571.91	96
572.121	97
572.333	87
572.544	92
572.755	93
572.966	74
573.178	99
573.389	101
573.6	90
573.811	91
574.023	98
574.234	91
574.445	111
574.656	79
574.867	83
575.078	80
575.289	97
575.501	80
575.712	93
575.923	91
576.134	99
576.345	87
576.556	88
576.767	98
576.978	100
577.188	98
577.399	91
577.61	87
577.821	93
578.032	117
578.243	272
578.454	797
578.665	231
578.875	106
579.086	92
579.297	94
579.508	88
579.718	91
579.929	85
580.14	72
580.35	65
580.561	89
580.772	89
580.982	75
581.193	78
581.403	82
581.614	83
581.825	87
582.035	84
582.246	83
582.456	92
582.667	86
582.877	93
583.087	84
583.298	85
583.508	97
583.719	76
583.929	90
584.139	92
584.35	87
