Data from Uncirc_2003_H10_HRD10591_00061.txt Node
Date: Wed Jan 03 10:36:00 EST 2024
User: Yrep
Spectrometer: HR+D1059
Trigger mode: 1
Integration Time (sec): 1.000000E-1
Scans to average: 1
Electric dark correction enabled: true
Nonlinearity correction enabled: false
Boxcar width: 0
XAxis mode: Wavelengths
Number of Pixels in Spectrum: 2048
>>>>>Begin Spectral Data<<<<<
223.165	-13.44
223.4	-13.44
223.635	-13.44
223.869	-25.44
224.104	-34.44
224.338	-6.44
224.573	-15.44
224.808	-20.44
225.042	-2.44
225.277	4.56
225.511	4.56
225.746	-3.44
225.98	7.56
226.215	13.56
226.449	19.56
226.683	13.56
226.918	23.56
227.152	34.56
227.387	42.56
227.621	35.56
227.856	49.56
228.09	59.56
228.324	51.56
228.559	65.56
228.793	54.56
229.027	63.56
229.262	65.56
229.496	57.56
229.73	87.56
229.964	76.56
230.199	82.56
230.433	78.56
230.667	79.56
230.901	80.56
231.136	82.56
231.37	76.56
231.604	78.56
231.838	85.56
232.072	78.56
232.306	66.56
232.541	78.56
232.775	87.56
233.009	90.56
233.243	87.56
233.477	70.56
233.711	68.56
233.945	74.56
234.179	88.56
234.413	75.56
234.647	82.56
234.881	84.56
235.115	79.56
235.349	91.56
235.583	83.56
235.817	63.56
236.051	77.56
236.285	83.56
236.519	80.56
236.753	85.56
236.987	71.56
237.221	82.56
237.455	75.56
237.689	81.56
237.922	65.56
238.156	62.56
238.39	67.56
238.624	63.56
238.858	87.56
239.091	77.56
239.325	79.56
239.559	94.56
239.793	75.56
240.027	61.56
240.26	85.56
240.494	76.56
240.728	86.56
240.961	77.56
241.195	81.56
241.429	70.56
241.662	84.56
241.896	72.56
242.13	70.56
242.363	83.56
242.597	79.56
242.83	78.56
243.064	72.56
243.298	83.56
243.531	89.56
243.765	60.56
243.998	71.56
244.232	69.56
244.465	93.56
244.699	81.56
244.932	77.56
245.166	77.56
245.399	76.56
245.633	91.56
245.866	88.56
246.099	82.56
246.333	80.56
246.566	73.56
246.8	83.56
247.033	94.56
247.266	66.56
247.5	78.56
247.733	81.56
247.966	60.56
248.2	81.56
248.433	85.56
248.666	76.56
248.899	82.56
249.133	85.56
249.366	100.56
249.599	88.56
249.832	100.56
250.066	77.56
250.299	83.56
250.532	77.56
250.765	67.56
250.998	72.56
251.231	75.56
251.465	86.56
251.698	79.56
251.931	76.56
252.164	88.56
252.397	70.56
252.63	77.56
252.863	83.56
253.096	74.56
253.329	81.56
253.562	79.56
253.795	66.56
254.028	79.56
254.261	87.56
254.494	83.56
254.727	79.56
254.96	84.56
255.193	80.56
255.426	89.56
255.659	90.56
255.892	77.56
256.124	79.56
256.357	83.56
256.59	76.56
256.823	80.56
257.056	92.56
257.289	84.56
257.521	86.56
257.754	84.56
257.987	84.56
258.22	78.56
258.452	81.56
258.685	88.56
258.918	80.56
259.151	93.56
259.383	88.56
259.616	79.56
259.849	83.56
260.081	79.56
260.314	57.56
260.547	71.56
260.779	89.56
261.012	88.56
261.244	79.56
261.477	91.56
261.71	88.56
261.942	117.56
262.175	107.56
262.407	73.56
262.64	79.56
262.872	79.56
263.105	81.56
263.337	87.56
263.57	95.56
263.802	100.56
264.035	77.56
264.267	99.56
264.499	86.56
264.732	97.56
264.964	80.56
265.197	79.56
265.429	71.56
265.661	91.56
265.894	84.56
266.126	77.56
266.358	89.56
266.591	73.56
266.823	97.56
267.055	83.56
267.287	93.56
267.52	76.56
267.752	76.56
267.984	65.56
268.216	99.56
268.448	83.56
268.681	83.56
268.913	79.56
269.145	87.56
269.377	88.56
269.609	67.56
269.841	84.56
270.073	83.56
270.306	80.56
270.538	95.56
270.77	69.56
271.002	89.56
271.234	97.56
271.466	85.56
271.698	79.56
271.93	84.56
272.162	87.56
272.394	100.56
272.626	64.56
272.858	88.56
273.09	83.56
273.322	77.56
273.553	103.56
273.785	82.56
274.017	95.56
274.249	81.56
274.481	84.56
274.713	82.56
274.945	93.56
275.176	77.56
275.408	79.56
275.64	89.56
275.872	81.56
276.104	84.56
276.335	85.56
276.567	88.56
276.799	96.56
277.031	88.56
277.262	97.56
277.494	91.56
277.726	84.56
277.957	88.56
278.189	69.56
278.421	88.56
278.652	93.56
278.884	78.56
279.115	76.56
279.347	78.56
279.579	88.56
279.81	91.56
280.042	71.56
280.273	85.56
280.505	86.56
280.736	77.56
280.968	85.56
281.199	79.56
281.431	88.56
281.662	94.56
281.894	95.56
282.125	111.56
282.356	107.56
282.588	128.56
282.819	118.56
283.051	87.56
283.282	91.56
283.513	92.56
283.745	90.56
283.976	69.56
284.207	105.56
284.439	82.56
284.67	67.56
284.901	87.56
285.132	79.56
285.364	78.56
285.595	93.56
285.826	84.56
286.057	94.56
286.288	95.56
286.52	68.56
286.751	83.56
286.982	75.56
287.213	102.56
287.444	102.56
287.675	97.56
287.906	74.56
288.138	86.56
288.369	81.56
288.6	85.56
288.831	100.56
289.062	82.56
289.293	90.56
289.524	84.56
289.755	81.56
289.986	96.56
290.217	95.56
290.448	72.56
290.679	83.56
290.91	79.56
291.141	87.56
291.371	86.56
291.602	92.56
291.833	96.56
292.064	81.56
292.295	95.56
292.526	75.56
292.757	84.56
292.987	90.56
293.218	95.56
293.449	101.56
293.68	78.56
293.91	87.56
294.141	85.56
294.372	92.56
294.603	78.56
294.833	88.56
295.064	86.56
295.295	93.56
295.525	81.56
295.756	100.56
295.987	105.56
296.217	115.56
296.448	118.56
296.679	91.56
296.909	95.56
297.14	89.56
297.37	98.56
297.601	109.56
297.831	80.56
298.062	83.56
298.292	77.56
298.523	71.56
298.753	103.56
298.984	101.56
299.214	93.56
299.445	85.56
299.675	93.56
299.905	93.56
300.136	94.56
300.366	93.56
300.597	79.56
300.827	95.56
301.057	91.56
301.288	104.56
301.518	109.56
301.748	75.56
301.979	83.56
302.209	79.56
302.439	71.56
302.669	85.56
302.9	88.56
303.13	94.56
303.36	98.56
303.59	107.56
303.82	112.56
304.051	107.56
304.281	88.56
304.511	90.56
304.741	83.56
304.971	89.56
305.201	91.56
305.431	95.56
305.661	95.56
305.891	89.56
306.121	95.56
306.352	96.56
306.582	104.56
306.812	80.56
307.042	95.56
307.272	103.56
307.502	99.56
307.731	87.56
307.961	89.56
308.191	93.56
308.421	85.56
308.651	85.56
308.881	83.56
309.111	93.56
309.341	108.56
309.571	93.56
309.8	86.56
310.03	99.56
310.26	81.56
310.49	81.56
310.72	107.56
310.949	111.56
311.179	101.56
311.409	86.56
311.639	75.56
311.868	90.56
312.098	93.56
312.328	101.56
312.557	94.56
312.787	105.56
313.017	99.56
313.246	91.56
313.476	81.56
313.706	93.56
313.935	100.56
314.165	92.56
314.394	96.56
314.624	97.56
314.853	87.56
315.083	99.56
315.312	94.56
315.542	93.56
315.771	86.56
316.001	73.56
316.23	81.56
316.46	87.56
316.689	96.56
316.919	87.56
317.148	103.56
317.377	121.56
317.607	89.56
317.836	86.56
318.065	92.56
318.295	87.56
318.524	80.56
318.753	87.56
318.983	100.56
319.212	100.56
319.441	101.56
319.67	112.56
319.9	95.56
320.129	108.56
320.358	79.56
320.587	88.56
320.816	88.56
321.046	102.56
321.275	80.56
321.504	98.56
321.733	93.56
321.962	107.56
322.191	102.56
322.42	108.56
322.649	119.56
322.878	120.56
323.108	124.56
323.337	128.56
323.566	123.56
323.795	157.56
324.024	228.56
324.253	439.56
324.482	873.56
324.71	1823.56
324.939	2409.56
325.168	854.56
325.397	256.56
325.626	161.56
325.855	119.56
326.084	128.56
326.313	127.56
326.542	175.56
326.77	230.56
326.999	491.56
327.228	1045.56
327.457	1889.56
327.686	1505.56
327.914	401.56
328.143	184.56
328.372	148.56
328.6	102.56
328.829	118.56
329.058	115.56
329.287	128.56
329.515	120.56
329.744	100.56
329.972	99.56
330.201	85.56
330.43	94.56
330.658	109.56
330.887	134.56
331.115	118.56
331.344	105.56
331.572	98.56
331.801	102.56
332.03	97.56
332.258	91.56
332.486	91.56
332.715	93.56
332.943	102.56
333.172	99.56
333.4	95.56
333.629	115.56
333.857	104.56
334.085	94.56
334.314	98.56
334.542	88.56
334.771	92.56
334.999	91.56
335.227	93.56
335.455	101.56
335.684	103.56
335.912	101.56
336.14	106.56
336.369	107.56
336.597	96.56
336.825	104.56
337.053	79.56
337.281	86.56
337.51	88.56
337.738	102.56
337.966	92.56
338.194	103.56
338.422	84.56
338.65	93.56
338.878	107.56
339.106	95.56
339.334	92.56
339.562	100.56
339.79	81.56
340.018	91.56
340.246	86.56
340.474	99.56
340.702	94.56
340.93	92.56
341.158	88.56
341.386	83.56
341.614	89.56
341.842	99.56
342.07	81.56
342.298	106.56
342.526	84.56
342.754	104.56
342.981	85.56
343.209	95.56
343.437	105.56
343.665	92.56
343.893	107.56
344.12	103.56
344.348	95.56
344.576	94.56
344.804	86.56
345.031	95.56
345.259	90.56
345.487	104.56
345.714	86.56
345.942	96.56
346.17	90.56
346.397	80.56
346.625	81.56
346.853	81.56
347.08	95.56
347.308	102.56
347.535	84.56
347.763	105.56
347.99	102.56
348.218	78.56
348.445	89.56
348.673	98.56
348.9	87.56
349.128	86.56
349.355	96.56
349.583	105.56
349.81	97.56
350.037	99.56
350.265	87.56
350.492	99.56
350.72	95.56
350.947	97.56
351.174	90.56
351.402	100.56
351.629	90.56
351.856	93.56
352.083	96.56
352.311	106.56
352.538	117.56
352.765	99.56
352.992	112.56
353.22	99.56
353.447	101.56
353.674	87.56
353.901	87.56
354.128	99.56
354.355	105.56
354.583	83.56
354.81	88.56
355.037	97.56
355.264	87.56
355.491	93.56
355.718	83.56
355.945	97.56
356.172	91.56
356.399	97.56
356.626	106.56
356.853	89.56
357.08	96.56
357.307	103.56
357.534	101.56
357.761	86.56
357.988	88.56
358.215	84.56
358.441	95.56
358.668	89.56
358.895	91.56
359.122	95.56
359.349	86.56
359.576	88.56
359.802	108.56
360.029	116.56
360.256	101.56
360.483	100.56
360.709	90.56
360.936	93.56
361.163	92.56
361.39	90.56
361.616	97.56
361.843	94.56
362.07	93.56
362.296	93.56
362.523	84.56
362.749	79.56
362.976	96.56
363.203	103.56
363.429	88.56
363.656	94.56
363.882	89.56
364.109	93.56
364.335	98.56
364.562	88.56
364.788	99.56
365.015	81.56
365.241	104.56
365.468	111.56
365.694	105.56
365.92	94.56
366.147	96.56
366.373	84.56
366.599	85.56
366.826	89.56
367.052	76.56
367.278	99.56
367.505	93.56
367.731	91.56
367.957	84.56
368.184	93.56
368.41	99.56
368.636	116.56
368.862	100.56
369.089	111.56
369.315	111.56
369.541	94.56
369.767	93.56
369.993	101.56
370.219	91.56
370.445	90.56
370.672	96.56
370.898	85.56
371.124	93.56
371.35	82.56
371.576	89.56
371.802	84.56
372.028	93.56
372.254	81.56
372.48	84.56
372.706	89.56
372.932	76.56
373.158	94.56
373.384	86.56
373.61	98.56
373.835	76.56
374.061	100.56
374.287	88.56
374.513	86.56
374.739	92.56
374.965	95.56
375.191	96.56
375.416	89.56
375.642	89.56
375.868	85.56
376.094	88.56
376.319	78.56
376.545	72.56
376.771	87.56
376.997	83.56
377.222	84.56
377.448	105.56
377.674	113.56
377.899	93.56
378.125	98.56
378.35	102.56
378.576	96.56
378.802	88.56
379.027	83.56
379.253	92.56
379.478	78.56
379.704	107.56
379.929	92.56
380.155	96.56
380.38	94.56
380.606	99.56
380.831	97.56
381.057	96.56
381.282	101.56
381.507	84.56
381.733	100.56
381.958	85.56
382.184	88.56
382.409	109.56
382.634	97.56
382.86	103.56
383.085	98.56
383.31	96.56
383.535	95.56
383.761	99.56
383.986	105.56
384.211	95.56
384.436	100.56
384.662	108.56
384.887	107.56
385.112	102.56
385.337	111.56
385.562	104.56
385.787	101.56
386.013	114.56
386.238	112.56
386.463	102.56
386.688	101.56
386.913	113.56
387.138	103.56
387.363	113.56
387.588	92.56
387.813	94.56
388.038	104.56
388.263	115.56
388.488	112.56
388.713	98.56
388.938	105.56
389.163	94.56
389.387	99.56
389.612	87.56
389.837	78.56
390.062	98.56
390.287	97.56
390.512	96.56
390.736	89.56
390.961	97.56
391.186	95.56
391.411	93.56
391.636	103.56
391.86	89.56
392.085	83.56
392.31	85.56
392.534	79.56
392.759	87.56
392.984	110.56
393.208	91.56
393.433	97.56
393.658	85.56
393.882	79.56
394.107	80.56
394.331	88.56
394.556	89.56
394.78	77.56
395.005	89.56
395.229	86.56
395.454	100.56
395.678	89.56
395.903	72.56
396.127	86.56
396.352	89.56
396.576	86.56
396.801	75.56
397.025	88.56
397.249	86.56
397.474	81.56
397.698	87.56
397.922	84.56
398.147	77.56
398.371	88.56
398.595	83.56
398.82	71.56
399.044	99.56
399.268	83.56
399.492	83.56
399.717	85.56
399.941	96.56
400.165	101.56
400.389	92.56
400.613	88.56
400.837	74.56
401.062	86.56
401.286	83.56
401.51	91.56
401.734	93.56
401.958	103.56
402.182	124.56
402.406	138.56
402.63	115.56
402.854	90.56
403.078	90.56
403.302	87.56
403.526	98.56
403.75	86.56
403.974	90.56
404.198	83.56
404.422	92.56
404.645	91.56
404.869	85.56
405.093	97.56
405.317	89.56
405.541	96.56
405.765	99.56
405.988	127.56
406.212	171.56
406.436	230.56
406.66	131.56
406.883	91.56
407.107	83.56
407.331	102.56
407.555	94.56
407.778	95.56
408.002	76.56
408.226	89.56
408.449	95.56
408.673	83.56
408.896	94.56
409.12	97.56
409.344	85.56
409.567	95.56
409.791	89.56
410.014	98.56
410.238	81.56
410.461	92.56
410.685	86.56
410.908	83.56
411.132	93.56
411.355	96.56
411.578	73.56
411.802	83.56
412.025	83.56
412.249	66.56
412.472	90.56
412.695	99.56
412.919	104.56
413.142	90.56
413.365	94.56
413.589	84.56
413.812	89.56
414.035	92.56
414.258	85.56
414.482	96.56
414.705	86.56
414.928	86.56
415.151	78.56
415.374	96.56
415.597	85.56
415.821	93.56
416.044	87.56
416.267	86.56
416.49	89.56
416.713	81.56
416.936	82.56
417.159	77.56
417.382	91.56
417.605	87.56
417.828	94.56
418.051	81.56
418.274	88.56
418.497	87.56
418.72	80.56
418.943	69.56
419.166	81.56
419.389	101.56
419.611	105.56
419.834	92.56
420.057	95.56
420.28	59.56
420.503	85.56
420.726	87.56
420.948	87.56
421.171	89.56
421.394	83.56
421.617	95.56
421.839	101.56
422.062	89.56
422.285	91.56
422.507	100.56
422.73	104.56
422.953	81.56
423.175	84.56
423.398	86.56
423.621	103.56
423.843	93.56
424.066	82.56
424.288	95.56
424.511	94.56
424.733	99.56
424.956	111.56
425.178	100.56
425.401	95.56
425.623	94.56
425.846	88.56
426.068	92.56
426.291	101.56
426.513	89.56
426.735	95.56
426.958	93.56
427.18	102.56
427.402	130.56
427.625	167.56
427.847	126.56
428.069	95.56
428.292	82.56
428.514	97.56
428.736	69.56
428.958	97.56
429.181	87.56
429.403	88.56
429.625	100.56
429.847	89.56
430.069	93.56
430.292	97.56
430.514	90.56
430.736	76.56
430.958	87.56
431.18	83.56
431.402	81.56
431.624	84.56
431.846	89.56
432.068	81.56
432.29	87.56
432.512	87.56
432.734	81.56
432.956	104.56
433.178	89.56
433.4	105.56
433.622	83.56
433.844	98.56
434.066	90.56
434.287	95.56
434.509	81.56
434.731	82.56
434.953	84.56
435.175	86.56
435.397	84.56
435.618	91.56
435.84	110.56
436.062	133.56
436.284	114.56
436.505	107.56
436.727	92.56
436.949	101.56
437.17	99.56
437.392	87.56
437.614	89.56
437.835	95.56
438.057	112.56
438.278	114.56
438.5	113.56
438.721	130.56
438.943	96.56
439.165	82.56
439.386	82.56
439.608	83.56
439.829	100.56
440.05	99.56
440.272	143.56
440.493	85.56
440.715	97.56
440.936	93.56
441.158	78.56
441.379	87.56
441.6	92.56
441.822	77.56
442.043	87.56
442.264	103.56
442.486	104.56
442.707	91.56
442.928	99.56
443.149	143.56
443.371	103.56
443.592	100.56
443.813	116.56
444.034	104.56
444.255	83.56
444.476	85.56
444.698	87.56
444.919	89.56
445.14	127.56
445.361	119.56
445.582	110.56
445.803	124.56
446.024	130.56
446.245	126.56
446.466	101.56
446.687	100.56
446.908	90.56
447.129	94.56
447.35	78.56
447.571	88.56
447.792	88.56
448.013	97.56
448.234	102.56
448.455	110.56
448.675	118.56
448.896	110.56
449.117	108.56
449.338	113.56
449.559	126.56
449.779	110.56
450	91.56
450.221	72.56
450.442	93.56
450.662	104.56
450.883	105.56
451.104	111.56
451.324	91.56
451.545	95.56
451.766	92.56
451.986	89.56
452.207	92.56
452.428	86.56
452.648	97.56
452.869	102.56
453.089	103.56
453.31	108.56
453.53	85.56
453.751	97.56
453.971	104.56
454.192	114.56
454.412	105.56
454.633	95.56
454.853	79.56
455.073	77.56
455.294	81.56
455.514	88.56
455.734	87.56
455.955	101.56
456.175	80.56
456.395	71.56
456.616	64.56
456.836	76.56
457.056	96.56
457.276	92.56
457.497	74.56
457.717	87.56
457.937	82.56
458.157	101.56
458.377	90.56
458.598	97.56
458.818	144.56
459.038	145.56
459.258	110.56
459.478	95.56
459.698	107.56
459.918	79.56
460.138	102.56
460.358	91.56
460.578	84.56
460.798	88.56
461.018	100.56
461.238	77.56
461.458	93.56
461.678	95.56
461.898	75.56
462.118	90.56
462.338	88.56
462.558	73.56
462.777	86.56
462.997	80.56
463.217	83.56
463.437	92.56
463.657	80.56
463.876	97.56
464.096	95.56
464.316	92.56
464.536	93.56
464.755	103.56
464.975	113.56
465.195	153.56
465.414	145.56
465.634	92.56
465.854	83.56
466.073	92.56
466.293	91.56
466.512	92.56
466.732	86.56
466.951	94.56
467.171	91.56
467.391	115.56
467.61	94.56
467.829	89.56
468.049	92.56
468.268	100.56
468.488	71.56
468.707	83.56
468.927	97.56
469.146	84.56
469.365	96.56
469.585	97.56
469.804	79.56
470.023	96.56
470.243	91.56
470.462	93.56
470.681	105.56
470.901	87.56
471.12	97.56
471.339	88.56
471.558	77.56
471.777	87.56
471.997	86.56
472.216	94.56
472.435	85.56
472.654	87.56
472.873	89.56
473.092	81.56
473.311	98.56
473.53	94.56
473.749	86.56
473.968	95.56
474.187	93.56
474.406	105.56
474.625	84.56
474.844	99.56
475.063	75.56
475.282	76.56
475.501	84.56
475.72	80.56
475.939	96.56
476.158	68.56
476.377	78.56
476.596	77.56
476.814	77.56
477.033	81.56
477.252	97.56
477.471	94.56
477.69	89.56
477.908	73.56
478.127	85.56
478.346	88.56
478.564	87.56
478.783	85.56
479.002	96.56
479.22	96.56
479.439	106.56
479.658	110.56
479.876	81.56
480.095	85.56
480.313	93.56
480.532	92.56
480.751	98.56
480.969	89.56
481.188	106.56
481.406	88.56
481.624	102.56
481.843	77.56
482.061	87.56
482.28	80.56
482.498	83.56
482.717	79.56
482.935	77.56
483.153	81.56
483.372	81.56
483.59	104.56
483.808	88.56
484.027	93.56
484.245	93.56
484.463	83.56
484.681	89.56
484.9	89.56
485.118	96.56
485.336	83.56
485.554	93.56
485.772	85.56
485.99	103.56
486.209	86.56
486.427	97.56
486.645	110.56
486.863	120.56
487.081	97.56
487.299	86.56
487.517	99.56
487.735	91.56
487.953	102.56
488.171	84.56
488.389	98.56
488.607	93.56
488.825	95.56
489.043	95.56
489.261	97.56
489.479	72.56
489.696	95.56
489.914	80.56
490.132	100.56
490.35	96.56
490.568	88.56
490.786	79.56
491.003	82.56
491.221	81.56
491.439	89.56
491.657	103.56
491.874	102.56
492.092	91.56
492.31	86.56
492.527	93.56
492.745	87.56
492.963	96.56
493.18	91.56
493.398	78.56
493.615	99.56
493.833	92.56
494.05	92.56
494.268	80.56
494.485	100.56
494.703	91.56
494.92	83.56
495.138	95.56
495.355	92.56
495.573	81.56
495.79	76.56
496.008	80.56
496.225	101.56
496.442	91.56
496.66	97.56
496.877	91.56
497.094	87.56
497.312	84.56
497.529	76.56
497.746	89.56
497.963	97.56
498.181	100.56
498.398	97.56
498.615	120.56
498.832	101.56
499.049	86.56
499.267	81.56
499.484	103.56
499.701	85.56
499.918	83.56
500.135	103.56
500.352	94.56
500.569	79.56
500.786	84.56
501.003	83.56
501.22	92.56
501.437	95.56
501.654	94.56
501.871	115.56
502.088	87.56
502.305	98.56
502.522	76.56
502.739	91.56
502.956	95.56
503.172	93.56
503.389	88.56
503.606	87.56
503.823	88.56
504.04	89.56
504.256	102.56
504.473	102.56
504.69	86.56
504.907	88.56
505.123	97.56
505.34	94.56
505.557	93.56
505.773	93.56
505.99	99.56
506.207	86.56
506.423	89.56
506.64	87.56
506.856	89.56
507.073	87.56
507.289	78.56
507.506	94.56
507.722	111.56
507.939	107.56
508.155	92.56
508.372	93.56
508.588	103.56
508.805	108.56
509.021	101.56
509.238	101.56
509.454	95.56
509.67	92.56
509.887	103.56
510.103	142.56
510.319	215.56
510.536	796.56
510.752	2514.56
510.968	694.56
511.184	159.56
511.401	107.56
511.617	80.56
511.833	100.56
512.049	85.56
512.265	85.56
512.481	92.56
512.698	88.56
512.914	98.56
513.13	80.56
513.346	78.56
513.562	105.56
513.778	87.56
513.994	84.56
514.21	91.56
514.426	116.56
514.642	131.56
514.858	119.56
515.074	160.56
515.29	433.56
515.506	1464.56
515.721	563.56
515.937	164.56
