Data from Uncirc_2003_H10_HRD10591_00009.txt Node
Date: Wed Jan 03 10:35:49 EST 2024
User: Yrep
Spectrometer: HR+D1059
Trigger mode: 1
Integration Time (sec): 1.000000E-1
Scans to average: 1
Electric dark correction enabled: true
Nonlinearity correction enabled: false
Boxcar width: 0
XAxis mode: Wavelengths
Number of Pixels in Spectrum: 2048
>>>>>Begin Spectral Data<<<<<
223.165	-19.62
223.4	-19.62
223.635	-19.62
223.869	-14.62
224.104	-16.62
224.338	-26.62
224.573	-10.62
224.808	1.38
225.042	-8.62
225.277	-2.62
225.511	-7.62
225.746	8.38
225.98	1.38
226.215	13.38
226.449	19.38
226.683	25.38
226.918	22.38
227.152	15.38
227.387	56.38
227.621	36.38
227.856	41.38
228.09	45.38
228.324	51.38
228.559	71.38
228.793	63.38
229.027	67.38
229.262	76.38
229.496	68.38
229.73	86.38
229.964	84.38
230.199	73.38
230.433	66.38
230.667	84.38
230.901	78.38
231.136	89.38
231.37	92.38
231.604	98.38
231.838	84.38
232.072	78.38
232.306	84.38
232.541	83.38
232.775	89.38
233.009	87.38
233.243	88.38
233.477	78.38
233.711	86.38
233.945	83.38
234.179	105.38
234.413	95.38
234.647	75.38
234.881	86.38
235.115	82.38
235.349	82.38
235.583	84.38
235.817	78.38
236.051	96.38
236.285	81.38
236.519	73.38
236.753	89.38
236.987	90.38
237.221	101.38
237.455	85.38
237.689	82.38
237.922	76.38
238.156	75.38
238.39	76.38
238.624	81.38
238.858	72.38
239.091	87.38
239.325	83.38
239.559	79.38
239.793	78.38
240.027	89.38
240.26	83.38
240.494	77.38
240.728	88.38
240.961	76.38
241.195	99.38
241.429	76.38
241.662	77.38
241.896	88.38
242.13	88.38
242.363	76.38
242.597	98.38
242.83	85.38
243.064	81.38
243.298	87.38
243.531	63.38
243.765	69.38
243.998	75.38
244.232	100.38
244.465	87.38
244.699	90.38
244.932	64.38
245.166	71.38
245.399	83.38
245.633	70.38
245.866	87.38
246.099	77.38
246.333	78.38
246.566	81.38
246.8	89.38
247.033	82.38
247.266	87.38
247.5	95.38
247.733	95.38
247.966	93.38
248.2	71.38
248.433	81.38
248.666	69.38
248.899	85.38
249.133	83.38
249.366	106.38
249.599	90.38
249.832	86.38
250.066	73.38
250.299	83.38
250.532	81.38
250.765	92.38
250.998	81.38
251.231	86.38
251.465	78.38
251.698	87.38
251.931	85.38
252.164	91.38
252.397	99.38
252.63	89.38
252.863	70.38
253.096	83.38
253.329	82.38
253.562	71.38
253.795	88.38
254.028	74.38
254.261	97.38
254.494	92.38
254.727	72.38
254.96	100.38
255.193	94.38
255.426	78.38
255.659	84.38
255.892	85.38
256.124	88.38
256.357	65.38
256.59	84.38
256.823	92.38
257.056	85.38
257.289	88.38
257.521	94.38
257.754	78.38
257.987	81.38
258.22	95.38
258.452	90.38
258.685	89.38
258.918	94.38
259.151	82.38
259.383	97.38
259.616	78.38
259.849	77.38
260.081	84.38
260.314	74.38
260.547	79.38
260.779	79.38
261.012	85.38
261.244	94.38
261.477	102.38
261.71	98.38
261.942	98.38
262.175	107.38
262.407	96.38
262.64	87.38
262.872	87.38
263.105	100.38
263.337	89.38
263.57	71.38
263.802	71.38
264.035	95.38
264.267	81.38
264.499	94.38
264.732	78.38
264.964	91.38
265.197	84.38
265.429	81.38
265.661	81.38
265.894	86.38
266.126	87.38
266.358	86.38
266.591	96.38
266.823	90.38
267.055	94.38
267.287	95.38
267.52	87.38
267.752	86.38
267.984	88.38
268.216	81.38
268.448	102.38
268.681	83.38
268.913	81.38
269.145	82.38
269.377	79.38
269.609	84.38
269.841	86.38
270.073	92.38
270.306	84.38
270.538	100.38
270.77	97.38
271.002	85.38
271.234	84.38
271.466	97.38
271.698	88.38
271.93	96.38
272.162	82.38
272.394	94.38
272.626	94.38
272.858	92.38
273.09	82.38
273.322	94.38
273.553	84.38
273.785	94.38
274.017	87.38
274.249	98.38
274.481	105.38
274.713	78.38
274.945	99.38
275.176	78.38
275.408	97.38
275.64	81.38
275.872	95.38
276.104	77.38
276.335	85.38
276.567	91.38
276.799	106.38
277.031	101.38
277.262	107.38
277.494	99.38
277.726	99.38
277.957	100.38
278.189	80.38
278.421	97.38
278.652	92.38
278.884	101.38
279.115	95.38
279.347	103.38
279.579	92.38
279.81	100.38
280.042	87.38
280.273	93.38
280.505	72.38
280.736	93.38
280.968	85.38
281.199	95.38
281.431	100.38
281.662	99.38
281.894	95.38
282.125	87.38
282.356	114.38
282.588	147.38
282.819	127.38
283.051	90.38
283.282	95.38
283.513	85.38
283.745	96.38
283.976	108.38
284.207	91.38
284.439	90.38
284.67	89.38
284.901	89.38
285.132	98.38
285.364	87.38
285.595	84.38
285.826	95.38
286.057	95.38
286.288	93.38
286.52	97.38
286.751	95.38
286.982	86.38
287.213	92.38
287.444	97.38
287.675	75.38
287.906	90.38
288.138	96.38
288.369	101.38
288.6	91.38
288.831	80.38
289.062	98.38
289.293	95.38
289.524	91.38
289.755	94.38
289.986	97.38
290.217	99.38
290.448	89.38
290.679	98.38
290.91	98.38
291.141	91.38
291.371	108.38
291.602	103.38
291.833	94.38
292.064	86.38
292.295	80.38
292.526	89.38
292.757	101.38
292.987	95.38
293.218	72.38
293.449	80.38
293.68	98.38
293.91	96.38
294.141	94.38
294.372	93.38
294.603	88.38
294.833	106.38
295.064	91.38
295.295	101.38
295.525	97.38
295.756	103.38
295.987	126.38
296.217	148.38
296.448	117.38
296.679	93.38
296.909	84.38
297.14	96.38
297.37	100.38
297.601	80.38
297.831	92.38
298.062	94.38
298.292	89.38
298.523	98.38
298.753	85.38
298.984	92.38
299.214	90.38
299.445	93.38
299.675	88.38
299.905	93.38
300.136	103.38
300.366	88.38
300.597	91.38
300.827	91.38
301.057	108.38
301.288	117.38
301.518	100.38
301.748	88.38
301.979	113.38
302.209	106.38
302.439	100.38
302.669	101.38
302.9	100.38
303.13	99.38
303.36	98.38
303.59	94.38
303.82	97.38
304.051	97.38
304.281	83.38
304.511	85.38
304.741	94.38
304.971	100.38
305.201	96.38
305.431	85.38
305.661	100.38
305.891	107.38
306.121	90.38
306.352	115.38
306.582	105.38
306.812	88.38
307.042	91.38
307.272	106.38
307.502	100.38
307.731	94.38
307.961	90.38
308.191	99.38
308.421	100.38
308.651	90.38
308.881	95.38
309.111	100.38
309.341	96.38
309.571	98.38
309.8	89.38
310.03	110.38
310.26	103.38
310.49	98.38
310.72	95.38
310.949	96.38
311.179	103.38
311.409	85.38
311.639	110.38
311.868	100.38
312.098	99.38
312.328	108.38
312.557	126.38
312.787	117.38
313.017	115.38
313.246	114.38
313.476	113.38
313.706	85.38
313.935	108.38
314.165	104.38
314.394	91.38
314.624	104.38
314.853	109.38
315.083	99.38
315.312	90.38
315.542	99.38
315.771	107.38
316.001	94.38
316.23	104.38
316.46	88.38
316.689	98.38
316.919	93.38
317.148	87.38
317.377	98.38
317.607	102.38
317.836	97.38
318.065	87.38
318.295	87.38
318.524	97.38
318.753	94.38
318.983	106.38
319.212	110.38
319.441	121.38
319.67	105.38
319.9	91.38
320.129	101.38
320.358	96.38
320.587	106.38
320.816	102.38
321.046	109.38
321.275	95.38
321.504	105.38
321.733	107.38
321.962	102.38
322.191	104.38
322.42	111.38
322.649	115.38
322.878	106.38
323.108	119.38
323.337	128.38
323.566	125.38
323.795	154.38
324.024	217.38
324.253	413.38
324.482	870.38
324.71	1769.38
324.939	2294.38
325.168	856.38
325.397	246.38
325.626	161.38
325.855	142.38
326.084	139.38
326.313	146.38
326.542	162.38
326.77	235.38
326.999	456.38
327.228	995.38
327.457	1790.38
327.686	1437.38
327.914	371.38
328.143	200.38
328.372	149.38
328.6	153.38
328.829	128.38
329.058	139.38
329.287	123.38
329.515	114.38
329.744	100.38
329.972	104.38
330.201	94.38
330.43	105.38
330.658	114.38
330.887	141.38
331.115	116.38
331.344	89.38
331.572	109.38
331.801	117.38
332.03	95.38
332.258	99.38
332.486	99.38
332.715	116.38
332.943	103.38
333.172	93.38
333.4	110.38
333.629	123.38
333.857	125.38
334.085	110.38
334.314	112.38
334.542	95.38
334.771	97.38
334.999	95.38
335.227	103.38
335.455	94.38
335.684	110.38
335.912	105.38
336.14	100.38
336.369	108.38
336.597	100.38
336.825	100.38
337.053	124.38
337.281	97.38
337.51	113.38
337.738	86.38
337.966	110.38
338.194	99.38
338.422	98.38
338.65	115.38
338.878	105.38
339.106	95.38
339.334	90.38
339.562	89.38
339.79	95.38
340.018	111.38
340.246	117.38
340.474	95.38
340.702	93.38
340.93	93.38
341.158	107.38
341.386	87.38
341.614	110.38
341.842	91.38
342.07	85.38
342.298	97.38
342.526	88.38
342.754	94.38
342.981	113.38
343.209	97.38
343.437	94.38
343.665	88.38
343.893	102.38
344.12	101.38
344.348	106.38
344.576	98.38
344.804	84.38
345.031	106.38
345.259	109.38
345.487	99.38
345.714	87.38
345.942	103.38
346.17	101.38
346.397	98.38
346.625	91.38
346.853	98.38
347.08	88.38
347.308	93.38
347.535	98.38
347.763	105.38
347.99	101.38
348.218	118.38
348.445	114.38
348.673	114.38
348.9	116.38
349.128	103.38
349.355	108.38
349.583	97.38
349.81	105.38
350.037	99.38
350.265	110.38
350.492	102.38
350.72	89.38
350.947	109.38
351.174	116.38
351.402	113.38
351.629	99.38
351.856	101.38
352.083	107.38
352.311	102.38
352.538	120.38
352.765	106.38
352.992	120.38
353.22	105.38
353.447	111.38
353.674	103.38
353.901	108.38
354.128	92.38
354.355	95.38
354.583	106.38
354.81	88.38
355.037	111.38
355.264	109.38
355.491	91.38
355.718	92.38
355.945	101.38
356.172	95.38
356.399	103.38
356.626	104.38
356.853	104.38
357.08	103.38
357.307	103.38
357.534	97.38
357.761	92.38
357.988	97.38
358.215	103.38
358.441	98.38
358.668	100.38
358.895	91.38
359.122	108.38
359.349	102.38
359.576	100.38
359.802	95.38
360.029	121.38
360.256	90.38
360.483	86.38
360.709	85.38
360.936	95.38
361.163	106.38
361.39	88.38
361.616	117.38
361.843	94.38
362.07	97.38
362.296	110.38
362.523	94.38
362.749	87.38
362.976	89.38
363.203	88.38
363.429	108.38
363.656	94.38
363.882	97.38
364.109	109.38
364.335	107.38
364.562	88.38
364.788	102.38
365.015	111.38
365.241	108.38
365.468	117.38
365.694	108.38
365.92	109.38
366.147	95.38
366.373	85.38
366.599	85.38
366.826	86.38
367.052	86.38
367.278	94.38
367.505	83.38
367.731	93.38
367.957	95.38
368.184	87.38
368.41	99.38
368.636	121.38
368.862	130.38
369.089	122.38
369.315	97.38
369.541	103.38
369.767	101.38
369.993	85.38
370.219	99.38
370.445	101.38
370.672	89.38
370.898	95.38
371.124	84.38
371.35	105.38
371.576	99.38
371.802	92.38
372.028	98.38
372.254	105.38
372.48	97.38
372.706	101.38
372.932	100.38
373.158	99.38
373.384	92.38
373.61	102.38
373.835	86.38
374.061	93.38
374.287	85.38
374.513	97.38
374.739	100.38
374.965	104.38
375.191	84.38
375.416	88.38
375.642	93.38
375.868	90.38
376.094	104.38
376.319	85.38
376.545	102.38
376.771	91.38
376.997	105.38
377.222	100.38
377.448	92.38
377.674	95.38
377.899	106.38
378.125	100.38
378.35	91.38
378.576	93.38
378.802	91.38
379.027	85.38
379.253	100.38
379.478	86.38
379.704	97.38
379.929	100.38
380.155	105.38
380.38	107.38
380.606	108.38
380.831	100.38
381.057	106.38
381.282	109.38
381.507	90.38
381.733	113.38
381.958	111.38
382.184	114.38
382.409	100.38
382.634	113.38
382.86	123.38
383.085	119.38
383.31	104.38
383.535	115.38
383.761	94.38
383.986	92.38
384.211	99.38
384.436	108.38
384.662	92.38
384.887	102.38
385.112	114.38
385.337	116.38
385.562	115.38
385.787	105.38
386.013	117.38
386.238	134.38
386.463	112.38
386.688	101.38
386.913	111.38
387.138	122.38
387.363	120.38
387.588	114.38
387.813	92.38
388.038	108.38
388.263	130.38
388.488	131.38
388.713	108.38
388.938	95.38
389.163	107.38
389.387	91.38
389.612	93.38
389.837	97.38
390.062	93.38
390.287	98.38
390.512	109.38
390.736	93.38
390.961	93.38
391.186	103.38
391.411	97.38
391.636	99.38
391.86	91.38
392.085	82.38
392.31	106.38
392.534	111.38
392.759	100.38
392.984	97.38
393.208	107.38
393.433	99.38
393.658	97.38
393.882	88.38
394.107	86.38
394.331	101.38
394.556	87.38
394.78	103.38
395.005	90.38
395.229	97.38
395.454	94.38
395.678	86.38
395.903	93.38
396.127	85.38
396.352	89.38
396.576	86.38
396.801	92.38
397.025	98.38
397.249	76.38
397.474	108.38
397.698	81.38
397.922	104.38
398.147	84.38
398.371	90.38
398.595	97.38
398.82	92.38
399.044	92.38
399.268	87.38
399.492	99.38
399.717	94.38
399.941	71.38
400.165	113.38
400.389	92.38
400.613	75.38
400.837	101.38
401.062	83.38
401.286	87.38
401.51	100.38
401.734	90.38
401.958	106.38
402.182	120.38
402.406	159.38
402.63	137.38
402.854	114.38
403.078	72.38
403.302	84.38
403.526	94.38
403.75	87.38
403.974	96.38
404.198	96.38
404.422	94.38
404.645	89.38
404.869	94.38
405.093	98.38
405.317	104.38
405.541	98.38
405.765	105.38
405.988	123.38
406.212	155.38
406.436	213.38
406.66	146.38
406.883	98.38
407.107	87.38
407.331	91.38
407.555	99.38
407.778	99.38
408.002	98.38
408.226	86.38
408.449	96.38
408.673	92.38
408.896	80.38
409.12	86.38
409.344	95.38
409.567	100.38
409.791	100.38
410.014	88.38
410.238	105.38
410.461	93.38
410.685	92.38
410.908	98.38
411.132	114.38
411.355	117.38
411.578	99.38
411.802	81.38
412.025	89.38
412.249	95.38
412.472	100.38
412.695	95.38
412.919	89.38
413.142	85.38
413.365	99.38
413.589	93.38
413.812	95.38
414.035	87.38
414.258	97.38
414.482	98.38
414.705	94.38
414.928	86.38
415.151	95.38
415.374	82.38
415.597	92.38
415.821	85.38
416.044	97.38
416.267	86.38
416.49	93.38
416.713	94.38
416.936	104.38
417.159	92.38
417.382	93.38
417.605	95.38
417.828	99.38
418.051	88.38
418.274	93.38
418.497	85.38
418.72	87.38
418.943	79.38
419.166	94.38
419.389	79.38
419.611	94.38
419.834	101.38
420.057	88.38
420.28	88.38
420.503	96.38
420.726	83.38
420.948	98.38
421.171	89.38
421.394	89.38
421.617	84.38
421.839	98.38
422.062	95.38
422.285	92.38
422.507	88.38
422.73	112.38
422.953	99.38
423.175	100.38
423.398	93.38
423.621	101.38
423.843	88.38
424.066	91.38
424.288	111.38
424.511	95.38
424.733	101.38
424.956	106.38
425.178	89.38
425.401	107.38
425.623	106.38
425.846	97.38
426.068	97.38
426.291	91.38
426.513	98.38
426.735	92.38
426.958	94.38
427.18	98.38
427.402	138.38
427.625	157.38
427.847	115.38
428.069	109.38
428.292	94.38
428.514	89.38
428.736	80.38
428.958	87.38
429.181	88.38
429.403	85.38
429.625	101.38
429.847	88.38
430.069	113.38
430.292	78.38
430.514	67.38
430.736	91.38
430.958	89.38
431.18	97.38
431.402	95.38
431.624	90.38
431.846	92.38
432.068	86.38
432.29	83.38
432.512	85.38
432.734	79.38
432.956	101.38
433.178	109.38
433.4	97.38
433.622	93.38
433.844	89.38
434.066	93.38
434.287	87.38
434.509	86.38
434.731	97.38
434.953	86.38
435.175	86.38
435.397	105.38
435.618	116.38
435.84	104.38
436.062	109.38
436.284	119.38
436.505	107.38
436.727	109.38
436.949	90.38
437.17	86.38
437.392	95.38
437.614	95.38
437.835	103.38
438.057	108.38
438.278	108.38
438.5	109.38
438.721	107.38
438.943	109.38
439.165	93.38
439.386	89.38
439.608	102.38
439.829	110.38
440.05	116.38
440.272	134.38
440.493	95.38
440.715	95.38
440.936	94.38
441.158	110.38
441.379	82.38
441.6	102.38
441.822	84.38
442.043	96.38
442.264	104.38
442.486	101.38
442.707	89.38
442.928	99.38
443.149	119.38
443.371	126.38
443.592	107.38
443.813	114.38
444.034	114.38
444.255	96.38
444.476	95.38
444.698	87.38
444.919	94.38
445.14	141.38
445.361	129.38
445.582	135.38
445.803	132.38
446.024	127.38
446.245	134.38
446.466	109.38
446.687	107.38
446.908	102.38
447.129	100.38
447.35	89.38
447.571	90.38
447.792	90.38
448.013	123.38
448.234	107.38
448.455	123.38
448.675	110.38
448.896	126.38
449.117	115.38
449.338	106.38
449.559	129.38
449.779	135.38
450	94.38
450.221	94.38
450.442	86.38
450.662	92.38
450.883	107.38
451.104	105.38
451.324	98.38
451.545	99.38
451.766	90.38
451.986	84.38
452.207	100.38
452.428	92.38
452.648	111.38
452.869	115.38
453.089	122.38
453.31	112.38
453.53	83.38
453.751	90.38
453.971	106.38
454.192	108.38
454.412	103.38
454.633	92.38
454.853	77.38
455.073	96.38
455.294	104.38
455.514	94.38
455.734	95.38
455.955	89.38
456.175	81.38
456.395	101.38
456.616	91.38
456.836	89.38
457.056	88.38
457.276	86.38
457.497	94.38
457.717	94.38
457.937	95.38
458.157	101.38
458.377	92.38
458.598	101.38
458.818	123.38
459.038	145.38
459.258	117.38
459.478	93.38
459.698	87.38
459.918	99.38
460.138	85.38
460.358	93.38
460.578	91.38
460.798	91.38
461.018	100.38
461.238	90.38
461.458	98.38
461.678	90.38
461.898	101.38
462.118	97.38
462.338	95.38
462.558	96.38
462.777	85.38
462.997	91.38
463.217	92.38
463.437	89.38
463.657	92.38
463.876	102.38
464.096	100.38
464.316	86.38
464.536	94.38
464.755	86.38
464.975	121.38
465.195	160.38
465.414	150.38
465.634	96.38
465.854	92.38
466.073	91.38
466.293	86.38
466.512	81.38
466.732	98.38
466.951	79.38
467.171	99.38
467.391	112.38
467.61	111.38
467.829	101.38
468.049	94.38
468.268	77.38
468.488	96.38
468.707	85.38
468.927	87.38
469.146	99.38
469.365	95.38
469.585	96.38
469.804	93.38
470.023	91.38
470.243	95.38
470.462	102.38
470.681	120.38
470.901	93.38
471.12	77.38
471.339	94.38
471.558	89.38
471.777	86.38
471.997	97.38
472.216	97.38
472.435	77.38
472.654	89.38
472.873	93.38
473.092	72.38
473.311	88.38
473.53	95.38
473.749	89.38
473.968	92.38
474.187	93.38
474.406	95.38
474.625	103.38
474.844	89.38
475.063	84.38
475.282	93.38
475.501	91.38
475.72	97.38
475.939	88.38
476.158	96.38
476.377	78.38
476.596	91.38
476.814	82.38
477.033	82.38
477.252	96.38
477.471	98.38
477.69	84.38
477.908	98.38
478.127	87.38
478.346	84.38
478.564	99.38
478.783	93.38
479.002	86.38
479.22	99.38
479.439	104.38
479.658	106.38
479.876	95.38
480.095	86.38
480.313	105.38
480.532	81.38
480.751	110.38
480.969	93.38
481.188	101.38
481.406	110.38
481.624	90.38
481.843	92.38
482.061	82.38
482.28	100.38
482.498	102.38
482.717	82.38
482.935	88.38
483.153	90.38
483.372	91.38
483.59	108.38
483.808	106.38
484.027	94.38
484.245	93.38
484.463	84.38
484.681	98.38
484.9	93.38
485.118	81.38
485.336	84.38
485.554	96.38
485.772	97.38
485.99	102.38
486.209	107.38
486.427	108.38
486.645	98.38
486.863	122.38
487.081	98.38
487.299	99.38
487.517	98.38
487.735	82.38
487.953	94.38
488.171	100.38
488.389	105.38
488.607	107.38
488.825	93.38
489.043	90.38
489.261	100.38
489.479	96.38
489.696	99.38
489.914	112.38
490.132	95.38
490.35	86.38
490.568	91.38
490.786	110.38
491.003	110.38
491.221	103.38
491.439	95.38
491.657	102.38
491.874	104.38
492.092	85.38
492.31	95.38
492.527	87.38
492.745	97.38
492.963	90.38
493.18	103.38
493.398	91.38
493.615	103.38
493.833	98.38
494.05	89.38
494.268	103.38
494.485	92.38
494.703	95.38
494.92	98.38
495.138	102.38
495.355	95.38
495.573	98.38
495.79	74.38
496.008	85.38
496.225	98.38
496.442	85.38
496.66	91.38
496.877	93.38
497.094	87.38
497.312	85.38
497.529	96.38
497.746	97.38
497.963	103.38
498.181	97.38
498.398	105.38
498.615	107.38
498.832	109.38
499.049	93.38
499.267	86.38
499.484	96.38
499.701	93.38
499.918	88.38
500.135	83.38
500.352	90.38
500.569	102.38
500.786	89.38
501.003	103.38
501.22	110.38
501.437	105.38
501.654	93.38
501.871	94.38
502.088	94.38
502.305	101.38
502.522	96.38
502.739	92.38
502.956	98.38
503.172	97.38
503.389	93.38
503.606	102.38
503.823	102.38
504.04	100.38
504.256	96.38
504.473	102.38
504.69	95.38
504.907	106.38
505.123	92.38
505.34	81.38
505.557	84.38
505.773	95.38
505.99	103.38
506.207	95.38
506.423	93.38
506.64	92.38
506.856	110.38
507.073	95.38
507.289	114.38
507.506	90.38
507.722	112.38
507.939	121.38
508.155	93.38
508.372	99.38
508.588	92.38
508.805	100.38
509.021	103.38
509.238	105.38
509.454	90.38
509.67	109.38
509.887	125.38
510.103	138.38
510.319	225.38
510.536	805.38
510.752	2463.38
510.968	676.38
511.184	161.38
511.401	109.38
511.617	94.38
511.833	94.38
512.049	92.38
512.265	78.38
512.481	92.38
512.698	89.38
512.914	81.38
513.13	95.38
513.346	93.38
513.562	110.38
513.778	99.38
