Data from Uncirc_2003_H10_HRD10591_00035.txt Node
Date: Wed Jan 03 10:35:54 EST 2024
User: Yrep
Spectrometer: HR+D1059
Trigger mode: 1
Integration Time (sec): 1.000000E-1
Scans to average: 1
Electric dark correction enabled: true
Nonlinearity correction enabled: false
Boxcar width: 0
XAxis mode: Wavelengths
Number of Pixels in Spectrum: 2048
>>>>>Begin Spectral Data<<<<<
223.165	-14.44
223.4	-14.44
223.635	-14.44
223.869	-26.44
224.104	-22.44
224.338	-32.44
224.573	-14.44
224.808	-8.44
225.042	-10.44
225.277	-3.44
225.511	1.56
225.746	0.56
225.98	3.56
226.215	22.56
226.449	33.56
226.683	27.56
226.918	20.56
227.152	22.56
227.387	30.56
227.621	35.56
227.856	40.56
228.09	52.56
228.324	34.56
228.559	49.56
228.793	163.56
229.027	452.56
229.262	539.56
229.496	633.56
229.73	819.56
229.964	882.56
230.199	578.56
230.433	506.56
230.667	472.56
230.901	482.56
231.136	448.56
231.37	459.56
231.604	449.56
231.838	465.56
232.072	460.56
232.306	491.56
232.541	468.56
232.775	482.56
233.009	472.56
233.243	488.56
233.477	479.56
233.711	459.56
233.945	520.56
234.179	514.56
234.413	518.56
234.647	517.56
234.881	515.56
235.115	542.56
235.349	544.56
235.583	572.56
235.817	608.56
236.051	659.56
236.285	620.56
236.519	634.56
236.753	735.56
236.987	938.56
237.221	1450.56
237.455	1549.56
237.689	937.56
237.922	773.56
238.156	733.56
238.39	680.56
238.624	643.56
238.858	666.56
239.091	667.56
239.325	665.56
239.559	684.56
239.793	719.56
240.027	777.56
240.26	939.56
240.494	1026.56
240.728	1011.56
240.961	977.56
241.195	830.56
241.429	796.56
241.662	806.56
241.896	774.56
242.13	793.56
242.363	775.56
242.597	818.56
242.83	834.56
243.064	844.56
243.298	839.56
243.531	835.56
243.765	827.56
243.998	860.56
244.232	876.56
244.465	888.56
244.699	904.56
244.932	922.56
245.166	930.56
245.399	893.56
245.633	930.56
245.866	918.56
246.099	949.56
246.333	963.56
246.566	982.56
246.8	964.56
247.033	1001.56
247.266	1070.56
247.5	1114.56
247.733	1176.56
247.966	1169.56
248.2	1172.56
248.433	1176.56
248.666	1268.56
248.899	1407.56
249.133	1482.56
249.366	1508.56
249.599	1335.56
249.832	1204.56
250.066	1214.56
250.299	1248.56
250.532	1361.56
250.765	1542.56
250.998	1787.56
251.231	1696.56
251.465	1516.56
251.698	1458.56
251.931	1421.56
252.164	1409.56
252.397	1460.56
252.63	1466.56
252.863	1606.56
253.096	1744.56
253.329	1822.56
253.562	1720.56
253.795	1634.56
254.028	1634.56
254.261	1669.56
254.494	1901.56
254.727	2287.56
254.96	2406.56
255.193	2007.56
255.426	1798.56
255.659	1627.56
255.892	1629.56
256.124	1550.56
256.357	1542.56
256.59	1560.56
256.823	1509.56
257.056	1539.56
257.289	1558.56
257.521	1544.56
257.754	1575.56
257.987	1556.56
258.22	1569.56
258.452	1520.56
258.685	1578.56
258.918	1579.56
259.151	1638.56
259.383	1715.56
259.616	1753.56
259.849	1798.56
260.081	1966.56
260.314	2180.56
260.547	2098.56
260.779	1887.56
261.012	1803.56
261.244	1746.56
261.477	1717.56
261.71	1720.56
261.942	1755.56
262.175	1792.56
262.407	1716.56
262.64	1675.56
262.872	1663.56
263.105	1695.56
263.337	1666.56
263.57	1693.56
263.802	1705.56
264.035	1637.56
264.267	1681.56
264.499	1679.56
264.732	1716.56
264.964	1696.56
265.197	1701.56
265.429	1710.56
265.661	1761.56
265.894	1735.56
266.126	1788.56
266.358	1765.56
266.591	1802.56
266.823	1877.56
267.055	1943.56
267.287	1924.56
267.52	1885.56
267.752	1873.56
267.984	1903.56
268.216	1893.56
268.448	1915.56
268.681	2053.56
268.913	2184.56
269.145	2432.56
269.377	2480.56
269.609	2375.56
269.841	2350.56
270.073	2470.56
270.306	2783.56
270.538	2951.56
270.77	2762.56
271.002	2584.56
271.234	2555.56
271.466	2703.56
271.698	2834.56
271.93	2835.56
272.162	2856.56
272.394	2737.56
272.626	2574.56
272.858	2427.56
273.09	2356.56
273.322	2352.56
273.553	2268.56
273.785	2242.56
274.017	2309.56
274.249	2230.56
274.481	2301.56
274.713	2299.56
274.945	2322.56
275.176	2297.56
275.408	2252.56
275.64	2256.56
275.872	2295.56
276.104	2304.56
276.335	2347.56
276.567	2389.56
276.799	2588.56
277.031	2886.56
277.262	2947.56
277.494	2855.56
277.726	2672.56
277.957	2496.56
278.189	2494.56
278.421	2438.56
278.652	2388.56
278.884	2409.56
279.115	2378.56
279.347	2384.56
279.579	2385.56
279.81	2391.56
280.042	2364.56
280.273	2414.56
280.505	2389.56
280.736	2423.56
280.968	2408.56
281.199	2430.56
281.431	2421.56
281.662	2472.56
281.894	2460.56
282.125	2567.56
282.356	2675.56
282.588	2854.56
282.819	2716.56
283.051	2554.56
283.282	2526.56
283.513	2564.56
283.745	2654.56
283.976	2655.56
284.207	2667.56
284.439	2675.56
284.67	2609.56
284.901	2609.56
285.132	2632.56
285.364	2677.56
285.595	2638.56
285.826	2648.56
286.057	2647.56
286.288	2641.56
286.52	2648.56
286.751	2703.56
286.982	2714.56
287.213	2732.56
287.444	2753.56
287.675	2876.56
287.906	2908.56
288.138	2967.56
288.369	2991.56
288.6	2934.56
288.831	2904.56
289.062	2833.56
289.293	2846.56
289.524	2825.56
289.755	2774.56
289.986	2834.56
290.217	2827.56
290.448	2828.56
290.679	2811.56
290.91	2846.56
291.141	2805.56
291.371	2834.56
291.602	2804.56
291.833	2795.56
292.064	2810.56
292.295	2844.56
292.526	2857.56
292.757	2883.56
292.987	2778.56
293.218	2834.56
293.449	2899.56
293.68	2856.56
293.91	2895.56
294.141	2860.56
294.372	2832.56
294.603	2900.56
294.833	2940.56
295.064	2903.56
295.295	2888.56
295.525	2930.56
295.756	2963.56
295.987	3031.56
296.217	3237.56
296.448	3169.56
296.679	3011.56
296.909	2963.56
297.14	2974.56
297.37	3075.56
297.601	3104.56
297.831	3089.56
298.062	3034.56
298.292	3099.56
298.523	3147.56
298.753	3189.56
298.984	3142.56
299.214	3138.56
299.445	3107.56
299.675	3088.56
299.905	3180.56
300.136	3162.56
300.366	3151.56
300.597	3225.56
300.827	3316.56
301.057	3332.56
301.288	3438.56
301.518	3332.56
301.748	3347.56
301.979	3421.56
302.209	3379.56
302.439	3425.56
302.669	3370.56
302.9	3310.56
303.13	3355.56
303.36	3357.56
303.59	3402.56
303.82	3394.56
304.051	3383.56
304.281	3307.56
304.511	3265.56
304.741	3327.56
304.971	3308.56
305.201	3334.56
305.431	3306.56
305.661	3313.56
305.891	3292.56
306.121	3276.56
306.352	3375.56
306.582	3296.56
306.812	3242.56
307.042	3277.56
307.272	3266.56
307.502	3309.56
307.731	3294.56
307.961	3295.56
308.191	3287.56
308.421	3264.56
308.651	3341.56
308.881	3304.56
309.111	3326.56
309.341	3340.56
309.571	3468.56
309.8	3511.56
310.03	3586.56
310.26	3593.56
310.49	3560.56
310.72	3651.56
310.949	3799.56
311.179	3766.56
311.409	3596.56
311.639	3672.56
311.868	3668.56
312.098	3770.56
312.328	3808.56
312.557	3923.56
312.787	4011.56
313.017	3842.56
313.246	3812.56
313.476	3746.56
313.706	3774.56
313.935	3841.56
314.165	3947.56
314.394	4001.56
314.624	3958.56
314.853	3864.56
315.083	3842.56
315.312	3794.56
315.542	3755.56
315.771	3774.56
316.001	3676.56
316.23	3685.56
316.46	3661.56
316.689	3755.56
316.919	3767.56
317.148	3878.56
317.377	3814.56
317.607	3796.56
317.836	3687.56
318.065	3686.56
318.295	3681.56
318.524	3740.56
318.753	3691.56
318.983	3666.56
319.212	3702.56
319.441	3767.56
319.67	3840.56
319.9	3726.56
320.129	3642.56
320.358	3749.56
320.587	3776.56
320.816	3812.56
321.046	3866.56
321.275	3838.56
321.504	3796.56
321.733	3869.56
321.962	3976.56
322.191	4032.56
322.42	4143.56
322.649	4200.56
322.878	4354.56
323.108	4358.56
323.337	4610.56
323.566	4714.56
323.795	5052.56
324.024	5702.56
324.253	7419.56
324.482	11262.56
324.71	15498.56
324.939	15612.56
325.168	13410.56
325.397	6701.56
325.626	5396.56
325.855	4894.56
326.084	4739.56
326.313	4817.56
326.542	4938.56
326.77	5618.56
326.999	7188.56
327.228	10576.56
327.457	14626.56
327.686	14045.56
327.914	7542.56
328.143	5927.56
328.372	5530.56
328.6	5281.56
328.829	5283.56
329.058	5452.56
329.287	5356.56
329.515	5017.56
329.744	4772.56
329.972	4801.56
330.201	4928.56
330.43	5103.56
330.658	5457.56
330.887	5735.56
331.115	5444.56
331.344	5035.56
331.572	4922.56
331.801	5030.56
332.03	4963.56
332.258	4978.56
332.486	4999.56
332.715	5046.56
332.943	5215.56
333.172	5348.56
333.4	5465.56
333.629	5504.56
333.857	5577.56
334.085	5620.56
334.314	5440.56
334.542	5354.56
334.771	5321.56
334.999	5311.56
335.227	5182.56
335.455	5158.56
335.684	5050.56
335.912	5062.56
336.14	4963.56
336.369	5024.56
336.597	5005.56
336.825	4968.56
337.053	4883.56
337.281	4828.56
337.51	4782.56
337.738	4791.56
337.966	4750.56
338.194	4719.56
338.422	4670.56
338.65	4593.56
338.878	4588.56
339.106	4559.56
339.334	4512.56
339.562	4498.56
339.79	4403.56
340.018	4471.56
340.246	4447.56
340.474	4431.56
340.702	4460.56
340.93	4443.56
341.158	4449.56
341.386	4415.56
341.614	4422.56
341.842	4347.56
342.07	4368.56
342.298	4373.56
342.526	4358.56
342.754	4318.56
342.981	4371.56
343.209	4501.56
343.437	4634.56
343.665	4961.56
343.893	5158.56
344.12	5247.56
344.348	4998.56
344.576	4816.56
344.804	4742.56
345.031	4683.56
345.259	4630.56
345.487	4512.56
345.714	4396.56
345.942	4321.56
346.17	4280.56
346.397	4216.56
346.625	4261.56
346.853	4197.56
347.08	4223.56
347.308	4270.56
347.535	4296.56
347.763	4368.56
347.99	4331.56
348.218	4307.56
348.445	4386.56
348.673	4272.56
348.9	4186.56
349.128	4203.56
349.355	4071.56
349.583	4094.56
349.81	4118.56
350.037	4102.56
350.265	4058.56
350.492	4105.56
350.72	4127.56
350.947	4130.56
351.174	4207.56
351.402	4271.56
351.629	4197.56
351.856	4213.56
352.083	4309.56
352.311	4286.56
352.538	4353.56
352.765	4247.56
352.992	4193.56
353.22	4114.56
353.447	4136.56
353.674	4068.56
353.901	3985.56
354.128	3973.56
354.355	4041.56
354.583	3961.56
354.81	4018.56
355.037	3988.56
355.264	4008.56
355.491	3938.56
355.718	3984.56
355.945	4049.56
356.172	3994.56
356.399	4011.56
356.626	4042.56
356.853	4010.56
357.08	3937.56
357.307	4007.56
357.534	4005.56
357.761	3971.56
357.988	4064.56
358.215	3955.56
358.441	3995.56
358.668	4012.56
358.895	4118.56
359.122	4121.56
359.349	4148.56
359.576	4263.56
359.802	4526.56
360.029	4646.56
360.256	4685.56
360.483	4501.56
360.709	4311.56
360.936	4230.56
361.163	4236.56
361.39	4253.56
361.616	4248.56
361.843	4261.56
362.07	4220.56
362.296	4273.56
362.523	4182.56
362.749	4180.56
362.976	4170.56
363.203	4134.56
363.429	4110.56
363.656	4107.56
363.882	4124.56
364.109	4112.56
364.335	4037.56
364.562	4072.56
364.788	4046.56
365.015	4085.56
365.241	4068.56
365.468	4128.56
365.694	4150.56
365.92	4123.56
366.147	4087.56
366.373	4102.56
366.599	4154.56
366.826	4044.56
367.052	4002.56
367.278	4042.56
367.505	4105.56
367.731	4161.56
367.957	4102.56
368.184	4121.56
368.41	4208.56
368.636	4307.56
368.862	4290.56
369.089	4199.56
369.315	4170.56
369.541	4132.56
369.767	4188.56
369.993	4222.56
370.219	4254.56
370.445	4230.56
370.672	4252.56
370.898	4277.56
371.124	4295.56
371.35	4322.56
371.576	4323.56
371.802	4291.56
372.028	4291.56
372.254	4310.56
372.48	4376.56
372.706	4461.56
372.932	4490.56
373.158	4462.56
373.384	4415.56
373.61	4378.56
373.835	4379.56
374.061	4376.56
374.287	4473.56
374.513	4539.56
374.739	4688.56
374.965	4792.56
375.191	4714.56
375.416	4593.56
375.642	4595.56
375.868	4538.56
376.094	4452.56
376.319	4367.56
376.545	4366.56
376.771	4401.56
376.997	4416.56
377.222	4379.56
377.448	4324.56
377.674	4330.56
377.899	4309.56
378.125	4277.56
378.35	4271.56
378.576	4360.56
378.802	4279.56
379.027	4302.56
379.253	4306.56
379.478	4311.56
379.704	4330.56
379.929	4364.56
380.155	4358.56
380.38	4314.56
380.606	4329.56
380.831	4367.56
381.057	4429.56
381.282	4378.56
381.507	4385.56
381.733	4494.56
381.958	4409.56
382.184	4476.56
382.409	4535.56
382.634	4548.56
382.86	4632.56
383.085	4682.56
383.31	4692.56
383.535	4782.56
383.761	4836.56
383.986	4945.56
384.211	4992.56
384.436	5081.56
384.662	5090.56
384.887	5175.56
385.112	5107.56
385.337	5251.56
385.562	5282.56
385.787	5274.56
386.013	5378.56
386.238	5426.56
386.463	5358.56
386.688	5342.56
386.913	5193.56
387.138	5225.56
387.363	5161.56
387.588	5156.56
387.813	5209.56
388.038	5197.56
388.263	5184.56
388.488	5233.56
388.713	5243.56
388.938	5212.56
389.163	5170.56
389.387	5125.56
389.612	5062.56
389.837	5187.56
390.062	5109.56
390.287	5155.56
390.512	5163.56
390.736	5159.56
390.961	5272.56
391.186	5322.56
391.411	5563.56
391.636	5654.56
391.86	5789.56
392.085	5822.56
392.31	5697.56
392.534	5602.56
392.759	5539.56
392.984	5454.56
393.208	5424.56
393.433	5395.56
393.658	5392.56
393.882	5391.56
394.107	5448.56
394.331	5527.56
394.556	5506.56
394.78	5570.56
395.005	5580.56
395.229	5648.56
395.454	5785.56
395.678	5875.56
395.903	5908.56
396.127	5938.56
396.352	5756.56
396.576	5453.56
396.801	5471.56
397.025	5462.56
397.249	5691.56
397.474	5852.56
397.698	5930.56
397.922	6057.56
398.147	6159.56
398.371	6174.56
398.595	6312.56
398.82	6685.56
399.044	7127.56
399.268	7896.56
399.492	9122.56
399.717	9702.56
399.941	9524.56
400.165	8861.56
400.389	8164.56
400.613	7423.56
400.837	6936.56
401.062	6743.56
401.286	6651.56
401.51	6606.56
401.734	6491.56
401.958	6718.56
402.182	6828.56
402.406	6947.56
402.63	6920.56
402.854	7022.56
403.078	7147.56
403.302	7237.56
403.526	7475.56
403.75	7419.56
403.974	7517.56
404.198	7468.56
404.422	7592.56
404.645	7424.56
404.869	7385.56
405.093	7586.56
405.317	7588.56
405.541	7665.56
405.765	7291.56
405.988	7298.56
406.212	7511.56
406.436	7722.56
406.66	7777.56
406.883	7725.56
407.107	8490.56
407.331	8969.56
407.555	9540.56
407.778	9141.56
408.002	8344.56
408.226	8023.56
408.449	7992.56
408.673	7753.56
408.896	7878.56
409.12	8119.56
409.344	7621.56
409.567	7209.56
409.791	7183.56
410.014	7152.56
410.238	7009.56
410.461	7098.56
410.685	7141.56
410.908	7181.56
411.132	7490.56
411.355	7484.56
411.578	7160.56
411.802	6804.56
412.025	6731.56
412.249	6821.56
412.472	6767.56
412.695	6639.56
412.919	6510.56
413.142	6501.56
413.365	6480.56
413.589	6473.56
413.812	6366.56
414.035	6262.56
414.258	6342.56
414.482	6413.56
414.705	6489.56
414.928	6454.56
415.151	6434.56
415.374	6457.56
415.597	6371.56
415.821	6186.56
416.044	6364.56
416.267	6323.56
416.49	6302.56
416.713	6273.56
416.936	6340.56
417.159	6403.56
417.382	6489.56
417.605	6352.56
417.828	6555.56
418.051	6722.56
418.274	6587.56
418.497	6528.56
418.72	6534.56
418.943	6465.56
419.166	6921.56
419.389	7299.56
419.611	7232.56
419.834	6942.56
420.057	6944.56
420.28	6700.56
420.503	6500.56
420.726	6567.56
420.948	6718.56
421.171	7249.56
421.394	7148.56
421.617	6619.56
421.839	6561.56
422.062	6665.56
422.285	6938.56
422.507	7535.56
422.73	8182.56
422.953	7489.56
423.175	7166.56
423.398	7123.56
423.621	7088.56
423.843	7480.56
424.066	7362.56
424.288	7256.56
424.511	7450.56
424.733	7944.56
424.956	8465.56
425.178	7840.56
425.401	8151.56
425.623	7966.56
425.846	6953.56
426.068	6748.56
426.291	6690.56
426.513	6664.56
426.735	6821.56
426.958	7286.56
427.18	8148.56
427.402	9321.56
427.625	9331.56
427.847	7849.56
428.069	6796.56
428.292	6512.56
428.514	6158.56
428.736	6041.56
428.958	6099.56
429.181	5810.56
429.403	5979.56
429.625	6140.56
429.847	6436.56
430.069	7056.56
430.292	6504.56
430.514	5929.56
430.736	5907.56
430.958	5788.56
431.18	5678.56
431.402	5679.56
431.624	5780.56
431.846	5803.56
432.068	5776.56
432.29	5901.56
432.512	5890.56
432.734	5924.56
432.956	5816.56
433.178	5886.56
433.4	5992.56
433.622	5781.56
433.844	5866.56
434.066	5846.56
434.287	5915.56
434.509	6231.56
434.731	6392.56
434.953	6611.56
435.175	6660.56
435.397	6883.56
435.618	6724.56
435.84	7110.56
436.062	8075.56
436.284	8061.56
436.505	6720.56
436.727	6370.56
436.949	6101.56
437.17	5960.56
437.392	5866.56
437.614	6147.56
437.835	6472.56
438.057	7627.56
438.278	8219.56
438.5	8138.56
438.721	9024.56
438.943	7930.56
439.165	6670.56
439.386	6404.56
439.608	6364.56
439.829	6515.56
440.05	6898.56
440.272	7273.56
440.493	6608.56
440.715	6318.56
440.936	6225.56
441.158	6298.56
441.379	6421.56
441.6	6759.56
441.822	6968.56
442.043	7520.56
442.264	8346.56
442.486	7974.56
442.707	7038.56
442.928	6915.56
443.149	7151.56
443.371	7391.56
443.592	7886.56
443.813	9040.56
444.034	8908.56
444.255	7707.56
444.476	7508.56
444.698	7636.56
444.919	7782.56
445.14	7568.56
445.361	7407.56
445.582	7552.56
445.803	8258.56
446.024	9060.56
446.245	8604.56
446.466	7680.56
446.687	6630.56
446.908	6316.56
447.129	5887.56
447.35	5774.56
447.571	5829.56
447.792	5590.56
448.013	5763.56
448.234	5973.56
448.455	6782.56
448.675	8029.56
448.896	8454.56
449.117	6968.56
449.338	7143.56
449.559	8605.56
449.779	8851.56
450	6736.56
450.221	5984.56
450.442	5586.56
450.662	5592.56
450.883	5675.56
451.104	5801.56
451.324	5682.56
451.545	5467.56
451.766	5312.56
451.986	5211.56
452.207	5152.56
452.428	5128.56
452.648	5162.56
452.869	5262.56
453.089	5354.56
453.31	5439.56
453.53	5198.56
453.751	5134.56
453.971	5207.56
454.192	5281.56
454.412	5008.56
454.633	5006.56
454.853	4960.56
455.073	5026.56
455.294	5484.56
455.514	6109.56
455.734	5512.56
455.955	4954.56
456.175	4823.56
456.395	4725.56
456.616	4730.56
456.836	4677.56
457.056	4675.56
457.276	4664.56
457.497	4782.56
457.717	4723.56
457.937	4840.56
458.157	4887.56
458.377	5016.56
458.598	5368.56
458.818	6065.56
459.038	7026.56
459.258	6867.56
459.478	6112.56
459.698	5889.56
459.918	5930.56
460.138	6184.56
460.358	6309.56
460.578	6467.56
460.798	6546.56
461.018	6464.56
461.238	6280.56
461.458	6336.56
461.678	6295.56
461.898	6495.56
462.118	6515.56
462.338	6854.56
462.558	6832.56
462.777	7227.56
462.997	7801.56
463.217	8203.56
463.437	7963.56
463.657	7422.56
463.876	7224.56
464.096	7331.56
464.316	7216.56
464.536	7326.56
464.755	7050.56
464.975	6964.56
465.195	7194.56
465.414	7297.56
465.634	6315.56
465.854	5993.56
466.073	5760.56
466.293	5519.56
466.512	5416.56
466.732	5294.56
466.951	5305.56
467.171	5249.56
467.391	5316.56
467.61	5450.56
467.829	5427.56
468.049	5270.56
468.268	5080.56
468.488	5048.56
468.707	5048.56
468.927	5034.56
469.146	5034.56
469.365	5156.56
469.585	5177.56
469.804	5392.56
470.023	5524.56
470.243	5454.56
470.462	5526.56
470.681	5687.56
470.901	5549.56
471.12	5438.56
471.339	5419.56
471.558	5362.56
471.777	5339.56
471.997	5145.56
472.216	5107.56
472.435	5144.56
472.654	4992.56
472.873	4973.56
473.092	5045.56
473.311	5046.56
473.53	5101.56
473.749	5233.56
473.968	5802.56
474.187	6921.56
474.406	6442.56
474.625	5411.56
474.844	5092.56
475.063	5124.56
475.282	5127.56
475.501	5154.56
475.72	5241.56
475.939	5268.56
476.158	5290.56
476.377	5284.56
476.596	5305.56
476.814	5366.56
477.033	5446.56
477.252	5506.56
477.471	5653.56
477.69	5756.56
477.908	5826.56
478.127	5971.56
478.346	6052.56
478.564	6136.56
478.783	6253.56
479.002	6371.56
479.22	6432.56
479.439	6570.56
479.658	6586.56
479.876	6687.56
480.095	6937.56
480.313	7365.56
480.532	7158.56
480.751	7001.56
480.969	6894.56
481.188	6820.56
481.406	6575.56
481.624	6390.56
481.843	6166.56
482.061	6160.56
482.28	5973.56
482.498	5973.56
482.717	5941.56
482.935	5929.56
483.153	5928.56
483.372	5921.56
483.59	5988.56
483.808	5976.56
484.027	5911.56
484.245	6011.56
484.463	6013.56
484.681	6107.56
484.9	6170.56
485.118	6231.56
485.336	6255.56
485.554	6318.56
485.772	6330.56
485.99	6407.56
486.209	6324.56
486.427	6434.56
486.645	6492.56
486.863	6577.56
487.081	6489.56
487.299	6472.56
487.517	6491.56
487.735	6423.56
