Data from Uncirc_2003_H10_HRD10591_00040.txt Node
Date: Wed Jan 03 10:35:55 EST 2024
User: Yrep
Spectrometer: HR+D1059
Trigger mode: 1
Integration Time (sec): 1.000000E-1
Scans to average: 1
Electric dark correction enabled: true
Nonlinearity correction enabled: false
Boxcar width: 0
XAxis mode: Wavelengths
Number of Pixels in Spectrum: 2048
>>>>>Begin Spectral Data<<<<<
223.165	-23.81
223.4	-23.81
223.635	-23.81
223.869	-18.81
224.104	-25.81
224.338	-6.81
224.573	-19.81
224.808	-12.81
225.042	-1.81
225.277	-1.81
225.511	5.19
225.746	13.19
225.98	5.19
226.215	-0.81
226.449	13.19
226.683	30.19
226.918	19.19
227.152	26.19
227.387	29.19
227.621	40.19
227.856	50.19
228.09	44.19
228.324	46.19
228.559	63.19
228.793	72.19
229.027	66.19
229.262	70.19
229.496	80.19
229.73	88.19
229.964	89.19
230.199	84.19
230.433	90.19
230.667	89.19
230.901	93.19
231.136	80.19
231.37	72.19
231.604	84.19
231.838	82.19
232.072	70.19
232.306	76.19
232.541	80.19
232.775	80.19
233.009	78.19
233.243	84.19
233.477	75.19
233.711	85.19
233.945	90.19
234.179	74.19
234.413	77.19
234.647	92.19
234.881	78.19
235.115	93.19
235.349	87.19
235.583	67.19
235.817	69.19
236.051	70.19
236.285	67.19
236.519	72.19
236.753	74.19
236.987	81.19
237.221	81.19
237.455	91.19
237.689	77.19
237.922	75.19
238.156	68.19
238.39	64.19
238.624	70.19
238.858	73.19
239.091	85.19
239.325	78.19
239.559	83.19
239.793	81.19
240.027	88.19
240.26	81.19
240.494	74.19
240.728	77.19
240.961	73.19
241.195	88.19
241.429	67.19
241.662	63.19
241.896	85.19
242.13	70.19
242.363	66.19
242.597	85.19
242.83	78.19
243.064	56.19
243.298	77.19
243.531	57.19
243.765	85.19
243.998	76.19
244.232	80.19
244.465	78.19
244.699	78.19
244.932	69.19
245.166	91.19
245.399	84.19
245.633	85.19
245.866	80.19
246.099	83.19
246.333	80.19
246.566	70.19
246.8	82.19
247.033	79.19
247.266	83.19
247.5	90.19
247.733	89.19
247.966	95.19
248.2	79.19
248.433	76.19
248.666	91.19
248.899	94.19
249.133	91.19
249.366	86.19
249.599	101.19
249.832	82.19
250.066	88.19
250.299	74.19
250.532	80.19
250.765	87.19
250.998	89.19
251.231	78.19
251.465	96.19
251.698	79.19
251.931	82.19
252.164	74.19
252.397	73.19
252.63	88.19
252.863	85.19
253.096	87.19
253.329	83.19
253.562	72.19
253.795	85.19
254.028	82.19
254.261	79.19
254.494	88.19
254.727	92.19
254.96	76.19
255.193	86.19
255.426	80.19
255.659	80.19
255.892	91.19
256.124	92.19
256.357	91.19
256.59	83.19
256.823	79.19
257.056	86.19
257.289	74.19
257.521	81.19
257.754	74.19
257.987	74.19
258.22	85.19
258.452	75.19
258.685	89.19
258.918	71.19
259.151	80.19
259.383	82.19
259.616	78.19
259.849	76.19
260.081	74.19
260.314	74.19
260.547	82.19
260.779	81.19
261.012	92.19
261.244	85.19
261.477	91.19
261.71	95.19
261.942	97.19
262.175	106.19
262.407	83.19
262.64	75.19
262.872	90.19
263.105	78.19
263.337	89.19
263.57	78.19
263.802	90.19
264.035	82.19
264.267	99.19
264.499	90.19
264.732	90.19
264.964	80.19
265.197	83.19
265.429	82.19
265.661	84.19
265.894	75.19
266.126	80.19
266.358	68.19
266.591	82.19
266.823	87.19
267.055	78.19
267.287	98.19
267.52	72.19
267.752	79.19
267.984	82.19
268.216	66.19
268.448	89.19
268.681	88.19
268.913	84.19
269.145	95.19
269.377	80.19
269.609	84.19
269.841	76.19
270.073	98.19
270.306	89.19
270.538	91.19
270.77	83.19
271.002	96.19
271.234	90.19
271.466	74.19
271.698	85.19
271.93	94.19
272.162	73.19
272.394	97.19
272.626	88.19
272.858	86.19
273.09	87.19
273.322	84.19
273.553	87.19
273.785	97.19
274.017	82.19
274.249	82.19
274.481	87.19
274.713	86.19
274.945	88.19
275.176	75.19
275.408	86.19
275.64	85.19
275.872	78.19
276.104	85.19
276.335	99.19
276.567	101.19
276.799	92.19
277.031	104.19
277.262	90.19
277.494	91.19
277.726	79.19
277.957	73.19
278.189	87.19
278.421	86.19
278.652	81.19
278.884	74.19
279.115	80.19
279.347	84.19
279.579	88.19
279.81	85.19
280.042	77.19
280.273	96.19
280.505	78.19
280.736	82.19
280.968	91.19
281.199	90.19
281.431	77.19
281.662	86.19
281.894	84.19
282.125	105.19
282.356	113.19
282.588	118.19
282.819	99.19
283.051	83.19
283.282	75.19
283.513	78.19
283.745	78.19
283.976	81.19
284.207	84.19
284.439	96.19
284.67	89.19
284.901	84.19
285.132	97.19
285.364	90.19
285.595	82.19
285.826	91.19
286.057	84.19
286.288	69.19
286.52	69.19
286.751	88.19
286.982	80.19
287.213	83.19
287.444	94.19
287.675	85.19
287.906	84.19
288.138	83.19
288.369	92.19
288.6	94.19
288.831	78.19
289.062	82.19
289.293	99.19
289.524	98.19
289.755	89.19
289.986	98.19
290.217	81.19
290.448	79.19
290.679	90.19
290.91	91.19
291.141	80.19
291.371	77.19
291.602	78.19
291.833	92.19
292.064	83.19
292.295	95.19
292.526	84.19
292.757	88.19
292.987	77.19
293.218	69.19
293.449	82.19
293.68	105.19
293.91	89.19
294.141	100.19
294.372	89.19
294.603	86.19
294.833	90.19
295.064	90.19
295.295	90.19
295.525	85.19
295.756	116.19
295.987	104.19
296.217	123.19
296.448	119.19
296.679	86.19
296.909	90.19
297.14	91.19
297.37	104.19
297.601	86.19
297.831	103.19
298.062	94.19
298.292	88.19
298.523	93.19
298.753	86.19
298.984	92.19
299.214	96.19
299.445	101.19
299.675	86.19
299.905	81.19
300.136	95.19
300.366	79.19
300.597	81.19
300.827	87.19
301.057	97.19
301.288	110.19
301.518	84.19
301.748	80.19
301.979	100.19
302.209	90.19
302.439	73.19
302.669	98.19
302.9	85.19
303.13	92.19
303.36	83.19
303.59	107.19
303.82	107.19
304.051	99.19
304.281	105.19
304.511	81.19
304.741	90.19
304.971	75.19
305.201	94.19
305.431	88.19
305.661	90.19
305.891	87.19
306.121	94.19
306.352	92.19
306.582	97.19
306.812	97.19
307.042	91.19
307.272	107.19
307.502	98.19
307.731	89.19
307.961	94.19
308.191	89.19
308.421	91.19
308.651	92.19
308.881	95.19
309.111	106.19
309.341	91.19
309.571	99.19
309.8	97.19
310.03	92.19
310.26	90.19
310.49	85.19
310.72	88.19
310.949	92.19
311.179	105.19
311.409	90.19
311.639	88.19
311.868	94.19
312.098	92.19
312.328	99.19
312.557	91.19
312.787	107.19
313.017	98.19
313.246	99.19
313.476	82.19
313.706	95.19
313.935	95.19
314.165	86.19
314.394	94.19
314.624	99.19
314.853	105.19
315.083	96.19
315.312	94.19
315.542	96.19
315.771	87.19
316.001	91.19
316.23	87.19
316.46	83.19
316.689	80.19
316.919	97.19
317.148	109.19
317.377	90.19
317.607	88.19
317.836	99.19
318.065	81.19
318.295	79.19
318.524	89.19
318.753	84.19
318.983	107.19
319.212	95.19
319.441	97.19
319.67	102.19
319.9	93.19
320.129	98.19
320.358	90.19
320.587	91.19
320.816	97.19
321.046	98.19
321.275	93.19
321.504	97.19
321.733	96.19
321.962	103.19
322.191	107.19
322.42	97.19
322.649	95.19
322.878	102.19
323.108	112.19
323.337	117.19
323.566	138.19
323.795	144.19
324.024	201.19
324.253	367.19
324.482	802.19
324.71	1710.19
324.939	2210.19
325.168	814.19
325.397	242.19
325.626	132.19
325.855	116.19
326.084	115.19
326.313	128.19
326.542	160.19
326.77	233.19
326.999	466.19
327.228	939.19
327.457	1754.19
327.686	1370.19
327.914	376.19
328.143	199.19
328.372	133.19
328.6	123.19
328.829	107.19
329.058	124.19
329.287	110.19
329.515	119.19
329.744	97.19
329.972	92.19
330.201	87.19
330.43	99.19
330.658	100.19
330.887	123.19
331.115	108.19
331.344	100.19
331.572	110.19
331.801	104.19
332.03	100.19
332.258	104.19
332.486	85.19
332.715	97.19
332.943	94.19
333.172	101.19
333.4	93.19
333.629	97.19
333.857	112.19
334.085	103.19
334.314	99.19
334.542	97.19
334.771	98.19
334.999	95.19
335.227	92.19
335.455	110.19
335.684	86.19
335.912	112.19
336.14	100.19
336.369	84.19
336.597	100.19
336.825	110.19
337.053	96.19
337.281	107.19
337.51	107.19
337.738	88.19
337.966	78.19
338.194	89.19
338.422	89.19
338.65	96.19
338.878	87.19
339.106	108.19
339.334	98.19
339.562	83.19
339.79	92.19
340.018	78.19
340.246	89.19
340.474	94.19
340.702	95.19
340.93	88.19
341.158	102.19
341.386	95.19
341.614	94.19
341.842	96.19
342.07	97.19
342.298	101.19
342.526	87.19
342.754	89.19
342.981	90.19
343.209	101.19
343.437	99.19
343.665	79.19
343.893	99.19
344.12	81.19
344.348	90.19
344.576	88.19
344.804	84.19
345.031	103.19
345.259	105.19
345.487	106.19
345.714	98.19
345.942	82.19
346.17	93.19
346.397	94.19
346.625	99.19
346.853	98.19
347.08	87.19
347.308	90.19
347.535	98.19
347.763	100.19
347.99	95.19
348.218	95.19
348.445	96.19
348.673	102.19
348.9	92.19
349.128	90.19
349.355	99.19
349.583	86.19
349.81	65.19
350.037	94.19
350.265	105.19
350.492	79.19
350.72	93.19
350.947	94.19
351.174	97.19
351.402	103.19
351.629	116.19
351.856	103.19
352.083	101.19
352.311	99.19
352.538	103.19
352.765	106.19
352.992	102.19
353.22	108.19
353.447	111.19
353.674	106.19
353.901	106.19
354.128	89.19
354.355	104.19
354.583	99.19
354.81	90.19
355.037	97.19
355.264	97.19
355.491	99.19
355.718	102.19
355.945	104.19
356.172	99.19
356.399	93.19
356.626	95.19
356.853	87.19
357.08	94.19
357.307	91.19
357.534	86.19
357.761	89.19
357.988	88.19
358.215	93.19
358.441	90.19
358.668	82.19
358.895	101.19
359.122	91.19
359.349	100.19
359.576	98.19
359.802	97.19
360.029	107.19
360.256	118.19
360.483	98.19
360.709	100.19
360.936	113.19
361.163	95.19
361.39	95.19
361.616	92.19
361.843	92.19
362.07	96.19
362.296	97.19
362.523	79.19
362.749	100.19
362.976	84.19
363.203	85.19
363.429	97.19
363.656	89.19
363.882	90.19
364.109	96.19
364.335	87.19
364.562	78.19
364.788	87.19
365.015	103.19
365.241	90.19
365.468	90.19
365.694	102.19
365.92	94.19
366.147	101.19
366.373	96.19
366.599	98.19
366.826	97.19
367.052	105.19
367.278	91.19
367.505	78.19
367.731	86.19
367.957	89.19
368.184	100.19
368.41	84.19
368.636	98.19
368.862	107.19
369.089	103.19
369.315	80.19
369.541	91.19
369.767	104.19
369.993	98.19
370.219	95.19
370.445	96.19
370.672	99.19
370.898	89.19
371.124	98.19
371.35	98.19
371.576	76.19
371.802	82.19
372.028	91.19
372.254	95.19
372.48	88.19
372.706	94.19
372.932	78.19
373.158	91.19
373.384	90.19
373.61	98.19
373.835	98.19
374.061	82.19
374.287	85.19
374.513	91.19
374.739	90.19
374.965	94.19
375.191	85.19
375.416	95.19
375.642	90.19
375.868	95.19
376.094	94.19
376.319	98.19
376.545	72.19
376.771	102.19
376.997	96.19
377.222	92.19
377.448	89.19
377.674	90.19
377.899	115.19
378.125	96.19
378.35	84.19
378.576	87.19
378.802	86.19
379.027	90.19
379.253	91.19
379.478	89.19
379.704	91.19
379.929	107.19
380.155	95.19
380.38	97.19
380.606	98.19
380.831	105.19
381.057	99.19
381.282	96.19
381.507	91.19
381.733	82.19
381.958	106.19
382.184	98.19
382.409	94.19
382.634	106.19
382.86	107.19
383.085	96.19
383.31	111.19
383.535	103.19
383.761	94.19
383.986	105.19
384.211	91.19
384.436	103.19
384.662	113.19
384.887	110.19
385.112	112.19
385.337	101.19
385.562	103.19
385.787	96.19
386.013	118.19
386.238	105.19
386.463	93.19
386.688	109.19
386.913	110.19
387.138	116.19
387.363	96.19
387.588	106.19
387.813	102.19
388.038	120.19
388.263	112.19
388.488	109.19
388.713	84.19
388.938	90.19
389.163	89.19
389.387	107.19
389.612	97.19
389.837	85.19
390.062	98.19
390.287	101.19
390.512	93.19
390.736	110.19
390.961	94.19
391.186	90.19
391.411	101.19
391.636	100.19
391.86	73.19
392.085	96.19
392.31	99.19
392.534	90.19
392.759	99.19
392.984	99.19
393.208	101.19
393.433	92.19
393.658	86.19
393.882	97.19
394.107	89.19
394.331	82.19
394.556	75.19
394.78	105.19
395.005	91.19
395.229	89.19
395.454	94.19
395.678	93.19
395.903	80.19
396.127	89.19
396.352	88.19
396.576	86.19
396.801	77.19
397.025	98.19
397.249	87.19
397.474	91.19
397.698	84.19
397.922	85.19
398.147	107.19
398.371	89.19
398.595	87.19
398.82	98.19
399.044	79.19
399.268	81.19
399.492	82.19
399.717	79.19
399.941	88.19
400.165	96.19
400.389	87.19
400.613	89.19
400.837	81.19
401.062	77.19
401.286	74.19
401.51	106.19
401.734	88.19
401.958	95.19
402.182	126.19
402.406	142.19
402.63	109.19
402.854	96.19
403.078	98.19
403.302	81.19
403.526	71.19
403.75	83.19
403.974	86.19
404.198	86.19
404.422	84.19
404.645	87.19
404.869	82.19
405.093	86.19
405.317	95.19
405.541	100.19
405.765	103.19
405.988	120.19
406.212	162.19
406.436	204.19
406.66	147.19
406.883	96.19
407.107	81.19
407.331	103.19
407.555	88.19
407.778	100.19
408.002	91.19
408.226	95.19
408.449	87.19
408.673	94.19
408.896	91.19
409.12	92.19
409.344	103.19
409.567	101.19
409.791	98.19
410.014	85.19
410.238	102.19
410.461	88.19
410.685	83.19
410.908	102.19
411.132	110.19
411.355	102.19
411.578	96.19
411.802	92.19
412.025	91.19
412.249	99.19
412.472	94.19
412.695	82.19
412.919	99.19
413.142	100.19
413.365	102.19
413.589	82.19
413.812	93.19
414.035	84.19
414.258	94.19
414.482	92.19
414.705	89.19
414.928	94.19
415.151	96.19
415.374	100.19
415.597	94.19
415.821	95.19
416.044	96.19
416.267	78.19
416.49	90.19
416.713	92.19
416.936	92.19
417.159	94.19
417.382	100.19
417.605	103.19
417.828	95.19
418.051	100.19
418.274	89.19
418.497	82.19
418.72	85.19
418.943	81.19
419.166	77.19
419.389	92.19
419.611	82.19
419.834	96.19
420.057	100.19
420.28	94.19
420.503	98.19
420.726	100.19
420.948	78.19
421.171	95.19
421.394	94.19
421.617	68.19
421.839	89.19
422.062	92.19
422.285	92.19
422.507	101.19
422.73	92.19
422.953	86.19
423.175	98.19
423.398	90.19
423.621	89.19
423.843	89.19
424.066	80.19
424.288	83.19
424.511	103.19
424.733	96.19
424.956	104.19
425.178	99.19
425.401	99.19
425.623	104.19
425.846	102.19
426.068	95.19
426.291	102.19
426.513	103.19
426.735	102.19
426.958	90.19
427.18	118.19
427.402	116.19
427.625	140.19
427.847	98.19
428.069	116.19
428.292	81.19
428.514	94.19
428.736	92.19
428.958	82.19
429.181	78.19
429.403	89.19
429.625	108.19
429.847	80.19
430.069	102.19
430.292	97.19
430.514	104.19
430.736	99.19
430.958	107.19
431.18	87.19
431.402	90.19
431.624	102.19
431.846	92.19
432.068	91.19
432.29	87.19
432.512	96.19
432.734	82.19
432.956	91.19
433.178	83.19
433.4	107.19
433.622	94.19
433.844	80.19
434.066	85.19
434.287	92.19
434.509	92.19
434.731	95.19
434.953	78.19
435.175	85.19
435.397	81.19
435.618	96.19
435.84	104.19
436.062	99.19
436.284	108.19
436.505	111.19
436.727	106.19
436.949	97.19
437.17	97.19
437.392	78.19
437.614	87.19
437.835	101.19
438.057	111.19
438.278	92.19
438.5	104.19
438.721	108.19
438.943	104.19
439.165	105.19
439.386	91.19
439.608	91.19
439.829	97.19
440.05	108.19
440.272	137.19
440.493	97.19
440.715	83.19
440.936	103.19
441.158	86.19
441.379	62.19
441.6	89.19
441.822	106.19
442.043	86.19
442.264	92.19
442.486	101.19
442.707	80.19
442.928	116.19
443.149	113.19
443.371	117.19
443.592	113.19
443.813	103.19
444.034	105.19
444.255	84.19
444.476	89.19
444.698	90.19
444.919	82.19
445.14	134.19
445.361	124.19
445.582	101.19
445.803	110.19
446.024	123.19
446.245	131.19
446.466	104.19
446.687	95.19
446.908	81.19
447.129	80.19
447.35	88.19
447.571	90.19
447.792	94.19
448.013	87.19
448.234	95.19
448.455	83.19
448.675	103.19
448.896	105.19
449.117	93.19
449.338	122.19
449.559	120.19
449.779	128.19
450	110.19
450.221	90.19
450.442	86.19
450.662	97.19
450.883	86.19
451.104	107.19
451.324	92.19
451.545	89.19
451.766	106.19
451.986	106.19
452.207	87.19
452.428	95.19
452.648	92.19
452.869	102.19
453.089	97.19
453.31	118.19
453.53	90.19
453.751	96.19
453.971	88.19
454.192	103.19
454.412	92.19
454.633	96.19
454.853	85.19
455.073	91.19
455.294	90.19
455.514	89.19
455.734	83.19
455.955	92.19
456.175	85.19
456.395	74.19
456.616	82.19
456.836	78.19
457.056	96.19
457.276	93.19
457.497	91.19
457.717	86.19
457.937	91.19
458.157	95.19
458.377	92.19
458.598	101.19
458.818	126.19
459.038	152.19
459.258	118.19
459.478	88.19
459.698	98.19
459.918	97.19
460.138	79.19
460.358	108.19
460.578	92.19
460.798	97.19
461.018	85.19
461.238	92.19
461.458	104.19
461.678	69.19
461.898	86.19
462.118	92.19
462.338	81.19
462.558	82.19
462.777	92.19
462.997	92.19
463.217	89.19
463.437	89.19
463.657	83.19
463.876	70.19
464.096	85.19
464.316	95.19
464.536	91.19
464.755	91.19
464.975	104.19
465.195	154.19
465.414	138.19
465.634	97.19
465.854	100.19
466.073	97.19
466.293	77.19
466.512	73.19
466.732	83.19
466.951	102.19
467.171	88.19
467.391	95.19
467.61	106.19
467.829	96.19
468.049	98.19
468.268	94.19
468.488	97.19
468.707	82.19
468.927	78.19
469.146	86.19
469.365	90.19
469.585	92.19
469.804	91.19
470.023	87.19
470.243	100.19
470.462	104.19
470.681	98.19
470.901	92.19
471.12	87.19
471.339	78.19
471.558	98.19
471.777	78.19
471.997	81.19
472.216	89.19
472.435	96.19
472.654	99.19
472.873	85.19
473.092	89.19
473.311	86.19
473.53	92.19
473.749	85.19
473.968	91.19
474.187	94.19
474.406	99.19
474.625	84.19
474.844	86.19
475.063	84.19
475.282	94.19
475.501	74.19
475.72	92.19
475.939	91.19
476.158	75.19
476.377	95.19
476.596	81.19
476.814	87.19
477.033	82.19
477.252	99.19
477.471	92.19
477.69	86.19
477.908	87.19
478.127	84.19
478.346	86.19
478.564	88.19
478.783	102.19
479.002	90.19
479.22	110.19
479.439	93.19
479.658	86.19
479.876	103.19
480.095	87.19
480.313	101.19
480.532	90.19
480.751	91.19
480.969	97.19
481.188	114.19
481.406	96.19
481.624	87.19
481.843	87.19
482.061	82.19
482.28	107.19
482.498	82.19
482.717	88.19
482.935	89.19
483.153	98.19
483.372	84.19
483.59	91.19
483.808	106.19
484.027	96.19
484.245	93.19
484.463	85.19
484.681	87.19
484.9	84.19
485.118	96.19
485.336	112.19
485.554	102.19
485.772	115.19
485.99	96.19
486.209	100.19
486.427	104.19
486.645	108.19
486.863	107.19
487.081	87.19
487.299	93.19
487.517	99.19
487.735	83.19
487.953	90.19
488.171	89.19
488.389	102.19
488.607	102.19
488.825	95.19
489.043	92.19
489.261	100.19
489.479	101.19
489.696	90.19
489.914	81.19
490.132	109.19
490.35	101.19
490.568	90.19
490.786	74.19
491.003	80.19
491.221	80.19
491.439	99.19
491.657	99.19
491.874	91.19
492.092	97.19
492.31	82.19
492.527	92.19
492.745	99.19
492.963	88.19
493.18	93.19
493.398	87.19
493.615	104.19
493.833	101.19
494.05	89.19
494.268	80.19
494.485	86.19
494.703	89.19
494.92	85.19
495.138	95.19
495.355	102.19
495.573	103.19
495.79	89.19
496.008	98.19
496.225	90.19
496.442	91.19
496.66	104.19
496.877	100.19
497.094	104.19
497.312	102.19
497.529	93.19
497.746	91.19
497.963	95.19
498.181	91.19
498.398	89.19
498.615	110.19
498.832	97.19
499.049	100.19
499.267	87.19
499.484	100.19
499.701	98.19
499.918	83.19
500.135	84.19
500.352	89.19
500.569	80.19
500.786	92.19
501.003	87.19
501.22	100.19
501.437	95.19
501.654	90.19
501.871	108.19
502.088	101.19
502.305	104.19
502.522	102.19
502.739	90.19
502.956	96.19
503.172	84.19
503.389	91.19
503.606	84.19
503.823	96.19
504.04	86.19
504.256	93.19
504.473	91.19
504.69	87.19
504.907	91.19
505.123	92.19
505.34	96.19
505.557	96.19
505.773	92.19
505.99	81.19
506.207	88.19
506.423	96.19
506.64	100.19
506.856	100.19
507.073	92.19
507.289	111.19
507.506	97.19
507.722	113.19
507.939	104.19
508.155	105.19
508.372	96.19
508.588	109.19
508.805	100.19
509.021	86.19
509.238	88.19
509.454	90.19
509.67	94.19
509.887	104.19
510.103	138.19
510.319	215.19
510.536	756.19
510.752	2292.19
510.968	658.19
511.184	161.19
511.401	111.19
511.617	99.19
511.833	106.19
512.049	116.19
512.265	78.19
512.481	95.19
512.698	87.19
512.914	103.19
513.13	89.19
513.346	98.19
513.562	94.19
513.778	95.19
513.994	98.19
514.21	99.19
514.426	112.19
514.642	121.19
514.858	110.19
515.074	140.19
515.29	422.19
515.506	1333.19
515.721	492.19
