Data from Uncirc_2003_H10_HRD10591_00067.txt Node
Date: Wed Jan 03 10:36:01 EST 2024
User: Yrep
Spectrometer: HR+D1059
Trigger mode: 1
Integration Time (sec): 1.000000E-1
Scans to average: 1
Electric dark correction enabled: true
Nonlinearity correction enabled: false
Boxcar width: 0
XAxis mode: Wavelengths
Number of Pixels in Spectrum: 2048
>>>>>Begin Spectral Data<<<<<
223.165	-20.62
223.4	-20.62
223.635	-20.62
223.869	-8.62
224.104	-11.62
224.338	-13.62
224.573	-24.62
224.808	0.38
225.042	-33.62
225.277	-7.62
225.511	-0.62
225.746	7.38
225.98	3.38
226.215	8.38
226.449	20.38
226.683	15.38
226.918	27.38
227.152	38.38
227.387	52.38
227.621	42.38
227.856	39.38
228.09	48.38
228.324	54.38
228.559	58.38
228.793	59.38
229.027	49.38
229.262	75.38
229.496	70.38
229.73	77.38
229.964	107.38
230.199	90.38
230.433	74.38
230.667	86.38
230.901	71.38
231.136	92.38
231.37	69.38
231.604	77.38
231.838	83.38
232.072	102.38
232.306	80.38
232.541	95.38
232.775	78.38
233.009	88.38
233.243	70.38
233.477	81.38
233.711	87.38
233.945	96.38
234.179	94.38
234.413	90.38
234.647	79.38
234.881	79.38
235.115	79.38
235.349	72.38
235.583	86.38
235.817	86.38
236.051	92.38
236.285	79.38
236.519	77.38
236.753	84.38
236.987	86.38
237.221	68.38
237.455	92.38
237.689	79.38
237.922	74.38
238.156	80.38
238.39	90.38
238.624	89.38
238.858	66.38
239.091	87.38
239.325	84.38
239.559	95.38
239.793	76.38
240.027	66.38
240.26	81.38
240.494	79.38
240.728	87.38
240.961	62.38
241.195	83.38
241.429	70.38
241.662	74.38
241.896	81.38
242.13	86.38
242.363	89.38
242.597	89.38
242.83	78.38
243.064	85.38
243.298	80.38
243.531	79.38
243.765	92.38
243.998	70.38
244.232	82.38
244.465	95.38
244.699	89.38
244.932	82.38
245.166	72.38
245.399	66.38
245.633	78.38
245.866	78.38
246.099	78.38
246.333	61.38
246.566	88.38
246.8	87.38
247.033	76.38
247.266	84.38
247.5	81.38
247.733	72.38
247.966	67.38
248.2	89.38
248.433	76.38
248.666	91.38
248.899	78.38
249.133	81.38
249.366	89.38
249.599	97.38
249.832	75.38
250.066	76.38
250.299	73.38
250.532	96.38
250.765	75.38
250.998	89.38
251.231	72.38
251.465	89.38
251.698	81.38
251.931	87.38
252.164	91.38
252.397	78.38
252.63	106.38
252.863	86.38
253.096	83.38
253.329	91.38
253.562	83.38
253.795	78.38
254.028	69.38
254.261	70.38
254.494	82.38
254.727	87.38
254.96	74.38
255.193	94.38
255.426	76.38
255.659	75.38
255.892	97.38
256.124	83.38
256.357	84.38
256.59	77.38
256.823	89.38
257.056	77.38
257.289	90.38
257.521	68.38
257.754	90.38
257.987	89.38
258.22	90.38
258.452	82.38
258.685	91.38
258.918	96.38
259.151	79.38
259.383	68.38
259.616	78.38
259.849	79.38
260.081	84.38
260.314	71.38
260.547	68.38
260.779	94.38
261.012	93.38
261.244	83.38
261.477	95.38
261.71	95.38
261.942	100.38
262.175	130.38
262.407	99.38
262.64	90.38
262.872	91.38
263.105	79.38
263.337	85.38
263.57	84.38
263.802	86.38
264.035	84.38
264.267	82.38
264.499	91.38
264.732	90.38
264.964	83.38
265.197	82.38
265.429	89.38
265.661	83.38
265.894	89.38
266.126	81.38
266.358	90.38
266.591	86.38
266.823	95.38
267.055	74.38
267.287	100.38
267.52	87.38
267.752	90.38
267.984	85.38
268.216	85.38
268.448	84.38
268.681	85.38
268.913	81.38
269.145	85.38
269.377	88.38
269.609	79.38
269.841	91.38
270.073	82.38
270.306	85.38
270.538	80.38
270.77	71.38
271.002	80.38
271.234	81.38
271.466	88.38
271.698	90.38
271.93	95.38
272.162	84.38
272.394	92.38
272.626	85.38
272.858	82.38
273.09	76.38
273.322	96.38
273.553	81.38
273.785	83.38
274.017	85.38
274.249	92.38
274.481	91.38
274.713	84.38
274.945	78.38
275.176	82.38
275.408	84.38
275.64	91.38
275.872	87.38
276.104	79.38
276.335	93.38
276.567	88.38
276.799	107.38
277.031	105.38
277.262	87.38
277.494	90.38
277.726	91.38
277.957	89.38
278.189	80.38
278.421	92.38
278.652	76.38
278.884	102.38
279.115	86.38
279.347	86.38
279.579	84.38
279.81	72.38
280.042	90.38
280.273	85.38
280.505	98.38
280.736	85.38
280.968	87.38
281.199	98.38
281.431	69.38
281.662	82.38
281.894	92.38
282.125	109.38
282.356	110.38
282.588	137.38
282.819	104.38
283.051	99.38
283.282	99.38
283.513	93.38
283.745	89.38
283.976	85.38
284.207	81.38
284.439	84.38
284.67	88.38
284.901	83.38
285.132	88.38
285.364	73.38
285.595	85.38
285.826	95.38
286.057	94.38
286.288	86.38
286.52	76.38
286.751	99.38
286.982	74.38
287.213	78.38
287.444	79.38
287.675	71.38
287.906	86.38
288.138	94.38
288.369	107.38
288.6	88.38
288.831	86.38
289.062	86.38
289.293	85.38
289.524	98.38
289.755	100.38
289.986	82.38
290.217	76.38
290.448	89.38
290.679	86.38
290.91	89.38
291.141	90.38
291.371	82.38
291.602	104.38
291.833	88.38
292.064	84.38
292.295	100.38
292.526	97.38
292.757	98.38
292.987	96.38
293.218	100.38
293.449	82.38
293.68	105.38
293.91	81.38
294.141	78.38
294.372	100.38
294.603	90.38
294.833	70.38
295.064	90.38
295.295	79.38
295.525	82.38
295.756	94.38
295.987	108.38
296.217	140.38
296.448	130.38
296.679	93.38
296.909	86.38
297.14	74.38
297.37	92.38
297.601	71.38
297.831	95.38
298.062	83.38
298.292	88.38
298.523	78.38
298.753	80.38
298.984	90.38
299.214	88.38
299.445	91.38
299.675	89.38
299.905	101.38
300.136	80.38
300.366	104.38
300.597	87.38
300.827	105.38
301.057	106.38
301.288	93.38
301.518	108.38
301.748	78.38
301.979	99.38
302.209	102.38
302.439	104.38
302.669	80.38
302.9	100.38
303.13	79.38
303.36	98.38
303.59	96.38
303.82	99.38
304.051	108.38
304.281	101.38
304.511	98.38
304.741	95.38
304.971	96.38
305.201	99.38
305.431	100.38
305.661	90.38
305.891	85.38
306.121	100.38
306.352	103.38
306.582	104.38
306.812	97.38
307.042	89.38
307.272	97.38
307.502	103.38
307.731	95.38
307.961	86.38
308.191	95.38
308.421	93.38
308.651	90.38
308.881	90.38
309.111	103.38
309.341	98.38
309.571	81.38
309.8	97.38
310.03	100.38
310.26	91.38
310.49	94.38
310.72	100.38
310.949	103.38
311.179	107.38
311.409	77.38
311.639	80.38
311.868	101.38
312.098	90.38
312.328	86.38
312.557	103.38
312.787	106.38
313.017	91.38
313.246	93.38
313.476	105.38
313.706	91.38
313.935	97.38
314.165	95.38
314.394	113.38
314.624	87.38
314.853	100.38
315.083	90.38
315.312	82.38
315.542	75.38
315.771	92.38
316.001	86.38
316.23	97.38
316.46	88.38
316.689	96.38
316.919	94.38
317.148	97.38
317.377	83.38
317.607	98.38
317.836	98.38
318.065	92.38
318.295	95.38
318.524	92.38
318.753	81.38
318.983	96.38
319.212	105.38
319.441	97.38
319.67	116.38
319.9	95.38
320.129	93.38
320.358	102.38
320.587	98.38
320.816	101.38
321.046	103.38
321.275	102.38
321.504	95.38
321.733	97.38
321.962	97.38
322.191	104.38
322.42	117.38
322.649	108.38
322.878	106.38
323.108	123.38
323.337	136.38
323.566	120.38
323.795	153.38
324.024	212.38
324.253	407.38
324.482	905.38
324.71	1842.38
324.939	2418.38
325.168	881.38
325.397	254.38
325.626	135.38
325.855	138.38
326.084	135.38
326.313	131.38
326.542	157.38
326.77	247.38
326.999	488.38
327.228	1027.38
327.457	1877.38
327.686	1486.38
327.914	389.38
328.143	198.38
328.372	132.38
328.6	124.38
328.829	125.38
329.058	129.38
329.287	131.38
329.515	103.38
329.744	110.38
329.972	89.38
330.201	100.38
330.43	112.38
330.658	128.38
330.887	143.38
331.115	113.38
331.344	92.38
331.572	103.38
331.801	95.38
332.03	94.38
332.258	95.38
332.486	110.38
332.715	102.38
332.943	99.38
333.172	96.38
333.4	91.38
333.629	96.38
333.857	114.38
334.085	98.38
334.314	108.38
334.542	88.38
334.771	87.38
334.999	98.38
335.227	89.38
335.455	70.38
335.684	99.38
335.912	96.38
336.14	96.38
336.369	96.38
336.597	88.38
336.825	102.38
337.053	85.38
337.281	87.38
337.51	93.38
337.738	90.38
337.966	90.38
338.194	98.38
338.422	96.38
338.65	90.38
338.878	94.38
339.106	88.38
339.334	101.38
339.562	87.38
339.79	87.38
340.018	89.38
340.246	102.38
340.474	90.38
340.702	90.38
340.93	92.38
341.158	101.38
341.386	94.38
341.614	89.38
341.842	92.38
342.07	106.38
342.298	92.38
342.526	80.38
342.754	103.38
342.981	93.38
343.209	80.38
343.437	95.38
343.665	79.38
343.893	92.38
344.12	95.38
344.348	93.38
344.576	103.38
344.804	89.38
345.031	92.38
345.259	99.38
345.487	95.38
345.714	78.38
345.942	96.38
346.17	101.38
346.397	109.38
346.625	86.38
346.853	99.38
347.08	90.38
347.308	78.38
347.535	98.38
347.763	100.38
347.99	104.38
348.218	107.38
348.445	95.38
348.673	108.38
348.9	105.38
349.128	88.38
349.355	94.38
349.583	96.38
349.81	105.38
350.037	91.38
350.265	101.38
350.492	112.38
350.72	100.38
350.947	99.38
351.174	103.38
351.402	100.38
351.629	101.38
351.856	99.38
352.083	100.38
352.311	111.38
352.538	110.38
352.765	117.38
352.992	124.38
353.22	121.38
353.447	105.38
353.674	104.38
353.901	103.38
354.128	88.38
354.355	112.38
354.583	110.38
354.81	112.38
355.037	93.38
355.264	90.38
355.491	82.38
355.718	104.38
355.945	99.38
356.172	99.38
356.399	78.38
356.626	93.38
356.853	112.38
357.08	92.38
357.307	88.38
357.534	91.38
357.761	117.38
357.988	91.38
358.215	102.38
358.441	106.38
358.668	100.38
358.895	91.38
359.122	82.38
359.349	96.38
359.576	94.38
359.802	87.38
360.029	99.38
360.256	103.38
360.483	99.38
360.709	103.38
360.936	105.38
361.163	92.38
361.39	86.38
361.616	106.38
361.843	84.38
362.07	88.38
362.296	101.38
362.523	85.38
362.749	103.38
362.976	91.38
363.203	98.38
363.429	95.38
363.656	95.38
363.882	104.38
364.109	95.38
364.335	95.38
364.562	88.38
364.788	90.38
365.015	99.38
365.241	91.38
365.468	101.38
365.694	129.38
365.92	96.38
366.147	76.38
366.373	90.38
366.599	103.38
366.826	84.38
367.052	93.38
367.278	91.38
367.505	93.38
367.731	95.38
367.957	92.38
368.184	87.38
368.41	105.38
368.636	115.38
368.862	107.38
369.089	112.38
369.315	83.38
369.541	102.38
369.767	97.38
369.993	92.38
370.219	94.38
370.445	105.38
370.672	98.38
370.898	84.38
371.124	86.38
371.35	97.38
371.576	89.38
371.802	93.38
372.028	91.38
372.254	90.38
372.48	89.38
372.706	83.38
372.932	96.38
373.158	81.38
373.384	88.38
373.61	90.38
373.835	87.38
374.061	97.38
374.287	81.38
374.513	102.38
374.739	91.38
374.965	105.38
375.191	85.38
375.416	97.38
375.642	88.38
375.868	92.38
376.094	86.38
376.319	96.38
376.545	96.38
376.771	95.38
376.997	101.38
377.222	106.38
377.448	84.38
377.674	111.38
377.899	106.38
378.125	107.38
378.35	87.38
378.576	92.38
378.802	92.38
379.027	101.38
379.253	95.38
379.478	77.38
379.704	92.38
379.929	87.38
380.155	102.38
380.38	86.38
380.606	85.38
380.831	114.38
381.057	106.38
381.282	90.38
381.507	102.38
381.733	111.38
381.958	102.38
382.184	108.38
382.409	105.38
382.634	104.38
382.86	118.38
383.085	114.38
383.31	98.38
383.535	102.38
383.761	98.38
383.986	107.38
384.211	94.38
384.436	95.38
384.662	88.38
384.887	94.38
385.112	106.38
385.337	104.38
385.562	122.38
385.787	111.38
386.013	111.38
386.238	120.38
386.463	99.38
386.688	96.38
386.913	101.38
387.138	98.38
387.363	104.38
387.588	103.38
387.813	106.38
388.038	104.38
388.263	115.38
388.488	114.38
388.713	101.38
388.938	90.38
389.163	90.38
389.387	100.38
389.612	111.38
389.837	97.38
390.062	95.38
390.287	91.38
390.512	95.38
390.736	93.38
390.961	97.38
391.186	109.38
391.411	103.38
391.636	94.38
391.86	87.38
392.085	97.38
392.31	89.38
392.534	79.38
392.759	104.38
392.984	86.38
393.208	84.38
393.433	91.38
393.658	87.38
393.882	83.38
394.107	94.38
394.331	92.38
394.556	98.38
394.78	106.38
395.005	96.38
395.229	86.38
395.454	89.38
395.678	83.38
395.903	70.38
396.127	80.38
396.352	83.38
396.576	85.38
396.801	78.38
397.025	73.38
397.249	91.38
397.474	107.38
397.698	93.38
397.922	93.38
398.147	93.38
398.371	84.38
398.595	77.38
398.82	95.38
399.044	94.38
399.268	94.38
399.492	91.38
399.717	93.38
399.941	94.38
400.165	102.38
400.389	100.38
400.613	85.38
400.837	76.38
401.062	105.38
401.286	89.38
401.51	112.38
401.734	99.38
401.958	105.38
402.182	119.38
402.406	158.38
402.63	113.38
402.854	103.38
403.078	94.38
403.302	82.38
403.526	92.38
403.75	80.38
403.974	88.38
404.198	92.38
404.422	88.38
404.645	91.38
404.869	105.38
405.093	90.38
405.317	98.38
405.541	104.38
405.765	91.38
405.988	100.38
406.212	164.38
406.436	231.38
406.66	143.38
406.883	113.38
407.107	94.38
407.331	86.38
407.555	92.38
407.778	78.38
408.002	82.38
408.226	88.38
408.449	98.38
408.673	86.38
408.896	95.38
409.12	106.38
409.344	99.38
409.567	78.38
409.791	110.38
410.014	106.38
410.238	89.38
410.461	106.38
410.685	88.38
410.908	108.38
411.132	113.38
411.355	104.38
411.578	90.38
411.802	98.38
412.025	91.38
412.249	88.38
412.472	91.38
412.695	89.38
412.919	94.38
413.142	86.38
413.365	97.38
413.589	100.38
413.812	88.38
414.035	95.38
414.258	97.38
414.482	88.38
414.705	92.38
414.928	87.38
415.151	99.38
415.374	104.38
415.597	87.38
415.821	82.38
416.044	80.38
416.267	94.38
416.49	95.38
416.713	81.38
416.936	87.38
417.159	95.38
417.382	83.38
417.605	95.38
417.828	102.38
418.051	110.38
418.274	79.38
418.497	79.38
418.72	107.38
418.943	94.38
419.166	89.38
419.389	98.38
419.611	78.38
419.834	89.38
420.057	82.38
420.28	82.38
420.503	91.38
420.726	95.38
420.948	96.38
421.171	81.38
421.394	97.38
421.617	91.38
421.839	85.38
422.062	82.38
422.285	91.38
422.507	94.38
422.73	112.38
422.953	95.38
423.175	86.38
423.398	91.38
423.621	92.38
423.843	95.38
424.066	90.38
424.288	82.38
424.511	94.38
424.733	98.38
424.956	115.38
425.178	96.38
425.401	98.38
425.623	107.38
425.846	104.38
426.068	89.38
426.291	102.38
426.513	95.38
426.735	106.38
426.958	93.38
427.18	111.38
427.402	130.38
427.625	170.38
427.847	134.38
428.069	98.38
428.292	88.38
428.514	80.38
428.736	81.38
428.958	93.38
429.181	77.38
429.403	90.38
429.625	90.38
429.847	99.38
430.069	94.38
430.292	93.38
430.514	88.38
430.736	87.38
430.958	101.38
431.18	88.38
431.402	84.38
431.624	93.38
431.846	101.38
432.068	110.38
432.29	75.38
432.512	87.38
432.734	101.38
432.956	95.38
433.178	87.38
433.4	89.38
433.622	90.38
433.844	81.38
434.066	98.38
434.287	88.38
434.509	89.38
434.731	93.38
434.953	99.38
435.175	83.38
435.397	91.38
435.618	96.38
435.84	115.38
436.062	123.38
436.284	102.38
436.505	90.38
436.727	89.38
436.949	85.38
437.17	86.38
437.392	98.38
437.614	89.38
437.835	103.38
438.057	116.38
438.278	107.38
438.5	96.38
438.721	130.38
438.943	97.38
439.165	89.38
439.386	88.38
439.608	82.38
439.829	121.38
440.05	121.38
440.272	145.38
440.493	95.38
440.715	83.38
440.936	106.38
441.158	90.38
441.379	91.38
441.6	89.38
441.822	94.38
442.043	104.38
442.264	103.38
442.486	101.38
442.707	99.38
442.928	118.38
443.149	119.38
443.371	122.38
443.592	107.38
443.813	110.38
444.034	113.38
444.255	102.38
444.476	99.38
444.698	97.38
444.919	83.38
445.14	144.38
445.361	115.38
445.582	121.38
445.803	134.38
446.024	113.38
446.245	133.38
446.466	120.38
446.687	91.38
446.908	82.38
447.129	82.38
447.35	86.38
447.571	97.38
447.792	95.38
448.013	103.38
448.234	114.38
448.455	100.38
448.675	118.38
448.896	115.38
449.117	106.38
449.338	122.38
449.559	125.38
449.779	134.38
450	87.38
450.221	96.38
450.442	88.38
450.662	95.38
450.883	101.38
451.104	101.38
451.324	86.38
451.545	86.38
451.766	88.38
451.986	80.38
452.207	96.38
452.428	100.38
452.648	97.38
452.869	122.38
453.089	120.38
453.31	122.38
453.53	89.38
453.751	87.38
453.971	91.38
454.192	107.38
454.412	83.38
454.633	77.38
454.853	88.38
455.073	84.38
455.294	89.38
455.514	104.38
455.734	90.38
455.955	89.38
456.175	77.38
456.395	80.38
456.616	80.38
456.836	80.38
457.056	88.38
457.276	82.38
457.497	90.38
457.717	80.38
457.937	84.38
458.157	84.38
458.377	96.38
458.598	109.38
458.818	143.38
459.038	143.38
459.258	120.38
459.478	91.38
459.698	81.38
459.918	93.38
460.138	82.38
460.358	92.38
460.578	84.38
460.798	87.38
461.018	97.38
461.238	104.38
461.458	80.38
461.678	80.38
461.898	84.38
462.118	88.38
462.338	79.38
462.558	92.38
462.777	83.38
462.997	86.38
463.217	100.38
463.437	84.38
463.657	92.38
463.876	81.38
464.096	99.38
464.316	94.38
464.536	92.38
464.755	106.38
464.975	109.38
465.195	153.38
465.414	142.38
465.634	102.38
465.854	85.38
466.073	77.38
466.293	100.38
466.512	91.38
466.732	91.38
466.951	100.38
467.171	87.38
467.391	95.38
467.61	106.38
467.829	92.38
468.049	85.38
468.268	80.38
468.488	97.38
468.707	95.38
468.927	82.38
469.146	86.38
469.365	96.38
469.585	86.38
469.804	110.38
470.023	89.38
470.243	100.38
470.462	101.38
470.681	107.38
470.901	102.38
471.12	104.38
471.339	88.38
471.558	87.38
471.777	78.38
471.997	93.38
472.216	97.38
472.435	96.38
472.654	96.38
472.873	87.38
473.092	91.38
473.311	81.38
473.53	95.38
473.749	99.38
473.968	98.38
474.187	107.38
474.406	91.38
474.625	78.38
474.844	91.38
475.063	85.38
475.282	96.38
475.501	66.38
475.72	86.38
475.939	78.38
476.158	89.38
476.377	86.38
476.596	95.38
476.814	84.38
477.033	94.38
477.252	92.38
477.471	96.38
477.69	99.38
477.908	102.38
478.127	92.38
478.346	91.38
478.564	92.38
478.783	89.38
479.002	83.38
479.22	93.38
479.439	96.38
479.658	100.38
479.876	95.38
480.095	87.38
480.313	87.38
480.532	88.38
480.751	99.38
480.969	83.38
481.188	113.38
481.406	105.38
481.624	109.38
481.843	86.38
482.061	92.38
482.28	101.38
482.498	95.38
482.717	98.38
482.935	85.38
483.153	93.38
483.372	91.38
483.59	86.38
483.808	84.38
484.027	87.38
484.245	90.38
484.463	99.38
484.681	98.38
484.9	86.38
485.118	105.38
485.336	100.38
485.554	101.38
485.772	108.38
485.99	102.38
486.209	99.38
486.427	118.38
486.645	100.38
486.863	112.38
487.081	101.38
487.299	101.38
487.517	82.38
487.735	99.38
487.953	87.38
488.171	98.38
488.389	75.38
488.607	111.38
488.825	90.38
489.043	84.38
489.261	93.38
489.479	99.38
489.696	88.38
489.914	72.38
490.132	95.38
490.35	92.38
490.568	97.38
490.786	99.38
491.003	87.38
491.221	79.38
491.439	102.38
491.657	89.38
491.874	92.38
492.092	81.38
492.31	90.38
492.527	89.38
492.745	92.38
492.963	89.38
493.18	95.38
493.398	94.38
493.615	87.38
493.833	106.38
494.05	90.38
494.268	83.38
494.485	96.38
494.703	90.38
494.92	97.38
495.138	100.38
495.355	91.38
495.573	92.38
495.79	102.38
496.008	103.38
496.225	87.38
496.442	88.38
496.66	103.38
496.877	97.38
497.094	91.38
497.312	96.38
497.529	96.38
497.746	81.38
497.963	87.38
498.181	89.38
498.398	87.38
498.615	118.38
498.832	106.38
499.049	100.38
499.267	99.38
499.484	91.38
499.701	92.38
499.918	101.38
500.135	96.38
500.352	90.38
500.569	93.38
500.786	91.38
501.003	88.38
501.22	86.38
501.437	88.38
501.654	101.38
501.871	101.38
502.088	85.38
502.305	94.38
502.522	95.38
502.739	100.38
502.956	84.38
503.172	97.38
503.389	91.38
503.606	103.38
503.823	102.38
504.04	90.38
504.256	87.38
504.473	84.38
504.69	99.38
504.907	82.38
505.123	96.38
505.34	94.38
505.557	108.38
505.773	85.38
505.99	102.38
506.207	104.38
506.423	80.38
506.64	90.38
506.856	81.38
507.073	92.38
507.289	108.38
507.506	91.38
507.722	118.38
507.939	114.38
508.155	105.38
508.372	82.38
508.588	99.38
508.805	96.38
509.021	113.38
509.238	90.38
509.454	97.38
509.67	107.38
509.887	111.38
510.103	146.38
510.319	226.38
510.536	780.38
510.752	2526.38
510.968	706.38
511.184	145.38
511.401	114.38
511.617	100.38
511.833	98.38
512.049	99.38
512.265	100.38
512.481	104.38
512.698	97.38
512.914	102.38
513.13	96.38
513.346	93.38
513.562	106.38
513.778	100.38
513.994	98.38
514.21	113.38
514.426	107.38
514.642	124.38
514.858	114.38
