Data from Uncirc_2003_H10_HRD10591_00050.txt Node
Date: Wed Jan 03 10:35:57 EST 2024
User: Yrep
Spectrometer: HR+D1059
Trigger mode: 1
Integration Time (sec): 1.000000E-1
Scans to average: 1
Electric dark correction enabled: true
Nonlinearity correction enabled: false
Boxcar width: 0
XAxis mode: Wavelengths
Number of Pixels in Spectrum: 2048
>>>>>Begin Spectral Data<<<<<
223.165	-22.94
223.4	-22.94
223.635	-22.94
223.869	-13.94
224.104	-26.94
224.338	-4.94
224.573	-9.94
224.808	-11.94
225.042	-13.94
225.277	-8.94
225.511	-9.94
225.746	-1.94
225.98	0.06
226.215	9.06
226.449	31.06
226.683	19.06
226.918	31.06
227.152	35.06
227.387	46.06
227.621	36.06
227.856	51.06
228.09	39.06
228.324	55.06
228.559	65.06
228.793	54.06
229.027	48.06
229.262	63.06
229.496	65.06
229.73	87.06
229.964	88.06
230.199	80.06
230.433	79.06
230.667	85.06
230.901	70.06
231.136	71.06
231.37	84.06
231.604	71.06
231.838	79.06
232.072	62.06
232.306	69.06
232.541	89.06
232.775	85.06
233.009	67.06
233.243	77.06
233.477	80.06
233.711	79.06
233.945	73.06
234.179	87.06
234.413	85.06
234.647	82.06
234.881	81.06
235.115	71.06
235.349	70.06
235.583	78.06
235.817	68.06
236.051	72.06
236.285	73.06
236.519	72.06
236.753	85.06
236.987	67.06
237.221	88.06
237.455	87.06
237.689	78.06
237.922	63.06
238.156	82.06
238.39	68.06
238.624	78.06
238.858	80.06
239.091	75.06
239.325	75.06
239.559	79.06
239.793	78.06
240.027	69.06
240.26	79.06
240.494	76.06
240.728	61.06
240.961	72.06
241.195	69.06
241.429	79.06
241.662	68.06
241.896	71.06
242.13	80.06
242.363	62.06
242.597	78.06
242.83	73.06
243.064	65.06
243.298	74.06
243.531	81.06
243.765	80.06
243.998	71.06
244.232	72.06
244.465	80.06
244.699	81.06
244.932	88.06
245.166	80.06
245.399	79.06
245.633	67.06
245.866	78.06
246.099	78.06
246.333	81.06
246.566	82.06
246.8	78.06
247.033	90.06
247.266	71.06
247.5	75.06
247.733	84.06
247.966	71.06
248.2	89.06
248.433	88.06
248.666	84.06
248.899	80.06
249.133	90.06
249.366	87.06
249.599	95.06
249.832	83.06
250.066	75.06
250.299	71.06
250.532	76.06
250.765	84.06
250.998	88.06
251.231	88.06
251.465	87.06
251.698	72.06
251.931	86.06
252.164	78.06
252.397	78.06
252.63	79.06
252.863	71.06
253.096	50.06
253.329	70.06
253.562	75.06
253.795	79.06
254.028	83.06
254.261	65.06
254.494	87.06
254.727	84.06
254.96	86.06
255.193	66.06
255.426	72.06
255.659	84.06
255.892	80.06
256.124	74.06
256.357	83.06
256.59	86.06
256.823	75.06
257.056	84.06
257.289	69.06
257.521	72.06
257.754	73.06
257.987	68.06
258.22	68.06
258.452	71.06
258.685	80.06
258.918	77.06
259.151	66.06
259.383	87.06
259.616	85.06
259.849	87.06
260.081	76.06
260.314	78.06
260.547	104.06
260.779	86.06
261.012	89.06
261.244	88.06
261.477	109.06
261.71	94.06
261.942	97.06
262.175	97.06
262.407	78.06
262.64	63.06
262.872	77.06
263.105	73.06
263.337	81.06
263.57	78.06
263.802	77.06
264.035	92.06
264.267	73.06
264.499	80.06
264.732	83.06
264.964	87.06
265.197	81.06
265.429	79.06
265.661	88.06
265.894	79.06
266.126	66.06
266.358	80.06
266.591	79.06
266.823	78.06
267.055	83.06
267.287	61.06
267.52	83.06
267.752	80.06
267.984	85.06
268.216	75.06
268.448	84.06
268.681	95.06
268.913	83.06
269.145	86.06
269.377	81.06
269.609	84.06
269.841	89.06
270.073	84.06
270.306	80.06
270.538	82.06
270.77	88.06
271.002	78.06
271.234	90.06
271.466	75.06
271.698	77.06
271.93	77.06
272.162	81.06
272.394	85.06
272.626	96.06
272.858	80.06
273.09	87.06
273.322	89.06
273.553	84.06
273.785	92.06
274.017	101.06
274.249	88.06
274.481	83.06
274.713	74.06
274.945	86.06
275.176	78.06
275.408	80.06
275.64	77.06
275.872	93.06
276.104	95.06
276.335	80.06
276.567	89.06
276.799	108.06
277.031	107.06
277.262	72.06
277.494	81.06
277.726	94.06
277.957	80.06
278.189	86.06
278.421	77.06
278.652	67.06
278.884	87.06
279.115	92.06
279.347	70.06
279.579	82.06
279.81	84.06
280.042	84.06
280.273	79.06
280.505	85.06
280.736	87.06
280.968	91.06
281.199	79.06
281.431	92.06
281.662	82.06
281.894	89.06
282.125	99.06
282.356	127.06
282.588	138.06
282.819	107.06
283.051	95.06
283.282	89.06
283.513	83.06
283.745	77.06
283.976	79.06
284.207	89.06
284.439	86.06
284.67	97.06
284.901	86.06
285.132	75.06
285.364	84.06
285.595	93.06
285.826	79.06
286.057	86.06
286.288	98.06
286.52	83.06
286.751	84.06
286.982	88.06
287.213	76.06
287.444	87.06
287.675	75.06
287.906	100.06
288.138	81.06
288.369	93.06
288.6	85.06
288.831	94.06
289.062	87.06
289.293	93.06
289.524	94.06
289.755	92.06
289.986	86.06
290.217	97.06
290.448	93.06
290.679	86.06
290.91	105.06
291.141	79.06
291.371	77.06
291.602	95.06
291.833	74.06
292.064	91.06
292.295	94.06
292.526	88.06
292.757	76.06
292.987	90.06
293.218	78.06
293.449	96.06
293.68	79.06
293.91	95.06
294.141	82.06
294.372	87.06
294.603	92.06
294.833	89.06
295.064	97.06
295.295	83.06
295.525	89.06
295.756	104.06
295.987	109.06
296.217	141.06
296.448	109.06
296.679	82.06
296.909	95.06
297.14	86.06
297.37	78.06
297.601	83.06
297.831	87.06
298.062	93.06
298.292	82.06
298.523	81.06
298.753	85.06
298.984	95.06
299.214	84.06
299.445	98.06
299.675	89.06
299.905	102.06
300.136	79.06
300.366	84.06
300.597	94.06
300.827	80.06
301.057	99.06
301.288	79.06
301.518	89.06
301.748	86.06
301.979	93.06
302.209	83.06
302.439	95.06
302.669	82.06
302.9	91.06
303.13	87.06
303.36	84.06
303.59	97.06
303.82	107.06
304.051	93.06
304.281	89.06
304.511	96.06
304.741	101.06
304.971	86.06
305.201	83.06
305.431	87.06
305.661	94.06
305.891	97.06
306.121	81.06
306.352	87.06
306.582	89.06
306.812	87.06
307.042	94.06
307.272	87.06
307.502	90.06
307.731	83.06
307.961	89.06
308.191	96.06
308.421	73.06
308.651	90.06
308.881	86.06
309.111	95.06
309.341	97.06
309.571	93.06
309.8	92.06
310.03	92.06
310.26	105.06
310.49	85.06
310.72	88.06
310.949	106.06
311.179	80.06
311.409	81.06
311.639	84.06
311.868	96.06
312.098	104.06
312.328	98.06
312.557	85.06
312.787	111.06
313.017	87.06
313.246	84.06
313.476	89.06
313.706	92.06
313.935	88.06
314.165	87.06
314.394	97.06
314.624	94.06
314.853	91.06
315.083	87.06
315.312	79.06
315.542	91.06
315.771	96.06
316.001	93.06
316.23	78.06
316.46	93.06
316.689	88.06
316.919	82.06
317.148	101.06
317.377	97.06
317.607	97.06
317.836	105.06
318.065	87.06
318.295	81.06
318.524	99.06
318.753	86.06
318.983	98.06
319.212	100.06
319.441	102.06
319.67	104.06
319.9	95.06
320.129	91.06
320.358	88.06
320.587	92.06
320.816	83.06
321.046	84.06
321.275	92.06
321.504	99.06
321.733	91.06
321.962	109.06
322.191	109.06
322.42	97.06
322.649	90.06
322.878	113.06
323.108	113.06
323.337	110.06
323.566	137.06
323.795	159.06
324.024	219.06
324.253	434.06
324.482	937.06
324.71	1931.06
324.939	2543.06
325.168	935.06
325.397	262.06
325.626	155.06
325.855	143.06
326.084	116.06
326.313	122.06
326.542	163.06
326.77	244.06
326.999	512.06
327.228	1068.06
327.457	1931.06
327.686	1524.06
327.914	409.06
328.143	201.06
328.372	140.06
328.6	107.06
328.829	113.06
329.058	120.06
329.287	122.06
329.515	93.06
329.744	91.06
329.972	107.06
330.201	106.06
330.43	110.06
330.658	115.06
330.887	127.06
331.115	130.06
331.344	93.06
331.572	105.06
331.801	98.06
332.03	93.06
332.258	99.06
332.486	99.06
332.715	97.06
332.943	88.06
333.172	99.06
333.4	86.06
333.629	117.06
333.857	126.06
334.085	109.06
334.314	93.06
334.542	95.06
334.771	83.06
334.999	89.06
335.227	92.06
335.455	102.06
335.684	107.06
335.912	96.06
336.14	95.06
336.369	102.06
336.597	95.06
336.825	103.06
337.053	101.06
337.281	104.06
337.51	85.06
337.738	102.06
337.966	86.06
338.194	103.06
338.422	83.06
338.65	70.06
338.878	90.06
339.106	91.06
339.334	76.06
339.562	88.06
339.79	84.06
340.018	88.06
340.246	85.06
340.474	71.06
340.702	84.06
340.93	93.06
341.158	87.06
341.386	88.06
341.614	87.06
341.842	97.06
342.07	81.06
342.298	94.06
342.526	82.06
342.754	87.06
342.981	77.06
343.209	93.06
343.437	101.06
343.665	82.06
343.893	86.06
344.12	105.06
344.348	84.06
344.576	89.06
344.804	82.06
345.031	100.06
345.259	83.06
345.487	85.06
345.714	94.06
345.942	83.06
346.17	87.06
346.397	85.06
346.625	87.06
346.853	95.06
347.08	88.06
347.308	93.06
347.535	99.06
347.763	98.06
347.99	112.06
348.218	95.06
348.445	97.06
348.673	88.06
348.9	81.06
349.128	92.06
349.355	89.06
349.583	92.06
349.81	105.06
350.037	106.06
350.265	89.06
350.492	92.06
350.72	90.06
350.947	87.06
351.174	93.06
351.402	103.06
351.629	103.06
351.856	110.06
352.083	94.06
352.311	90.06
352.538	107.06
352.765	123.06
352.992	116.06
353.22	108.06
353.447	95.06
353.674	98.06
353.901	86.06
354.128	83.06
354.355	101.06
354.583	95.06
354.81	85.06
355.037	92.06
355.264	93.06
355.491	86.06
355.718	101.06
355.945	99.06
356.172	111.06
356.399	93.06
356.626	99.06
356.853	94.06
357.08	94.06
357.307	80.06
357.534	95.06
357.761	99.06
357.988	95.06
358.215	99.06
358.441	90.06
358.668	86.06
358.895	91.06
359.122	77.06
359.349	92.06
359.576	101.06
359.802	89.06
360.029	113.06
360.256	112.06
360.483	98.06
360.709	87.06
360.936	103.06
361.163	96.06
361.39	88.06
361.616	89.06
361.843	82.06
362.07	85.06
362.296	87.06
362.523	73.06
362.749	67.06
362.976	106.06
363.203	80.06
363.429	101.06
363.656	78.06
363.882	82.06
364.109	80.06
364.335	89.06
364.562	84.06
364.788	79.06
365.015	94.06
365.241	111.06
365.468	112.06
365.694	94.06
365.92	115.06
366.147	84.06
366.373	94.06
366.599	85.06
366.826	71.06
367.052	89.06
367.278	94.06
367.505	79.06
367.731	78.06
367.957	89.06
368.184	83.06
368.41	90.06
368.636	108.06
368.862	108.06
369.089	98.06
369.315	102.06
369.541	79.06
369.767	80.06
369.993	89.06
370.219	94.06
370.445	79.06
370.672	95.06
370.898	99.06
371.124	92.06
371.35	91.06
371.576	94.06
371.802	73.06
372.028	88.06
372.254	91.06
372.48	80.06
372.706	88.06
372.932	89.06
373.158	89.06
373.384	85.06
373.61	99.06
373.835	91.06
374.061	91.06
374.287	97.06
374.513	88.06
374.739	100.06
374.965	93.06
375.191	83.06
375.416	87.06
375.642	100.06
375.868	91.06
376.094	97.06
376.319	100.06
376.545	84.06
376.771	84.06
376.997	89.06
377.222	89.06
377.448	94.06
377.674	86.06
377.899	72.06
378.125	81.06
378.35	75.06
378.576	80.06
378.802	90.06
379.027	103.06
379.253	99.06
379.478	99.06
379.704	93.06
379.929	99.06
380.155	83.06
380.38	106.06
380.606	78.06
380.831	101.06
381.057	111.06
381.282	97.06
381.507	117.06
381.733	107.06
381.958	87.06
382.184	98.06
382.409	90.06
382.634	102.06
382.86	101.06
383.085	93.06
383.31	99.06
383.535	109.06
383.761	96.06
383.986	98.06
384.211	88.06
384.436	100.06
384.662	100.06
384.887	105.06
385.112	95.06
385.337	101.06
385.562	106.06
385.787	102.06
386.013	114.06
386.238	98.06
386.463	119.06
386.688	93.06
386.913	118.06
387.138	115.06
387.363	95.06
387.588	95.06
387.813	100.06
388.038	112.06
388.263	107.06
388.488	113.06
388.713	109.06
388.938	87.06
389.163	102.06
389.387	104.06
389.612	95.06
389.837	79.06
390.062	87.06
390.287	80.06
390.512	92.06
390.736	97.06
390.961	90.06
391.186	111.06
391.411	88.06
391.636	95.06
391.86	86.06
392.085	95.06
392.31	79.06
392.534	87.06
392.759	91.06
392.984	95.06
393.208	89.06
393.433	92.06
393.658	83.06
393.882	77.06
394.107	96.06
394.331	88.06
394.556	91.06
394.78	87.06
395.005	95.06
395.229	85.06
395.454	85.06
395.678	76.06
395.903	73.06
396.127	81.06
396.352	97.06
396.576	85.06
396.801	75.06
397.025	85.06
397.249	78.06
397.474	89.06
397.698	95.06
397.922	85.06
398.147	92.06
398.371	89.06
398.595	94.06
398.82	87.06
399.044	73.06
399.268	103.06
399.492	89.06
399.717	100.06
399.941	85.06
400.165	90.06
400.389	89.06
400.613	88.06
400.837	86.06
401.062	97.06
401.286	98.06
401.51	77.06
401.734	96.06
401.958	100.06
402.182	124.06
402.406	159.06
402.63	109.06
402.854	98.06
403.078	87.06
403.302	89.06
403.526	84.06
403.75	80.06
403.974	86.06
404.198	94.06
404.422	96.06
404.645	88.06
404.869	95.06
405.093	87.06
405.317	86.06
405.541	84.06
405.765	89.06
405.988	105.06
406.212	159.06
406.436	223.06
406.66	149.06
406.883	99.06
407.107	85.06
407.331	102.06
407.555	97.06
407.778	107.06
408.002	97.06
408.226	77.06
408.449	93.06
408.673	76.06
408.896	94.06
409.12	101.06
409.344	86.06
409.567	75.06
409.791	94.06
410.014	98.06
410.238	94.06
410.461	105.06
410.685	80.06
410.908	108.06
411.132	101.06
411.355	112.06
411.578	100.06
411.802	90.06
412.025	88.06
412.249	87.06
412.472	85.06
412.695	97.06
412.919	90.06
413.142	96.06
413.365	82.06
413.589	96.06
413.812	91.06
414.035	102.06
414.258	87.06
414.482	75.06
414.705	91.06
414.928	87.06
415.151	93.06
415.374	93.06
415.597	87.06
415.821	92.06
416.044	92.06
416.267	98.06
416.49	98.06
416.713	88.06
416.936	93.06
417.159	87.06
417.382	94.06
417.605	92.06
417.828	93.06
418.051	110.06
418.274	94.06
418.497	84.06
418.72	84.06
418.943	71.06
419.166	87.06
419.389	80.06
419.611	88.06
419.834	94.06
420.057	96.06
420.28	99.06
420.503	99.06
420.726	81.06
420.948	83.06
421.171	86.06
421.394	97.06
421.617	90.06
421.839	87.06
422.062	76.06
422.285	83.06
422.507	100.06
422.73	101.06
422.953	75.06
423.175	87.06
423.398	88.06
423.621	72.06
423.843	91.06
424.066	88.06
424.288	97.06
424.511	91.06
424.733	110.06
424.956	96.06
425.178	90.06
425.401	112.06
425.623	103.06
425.846	91.06
426.068	82.06
426.291	89.06
426.513	89.06
426.735	92.06
426.958	87.06
427.18	116.06
427.402	142.06
427.625	155.06
427.847	122.06
428.069	106.06
428.292	88.06
428.514	91.06
428.736	78.06
428.958	72.06
429.181	92.06
429.403	76.06
429.625	87.06
429.847	95.06
430.069	99.06
430.292	100.06
430.514	81.06
430.736	78.06
430.958	94.06
431.18	84.06
431.402	79.06
431.624	61.06
431.846	82.06
432.068	86.06
432.29	89.06
432.512	84.06
432.734	81.06
432.956	87.06
433.178	92.06
433.4	87.06
433.622	98.06
433.844	92.06
434.066	85.06
434.287	84.06
434.509	97.06
434.731	92.06
434.953	83.06
435.175	91.06
435.397	86.06
435.618	84.06
435.84	105.06
436.062	132.06
436.284	97.06
436.505	100.06
436.727	97.06
436.949	103.06
437.17	75.06
437.392	95.06
437.614	97.06
437.835	95.06
438.057	114.06
438.278	108.06
438.5	94.06
438.721	135.06
438.943	89.06
439.165	83.06
439.386	92.06
439.608	119.06
439.829	96.06
440.05	114.06
440.272	141.06
440.493	103.06
440.715	92.06
440.936	91.06
441.158	104.06
441.379	91.06
441.6	89.06
441.822	85.06
442.043	88.06
442.264	89.06
442.486	108.06
442.707	100.06
442.928	114.06
443.149	126.06
443.371	123.06
443.592	108.06
443.813	110.06
444.034	96.06
444.255	89.06
444.476	85.06
444.698	85.06
444.919	83.06
445.14	134.06
445.361	128.06
445.582	110.06
445.803	121.06
446.024	125.06
446.245	136.06
446.466	117.06
446.687	100.06
446.908	92.06
447.129	90.06
447.35	89.06
447.571	93.06
447.792	103.06
448.013	99.06
448.234	110.06
448.455	97.06
448.675	124.06
448.896	105.06
449.117	94.06
449.338	111.06
449.559	131.06
449.779	117.06
450	86.06
450.221	88.06
450.442	81.06
450.662	77.06
450.883	110.06
451.104	111.06
451.324	78.06
451.545	92.06
451.766	88.06
451.986	94.06
452.207	83.06
452.428	88.06
452.648	89.06
452.869	109.06
453.089	110.06
453.31	113.06
453.53	95.06
453.751	88.06
453.971	81.06
454.192	95.06
454.412	97.06
454.633	80.06
454.853	94.06
455.073	97.06
455.294	76.06
455.514	100.06
455.734	89.06
455.955	81.06
456.175	79.06
456.395	74.06
456.616	81.06
456.836	81.06
457.056	75.06
457.276	86.06
457.497	80.06
457.717	77.06
457.937	92.06
458.157	90.06
458.377	89.06
458.598	94.06
458.818	131.06
459.038	145.06
459.258	117.06
459.478	96.06
459.698	86.06
459.918	77.06
460.138	78.06
460.358	76.06
460.578	79.06
460.798	102.06
461.018	82.06
461.238	91.06
461.458	93.06
461.678	98.06
461.898	92.06
462.118	73.06
462.338	83.06
462.558	79.06
462.777	90.06
462.997	82.06
463.217	79.06
463.437	83.06
463.657	98.06
463.876	93.06
464.096	89.06
464.316	92.06
464.536	90.06
464.755	97.06
464.975	97.06
465.195	134.06
465.414	147.06
465.634	91.06
465.854	85.06
466.073	77.06
466.293	94.06
466.512	84.06
466.732	99.06
466.951	89.06
467.171	107.06
467.391	84.06
467.61	92.06
467.829	92.06
468.049	89.06
468.268	98.06
468.488	85.06
468.707	79.06
468.927	87.06
469.146	98.06
469.365	87.06
469.585	86.06
469.804	112.06
470.023	96.06
470.243	95.06
470.462	96.06
470.681	106.06
470.901	81.06
471.12	95.06
471.339	84.06
471.558	98.06
471.777	84.06
471.997	79.06
472.216	85.06
472.435	107.06
472.654	87.06
472.873	88.06
473.092	91.06
473.311	91.06
473.53	89.06
473.749	91.06
473.968	87.06
474.187	80.06
474.406	93.06
474.625	77.06
474.844	87.06
475.063	94.06
475.282	91.06
475.501	82.06
475.72	79.06
475.939	71.06
476.158	85.06
476.377	78.06
476.596	84.06
476.814	94.06
477.033	92.06
477.252	92.06
477.471	81.06
477.69	98.06
477.908	89.06
478.127	95.06
478.346	92.06
478.564	77.06
478.783	87.06
479.002	77.06
479.22	99.06
479.439	99.06
479.658	92.06
479.876	87.06
480.095	84.06
480.313	77.06
480.532	87.06
480.751	101.06
480.969	88.06
481.188	96.06
481.406	105.06
481.624	94.06
481.843	96.06
482.061	81.06
482.28	93.06
482.498	97.06
482.717	89.06
482.935	92.06
483.153	84.06
483.372	90.06
483.59	85.06
483.808	84.06
484.027	95.06
484.245	96.06
484.463	89.06
484.681	97.06
484.9	96.06
485.118	82.06
485.336	94.06
485.554	101.06
485.772	110.06
485.99	94.06
486.209	117.06
486.427	109.06
486.645	117.06
486.863	135.06
487.081	106.06
487.299	90.06
487.517	95.06
487.735	94.06
487.953	102.06
488.171	96.06
488.389	79.06
488.607	95.06
488.825	104.06
489.043	91.06
489.261	91.06
489.479	93.06
489.696	86.06
489.914	89.06
490.132	82.06
490.35	84.06
490.568	63.06
490.786	91.06
491.003	85.06
491.221	96.06
491.439	87.06
491.657	97.06
491.874	86.06
492.092	89.06
492.31	89.06
492.527	88.06
492.745	85.06
492.963	109.06
493.18	93.06
493.398	98.06
493.615	98.06
493.833	97.06
494.05	100.06
494.268	92.06
494.485	87.06
494.703	88.06
494.92	99.06
495.138	77.06
495.355	78.06
495.573	96.06
495.79	84.06
496.008	101.06
496.225	93.06
496.442	95.06
496.66	98.06
496.877	78.06
497.094	82.06
497.312	87.06
497.529	75.06
497.746	92.06
497.963	86.06
498.181	91.06
498.398	93.06
498.615	100.06
498.832	101.06
499.049	82.06
499.267	104.06
499.484	86.06
499.701	79.06
499.918	85.06
500.135	86.06
500.352	77.06
500.569	83.06
500.786	93.06
501.003	97.06
501.22	77.06
501.437	89.06
501.654	92.06
501.871	104.06
502.088	92.06
502.305	101.06
502.522	98.06
502.739	92.06
502.956	80.06
503.172	90.06
503.389	101.06
503.606	103.06
503.823	97.06
504.04	94.06
504.256	108.06
504.473	87.06
504.69	82.06
504.907	95.06
505.123	101.06
505.34	92.06
505.557	93.06
505.773	88.06
505.99	88.06
506.207	89.06
506.423	87.06
506.64	96.06
506.856	87.06
507.073	77.06
507.289	99.06
507.506	95.06
507.722	98.06
507.939	114.06
508.155	113.06
508.372	95.06
508.588	88.06
508.805	102.06
509.021	89.06
509.238	110.06
509.454	116.06
509.67	111.06
509.887	94.06
510.103	124.06
510.319	214.06
510.536	815.06
510.752	2519.06
510.968	700.06
511.184	155.06
511.401	92.06
511.617	95.06
511.833	78.06
512.049	100.06
512.265	87.06
512.481	96.06
512.698	101.06
512.914	90.06
513.13	87.06
513.346	80.06
513.562	87.06
513.778	104.06
513.994	88.06
514.21	97.06
514.426	117.06
514.642	124.06
514.858	125.06
515.074	168.06
515.29	460.06
515.506	1473.06
515.721	550.06
515.937	150.06
516.153	109.06
516.369	94.06
