Data from Uncirc_2003_H10_HRD10591_00064.txt Node
Date: Wed Jan 03 10:36:00 EST 2024
User: Yrep
Spectrometer: HR+D1059
Trigger mode: 1
Integration Time (sec): 1.000000E-1
Scans to average: 1
Electric dark correction enabled: true
Nonlinearity correction enabled: false
Boxcar width: 0
XAxis mode: Wavelengths
Number of Pixels in Spectrum: 2048
>>>>>Begin Spectral Data<<<<<
223.165	-19.75
223.4	-19.75
223.635	-19.75
223.869	-16.75
224.104	-18.75
224.338	-5.75
224.573	-24.75
224.808	5.25
225.042	0.25
225.277	-12.75
225.511	-7.75
225.746	-10.75
225.98	-2.75
226.215	8.25
226.449	19.25
226.683	25.25
226.918	21.25
227.152	40.25
227.387	28.25
227.621	39.25
227.856	31.25
228.09	46.25
228.324	45.25
228.559	55.25
228.793	70.25
229.027	70.25
229.262	62.25
229.496	66.25
229.73	85.25
229.964	83.25
230.199	70.25
230.433	81.25
230.667	68.25
230.901	73.25
231.136	73.25
231.37	80.25
231.604	79.25
231.838	71.25
232.072	81.25
232.306	90.25
232.541	88.25
232.775	89.25
233.009	72.25
233.243	67.25
233.477	97.25
233.711	82.25
233.945	79.25
234.179	73.25
234.413	90.25
234.647	102.25
234.881	82.25
235.115	83.25
235.349	82.25
235.583	75.25
235.817	78.25
236.051	83.25
236.285	68.25
236.519	86.25
236.753	90.25
236.987	66.25
237.221	94.25
237.455	90.25
237.689	94.25
237.922	78.25
238.156	71.25
238.39	63.25
238.624	71.25
238.858	98.25
239.091	83.25
239.325	84.25
239.559	73.25
239.793	68.25
240.027	82.25
240.26	88.25
240.494	77.25
240.728	74.25
240.961	76.25
241.195	88.25
241.429	82.25
241.662	74.25
241.896	77.25
242.13	80.25
242.363	74.25
242.597	66.25
242.83	75.25
243.064	73.25
243.298	78.25
243.531	72.25
243.765	69.25
243.998	80.25
244.232	88.25
244.465	91.25
244.699	63.25
244.932	78.25
245.166	80.25
245.399	73.25
245.633	83.25
245.866	83.25
246.099	72.25
246.333	95.25
246.566	87.25
246.8	71.25
247.033	85.25
247.266	73.25
247.5	87.25
247.733	74.25
247.966	77.25
248.2	71.25
248.433	73.25
248.666	81.25
248.899	82.25
249.133	85.25
249.366	98.25
249.599	87.25
249.832	76.25
250.066	77.25
250.299	83.25
250.532	98.25
250.765	71.25
250.998	80.25
251.231	77.25
251.465	81.25
251.698	80.25
251.931	57.25
252.164	82.25
252.397	78.25
252.63	77.25
252.863	97.25
253.096	86.25
253.329	84.25
253.562	85.25
253.795	95.25
254.028	83.25
254.261	89.25
254.494	63.25
254.727	77.25
254.96	83.25
255.193	75.25
255.426	71.25
255.659	82.25
255.892	79.25
256.124	81.25
256.357	82.25
256.59	84.25
256.823	64.25
257.056	82.25
257.289	74.25
257.521	79.25
257.754	62.25
257.987	84.25
258.22	101.25
258.452	78.25
258.685	79.25
258.918	82.25
259.151	78.25
259.383	72.25
259.616	78.25
259.849	63.25
260.081	77.25
260.314	83.25
260.547	97.25
260.779	72.25
261.012	94.25
261.244	84.25
261.477	74.25
261.71	82.25
261.942	110.25
262.175	118.25
262.407	102.25
262.64	84.25
262.872	81.25
263.105	79.25
263.337	94.25
263.57	94.25
263.802	82.25
264.035	67.25
264.267	86.25
264.499	76.25
264.732	58.25
264.964	78.25
265.197	90.25
265.429	70.25
265.661	71.25
265.894	79.25
266.126	77.25
266.358	92.25
266.591	79.25
266.823	79.25
267.055	77.25
267.287	86.25
267.52	72.25
267.752	84.25
267.984	85.25
268.216	90.25
268.448	85.25
268.681	80.25
268.913	91.25
269.145	83.25
269.377	80.25
269.609	82.25
269.841	98.25
270.073	93.25
270.306	73.25
270.538	79.25
270.77	102.25
271.002	93.25
271.234	95.25
271.466	98.25
271.698	90.25
271.93	97.25
272.162	65.25
272.394	81.25
272.626	82.25
272.858	99.25
273.09	98.25
273.322	79.25
273.553	83.25
273.785	83.25
274.017	87.25
274.249	89.25
274.481	78.25
274.713	84.25
274.945	91.25
275.176	95.25
275.408	93.25
275.64	106.25
275.872	81.25
276.104	86.25
276.335	86.25
276.567	95.25
276.799	108.25
277.031	98.25
277.262	86.25
277.494	81.25
277.726	78.25
277.957	76.25
278.189	96.25
278.421	105.25
278.652	103.25
278.884	82.25
279.115	87.25
279.347	86.25
279.579	85.25
279.81	89.25
280.042	80.25
280.273	82.25
280.505	94.25
280.736	78.25
280.968	88.25
281.199	79.25
281.431	94.25
281.662	74.25
281.894	87.25
282.125	97.25
282.356	112.25
282.588	144.25
282.819	132.25
283.051	100.25
283.282	89.25
283.513	92.25
283.745	80.25
283.976	80.25
284.207	97.25
284.439	90.25
284.67	94.25
284.901	101.25
285.132	85.25
285.364	86.25
285.595	82.25
285.826	86.25
286.057	88.25
286.288	96.25
286.52	89.25
286.751	102.25
286.982	92.25
287.213	98.25
287.444	88.25
287.675	94.25
287.906	102.25
288.138	91.25
288.369	97.25
288.6	87.25
288.831	82.25
289.062	81.25
289.293	80.25
289.524	89.25
289.755	100.25
289.986	81.25
290.217	77.25
290.448	106.25
290.679	94.25
290.91	72.25
291.141	93.25
291.371	89.25
291.602	88.25
291.833	74.25
292.064	81.25
292.295	69.25
292.526	90.25
292.757	88.25
292.987	96.25
293.218	73.25
293.449	90.25
293.68	80.25
293.91	89.25
294.141	99.25
294.372	79.25
294.603	97.25
294.833	86.25
295.064	74.25
295.295	87.25
295.525	103.25
295.756	99.25
295.987	107.25
296.217	145.25
296.448	111.25
296.679	86.25
296.909	86.25
297.14	90.25
297.37	90.25
297.601	72.25
297.831	81.25
298.062	84.25
298.292	77.25
298.523	93.25
298.753	84.25
298.984	102.25
299.214	85.25
299.445	90.25
299.675	83.25
299.905	107.25
300.136	80.25
300.366	97.25
300.597	85.25
300.827	81.25
301.057	89.25
301.288	109.25
301.518	96.25
301.748	103.25
301.979	104.25
302.209	81.25
302.439	70.25
302.669	78.25
302.9	80.25
303.13	83.25
303.36	104.25
303.59	106.25
303.82	99.25
304.051	99.25
304.281	72.25
304.511	80.25
304.741	97.25
304.971	99.25
305.201	77.25
305.431	91.25
305.661	90.25
305.891	75.25
306.121	109.25
306.352	111.25
306.582	110.25
306.812	87.25
307.042	87.25
307.272	83.25
307.502	96.25
307.731	100.25
307.961	84.25
308.191	74.25
308.421	91.25
308.651	94.25
308.881	97.25
309.111	91.25
309.341	100.25
309.571	86.25
309.8	80.25
310.03	92.25
310.26	96.25
310.49	97.25
310.72	111.25
310.949	105.25
311.179	98.25
311.409	91.25
311.639	99.25
311.868	95.25
312.098	79.25
312.328	103.25
312.557	96.25
312.787	121.25
313.017	106.25
313.246	93.25
313.476	103.25
313.706	85.25
313.935	86.25
314.165	96.25
314.394	97.25
314.624	98.25
314.853	95.25
315.083	95.25
315.312	108.25
315.542	86.25
315.771	87.25
316.001	80.25
316.23	101.25
316.46	86.25
316.689	102.25
316.919	95.25
317.148	81.25
317.377	94.25
317.607	91.25
317.836	85.25
318.065	93.25
318.295	86.25
318.524	93.25
318.753	87.25
318.983	95.25
319.212	92.25
319.441	106.25
319.67	113.25
319.9	84.25
320.129	91.25
320.358	94.25
320.587	102.25
320.816	93.25
321.046	86.25
321.275	95.25
321.504	81.25
321.733	97.25
321.962	100.25
322.191	107.25
322.42	97.25
322.649	111.25
322.878	115.25
323.108	125.25
323.337	125.25
323.566	131.25
323.795	170.25
324.024	246.25
324.253	443.25
324.482	993.25
324.71	2009.25
324.939	2661.25
325.168	973.25
325.397	280.25
325.626	160.25
325.855	131.25
326.084	121.25
326.313	131.25
326.542	156.25
326.77	257.25
326.999	523.25
327.228	1083.25
327.457	2002.25
327.686	1608.25
327.914	401.25
328.143	216.25
328.372	150.25
328.6	128.25
328.829	122.25
329.058	127.25
329.287	116.25
329.515	127.25
329.744	103.25
329.972	99.25
330.201	87.25
330.43	110.25
330.658	135.25
330.887	145.25
331.115	119.25
331.344	99.25
331.572	100.25
331.801	89.25
332.03	97.25
332.258	104.25
332.486	98.25
332.715	107.25
332.943	95.25
333.172	109.25
333.4	90.25
333.629	100.25
333.857	114.25
334.085	113.25
334.314	100.25
334.542	102.25
334.771	115.25
334.999	104.25
335.227	94.25
335.455	98.25
335.684	101.25
335.912	98.25
336.14	87.25
336.369	101.25
336.597	108.25
336.825	119.25
337.053	88.25
337.281	79.25
337.51	95.25
337.738	96.25
337.966	85.25
338.194	104.25
338.422	97.25
338.65	95.25
338.878	104.25
339.106	84.25
339.334	89.25
339.562	90.25
339.79	87.25
340.018	67.25
340.246	89.25
340.474	100.25
340.702	83.25
340.93	98.25
341.158	92.25
341.386	94.25
341.614	100.25
341.842	91.25
342.07	88.25
342.298	90.25
342.526	96.25
342.754	85.25
342.981	83.25
343.209	95.25
343.437	102.25
343.665	87.25
343.893	101.25
344.12	96.25
344.348	90.25
344.576	105.25
344.804	88.25
345.031	94.25
345.259	83.25
345.487	93.25
345.714	81.25
345.942	107.25
346.17	100.25
346.397	97.25
346.625	99.25
346.853	88.25
347.08	85.25
347.308	107.25
347.535	102.25
347.763	110.25
347.99	87.25
348.218	115.25
348.445	99.25
348.673	105.25
348.9	97.25
349.128	105.25
349.355	91.25
349.583	102.25
349.81	95.25
350.037	102.25
350.265	97.25
350.492	87.25
350.72	89.25
350.947	100.25
351.174	100.25
351.402	111.25
351.629	104.25
351.856	102.25
352.083	106.25
352.311	110.25
352.538	106.25
352.765	111.25
352.992	120.25
353.22	119.25
353.447	114.25
353.674	102.25
353.901	121.25
354.128	98.25
354.355	99.25
354.583	103.25
354.81	104.25
355.037	98.25
355.264	96.25
355.491	87.25
355.718	98.25
355.945	96.25
356.172	111.25
356.399	107.25
356.626	87.25
356.853	93.25
357.08	98.25
357.307	79.25
357.534	91.25
357.761	88.25
357.988	98.25
358.215	101.25
358.441	101.25
358.668	103.25
358.895	104.25
359.122	99.25
359.349	88.25
359.576	84.25
359.802	88.25
360.029	116.25
360.256	104.25
360.483	106.25
360.709	95.25
360.936	96.25
361.163	97.25
361.39	99.25
361.616	94.25
361.843	84.25
362.07	105.25
362.296	98.25
362.523	99.25
362.749	98.25
362.976	105.25
363.203	88.25
363.429	77.25
363.656	90.25
363.882	80.25
364.109	98.25
364.335	96.25
364.562	90.25
364.788	82.25
365.015	94.25
365.241	85.25
365.468	103.25
365.694	102.25
365.92	105.25
366.147	105.25
366.373	98.25
366.599	101.25
366.826	84.25
367.052	89.25
367.278	89.25
367.505	92.25
367.731	108.25
367.957	84.25
368.184	78.25
368.41	98.25
368.636	121.25
368.862	135.25
369.089	103.25
369.315	99.25
369.541	90.25
369.767	92.25
369.993	101.25
370.219	96.25
370.445	97.25
370.672	91.25
370.898	80.25
371.124	98.25
371.35	90.25
371.576	88.25
371.802	90.25
372.028	94.25
372.254	85.25
372.48	94.25
372.706	84.25
372.932	93.25
373.158	103.25
373.384	93.25
373.61	94.25
373.835	88.25
374.061	85.25
374.287	99.25
374.513	88.25
374.739	89.25
374.965	91.25
375.191	93.25
375.416	75.25
375.642	84.25
375.868	90.25
376.094	74.25
376.319	81.25
376.545	92.25
376.771	85.25
376.997	97.25
377.222	88.25
377.448	90.25
377.674	102.25
377.899	94.25
378.125	90.25
378.35	85.25
378.576	95.25
378.802	97.25
379.027	101.25
379.253	93.25
379.478	90.25
379.704	91.25
379.929	95.25
380.155	99.25
380.38	88.25
380.606	81.25
380.831	97.25
381.057	98.25
381.282	111.25
381.507	102.25
381.733	87.25
381.958	101.25
382.184	85.25
382.409	99.25
382.634	96.25
382.86	90.25
383.085	89.25
383.31	97.25
383.535	100.25
383.761	97.25
383.986	94.25
384.211	114.25
384.436	105.25
384.662	100.25
384.887	96.25
385.112	102.25
385.337	105.25
385.562	102.25
385.787	116.25
386.013	118.25
386.238	104.25
386.463	102.25
386.688	110.25
386.913	119.25
387.138	119.25
387.363	100.25
387.588	106.25
387.813	116.25
388.038	108.25
388.263	107.25
388.488	126.25
388.713	97.25
388.938	94.25
389.163	101.25
389.387	85.25
389.612	97.25
389.837	101.25
390.062	92.25
390.287	95.25
390.512	102.25
390.736	87.25
390.961	96.25
391.186	98.25
391.411	109.25
391.636	94.25
391.86	81.25
392.085	89.25
392.31	101.25
392.534	88.25
392.759	81.25
392.984	82.25
393.208	97.25
393.433	78.25
393.658	77.25
393.882	86.25
394.107	79.25
394.331	89.25
394.556	90.25
394.78	79.25
395.005	97.25
395.229	82.25
395.454	86.25
395.678	77.25
395.903	87.25
396.127	88.25
396.352	86.25
396.576	94.25
396.801	84.25
397.025	89.25
397.249	94.25
397.474	100.25
397.698	96.25
397.922	87.25
398.147	83.25
398.371	76.25
398.595	88.25
398.82	101.25
399.044	89.25
399.268	87.25
399.492	90.25
399.717	84.25
399.941	96.25
400.165	89.25
400.389	88.25
400.613	92.25
400.837	97.25
401.062	84.25
401.286	84.25
401.51	95.25
401.734	98.25
401.958	104.25
402.182	143.25
402.406	155.25
402.63	119.25
402.854	102.25
403.078	90.25
403.302	83.25
403.526	78.25
403.75	91.25
403.974	90.25
404.198	77.25
404.422	86.25
404.645	88.25
404.869	83.25
405.093	88.25
405.317	104.25
405.541	94.25
405.765	99.25
405.988	120.25
406.212	192.25
406.436	265.25
406.66	165.25
406.883	101.25
407.107	97.25
407.331	104.25
407.555	88.25
407.778	112.25
408.002	93.25
408.226	79.25
408.449	76.25
408.673	82.25
408.896	96.25
409.12	104.25
409.344	87.25
409.567	96.25
409.791	85.25
410.014	81.25
410.238	88.25
410.461	97.25
410.685	104.25
410.908	105.25
411.132	109.25
411.355	98.25
411.578	90.25
411.802	82.25
412.025	78.25
412.249	95.25
412.472	95.25
412.695	89.25
412.919	99.25
413.142	81.25
413.365	90.25
413.589	99.25
413.812	89.25
414.035	89.25
414.258	86.25
414.482	86.25
414.705	71.25
414.928	91.25
415.151	85.25
415.374	110.25
415.597	90.25
415.821	102.25
416.044	84.25
416.267	86.25
416.49	90.25
416.713	102.25
416.936	88.25
417.159	102.25
417.382	96.25
417.605	89.25
417.828	97.25
418.051	113.25
418.274	90.25
418.497	91.25
418.72	84.25
418.943	89.25
419.166	97.25
419.389	78.25
419.611	82.25
419.834	101.25
420.057	93.25
420.28	94.25
420.503	90.25
420.726	91.25
420.948	91.25
421.171	98.25
421.394	95.25
421.617	91.25
421.839	99.25
422.062	85.25
422.285	100.25
422.507	110.25
422.73	117.25
422.953	98.25
423.175	90.25
423.398	86.25
423.621	80.25
423.843	91.25
424.066	86.25
424.288	78.25
424.511	90.25
424.733	96.25
424.956	103.25
425.178	109.25
425.401	91.25
425.623	90.25
425.846	99.25
426.068	90.25
426.291	109.25
426.513	112.25
426.735	96.25
426.958	85.25
427.18	110.25
427.402	143.25
427.625	180.25
427.847	141.25
428.069	90.25
428.292	87.25
428.514	89.25
428.736	100.25
428.958	79.25
429.181	103.25
429.403	89.25
429.625	92.25
429.847	96.25
430.069	85.25
430.292	81.25
430.514	88.25
430.736	86.25
430.958	95.25
431.18	75.25
431.402	98.25
431.624	88.25
431.846	88.25
432.068	91.25
432.29	100.25
432.512	95.25
432.734	90.25
432.956	81.25
433.178	103.25
433.4	101.25
433.622	80.25
433.844	101.25
434.066	113.25
434.287	108.25
434.509	88.25
434.731	99.25
434.953	79.25
435.175	73.25
435.397	97.25
435.618	82.25
435.84	102.25
436.062	142.25
436.284	119.25
436.505	98.25
436.727	102.25
436.949	89.25
437.17	93.25
437.392	88.25
437.614	80.25
437.835	112.25
438.057	112.25
438.278	103.25
438.5	122.25
438.721	122.25
438.943	102.25
439.165	96.25
439.386	95.25
439.608	102.25
439.829	101.25
440.05	141.25
440.272	151.25
440.493	104.25
440.715	93.25
440.936	95.25
441.158	94.25
441.379	93.25
441.6	99.25
441.822	88.25
442.043	95.25
442.264	91.25
442.486	110.25
442.707	95.25
442.928	103.25
443.149	134.25
443.371	134.25
443.592	97.25
443.813	103.25
444.034	121.25
444.255	89.25
444.476	87.25
444.698	92.25
444.919	85.25
445.14	126.25
445.361	119.25
445.582	133.25
445.803	127.25
446.024	125.25
446.245	141.25
446.466	115.25
446.687	92.25
446.908	100.25
447.129	91.25
447.35	89.25
447.571	81.25
447.792	68.25
448.013	103.25
448.234	99.25
448.455	94.25
448.675	103.25
448.896	112.25
449.117	104.25
449.338	107.25
449.559	135.25
449.779	140.25
450	103.25
450.221	85.25
450.442	91.25
450.662	82.25
450.883	118.25
451.104	126.25
451.324	97.25
451.545	84.25
451.766	93.25
451.986	87.25
452.207	87.25
452.428	98.25
452.648	101.25
452.869	105.25
453.089	105.25
453.31	129.25
453.53	88.25
453.751	110.25
453.971	100.25
454.192	103.25
454.412	79.25
454.633	98.25
454.853	74.25
455.073	92.25
455.294	88.25
455.514	98.25
455.734	94.25
455.955	83.25
456.175	82.25
456.395	79.25
456.616	77.25
456.836	90.25
457.056	90.25
457.276	85.25
457.497	93.25
457.717	83.25
457.937	84.25
458.157	88.25
458.377	89.25
458.598	108.25
458.818	142.25
459.038	170.25
459.258	118.25
459.478	102.25
459.698	83.25
459.918	81.25
460.138	74.25
460.358	89.25
460.578	86.25
460.798	82.25
461.018	88.25
461.238	81.25
461.458	81.25
461.678	81.25
461.898	93.25
462.118	86.25
462.338	88.25
462.558	80.25
462.777	83.25
462.997	88.25
463.217	87.25
463.437	80.25
463.657	80.25
463.876	102.25
464.096	83.25
464.316	83.25
464.536	82.25
464.755	100.25
464.975	97.25
465.195	174.25
465.414	155.25
465.634	88.25
465.854	98.25
466.073	91.25
466.293	87.25
466.512	73.25
466.732	88.25
466.951	89.25
467.171	104.25
467.391	87.25
467.61	102.25
467.829	105.25
468.049	80.25
468.268	83.25
468.488	82.25
468.707	93.25
468.927	93.25
469.146	96.25
469.365	87.25
469.585	75.25
469.804	104.25
470.023	99.25
470.243	93.25
470.462	98.25
470.681	110.25
470.901	94.25
471.12	82.25
471.339	80.25
471.558	87.25
471.777	79.25
471.997	82.25
472.216	97.25
472.435	99.25
472.654	88.25
472.873	91.25
473.092	83.25
473.311	95.25
473.53	86.25
473.749	85.25
473.968	90.25
474.187	96.25
474.406	85.25
474.625	85.25
474.844	86.25
475.063	86.25
475.282	95.25
475.501	91.25
475.72	88.25
475.939	86.25
476.158	95.25
476.377	95.25
476.596	93.25
476.814	104.25
477.033	85.25
477.252	87.25
477.471	86.25
477.69	91.25
477.908	100.25
478.127	79.25
478.346	83.25
478.564	88.25
478.783	96.25
479.002	92.25
479.22	90.25
479.439	110.25
479.658	113.25
479.876	108.25
480.095	85.25
480.313	89.25
480.532	77.25
480.751	78.25
480.969	84.25
481.188	95.25
481.406	87.25
481.624	82.25
481.843	82.25
482.061	89.25
482.28	87.25
482.498	91.25
482.717	79.25
482.935	76.25
483.153	80.25
483.372	90.25
483.59	87.25
483.808	81.25
484.027	86.25
484.245	91.25
484.463	89.25
484.681	90.25
484.9	79.25
485.118	95.25
485.336	102.25
485.554	95.25
485.772	111.25
485.99	107.25
486.209	104.25
486.427	103.25
486.645	110.25
486.863	106.25
487.081	98.25
487.299	110.25
487.517	103.25
487.735	80.25
487.953	99.25
488.171	90.25
488.389	91.25
488.607	88.25
488.825	109.25
489.043	85.25
489.261	93.25
489.479	82.25
489.696	92.25
489.914	92.25
490.132	79.25
490.35	97.25
490.568	86.25
490.786	81.25
491.003	113.25
491.221	99.25
491.439	74.25
491.657	90.25
491.874	100.25
492.092	95.25
492.31	87.25
492.527	81.25
492.745	96.25
492.963	79.25
493.18	95.25
493.398	101.25
493.615	97.25
493.833	100.25
494.05	94.25
494.268	91.25
494.485	106.25
494.703	101.25
494.92	88.25
495.138	86.25
495.355	98.25
495.573	86.25
495.79	86.25
496.008	90.25
496.225	97.25
496.442	88.25
496.66	87.25
496.877	88.25
497.094	89.25
497.312	85.25
497.529	95.25
497.746	106.25
497.963	104.25
498.181	88.25
498.398	101.25
498.615	105.25
498.832	114.25
499.049	90.25
499.267	72.25
499.484	96.25
499.701	87.25
499.918	93.25
500.135	97.25
500.352	86.25
500.569	88.25
500.786	85.25
501.003	85.25
501.22	91.25
501.437	94.25
501.654	107.25
501.871	95.25
502.088	87.25
502.305	83.25
502.522	97.25
502.739	89.25
502.956	92.25
503.172	97.25
503.389	101.25
503.606	121.25
503.823	98.25
504.04	96.25
504.256	90.25
504.473	101.25
504.69	92.25
504.907	95.25
505.123	80.25
505.34	112.25
505.557	98.25
505.773	96.25
505.99	102.25
506.207	89.25
506.423	94.25
506.64	89.25
506.856	89.25
507.073	81.25
507.289	96.25
507.506	98.25
507.722	118.25
507.939	113.25
508.155	102.25
508.372	82.25
508.588	93.25
508.805	90.25
509.021	96.25
509.238	106.25
509.454	91.25
509.67	100.25
509.887	104.25
510.103	122.25
510.319	244.25
510.536	888.25
510.752	2849.25
510.968	782.25
511.184	163.25
511.401	104.25
511.617	109.25
511.833	84.25
512.049	110.25
512.265	102.25
512.481	89.25
512.698	100.25
512.914	86.25
513.13	101.25
513.346	89.25
513.562	110.25
513.778	100.25
513.994	94.25
514.21	106.25
514.426	120.25
514.642	139.25
514.858	124.25
515.074	194.25
