Data from Uncirc_2003_H10_HRD10591_00049.txt Node
Date: Wed Jan 03 10:35:57 EST 2024
User: Yrep
Spectrometer: HR+D1059
Trigger mode: 1
Integration Time (sec): 1.000000E-1
Scans to average: 1
Electric dark correction enabled: true
Nonlinearity correction enabled: false
Boxcar width: 0
XAxis mode: Wavelengths
Number of Pixels in Spectrum: 2048
>>>>>Begin Spectral Data<<<<<
223.165	-20.19
223.4	-20.19
223.635	-20.19
223.869	-19.19
224.104	-12.19
224.338	-12.19
224.573	-5.19
224.808	-17.19
225.042	-23.19
225.277	-3.19
225.511	-9.19
225.746	8.81
225.98	10.81
226.215	9.81
226.449	16.81
226.683	19.81
226.918	28.81
227.152	26.81
227.387	32.81
227.621	32.81
227.856	31.81
228.09	57.81
228.324	58.81
228.559	55.81
228.793	44.81
229.027	51.81
229.262	63.81
229.496	78.81
229.73	95.81
229.964	97.81
230.199	62.81
230.433	70.81
230.667	99.81
230.901	71.81
231.136	76.81
231.37	74.81
231.604	76.81
231.838	74.81
232.072	85.81
232.306	79.81
232.541	84.81
232.775	87.81
233.009	90.81
233.243	90.81
233.477	78.81
233.711	91.81
233.945	88.81
234.179	86.81
234.413	90.81
234.647	90.81
234.881	80.81
235.115	85.81
235.349	79.81
235.583	74.81
235.817	72.81
236.051	88.81
236.285	72.81
236.519	75.81
236.753	88.81
236.987	88.81
237.221	88.81
237.455	78.81
237.689	77.81
237.922	78.81
238.156	74.81
238.39	73.81
238.624	79.81
238.858	72.81
239.091	66.81
239.325	59.81
239.559	90.81
239.793	83.81
240.027	82.81
240.26	89.81
240.494	72.81
240.728	84.81
240.961	82.81
241.195	80.81
241.429	76.81
241.662	81.81
241.896	71.81
242.13	63.81
242.363	66.81
242.597	69.81
242.83	87.81
243.064	76.81
243.298	81.81
243.531	80.81
243.765	81.81
243.998	78.81
244.232	80.81
244.465	98.81
244.699	74.81
244.932	75.81
245.166	81.81
245.399	79.81
245.633	79.81
245.866	75.81
246.099	67.81
246.333	82.81
246.566	82.81
246.8	81.81
247.033	66.81
247.266	80.81
247.5	71.81
247.733	83.81
247.966	83.81
248.2	98.81
248.433	71.81
248.666	74.81
248.899	82.81
249.133	71.81
249.366	80.81
249.599	106.81
249.832	82.81
250.066	87.81
250.299	81.81
250.532	72.81
250.765	81.81
250.998	86.81
251.231	70.81
251.465	89.81
251.698	71.81
251.931	86.81
252.164	95.81
252.397	91.81
252.63	83.81
252.863	80.81
253.096	71.81
253.329	72.81
253.562	79.81
253.795	90.81
254.028	81.81
254.261	81.81
254.494	83.81
254.727	80.81
254.96	80.81
255.193	76.81
255.426	74.81
255.659	73.81
255.892	82.81
256.124	77.81
256.357	83.81
256.59	75.81
256.823	82.81
257.056	79.81
257.289	84.81
257.521	87.81
257.754	72.81
257.987	87.81
258.22	95.81
258.452	85.81
258.685	94.81
258.918	78.81
259.151	81.81
259.383	74.81
259.616	84.81
259.849	74.81
260.081	83.81
260.314	84.81
260.547	87.81
260.779	93.81
261.012	87.81
261.244	82.81
261.477	82.81
261.71	88.81
261.942	111.81
262.175	127.81
262.407	105.81
262.64	81.81
262.872	75.81
263.105	88.81
263.337	94.81
263.57	81.81
263.802	81.81
264.035	65.81
264.267	79.81
264.499	89.81
264.732	78.81
264.964	87.81
265.197	73.81
265.429	80.81
265.661	98.81
265.894	68.81
266.126	64.81
266.358	84.81
266.591	78.81
266.823	86.81
267.055	78.81
267.287	79.81
267.52	79.81
267.752	75.81
267.984	84.81
268.216	82.81
268.448	97.81
268.681	92.81
268.913	93.81
269.145	90.81
269.377	103.81
269.609	89.81
269.841	79.81
270.073	82.81
270.306	76.81
270.538	87.81
270.77	93.81
271.002	96.81
271.234	81.81
271.466	81.81
271.698	85.81
271.93	78.81
272.162	98.81
272.394	91.81
272.626	81.81
272.858	92.81
273.09	91.81
273.322	80.81
273.553	78.81
273.785	86.81
274.017	96.81
274.249	78.81
274.481	74.81
274.713	70.81
274.945	90.81
275.176	93.81
275.408	89.81
275.64	86.81
275.872	92.81
276.104	87.81
276.335	117.81
276.567	81.81
276.799	102.81
277.031	89.81
277.262	99.81
277.494	83.81
277.726	75.81
277.957	90.81
278.189	86.81
278.421	86.81
278.652	84.81
278.884	81.81
279.115	85.81
279.347	87.81
279.579	71.81
279.81	79.81
280.042	94.81
280.273	70.81
280.505	76.81
280.736	88.81
280.968	80.81
281.199	95.81
281.431	89.81
281.662	87.81
281.894	83.81
282.125	103.81
282.356	119.81
282.588	128.81
282.819	102.81
283.051	91.81
283.282	93.81
283.513	98.81
283.745	82.81
283.976	88.81
284.207	98.81
284.439	89.81
284.67	102.81
284.901	95.81
285.132	82.81
285.364	98.81
285.595	90.81
285.826	92.81
286.057	76.81
286.288	84.81
286.52	96.81
286.751	73.81
286.982	84.81
287.213	88.81
287.444	92.81
287.675	88.81
287.906	88.81
288.138	88.81
288.369	87.81
288.6	77.81
288.831	91.81
289.062	88.81
289.293	90.81
289.524	84.81
289.755	86.81
289.986	91.81
290.217	84.81
290.448	94.81
290.679	92.81
290.91	90.81
291.141	87.81
291.371	84.81
291.602	101.81
291.833	91.81
292.064	89.81
292.295	90.81
292.526	82.81
292.757	93.81
292.987	82.81
293.218	80.81
293.449	83.81
293.68	97.81
293.91	85.81
294.141	103.81
294.372	78.81
294.603	86.81
294.833	83.81
295.064	84.81
295.295	91.81
295.525	89.81
295.756	110.81
295.987	110.81
296.217	140.81
296.448	122.81
296.679	100.81
296.909	100.81
297.14	78.81
297.37	76.81
297.601	92.81
297.831	98.81
298.062	103.81
298.292	70.81
298.523	88.81
298.753	78.81
298.984	85.81
299.214	88.81
299.445	90.81
299.675	102.81
299.905	101.81
300.136	103.81
300.366	81.81
300.597	93.81
300.827	104.81
301.057	104.81
301.288	99.81
301.518	98.81
301.748	96.81
301.979	78.81
302.209	89.81
302.439	88.81
302.669	106.81
302.9	82.81
303.13	85.81
303.36	86.81
303.59	89.81
303.82	96.81
304.051	88.81
304.281	79.81
304.511	95.81
304.741	97.81
304.971	78.81
305.201	89.81
305.431	90.81
305.661	78.81
305.891	92.81
306.121	101.81
306.352	110.81
306.582	131.81
306.812	94.81
307.042	92.81
307.272	97.81
307.502	80.81
307.731	92.81
307.961	107.81
308.191	95.81
308.421	89.81
308.651	83.81
308.881	104.81
309.111	97.81
309.341	103.81
309.571	99.81
309.8	114.81
310.03	104.81
310.26	85.81
310.49	97.81
310.72	95.81
310.949	105.81
311.179	99.81
311.409	97.81
311.639	102.81
311.868	95.81
312.098	106.81
312.328	79.81
312.557	93.81
312.787	103.81
313.017	108.81
313.246	93.81
313.476	83.81
313.706	107.81
313.935	109.81
314.165	106.81
314.394	109.81
314.624	94.81
314.853	95.81
315.083	92.81
315.312	104.81
315.542	97.81
315.771	93.81
316.001	87.81
316.23	79.81
316.46	91.81
316.689	93.81
316.919	91.81
317.148	103.81
317.377	91.81
317.607	90.81
317.836	99.81
318.065	88.81
318.295	95.81
318.524	90.81
318.753	91.81
318.983	101.81
319.212	99.81
319.441	111.81
319.67	109.81
319.9	113.81
320.129	82.81
320.358	101.81
320.587	84.81
320.816	104.81
321.046	117.81
321.275	87.81
321.504	101.81
321.733	108.81
321.962	99.81
322.191	111.81
322.42	92.81
322.649	97.81
322.878	123.81
323.108	112.81
323.337	136.81
323.566	132.81
323.795	176.81
324.024	208.81
324.253	441.81
324.482	942.81
324.71	1934.81
324.939	2528.81
325.168	913.81
325.397	274.81
325.626	147.81
325.855	129.81
326.084	139.81
326.313	142.81
326.542	151.81
326.77	244.81
326.999	496.81
327.228	1067.81
327.457	1948.81
327.686	1516.81
327.914	425.81
328.143	190.81
328.372	142.81
328.6	128.81
328.829	119.81
329.058	126.81
329.287	122.81
329.515	106.81
329.744	99.81
329.972	89.81
330.201	100.81
330.43	100.81
330.658	118.81
330.887	119.81
331.115	129.81
331.344	115.81
331.572	106.81
331.801	103.81
332.03	107.81
332.258	92.81
332.486	91.81
332.715	98.81
332.943	97.81
333.172	94.81
333.4	91.81
333.629	105.81
333.857	114.81
334.085	111.81
334.314	105.81
334.542	110.81
334.771	100.81
334.999	96.81
335.227	95.81
335.455	99.81
335.684	113.81
335.912	94.81
336.14	93.81
336.369	97.81
336.597	91.81
336.825	97.81
337.053	86.81
337.281	92.81
337.51	99.81
337.738	93.81
337.966	101.81
338.194	107.81
338.422	99.81
338.65	97.81
338.878	92.81
339.106	98.81
339.334	97.81
339.562	92.81
339.79	77.81
340.018	100.81
340.246	96.81
340.474	102.81
340.702	100.81
340.93	91.81
341.158	81.81
341.386	100.81
341.614	97.81
341.842	105.81
342.07	89.81
342.298	99.81
342.526	92.81
342.754	82.81
342.981	91.81
343.209	78.81
343.437	99.81
343.665	96.81
343.893	101.81
344.12	103.81
344.348	98.81
344.576	90.81
344.804	89.81
345.031	95.81
345.259	94.81
345.487	92.81
345.714	102.81
345.942	92.81
346.17	85.81
346.397	102.81
346.625	83.81
346.853	94.81
347.08	86.81
347.308	104.81
347.535	96.81
347.763	94.81
347.99	113.81
348.218	113.81
348.445	105.81
348.673	106.81
348.9	104.81
349.128	98.81
349.355	102.81
349.583	94.81
349.81	100.81
350.037	98.81
350.265	107.81
350.492	92.81
350.72	101.81
350.947	104.81
351.174	105.81
351.402	114.81
351.629	108.81
351.856	106.81
352.083	108.81
352.311	98.81
352.538	99.81
352.765	116.81
352.992	104.81
353.22	100.81
353.447	114.81
353.674	112.81
353.901	96.81
354.128	99.81
354.355	106.81
354.583	101.81
354.81	97.81
355.037	99.81
355.264	119.81
355.491	106.81
355.718	104.81
355.945	94.81
356.172	93.81
356.399	103.81
356.626	99.81
356.853	106.81
357.08	93.81
357.307	103.81
357.534	97.81
357.761	92.81
357.988	102.81
358.215	91.81
358.441	95.81
358.668	91.81
358.895	93.81
359.122	87.81
359.349	102.81
359.576	105.81
359.802	101.81
360.029	97.81
360.256	116.81
360.483	97.81
360.709	94.81
360.936	94.81
361.163	90.81
361.39	102.81
361.616	104.81
361.843	99.81
362.07	92.81
362.296	102.81
362.523	81.81
362.749	86.81
362.976	91.81
363.203	86.81
363.429	94.81
363.656	91.81
363.882	82.81
364.109	94.81
364.335	102.81
364.562	93.81
364.788	82.81
365.015	84.81
365.241	108.81
365.468	106.81
365.694	105.81
365.92	89.81
366.147	92.81
366.373	86.81
366.599	87.81
366.826	106.81
367.052	85.81
367.278	89.81
367.505	82.81
367.731	96.81
367.957	92.81
368.184	94.81
368.41	96.81
368.636	108.81
368.862	118.81
369.089	105.81
369.315	104.81
369.541	93.81
369.767	88.81
369.993	95.81
370.219	89.81
370.445	102.81
370.672	85.81
370.898	94.81
371.124	97.81
371.35	97.81
371.576	88.81
371.802	93.81
372.028	90.81
372.254	96.81
372.48	104.81
372.706	86.81
372.932	101.81
373.158	102.81
373.384	86.81
373.61	88.81
373.835	84.81
374.061	98.81
374.287	82.81
374.513	82.81
374.739	87.81
374.965	94.81
375.191	99.81
375.416	97.81
375.642	82.81
375.868	85.81
376.094	88.81
376.319	86.81
376.545	103.81
376.771	87.81
376.997	89.81
377.222	86.81
377.448	90.81
377.674	85.81
377.899	82.81
378.125	83.81
378.35	72.81
378.576	94.81
378.802	89.81
379.027	107.81
379.253	92.81
379.478	86.81
379.704	73.81
379.929	87.81
380.155	105.81
380.38	84.81
380.606	98.81
380.831	103.81
381.057	103.81
381.282	101.81
381.507	96.81
381.733	95.81
381.958	89.81
382.184	103.81
382.409	97.81
382.634	108.81
382.86	99.81
383.085	114.81
383.31	97.81
383.535	83.81
383.761	94.81
383.986	106.81
384.211	103.81
384.436	101.81
384.662	106.81
384.887	92.81
385.112	85.81
385.337	103.81
385.562	109.81
385.787	107.81
386.013	112.81
386.238	103.81
386.463	103.81
386.688	92.81
386.913	96.81
387.138	110.81
387.363	127.81
387.588	114.81
387.813	102.81
388.038	112.81
388.263	114.81
388.488	103.81
388.713	95.81
388.938	118.81
389.163	102.81
389.387	99.81
389.612	89.81
389.837	87.81
390.062	94.81
390.287	95.81
390.512	107.81
390.736	93.81
390.961	77.81
391.186	97.81
391.411	98.81
391.636	90.81
391.86	83.81
392.085	88.81
392.31	87.81
392.534	83.81
392.759	89.81
392.984	93.81
393.208	83.81
393.433	89.81
393.658	97.81
393.882	90.81
394.107	95.81
394.331	103.81
394.556	91.81
394.78	103.81
395.005	92.81
395.229	82.81
395.454	84.81
395.678	82.81
395.903	98.81
396.127	75.81
396.352	87.81
396.576	103.81
396.801	85.81
397.025	86.81
397.249	94.81
397.474	95.81
397.698	95.81
397.922	90.81
398.147	98.81
398.371	102.81
398.595	92.81
398.82	92.81
399.044	88.81
399.268	91.81
399.492	86.81
399.717	92.81
399.941	90.81
400.165	92.81
400.389	103.81
400.613	91.81
400.837	94.81
401.062	88.81
401.286	86.81
401.51	84.81
401.734	80.81
401.958	91.81
402.182	124.81
402.406	166.81
402.63	110.81
402.854	90.81
403.078	92.81
403.302	85.81
403.526	94.81
403.75	82.81
403.974	79.81
404.198	92.81
404.422	87.81
404.645	89.81
404.869	84.81
405.093	87.81
405.317	89.81
405.541	87.81
405.765	95.81
405.988	110.81
406.212	202.81
406.436	243.81
406.66	155.81
406.883	116.81
407.107	106.81
407.331	81.81
407.555	107.81
407.778	89.81
408.002	99.81
408.226	96.81
408.449	86.81
408.673	107.81
408.896	100.81
409.12	105.81
409.344	90.81
409.567	98.81
409.791	85.81
410.014	99.81
410.238	102.81
410.461	100.81
410.685	98.81
410.908	100.81
411.132	113.81
411.355	100.81
411.578	85.81
411.802	76.81
412.025	92.81
412.249	95.81
412.472	87.81
412.695	84.81
412.919	91.81
413.142	83.81
413.365	96.81
413.589	86.81
413.812	92.81
414.035	98.81
414.258	99.81
414.482	94.81
414.705	97.81
414.928	90.81
415.151	87.81
415.374	81.81
415.597	82.81
415.821	94.81
416.044	76.81
416.267	98.81
416.49	84.81
416.713	78.81
416.936	81.81
417.159	75.81
417.382	90.81
417.605	80.81
417.828	98.81
418.051	98.81
418.274	97.81
418.497	90.81
418.72	76.81
418.943	75.81
419.166	82.81
419.389	83.81
419.611	91.81
419.834	89.81
420.057	92.81
420.28	84.81
420.503	91.81
420.726	93.81
420.948	90.81
421.171	76.81
421.394	83.81
421.617	102.81
421.839	80.81
422.062	86.81
422.285	84.81
422.507	94.81
422.73	102.81
422.953	87.81
423.175	90.81
423.398	86.81
423.621	77.81
423.843	93.81
424.066	89.81
424.288	69.81
424.511	92.81
424.733	100.81
424.956	109.81
425.178	110.81
425.401	104.81
425.623	105.81
425.846	85.81
426.068	97.81
426.291	88.81
426.513	83.81
426.735	86.81
426.958	89.81
427.18	102.81
427.402	127.81
427.625	181.81
427.847	133.81
428.069	96.81
428.292	92.81
428.514	96.81
428.736	83.81
428.958	83.81
429.181	81.81
429.403	85.81
429.625	75.81
429.847	111.81
430.069	99.81
430.292	97.81
430.514	92.81
430.736	94.81
430.958	92.81
431.18	88.81
431.402	92.81
431.624	90.81
431.846	78.81
432.068	90.81
432.29	85.81
432.512	90.81
432.734	97.81
432.956	79.81
433.178	88.81
433.4	103.81
433.622	91.81
433.844	91.81
434.066	88.81
434.287	94.81
434.509	99.81
434.731	108.81
434.953	76.81
435.175	90.81
435.397	94.81
435.618	84.81
435.84	97.81
436.062	118.81
436.284	103.81
436.505	98.81
436.727	101.81
436.949	84.81
437.17	96.81
437.392	95.81
437.614	90.81
437.835	102.81
438.057	108.81
438.278	118.81
438.5	107.81
438.721	126.81
438.943	105.81
439.165	75.81
439.386	102.81
439.608	108.81
439.829	88.81
440.05	104.81
440.272	135.81
440.493	93.81
440.715	85.81
440.936	98.81
441.158	92.81
441.379	92.81
441.6	94.81
441.822	94.81
442.043	91.81
442.264	99.81
442.486	118.81
442.707	88.81
442.928	105.81
443.149	136.81
443.371	142.81
443.592	112.81
443.813	123.81
444.034	114.81
444.255	97.81
444.476	93.81
444.698	90.81
444.919	98.81
445.14	128.81
445.361	124.81
445.582	116.81
445.803	142.81
446.024	137.81
446.245	150.81
446.466	107.81
446.687	100.81
446.908	106.81
447.129	98.81
447.35	84.81
447.571	96.81
447.792	94.81
448.013	102.81
448.234	123.81
448.455	107.81
448.675	99.81
448.896	127.81
449.117	104.81
449.338	82.81
449.559	137.81
449.779	138.81
450	103.81
450.221	96.81
450.442	100.81
450.662	88.81
450.883	108.81
451.104	118.81
451.324	102.81
451.545	89.81
451.766	79.81
451.986	87.81
452.207	84.81
452.428	95.81
452.648	107.81
452.869	110.81
453.089	118.81
453.31	109.81
453.53	92.81
453.751	91.81
453.971	103.81
454.192	100.81
454.412	90.81
454.633	91.81
454.853	78.81
455.073	85.81
455.294	88.81
455.514	102.81
455.734	92.81
455.955	91.81
456.175	89.81
456.395	97.81
456.616	90.81
456.836	82.81
457.056	92.81
457.276	82.81
457.497	100.81
457.717	82.81
457.937	91.81
458.157	100.81
458.377	105.81
458.598	100.81
458.818	146.81
459.038	158.81
459.258	119.81
459.478	92.81
459.698	92.81
459.918	84.81
460.138	82.81
460.358	91.81
460.578	97.81
460.798	85.81
461.018	91.81
461.238	84.81
461.458	83.81
461.678	90.81
461.898	87.81
462.118	86.81
462.338	82.81
462.558	87.81
462.777	71.81
462.997	74.81
463.217	96.81
463.437	89.81
463.657	89.81
463.876	83.81
464.096	101.81
464.316	90.81
464.536	103.81
464.755	95.81
464.975	111.81
465.195	173.81
465.414	163.81
465.634	107.81
465.854	94.81
466.073	103.81
466.293	88.81
466.512	92.81
466.732	91.81
466.951	86.81
467.171	89.81
467.391	92.81
467.61	107.81
467.829	102.81
468.049	88.81
468.268	82.81
468.488	88.81
468.707	79.81
468.927	94.81
469.146	90.81
469.365	74.81
469.585	98.81
469.804	97.81
470.023	100.81
470.243	105.81
470.462	93.81
470.681	107.81
470.901	101.81
471.12	86.81
471.339	82.81
471.558	89.81
471.777	103.81
471.997	87.81
472.216	104.81
472.435	94.81
472.654	98.81
472.873	83.81
473.092	97.81
473.311	86.81
473.53	99.81
473.749	96.81
473.968	104.81
474.187	103.81
474.406	95.81
474.625	98.81
474.844	75.81
475.063	85.81
475.282	85.81
475.501	89.81
475.72	87.81
475.939	93.81
476.158	94.81
476.377	81.81
476.596	91.81
476.814	93.81
477.033	95.81
477.252	88.81
477.471	81.81
477.69	86.81
477.908	87.81
478.127	84.81
478.346	111.81
478.564	79.81
478.783	98.81
479.002	99.81
479.22	100.81
479.439	96.81
479.658	103.81
479.876	89.81
480.095	95.81
480.313	88.81
480.532	88.81
480.751	101.81
480.969	101.81
481.188	112.81
481.406	103.81
481.624	92.81
481.843	72.81
482.061	90.81
482.28	88.81
482.498	91.81
482.717	83.81
482.935	76.81
483.153	87.81
483.372	99.81
483.59	83.81
483.808	82.81
484.027	101.81
484.245	89.81
484.463	100.81
484.681	107.81
484.9	101.81
485.118	104.81
485.336	92.81
485.554	92.81
485.772	95.81
485.99	111.81
486.209	91.81
486.427	109.81
486.645	117.81
486.863	116.81
487.081	99.81
487.299	103.81
487.517	102.81
487.735	89.81
487.953	88.81
488.171	96.81
488.389	94.81
488.607	102.81
488.825	87.81
489.043	93.81
489.261	95.81
489.479	92.81
489.696	100.81
489.914	98.81
490.132	87.81
490.35	86.81
490.568	90.81
490.786	84.81
491.003	97.81
491.221	90.81
491.439	89.81
491.657	105.81
491.874	85.81
492.092	100.81
492.31	91.81
492.527	97.81
492.745	94.81
492.963	85.81
493.18	89.81
493.398	103.81
493.615	98.81
493.833	94.81
494.05	83.81
494.268	91.81
494.485	95.81
494.703	107.81
494.92	93.81
495.138	85.81
495.355	89.81
495.573	90.81
495.79	89.81
496.008	100.81
496.225	96.81
496.442	81.81
496.66	102.81
496.877	75.81
497.094	100.81
497.312	94.81
497.529	92.81
497.746	93.81
497.963	87.81
498.181	97.81
498.398	104.81
498.615	105.81
498.832	88.81
499.049	88.81
499.267	101.81
499.484	85.81
499.701	84.81
499.918	97.81
500.135	92.81
500.352	92.81
500.569	81.81
500.786	88.81
501.003	100.81
501.22	90.81
501.437	89.81
501.654	95.81
501.871	110.81
502.088	87.81
502.305	93.81
502.522	90.81
502.739	101.81
502.956	104.81
503.172	101.81
503.389	95.81
503.606	98.81
503.823	99.81
504.04	93.81
504.256	85.81
504.473	91.81
504.69	88.81
504.907	107.81
505.123	92.81
505.34	91.81
505.557	96.81
505.773	96.81
505.99	113.81
506.207	94.81
506.423	102.81
506.64	100.81
506.856	83.81
507.073	99.81
507.289	92.81
507.506	105.81
507.722	130.81
507.939	110.81
508.155	103.81
508.372	94.81
508.588	96.81
508.805	96.81
509.021	103.81
509.238	105.81
509.454	91.81
509.67	92.81
509.887	111.81
510.103	157.81
510.319	241.81
510.536	848.81
510.752	2686.81
510.968	746.81
511.184	183.81
511.401	120.81
511.617	99.81
511.833	100.81
512.049	78.81
512.265	93.81
512.481	82.81
512.698	107.81
512.914	80.81
513.13	94.81
513.346	95.81
513.562	91.81
513.778	117.81
513.994	102.81
514.21	110.81
514.426	114.81
514.642	139.81
514.858	117.81
