Data from Uncirc_2003_H10_HRD10591_00070.txt Node
Date: Wed Jan 03 10:36:01 EST 2024
User: Yrep
Spectrometer: HR+D1059
Trigger mode: 1
Integration Time (sec): 1.000000E-1
Scans to average: 1
Electric dark correction enabled: true
Nonlinearity correction enabled: false
Boxcar width: 0
XAxis mode: Wavelengths
Number of Pixels in Spectrum: 2048
>>>>>Begin Spectral Data<<<<<
223.165	-18.88
223.4	-18.88
223.635	-18.88
223.869	-14.88
224.104	-23.88
224.338	-21.88
224.573	-10.88
224.808	-19.88
225.042	-0.88
225.277	1.12
225.511	-15.88
225.746	4.12
225.98	8.12
226.215	30.12
226.449	10.12
226.683	18.12
226.918	21.12
227.152	34.12
227.387	49.12
227.621	47.12
227.856	38.12
228.09	42.12
228.324	44.12
228.559	55.12
228.793	52.12
229.027	65.12
229.262	72.12
229.496	70.12
229.73	84.12
229.964	77.12
230.199	82.12
230.433	79.12
230.667	79.12
230.901	85.12
231.136	64.12
231.37	70.12
231.604	92.12
231.838	72.12
232.072	76.12
232.306	79.12
232.541	73.12
232.775	69.12
233.009	82.12
233.243	80.12
233.477	77.12
233.711	79.12
233.945	80.12
234.179	83.12
234.413	89.12
234.647	73.12
234.881	75.12
235.115	79.12
235.349	73.12
235.583	70.12
235.817	80.12
236.051	82.12
236.285	73.12
236.519	84.12
236.753	80.12
236.987	81.12
237.221	81.12
237.455	93.12
237.689	62.12
237.922	69.12
238.156	81.12
238.39	84.12
238.624	67.12
238.858	64.12
239.091	80.12
239.325	89.12
239.559	71.12
239.793	80.12
240.027	66.12
240.26	77.12
240.494	97.12
240.728	89.12
240.961	84.12
241.195	71.12
241.429	77.12
241.662	70.12
241.896	73.12
242.13	72.12
242.363	84.12
242.597	77.12
242.83	67.12
243.064	66.12
243.298	88.12
243.531	70.12
243.765	74.12
243.998	80.12
244.232	87.12
244.465	74.12
244.699	76.12
244.932	82.12
245.166	85.12
245.399	79.12
245.633	95.12
245.866	85.12
246.099	85.12
246.333	67.12
246.566	91.12
246.8	75.12
247.033	84.12
247.266	80.12
247.5	81.12
247.733	71.12
247.966	78.12
248.2	77.12
248.433	95.12
248.666	66.12
248.899	71.12
249.133	93.12
249.366	96.12
249.599	83.12
249.832	86.12
250.066	83.12
250.299	66.12
250.532	78.12
250.765	79.12
250.998	74.12
251.231	71.12
251.465	93.12
251.698	105.12
251.931	69.12
252.164	85.12
252.397	85.12
252.63	76.12
252.863	72.12
253.096	87.12
253.329	76.12
253.562	93.12
253.795	83.12
254.028	84.12
254.261	84.12
254.494	72.12
254.727	80.12
254.96	73.12
255.193	83.12
255.426	84.12
255.659	73.12
255.892	82.12
256.124	72.12
256.357	88.12
256.59	64.12
256.823	78.12
257.056	94.12
257.289	81.12
257.521	82.12
257.754	66.12
257.987	73.12
258.22	66.12
258.452	83.12
258.685	79.12
258.918	84.12
259.151	81.12
259.383	87.12
259.616	69.12
259.849	84.12
260.081	86.12
260.314	96.12
260.547	93.12
260.779	78.12
261.012	97.12
261.244	94.12
261.477	94.12
261.71	79.12
261.942	112.12
262.175	118.12
262.407	76.12
262.64	87.12
262.872	72.12
263.105	90.12
263.337	80.12
263.57	79.12
263.802	89.12
264.035	82.12
264.267	74.12
264.499	80.12
264.732	89.12
264.964	70.12
265.197	89.12
265.429	95.12
265.661	84.12
265.894	80.12
266.126	79.12
266.358	65.12
266.591	70.12
266.823	78.12
267.055	82.12
267.287	80.12
267.52	78.12
267.752	85.12
267.984	80.12
268.216	91.12
268.448	73.12
268.681	91.12
268.913	90.12
269.145	77.12
269.377	64.12
269.609	75.12
269.841	80.12
270.073	81.12
270.306	84.12
270.538	81.12
270.77	82.12
271.002	90.12
271.234	79.12
271.466	85.12
271.698	87.12
271.93	91.12
272.162	86.12
272.394	85.12
272.626	82.12
272.858	77.12
273.09	85.12
273.322	74.12
273.553	85.12
273.785	85.12
274.017	72.12
274.249	83.12
274.481	87.12
274.713	82.12
274.945	83.12
275.176	91.12
275.408	89.12
275.64	92.12
275.872	93.12
276.104	94.12
276.335	106.12
276.567	97.12
276.799	98.12
277.031	80.12
277.262	89.12
277.494	82.12
277.726	103.12
277.957	84.12
278.189	79.12
278.421	81.12
278.652	92.12
278.884	93.12
279.115	74.12
279.347	87.12
279.579	92.12
279.81	88.12
280.042	89.12
280.273	92.12
280.505	89.12
280.736	103.12
280.968	60.12
281.199	72.12
281.431	80.12
281.662	77.12
281.894	94.12
282.125	94.12
282.356	117.12
282.588	135.12
282.819	104.12
283.051	88.12
283.282	89.12
283.513	80.12
283.745	85.12
283.976	87.12
284.207	81.12
284.439	80.12
284.67	104.12
284.901	89.12
285.132	85.12
285.364	92.12
285.595	78.12
285.826	97.12
286.057	84.12
286.288	96.12
286.52	77.12
286.751	88.12
286.982	83.12
287.213	77.12
287.444	78.12
287.675	90.12
287.906	87.12
288.138	89.12
288.369	84.12
288.6	87.12
288.831	86.12
289.062	94.12
289.293	88.12
289.524	73.12
289.755	84.12
289.986	81.12
290.217	84.12
290.448	84.12
290.679	90.12
290.91	98.12
291.141	77.12
291.371	84.12
291.602	86.12
291.833	86.12
292.064	69.12
292.295	83.12
292.526	90.12
292.757	85.12
292.987	90.12
293.218	84.12
293.449	76.12
293.68	78.12
293.91	78.12
294.141	83.12
294.372	97.12
294.603	78.12
294.833	87.12
295.064	86.12
295.295	93.12
295.525	85.12
295.756	84.12
295.987	102.12
296.217	115.12
296.448	113.12
296.679	85.12
296.909	84.12
297.14	93.12
297.37	74.12
297.601	84.12
297.831	83.12
298.062	80.12
298.292	93.12
298.523	96.12
298.753	93.12
298.984	99.12
299.214	81.12
299.445	103.12
299.675	99.12
299.905	92.12
300.136	92.12
300.366	100.12
300.597	84.12
300.827	90.12
301.057	94.12
301.288	101.12
301.518	88.12
301.748	87.12
301.979	101.12
302.209	84.12
302.439	90.12
302.669	79.12
302.9	89.12
303.13	88.12
303.36	94.12
303.59	96.12
303.82	100.12
304.051	93.12
304.281	98.12
304.511	99.12
304.741	76.12
304.971	92.12
305.201	83.12
305.431	73.12
305.661	86.12
305.891	89.12
306.121	88.12
306.352	94.12
306.582	107.12
306.812	84.12
307.042	83.12
307.272	92.12
307.502	88.12
307.731	84.12
307.961	79.12
308.191	85.12
308.421	91.12
308.651	90.12
308.881	81.12
309.111	89.12
309.341	84.12
309.571	99.12
309.8	96.12
310.03	97.12
310.26	88.12
310.49	91.12
310.72	91.12
310.949	98.12
311.179	86.12
311.409	94.12
311.639	99.12
311.868	100.12
312.098	95.12
312.328	88.12
312.557	103.12
312.787	114.12
313.017	108.12
313.246	97.12
313.476	95.12
313.706	90.12
313.935	98.12
314.165	102.12
314.394	93.12
314.624	93.12
314.853	90.12
315.083	84.12
315.312	84.12
315.542	92.12
315.771	98.12
316.001	99.12
316.23	93.12
316.46	84.12
316.689	68.12
316.919	76.12
317.148	80.12
317.377	90.12
317.607	103.12
317.836	92.12
318.065	89.12
318.295	94.12
318.524	97.12
318.753	94.12
318.983	92.12
319.212	90.12
319.441	92.12
319.67	116.12
319.9	101.12
320.129	94.12
320.358	93.12
320.587	85.12
320.816	109.12
321.046	94.12
321.275	113.12
321.504	102.12
321.733	92.12
321.962	104.12
322.191	101.12
322.42	101.12
322.649	120.12
322.878	109.12
323.108	118.12
323.337	124.12
323.566	126.12
323.795	160.12
324.024	200.12
324.253	421.12
324.482	845.12
324.71	1795.12
324.939	2295.12
325.168	838.12
325.397	235.12
325.626	147.12
325.855	132.12
326.084	124.12
326.313	135.12
326.542	146.12
326.77	217.12
326.999	477.12
327.228	978.12
327.457	1826.12
327.686	1438.12
327.914	382.12
328.143	192.12
328.372	150.12
328.6	125.12
328.829	100.12
329.058	110.12
329.287	114.12
329.515	109.12
329.744	90.12
329.972	109.12
330.201	96.12
330.43	92.12
330.658	126.12
330.887	135.12
331.115	114.12
331.344	102.12
331.572	92.12
331.801	97.12
332.03	101.12
332.258	92.12
332.486	83.12
332.715	96.12
332.943	102.12
333.172	82.12
333.4	99.12
333.629	98.12
333.857	102.12
334.085	99.12
334.314	96.12
334.542	96.12
334.771	104.12
334.999	87.12
335.227	87.12
335.455	101.12
335.684	98.12
335.912	102.12
336.14	95.12
336.369	92.12
336.597	98.12
336.825	90.12
337.053	90.12
337.281	102.12
337.51	93.12
337.738	93.12
337.966	84.12
338.194	84.12
338.422	98.12
338.65	97.12
338.878	94.12
339.106	82.12
339.334	98.12
339.562	89.12
339.79	97.12
340.018	84.12
340.246	92.12
340.474	94.12
340.702	87.12
340.93	80.12
341.158	87.12
341.386	97.12
341.614	87.12
341.842	82.12
342.07	87.12
342.298	86.12
342.526	82.12
342.754	94.12
342.981	83.12
343.209	95.12
343.437	96.12
343.665	87.12
343.893	94.12
344.12	91.12
344.348	79.12
344.576	78.12
344.804	94.12
345.031	99.12
345.259	101.12
345.487	107.12
345.714	88.12
345.942	78.12
346.17	99.12
346.397	87.12
346.625	102.12
346.853	95.12
347.08	93.12
347.308	116.12
347.535	96.12
347.763	84.12
347.99	90.12
348.218	85.12
348.445	109.12
348.673	91.12
348.9	88.12
349.128	92.12
349.355	86.12
349.583	108.12
349.81	107.12
350.037	88.12
350.265	90.12
350.492	88.12
350.72	93.12
350.947	105.12
351.174	106.12
351.402	100.12
351.629	101.12
351.856	102.12
352.083	108.12
352.311	88.12
352.538	110.12
352.765	95.12
352.992	111.12
353.22	105.12
353.447	101.12
353.674	97.12
353.901	118.12
354.128	101.12
354.355	94.12
354.583	98.12
354.81	92.12
355.037	101.12
355.264	90.12
355.491	90.12
355.718	89.12
355.945	86.12
356.172	93.12
356.399	97.12
356.626	105.12
356.853	68.12
357.08	101.12
357.307	94.12
357.534	99.12
357.761	90.12
357.988	88.12
358.215	93.12
358.441	93.12
358.668	80.12
358.895	85.12
359.122	98.12
359.349	102.12
359.576	96.12
359.802	101.12
360.029	111.12
360.256	96.12
360.483	95.12
360.709	96.12
360.936	89.12
361.163	94.12
361.39	90.12
361.616	89.12
361.843	101.12
362.07	90.12
362.296	104.12
362.523	75.12
362.749	76.12
362.976	72.12
363.203	92.12
363.429	78.12
363.656	89.12
363.882	78.12
364.109	85.12
364.335	79.12
364.562	91.12
364.788	95.12
365.015	96.12
365.241	95.12
365.468	91.12
365.694	98.12
365.92	97.12
366.147	79.12
366.373	95.12
366.599	90.12
366.826	87.12
367.052	81.12
367.278	82.12
367.505	88.12
367.731	88.12
367.957	101.12
368.184	88.12
368.41	94.12
368.636	98.12
368.862	112.12
369.089	118.12
369.315	89.12
369.541	92.12
369.767	93.12
369.993	80.12
370.219	94.12
370.445	90.12
370.672	80.12
370.898	95.12
371.124	91.12
371.35	84.12
371.576	88.12
371.802	92.12
372.028	70.12
372.254	88.12
372.48	93.12
372.706	87.12
372.932	85.12
373.158	92.12
373.384	82.12
373.61	83.12
373.835	102.12
374.061	78.12
374.287	85.12
374.513	97.12
374.739	86.12
374.965	85.12
375.191	81.12
375.416	98.12
375.642	107.12
375.868	88.12
376.094	90.12
376.319	84.12
376.545	88.12
376.771	78.12
376.997	89.12
377.222	100.12
377.448	90.12
377.674	98.12
377.899	102.12
378.125	88.12
378.35	94.12
378.576	85.12
378.802	89.12
379.027	96.12
379.253	95.12
379.478	89.12
379.704	85.12
379.929	81.12
380.155	80.12
380.38	90.12
380.606	87.12
380.831	94.12
381.057	99.12
381.282	91.12
381.507	100.12
381.733	85.12
381.958	99.12
382.184	88.12
382.409	95.12
382.634	103.12
382.86	96.12
383.085	96.12
383.31	106.12
383.535	102.12
383.761	94.12
383.986	95.12
384.211	102.12
384.436	101.12
384.662	93.12
384.887	111.12
385.112	109.12
385.337	96.12
385.562	97.12
385.787	109.12
386.013	95.12
386.238	110.12
386.463	98.12
386.688	113.12
386.913	102.12
387.138	101.12
387.363	111.12
387.588	98.12
387.813	105.12
388.038	113.12
388.263	88.12
388.488	90.12
388.713	88.12
388.938	89.12
389.163	92.12
389.387	89.12
389.612	101.12
389.837	104.12
390.062	96.12
390.287	90.12
390.512	111.12
390.736	99.12
390.961	98.12
391.186	90.12
391.411	103.12
391.636	87.12
391.86	92.12
392.085	92.12
392.31	81.12
392.534	87.12
392.759	92.12
392.984	82.12
393.208	81.12
393.433	103.12
393.658	84.12
393.882	88.12
394.107	81.12
394.331	82.12
394.556	104.12
394.78	81.12
395.005	94.12
395.229	81.12
395.454	77.12
395.678	78.12
395.903	73.12
396.127	73.12
396.352	81.12
396.576	90.12
396.801	85.12
397.025	87.12
397.249	84.12
397.474	84.12
397.698	81.12
397.922	88.12
398.147	85.12
398.371	72.12
398.595	92.12
398.82	97.12
399.044	88.12
399.268	82.12
399.492	79.12
399.717	93.12
399.941	76.12
400.165	87.12
400.389	86.12
400.613	92.12
400.837	80.12
401.062	80.12
401.286	83.12
401.51	98.12
401.734	87.12
401.958	104.12
402.182	126.12
402.406	151.12
402.63	111.12
402.854	81.12
403.078	78.12
403.302	82.12
403.526	89.12
403.75	93.12
403.974	84.12
404.198	91.12
404.422	84.12
404.645	73.12
404.869	88.12
405.093	87.12
405.317	80.12
405.541	106.12
405.765	86.12
405.988	112.12
406.212	152.12
406.436	207.12
406.66	130.12
406.883	108.12
407.107	100.12
407.331	85.12
407.555	98.12
407.778	88.12
408.002	98.12
408.226	88.12
408.449	77.12
408.673	92.12
408.896	92.12
409.12	96.12
409.344	71.12
409.567	83.12
409.791	83.12
410.014	79.12
410.238	92.12
410.461	94.12
410.685	88.12
410.908	108.12
411.132	110.12
411.355	91.12
411.578	101.12
411.802	93.12
412.025	82.12
412.249	89.12
412.472	94.12
412.695	96.12
412.919	89.12
413.142	102.12
413.365	85.12
413.589	94.12
413.812	82.12
414.035	97.12
414.258	82.12
414.482	91.12
414.705	98.12
414.928	84.12
415.151	74.12
415.374	100.12
415.597	82.12
415.821	85.12
416.044	86.12
416.267	85.12
416.49	96.12
416.713	108.12
416.936	103.12
417.159	93.12
417.382	93.12
417.605	78.12
417.828	105.12
418.051	94.12
418.274	79.12
418.497	79.12
418.72	94.12
418.943	92.12
419.166	90.12
419.389	98.12
419.611	88.12
419.834	84.12
420.057	84.12
420.28	76.12
420.503	88.12
420.726	94.12
420.948	79.12
421.171	115.12
421.394	97.12
421.617	74.12
421.839	82.12
422.062	94.12
422.285	80.12
422.507	99.12
422.73	104.12
422.953	85.12
423.175	80.12
423.398	92.12
423.621	93.12
423.843	89.12
424.066	98.12
424.288	88.12
424.511	92.12
424.733	86.12
424.956	91.12
425.178	90.12
425.401	79.12
425.623	91.12
425.846	102.12
426.068	86.12
426.291	93.12
426.513	88.12
426.735	80.12
426.958	93.12
427.18	97.12
427.402	124.12
427.625	144.12
427.847	130.12
428.069	98.12
428.292	85.12
428.514	76.12
428.736	79.12
428.958	90.12
429.181	85.12
429.403	95.12
429.625	90.12
429.847	85.12
430.069	98.12
430.292	89.12
430.514	74.12
430.736	79.12
430.958	98.12
431.18	84.12
431.402	89.12
431.624	85.12
431.846	88.12
432.068	86.12
432.29	76.12
432.512	68.12
432.734	91.12
432.956	85.12
433.178	92.12
433.4	86.12
433.622	82.12
433.844	94.12
434.066	103.12
434.287	90.12
434.509	84.12
434.731	89.12
434.953	78.12
435.175	74.12
435.397	92.12
435.618	100.12
435.84	102.12
436.062	122.12
436.284	105.12
436.505	103.12
436.727	105.12
436.949	97.12
437.17	85.12
437.392	92.12
437.614	90.12
437.835	96.12
438.057	103.12
438.278	97.12
438.5	105.12
438.721	121.12
438.943	104.12
439.165	84.12
439.386	86.12
439.608	87.12
439.829	87.12
440.05	112.12
440.272	111.12
440.493	97.12
440.715	79.12
440.936	85.12
441.158	88.12
441.379	85.12
441.6	99.12
441.822	80.12
442.043	92.12
442.264	98.12
442.486	99.12
442.707	96.12
442.928	108.12
443.149	123.12
443.371	122.12
443.592	103.12
443.813	108.12
444.034	92.12
444.255	94.12
444.476	75.12
444.698	98.12
444.919	88.12
445.14	125.12
445.361	115.12
445.582	126.12
445.803	144.12
446.024	115.12
446.245	137.12
446.466	126.12
446.687	102.12
446.908	89.12
447.129	98.12
447.35	92.12
447.571	95.12
447.792	98.12
448.013	89.12
448.234	110.12
448.455	94.12
448.675	113.12
448.896	106.12
449.117	105.12
449.338	101.12
449.559	138.12
449.779	135.12
450	86.12
450.221	87.12
450.442	84.12
450.662	99.12
450.883	97.12
451.104	114.12
451.324	79.12
451.545	90.12
451.766	90.12
451.986	83.12
452.207	82.12
452.428	95.12
452.648	96.12
452.869	90.12
453.089	98.12
453.31	110.12
453.53	99.12
453.751	96.12
453.971	95.12
454.192	114.12
454.412	94.12
454.633	93.12
454.853	89.12
455.073	90.12
455.294	93.12
455.514	101.12
455.734	95.12
455.955	96.12
456.175	88.12
456.395	88.12
456.616	83.12
456.836	86.12
457.056	81.12
457.276	82.12
457.497	85.12
457.717	87.12
457.937	76.12
458.157	88.12
458.377	80.12
458.598	100.12
458.818	152.12
459.038	159.12
459.258	119.12
459.478	95.12
459.698	87.12
459.918	95.12
460.138	87.12
460.358	95.12
460.578	93.12
460.798	80.12
461.018	81.12
461.238	78.12
461.458	68.12
461.678	92.12
461.898	92.12
462.118	83.12
462.338	81.12
462.558	87.12
462.777	91.12
462.997	83.12
463.217	81.12
463.437	89.12
463.657	73.12
463.876	96.12
464.096	89.12
464.316	104.12
464.536	100.12
464.755	82.12
464.975	100.12
465.195	144.12
465.414	146.12
465.634	109.12
465.854	99.12
466.073	94.12
466.293	93.12
466.512	76.12
466.732	84.12
466.951	92.12
467.171	95.12
467.391	90.12
467.61	91.12
467.829	95.12
468.049	99.12
468.268	94.12
468.488	88.12
468.707	80.12
468.927	75.12
469.146	88.12
469.365	86.12
469.585	96.12
469.804	106.12
470.023	97.12
470.243	87.12
470.462	113.12
470.681	120.12
470.901	94.12
471.12	88.12
471.339	85.12
471.558	78.12
471.777	88.12
471.997	74.12
472.216	91.12
472.435	95.12
472.654	78.12
472.873	76.12
473.092	74.12
473.311	79.12
473.53	80.12
473.749	84.12
473.968	87.12
474.187	85.12
474.406	103.12
474.625	84.12
474.844	90.12
475.063	85.12
475.282	84.12
475.501	90.12
475.72	79.12
475.939	81.12
476.158	80.12
476.377	84.12
476.596	81.12
476.814	85.12
477.033	78.12
477.252	97.12
477.471	87.12
477.69	87.12
477.908	93.12
478.127	95.12
478.346	72.12
478.564	79.12
478.783	87.12
479.002	91.12
479.22	95.12
479.439	106.12
479.658	88.12
479.876	104.12
480.095	89.12
480.313	76.12
480.532	104.12
480.751	98.12
480.969	99.12
481.188	100.12
481.406	102.12
481.624	80.12
481.843	78.12
482.061	87.12
482.28	78.12
482.498	96.12
482.717	74.12
482.935	87.12
483.153	84.12
483.372	93.12
483.59	101.12
483.808	94.12
484.027	100.12
484.245	82.12
484.463	88.12
484.681	110.12
484.9	105.12
485.118	99.12
485.336	92.12
485.554	106.12
485.772	108.12
485.99	105.12
486.209	83.12
486.427	101.12
486.645	113.12
486.863	126.12
487.081	117.12
487.299	105.12
487.517	92.12
487.735	95.12
487.953	111.12
488.171	110.12
488.389	84.12
488.607	88.12
488.825	83.12
489.043	94.12
489.261	101.12
489.479	92.12
489.696	87.12
489.914	93.12
490.132	95.12
490.35	85.12
490.568	82.12
490.786	90.12
491.003	93.12
491.221	105.12
491.439	83.12
491.657	86.12
491.874	90.12
492.092	89.12
492.31	83.12
492.527	89.12
492.745	101.12
492.963	98.12
493.18	79.12
493.398	96.12
493.615	94.12
493.833	92.12
494.05	90.12
494.268	86.12
494.485	90.12
494.703	86.12
494.92	88.12
495.138	78.12
495.355	97.12
495.573	77.12
495.79	90.12
496.008	93.12
496.225	91.12
496.442	92.12
496.66	98.12
496.877	86.12
497.094	90.12
497.312	84.12
497.529	87.12
497.746	89.12
497.963	95.12
498.181	95.12
498.398	89.12
498.615	109.12
498.832	89.12
499.049	88.12
499.267	95.12
499.484	102.12
499.701	87.12
499.918	94.12
500.135	91.12
500.352	98.12
500.569	95.12
500.786	90.12
501.003	92.12
501.22	88.12
501.437	102.12
501.654	86.12
501.871	104.12
502.088	109.12
502.305	92.12
502.522	77.12
502.739	86.12
502.956	80.12
503.172	104.12
503.389	95.12
503.606	104.12
503.823	103.12
504.04	93.12
504.256	96.12
504.473	86.12
504.69	93.12
504.907	85.12
505.123	92.12
505.34	97.12
505.557	78.12
505.773	100.12
505.99	97.12
506.207	101.12
506.423	89.12
506.64	95.12
506.856	91.12
507.073	93.12
507.289	89.12
507.506	84.12
507.722	101.12
507.939	109.12
508.155	96.12
508.372	97.12
508.588	95.12
508.805	89.12
509.021	107.12
509.238	93.12
509.454	96.12
509.67	103.12
509.887	113.12
510.103	140.12
510.319	226.12
510.536	741.12
510.752	2330.12
510.968	642.12
511.184	154.12
511.401	110.12
511.617	90.12
511.833	109.12
512.049	95.12
512.265	83.12
512.481	83.12
512.698	93.12
512.914	93.12
513.13	87.12
513.346	101.12
513.562	90.12
513.778	94.12
513.994	99.12
514.21	114.12
514.426	121.12
514.642	122.12
514.858	139.12
515.074	163.12
515.29	431.12
515.506	1348.12
515.721	510.12
515.937	140.12
516.153	114.12
516.369	98.12
