Data from Uncirc_2003_H10_HRD10591_00092.txt Node
Date: Wed Jan 03 10:36:06 EST 2024
User: Yrep
Spectrometer: HR+D1059
Trigger mode: 1
Integration Time (sec): 1.000000E-1
Scans to average: 1
Electric dark correction enabled: true
Nonlinearity correction enabled: false
Boxcar width: 0
XAxis mode: Wavelengths
Number of Pixels in Spectrum: 2048
>>>>>Begin Spectral Data<<<<<
223.165	-24.56
223.4	-24.56
223.635	-24.56
223.869	-22.56
224.104	-20.56
224.338	-18.56
224.573	-15.56
224.808	-14.56
225.042	-9.56
225.277	-1.56
225.511	-10.56
225.746	0.44
225.98	11.44
226.215	11.44
226.449	29.44
226.683	10.44
226.918	46.44
227.152	28.44
227.387	39.44
227.621	37.44
227.856	34.44
228.09	47.44
228.324	59.44
228.559	54.44
228.793	50.44
229.027	72.44
229.262	80.44
229.496	72.44
229.73	88.44
229.964	73.44
230.199	63.44
230.433	76.44
230.667	80.44
230.901	70.44
231.136	87.44
231.37	92.44
231.604	69.44
231.838	66.44
232.072	80.44
232.306	93.44
232.541	85.44
232.775	75.44
233.009	83.44
233.243	68.44
233.477	80.44
233.711	97.44
233.945	90.44
234.179	83.44
234.413	78.44
234.647	90.44
234.881	89.44
235.115	91.44
235.349	73.44
235.583	73.44
235.817	83.44
236.051	81.44
236.285	82.44
236.519	80.44
236.753	82.44
236.987	81.44
237.221	87.44
237.455	62.44
237.689	73.44
237.922	82.44
238.156	73.44
238.39	82.44
238.624	68.44
238.858	68.44
239.091	71.44
239.325	68.44
239.559	78.44
239.793	84.44
240.027	78.44
240.26	79.44
240.494	70.44
240.728	84.44
240.961	88.44
241.195	71.44
241.429	74.44
241.662	73.44
241.896	78.44
242.13	92.44
242.363	80.44
242.597	89.44
242.83	75.44
243.064	81.44
243.298	78.44
243.531	85.44
243.765	68.44
243.998	70.44
244.232	98.44
244.465	90.44
244.699	80.44
244.932	85.44
245.166	73.44
245.399	63.44
245.633	75.44
245.866	82.44
246.099	68.44
246.333	85.44
246.566	70.44
246.8	77.44
247.033	84.44
247.266	72.44
247.5	86.44
247.733	72.44
247.966	90.44
248.2	86.44
248.433	71.44
248.666	74.44
248.899	74.44
249.133	84.44
249.366	101.44
249.599	71.44
249.832	92.44
250.066	74.44
250.299	81.44
250.532	69.44
250.765	71.44
250.998	80.44
251.231	76.44
251.465	93.44
251.698	85.44
251.931	76.44
252.164	75.44
252.397	83.44
252.63	77.44
252.863	81.44
253.096	90.44
253.329	91.44
253.562	88.44
253.795	75.44
254.028	88.44
254.261	93.44
254.494	90.44
254.727	93.44
254.96	94.44
255.193	83.44
255.426	75.44
255.659	66.44
255.892	82.44
256.124	84.44
256.357	90.44
256.59	95.44
256.823	82.44
257.056	84.44
257.289	69.44
257.521	95.44
257.754	76.44
257.987	75.44
258.22	91.44
258.452	77.44
258.685	79.44
258.918	91.44
259.151	80.44
259.383	67.44
259.616	60.44
259.849	92.44
260.081	67.44
260.314	79.44
260.547	84.44
260.779	92.44
261.012	85.44
261.244	80.44
261.477	89.44
261.71	98.44
261.942	110.44
262.175	112.44
262.407	93.44
262.64	87.44
262.872	94.44
263.105	70.44
263.337	85.44
263.57	81.44
263.802	96.44
264.035	97.44
264.267	89.44
264.499	107.44
264.732	84.44
264.964	84.44
265.197	91.44
265.429	84.44
265.661	83.44
265.894	84.44
266.126	96.44
266.358	98.44
266.591	84.44
266.823	88.44
267.055	75.44
267.287	77.44
267.52	77.44
267.752	77.44
267.984	78.44
268.216	83.44
268.448	88.44
268.681	81.44
268.913	91.44
269.145	78.44
269.377	94.44
269.609	73.44
269.841	93.44
270.073	91.44
270.306	88.44
270.538	91.44
270.77	87.44
271.002	83.44
271.234	84.44
271.466	96.44
271.698	82.44
271.93	97.44
272.162	86.44
272.394	85.44
272.626	87.44
272.858	87.44
273.09	86.44
273.322	79.44
273.553	89.44
273.785	94.44
274.017	91.44
274.249	100.44
274.481	86.44
274.713	84.44
274.945	99.44
275.176	71.44
275.408	94.44
275.64	91.44
275.872	96.44
276.104	86.44
276.335	73.44
276.567	90.44
276.799	99.44
277.031	111.44
277.262	98.44
277.494	90.44
277.726	102.44
277.957	95.44
278.189	87.44
278.421	90.44
278.652	80.44
278.884	87.44
279.115	105.44
279.347	85.44
279.579	81.44
279.81	84.44
280.042	84.44
280.273	92.44
280.505	81.44
280.736	85.44
280.968	86.44
281.199	84.44
281.431	97.44
281.662	94.44
281.894	99.44
282.125	90.44
282.356	117.44
282.588	122.44
282.819	131.44
283.051	99.44
283.282	92.44
283.513	78.44
283.745	83.44
283.976	90.44
284.207	84.44
284.439	85.44
284.67	88.44
284.901	77.44
285.132	98.44
285.364	96.44
285.595	102.44
285.826	76.44
286.057	77.44
286.288	83.44
286.52	95.44
286.751	86.44
286.982	76.44
287.213	82.44
287.444	90.44
287.675	99.44
287.906	90.44
288.138	91.44
288.369	91.44
288.6	93.44
288.831	81.44
289.062	95.44
289.293	89.44
289.524	98.44
289.755	86.44
289.986	92.44
290.217	89.44
290.448	97.44
290.679	84.44
290.91	85.44
291.141	78.44
291.371	83.44
291.602	96.44
291.833	86.44
292.064	88.44
292.295	87.44
292.526	90.44
292.757	73.44
292.987	87.44
293.218	83.44
293.449	86.44
293.68	73.44
293.91	86.44
294.141	88.44
294.372	91.44
294.603	96.44
294.833	84.44
295.064	82.44
295.295	93.44
295.525	102.44
295.756	98.44
295.987	114.44
296.217	130.44
296.448	124.44
296.679	97.44
296.909	94.44
297.14	91.44
297.37	95.44
297.601	90.44
297.831	94.44
298.062	104.44
298.292	92.44
298.523	99.44
298.753	78.44
298.984	89.44
299.214	91.44
299.445	90.44
299.675	84.44
299.905	102.44
300.136	85.44
300.366	83.44
300.597	94.44
300.827	104.44
301.057	99.44
301.288	115.44
301.518	86.44
301.748	95.44
301.979	91.44
302.209	84.44
302.439	93.44
302.669	110.44
302.9	83.44
303.13	87.44
303.36	98.44
303.59	117.44
303.82	112.44
304.051	97.44
304.281	85.44
304.511	94.44
304.741	81.44
304.971	80.44
305.201	93.44
305.431	86.44
305.661	101.44
305.891	90.44
306.121	103.44
306.352	101.44
306.582	108.44
306.812	87.44
307.042	101.44
307.272	96.44
307.502	91.44
307.731	87.44
307.961	86.44
308.191	91.44
308.421	90.44
308.651	80.44
308.881	106.44
309.111	103.44
309.341	99.44
309.571	103.44
309.8	91.44
310.03	106.44
310.26	110.44
310.49	87.44
310.72	88.44
310.949	101.44
311.179	101.44
311.409	99.44
311.639	92.44
311.868	97.44
312.098	98.44
312.328	89.44
312.557	111.44
312.787	92.44
313.017	109.44
313.246	94.44
313.476	102.44
313.706	87.44
313.935	100.44
314.165	102.44
314.394	94.44
314.624	101.44
314.853	84.44
315.083	88.44
315.312	93.44
315.542	90.44
315.771	88.44
316.001	99.44
316.23	110.44
316.46	97.44
316.689	91.44
316.919	85.44
317.148	99.44
317.377	112.44
317.607	97.44
317.836	95.44
318.065	80.44
318.295	92.44
318.524	97.44
318.753	94.44
318.983	94.44
319.212	95.44
319.441	98.44
319.67	114.44
319.9	99.44
320.129	101.44
320.358	102.44
320.587	100.44
320.816	100.44
321.046	113.44
321.275	104.44
321.504	110.44
321.733	91.44
321.962	98.44
322.191	98.44
322.42	106.44
322.649	120.44
322.878	111.44
323.108	124.44
323.337	123.44
323.566	135.44
323.795	160.44
324.024	216.44
324.253	434.44
324.482	921.44
324.71	1967.44
324.939	2594.44
325.168	928.44
325.397	282.44
325.626	184.44
325.855	135.44
326.084	120.44
326.313	145.44
326.542	172.44
326.77	240.44
326.999	511.44
327.228	1082.44
327.457	1979.44
327.686	1585.44
327.914	408.44
328.143	191.44
328.372	139.44
328.6	120.44
328.829	126.44
329.058	124.44
329.287	127.44
329.515	117.44
329.744	114.44
329.972	90.44
330.201	99.44
330.43	116.44
330.658	121.44
330.887	129.44
331.115	116.44
331.344	111.44
331.572	94.44
331.801	110.44
332.03	107.44
332.258	100.44
332.486	101.44
332.715	109.44
332.943	100.44
333.172	96.44
333.4	108.44
333.629	92.44
333.857	90.44
334.085	117.44
334.314	98.44
334.542	96.44
334.771	115.44
334.999	96.44
335.227	108.44
335.455	102.44
335.684	95.44
335.912	100.44
336.14	114.44
336.369	103.44
336.597	112.44
336.825	90.44
337.053	92.44
337.281	96.44
337.51	84.44
337.738	100.44
337.966	103.44
338.194	101.44
338.422	90.44
338.65	83.44
338.878	83.44
339.106	102.44
339.334	102.44
339.562	98.44
339.79	81.44
340.018	89.44
340.246	97.44
340.474	97.44
340.702	95.44
340.93	85.44
341.158	103.44
341.386	72.44
341.614	82.44
341.842	88.44
342.07	96.44
342.298	104.44
342.526	100.44
342.754	88.44
342.981	87.44
343.209	82.44
343.437	105.44
343.665	88.44
343.893	96.44
344.12	94.44
344.348	86.44
344.576	92.44
344.804	93.44
345.031	107.44
345.259	103.44
345.487	92.44
345.714	105.44
345.942	94.44
346.17	84.44
346.397	90.44
346.625	111.44
346.853	105.44
347.08	83.44
347.308	109.44
347.535	106.44
347.763	96.44
347.99	101.44
348.218	98.44
348.445	94.44
348.673	95.44
348.9	87.44
349.128	107.44
349.355	87.44
349.583	88.44
349.81	102.44
350.037	114.44
350.265	91.44
350.492	95.44
350.72	107.44
350.947	91.44
351.174	98.44
351.402	100.44
351.629	104.44
351.856	103.44
352.083	89.44
352.311	89.44
352.538	89.44
352.765	99.44
352.992	97.44
353.22	106.44
353.447	99.44
353.674	89.44
353.901	91.44
354.128	98.44
354.355	103.44
354.583	103.44
354.81	101.44
355.037	91.44
355.264	90.44
355.491	93.44
355.718	94.44
355.945	88.44
356.172	94.44
356.399	99.44
356.626	99.44
356.853	93.44
357.08	102.44
357.307	88.44
357.534	98.44
357.761	93.44
357.988	103.44
358.215	89.44
358.441	91.44
358.668	102.44
358.895	98.44
359.122	96.44
359.349	88.44
359.576	103.44
359.802	98.44
360.029	98.44
360.256	112.44
360.483	103.44
360.709	110.44
360.936	89.44
361.163	81.44
361.39	81.44
361.616	100.44
361.843	98.44
362.07	109.44
362.296	82.44
362.523	88.44
362.749	99.44
362.976	78.44
363.203	80.44
363.429	93.44
363.656	100.44
363.882	92.44
364.109	100.44
364.335	106.44
364.562	87.44
364.788	100.44
365.015	87.44
365.241	98.44
365.468	110.44
365.694	103.44
365.92	92.44
366.147	95.44
366.373	85.44
366.599	80.44
366.826	93.44
367.052	91.44
367.278	91.44
367.505	108.44
367.731	91.44
367.957	96.44
368.184	99.44
368.41	110.44
368.636	106.44
368.862	118.44
369.089	107.44
369.315	96.44
369.541	96.44
369.767	92.44
369.993	83.44
370.219	92.44
370.445	80.44
370.672	91.44
370.898	94.44
371.124	101.44
371.35	92.44
371.576	86.44
371.802	90.44
372.028	93.44
372.254	97.44
372.48	90.44
372.706	91.44
372.932	88.44
373.158	88.44
373.384	91.44
373.61	112.44
373.835	83.44
374.061	91.44
374.287	97.44
374.513	100.44
374.739	102.44
374.965	86.44
375.191	92.44
375.416	100.44
375.642	101.44
375.868	98.44
376.094	89.44
376.319	88.44
376.545	90.44
376.771	95.44
376.997	92.44
377.222	86.44
377.448	98.44
377.674	76.44
377.899	96.44
378.125	91.44
378.35	87.44
378.576	88.44
378.802	82.44
379.027	87.44
379.253	90.44
379.478	86.44
379.704	86.44
379.929	85.44
380.155	89.44
380.38	103.44
380.606	100.44
380.831	102.44
381.057	110.44
381.282	98.44
381.507	95.44
381.733	99.44
381.958	105.44
382.184	99.44
382.409	105.44
382.634	101.44
382.86	101.44
383.085	97.44
383.31	103.44
383.535	99.44
383.761	106.44
383.986	92.44
384.211	90.44
384.436	96.44
384.662	110.44
384.887	103.44
385.112	118.44
385.337	107.44
385.562	103.44
385.787	109.44
386.013	111.44
386.238	114.44
386.463	105.44
386.688	106.44
386.913	97.44
387.138	115.44
387.363	101.44
387.588	112.44
387.813	100.44
388.038	122.44
388.263	115.44
388.488	118.44
388.713	98.44
388.938	96.44
389.163	77.44
389.387	102.44
389.612	89.44
389.837	93.44
390.062	90.44
390.287	102.44
390.512	81.44
390.736	97.44
390.961	85.44
391.186	98.44
391.411	86.44
391.636	102.44
391.86	87.44
392.085	96.44
392.31	99.44
392.534	78.44
392.759	82.44
392.984	88.44
393.208	92.44
393.433	93.44
393.658	89.44
393.882	84.44
394.107	95.44
394.331	68.44
394.556	73.44
394.78	104.44
395.005	83.44
395.229	94.44
395.454	78.44
395.678	79.44
395.903	91.44
396.127	92.44
396.352	92.44
396.576	89.44
396.801	95.44
397.025	102.44
397.249	70.44
397.474	106.44
397.698	97.44
397.922	99.44
398.147	97.44
398.371	70.44
398.595	82.44
398.82	92.44
399.044	102.44
399.268	91.44
399.492	80.44
399.717	102.44
399.941	77.44
400.165	93.44
400.389	103.44
400.613	96.44
400.837	97.44
401.062	98.44
401.286	104.44
401.51	89.44
401.734	84.44
401.958	99.44
402.182	125.44
402.406	160.44
402.63	116.44
402.854	100.44
403.078	102.44
403.302	99.44
403.526	99.44
403.75	107.44
403.974	88.44
404.198	83.44
404.422	96.44
404.645	91.44
404.869	85.44
405.093	105.44
405.317	94.44
405.541	94.44
405.765	90.44
405.988	111.44
406.212	166.44
406.436	239.44
406.66	150.44
406.883	100.44
407.107	101.44
407.331	95.44
407.555	110.44
407.778	103.44
408.002	85.44
408.226	102.44
408.449	86.44
408.673	81.44
408.896	89.44
409.12	80.44
409.344	81.44
409.567	95.44
409.791	90.44
410.014	109.44
410.238	89.44
410.461	80.44
410.685	96.44
410.908	115.44
411.132	112.44
411.355	103.44
411.578	96.44
411.802	71.44
412.025	90.44
412.249	95.44
412.472	94.44
412.695	95.44
412.919	87.44
413.142	89.44
413.365	95.44
413.589	86.44
413.812	83.44
414.035	90.44
414.258	94.44
414.482	96.44
414.705	95.44
414.928	98.44
415.151	91.44
415.374	87.44
415.597	86.44
415.821	92.44
416.044	81.44
416.267	84.44
416.49	86.44
416.713	106.44
416.936	96.44
417.159	95.44
417.382	90.44
417.605	82.44
417.828	79.44
418.051	95.44
418.274	100.44
418.497	95.44
418.72	72.44
418.943	102.44
419.166	94.44
419.389	82.44
419.611	90.44
419.834	91.44
420.057	81.44
420.28	86.44
420.503	94.44
420.726	86.44
420.948	93.44
421.171	94.44
421.394	104.44
421.617	101.44
421.839	99.44
422.062	91.44
422.285	90.44
422.507	100.44
422.73	101.44
422.953	108.44
423.175	105.44
423.398	81.44
423.621	99.44
423.843	99.44
424.066	79.44
424.288	78.44
424.511	95.44
424.733	90.44
424.956	95.44
425.178	99.44
425.401	120.44
425.623	95.44
425.846	89.44
426.068	89.44
426.291	98.44
426.513	90.44
426.735	86.44
426.958	85.44
427.18	96.44
427.402	148.44
427.625	176.44
427.847	117.44
428.069	112.44
428.292	87.44
428.514	86.44
428.736	94.44
428.958	88.44
429.181	98.44
429.403	90.44
429.625	79.44
429.847	88.44
430.069	106.44
430.292	96.44
430.514	84.44
430.736	103.44
430.958	82.44
431.18	84.44
431.402	100.44
431.624	94.44
431.846	90.44
432.068	81.44
432.29	97.44
432.512	90.44
432.734	82.44
432.956	107.44
433.178	97.44
433.4	110.44
433.622	83.44
433.844	96.44
434.066	103.44
434.287	94.44
434.509	88.44
434.731	90.44
434.953	83.44
435.175	90.44
435.397	99.44
435.618	95.44
435.84	123.44
436.062	121.44
436.284	109.44
436.505	99.44
436.727	103.44
436.949	97.44
437.17	88.44
437.392	91.44
437.614	99.44
437.835	106.44
438.057	109.44
438.278	109.44
438.5	100.44
438.721	131.44
438.943	105.44
439.165	89.44
439.386	88.44
439.608	94.44
439.829	108.44
440.05	135.44
440.272	140.44
440.493	92.44
440.715	92.44
440.936	104.44
441.158	105.44
441.379	98.44
441.6	102.44
441.822	90.44
442.043	97.44
442.264	114.44
442.486	100.44
442.707	100.44
442.928	115.44
443.149	138.44
443.371	132.44
443.592	119.44
443.813	110.44
444.034	103.44
444.255	97.44
444.476	89.44
444.698	88.44
444.919	97.44
445.14	129.44
445.361	129.44
445.582	125.44
445.803	131.44
446.024	144.44
446.245	144.44
446.466	111.44
446.687	92.44
446.908	95.44
447.129	97.44
447.35	90.44
447.571	95.44
447.792	83.44
448.013	107.44
448.234	104.44
448.455	95.44
448.675	101.44
448.896	106.44
449.117	109.44
449.338	99.44
449.559	129.44
449.779	128.44
450	107.44
450.221	90.44
450.442	107.44
450.662	99.44
450.883	113.44
451.104	114.44
451.324	98.44
451.545	93.44
451.766	92.44
451.986	98.44
452.207	100.44
452.428	88.44
452.648	91.44
452.869	103.44
453.089	116.44
453.31	115.44
453.53	92.44
453.751	98.44
453.971	107.44
454.192	130.44
454.412	86.44
454.633	91.44
454.853	96.44
455.073	90.44
455.294	70.44
455.514	98.44
455.734	95.44
455.955	90.44
456.175	102.44
456.395	83.44
456.616	83.44
456.836	84.44
457.056	91.44
457.276	91.44
457.497	76.44
457.717	87.44
457.937	78.44
458.157	97.44
458.377	106.44
458.598	100.44
458.818	137.44
459.038	149.44
459.258	109.44
459.478	95.44
459.698	83.44
459.918	85.44
460.138	83.44
460.358	78.44
460.578	87.44
460.798	85.44
461.018	88.44
461.238	85.44
461.458	97.44
461.678	89.44
461.898	83.44
462.118	84.44
462.338	88.44
462.558	84.44
462.777	82.44
462.997	100.44
463.217	89.44
463.437	79.44
463.657	78.44
463.876	85.44
464.096	97.44
464.316	89.44
464.536	103.44
464.755	90.44
464.975	100.44
465.195	144.44
465.414	149.44
465.634	102.44
465.854	90.44
466.073	86.44
466.293	96.44
466.512	93.44
466.732	88.44
466.951	92.44
467.171	73.44
467.391	84.44
467.61	96.44
467.829	88.44
468.049	109.44
468.268	93.44
468.488	87.44
468.707	89.44
468.927	82.44
469.146	79.44
469.365	81.44
469.585	97.44
469.804	89.44
470.023	92.44
470.243	97.44
470.462	92.44
470.681	113.44
470.901	84.44
471.12	95.44
471.339	81.44
471.558	91.44
471.777	84.44
471.997	97.44
472.216	93.44
472.435	108.44
472.654	85.44
472.873	81.44
473.092	87.44
473.311	91.44
473.53	99.44
473.749	95.44
473.968	96.44
474.187	97.44
474.406	97.44
474.625	92.44
474.844	87.44
475.063	95.44
475.282	86.44
475.501	81.44
475.72	87.44
475.939	78.44
476.158	84.44
476.377	98.44
476.596	97.44
476.814	96.44
477.033	89.44
477.252	86.44
477.471	82.44
477.69	92.44
477.908	80.44
478.127	97.44
478.346	87.44
478.564	87.44
478.783	105.44
479.002	104.44
479.22	101.44
479.439	95.44
479.658	102.44
479.876	98.44
480.095	98.44
480.313	103.44
480.532	74.44
480.751	93.44
480.969	102.44
481.188	119.44
481.406	113.44
481.624	92.44
481.843	78.44
482.061	80.44
482.28	90.44
482.498	86.44
482.717	84.44
482.935	95.44
483.153	90.44
483.372	90.44
483.59	101.44
483.808	88.44
484.027	93.44
484.245	96.44
484.463	87.44
484.681	102.44
484.9	103.44
485.118	99.44
485.336	101.44
485.554	99.44
485.772	96.44
485.99	106.44
486.209	90.44
486.427	108.44
486.645	106.44
486.863	121.44
487.081	97.44
487.299	97.44
487.517	92.44
487.735	104.44
487.953	96.44
488.171	103.44
488.389	90.44
488.607	105.44
488.825	87.44
489.043	87.44
489.261	94.44
489.479	97.44
489.696	89.44
489.914	89.44
490.132	96.44
490.35	95.44
490.568	95.44
490.786	88.44
491.003	95.44
491.221	108.44
491.439	92.44
491.657	81.44
491.874	109.44
492.092	78.44
492.31	89.44
492.527	89.44
492.745	88.44
492.963	93.44
493.18	100.44
493.398	97.44
493.615	105.44
493.833	100.44
494.05	93.44
494.268	103.44
494.485	98.44
494.703	93.44
494.92	88.44
495.138	77.44
495.355	85.44
495.573	86.44
495.79	92.44
496.008	104.44
496.225	84.44
496.442	98.44
496.66	100.44
496.877	84.44
497.094	100.44
497.312	84.44
497.529	92.44
497.746	91.44
497.963	102.44
498.181	101.44
498.398	88.44
498.615	106.44
498.832	102.44
499.049	100.44
499.267	96.44
499.484	94.44
499.701	98.44
499.918	99.44
500.135	95.44
500.352	100.44
500.569	80.44
500.786	82.44
501.003	107.44
501.22	98.44
501.437	90.44
501.654	92.44
501.871	106.44
502.088	89.44
502.305	104.44
502.522	94.44
502.739	93.44
502.956	90.44
503.172	88.44
503.389	81.44
503.606	105.44
503.823	97.44
504.04	90.44
504.256	94.44
504.473	96.44
504.69	100.44
504.907	103.44
505.123	90.44
505.34	86.44
505.557	97.44
505.773	94.44
505.99	88.44
506.207	102.44
506.423	103.44
506.64	75.44
506.856	86.44
507.073	102.44
507.289	105.44
507.506	98.44
507.722	114.44
507.939	113.44
508.155	79.44
508.372	101.44
508.588	106.44
508.805	103.44
509.021	99.44
509.238	98.44
509.454	97.44
509.67	94.44
509.887	103.44
510.103	132.44
510.319	225.44
510.536	794.44
510.752	2538.44
510.968	706.44
511.184	150.44
511.401	110.44
511.617	95.44
511.833	88.44
512.049	102.44
512.265	88.44
512.481	85.44
512.698	113.44
512.914	96.44
513.13	69.44
513.346	84.44
513.562	92.44
513.778	98.44
513.994	95.44
514.21	103.44
514.426	118.44
514.642	137.44
514.858	126.44
