Data from Uncirc_2003_H10_HRD10591_00041.txt Node
Date: Wed Jan 03 10:35:56 EST 2024
User: Yrep
Spectrometer: HR+D1059
Trigger mode: 1
Integration Time (sec): 1.000000E-1
Scans to average: 1
Electric dark correction enabled: true
Nonlinearity correction enabled: false
Boxcar width: 0
XAxis mode: Wavelengths
Number of Pixels in Spectrum: 2048
>>>>>Begin Spectral Data<<<<<
223.165	-32.19
223.4	-32.19
223.635	-32.19
223.869	-17.19
224.104	-27.19
224.338	-7.19
224.573	-21.19
224.808	-15.19
225.042	-22.19
225.277	2.81
225.511	6.81
225.746	6.81
225.98	13.81
226.215	6.81
226.449	23.81
226.683	17.81
226.918	22.81
227.152	40.81
227.387	30.81
227.621	27.81
227.856	34.81
228.09	36.81
228.324	49.81
228.559	46.81
228.793	60.81
229.027	60.81
229.262	58.81
229.496	64.81
229.73	93.81
229.964	80.81
230.199	69.81
230.433	78.81
230.667	92.81
230.901	82.81
231.136	83.81
231.37	74.81
231.604	80.81
231.838	79.81
232.072	78.81
232.306	78.81
232.541	67.81
232.775	66.81
233.009	69.81
233.243	88.81
233.477	78.81
233.711	70.81
233.945	82.81
234.179	91.81
234.413	70.81
234.647	78.81
234.881	83.81
235.115	70.81
235.349	76.81
235.583	74.81
235.817	79.81
236.051	73.81
236.285	63.81
236.519	65.81
236.753	84.81
236.987	67.81
237.221	83.81
237.455	69.81
237.689	81.81
237.922	56.81
238.156	71.81
238.39	72.81
238.624	74.81
238.858	54.81
239.091	83.81
239.325	63.81
239.559	73.81
239.793	76.81
240.027	82.81
240.26	68.81
240.494	67.81
240.728	61.81
240.961	71.81
241.195	86.81
241.429	82.81
241.662	69.81
241.896	84.81
242.13	75.81
242.363	69.81
242.597	67.81
242.83	67.81
243.064	81.81
243.298	79.81
243.531	66.81
243.765	67.81
243.998	67.81
244.232	62.81
244.465	76.81
244.699	78.81
244.932	80.81
245.166	54.81
245.399	76.81
245.633	74.81
245.866	76.81
246.099	74.81
246.333	72.81
246.566	81.81
246.8	78.81
247.033	78.81
247.266	82.81
247.5	77.81
247.733	74.81
247.966	74.81
248.2	84.81
248.433	72.81
248.666	69.81
248.899	75.81
249.133	85.81
249.366	102.81
249.599	86.81
249.832	91.81
250.066	76.81
250.299	72.81
250.532	73.81
250.765	75.81
250.998	64.81
251.231	72.81
251.465	68.81
251.698	84.81
251.931	81.81
252.164	72.81
252.397	86.81
252.63	72.81
252.863	70.81
253.096	75.81
253.329	86.81
253.562	58.81
253.795	69.81
254.028	84.81
254.261	77.81
254.494	88.81
254.727	62.81
254.96	73.81
255.193	59.81
255.426	72.81
255.659	71.81
255.892	86.81
256.124	82.81
256.357	67.81
256.59	66.81
256.823	78.81
257.056	80.81
257.289	72.81
257.521	73.81
257.754	77.81
257.987	55.81
258.22	79.81
258.452	71.81
258.685	72.81
258.918	83.81
259.151	78.81
259.383	72.81
259.616	81.81
259.849	80.81
260.081	61.81
260.314	79.81
260.547	88.81
260.779	79.81
261.012	73.81
261.244	90.81
261.477	94.81
261.71	90.81
261.942	102.81
262.175	112.81
262.407	75.81
262.64	74.81
262.872	66.81
263.105	97.81
263.337	79.81
263.57	80.81
263.802	84.81
264.035	71.81
264.267	79.81
264.499	93.81
264.732	86.81
264.964	78.81
265.197	81.81
265.429	89.81
265.661	87.81
265.894	91.81
266.126	86.81
266.358	73.81
266.591	82.81
266.823	70.81
267.055	77.81
267.287	73.81
267.52	80.81
267.752	64.81
267.984	82.81
268.216	67.81
268.448	82.81
268.681	75.81
268.913	77.81
269.145	74.81
269.377	85.81
269.609	105.81
269.841	77.81
270.073	75.81
270.306	72.81
270.538	79.81
270.77	73.81
271.002	82.81
271.234	77.81
271.466	81.81
271.698	77.81
271.93	78.81
272.162	70.81
272.394	83.81
272.626	77.81
272.858	79.81
273.09	80.81
273.322	83.81
273.553	74.81
273.785	89.81
274.017	91.81
274.249	63.81
274.481	78.81
274.713	94.81
274.945	76.81
275.176	85.81
275.408	72.81
275.64	83.81
275.872	87.81
276.104	84.81
276.335	93.81
276.567	75.81
276.799	100.81
277.031	97.81
277.262	95.81
277.494	90.81
277.726	86.81
277.957	77.81
278.189	72.81
278.421	78.81
278.652	99.81
278.884	84.81
279.115	90.81
279.347	70.81
279.579	88.81
279.81	76.81
280.042	90.81
280.273	74.81
280.505	84.81
280.736	93.81
280.968	81.81
281.199	90.81
281.431	81.81
281.662	80.81
281.894	99.81
282.125	94.81
282.356	114.81
282.588	144.81
282.819	121.81
283.051	76.81
283.282	77.81
283.513	95.81
283.745	91.81
283.976	91.81
284.207	78.81
284.439	76.81
284.67	57.81
284.901	83.81
285.132	77.81
285.364	70.81
285.595	86.81
285.826	93.81
286.057	83.81
286.288	56.81
286.52	93.81
286.751	78.81
286.982	84.81
287.213	64.81
287.444	78.81
287.675	79.81
287.906	88.81
288.138	85.81
288.369	74.81
288.6	78.81
288.831	75.81
289.062	72.81
289.293	92.81
289.524	76.81
289.755	85.81
289.986	75.81
290.217	73.81
290.448	88.81
290.679	87.81
290.91	91.81
291.141	80.81
291.371	72.81
291.602	84.81
291.833	82.81
292.064	80.81
292.295	80.81
292.526	76.81
292.757	79.81
292.987	89.81
293.218	73.81
293.449	67.81
293.68	94.81
293.91	82.81
294.141	80.81
294.372	78.81
294.603	82.81
294.833	77.81
295.064	88.81
295.295	94.81
295.525	82.81
295.756	101.81
295.987	105.81
296.217	125.81
296.448	115.81
296.679	91.81
296.909	103.81
297.14	95.81
297.37	77.81
297.601	84.81
297.831	76.81
298.062	78.81
298.292	85.81
298.523	81.81
298.753	74.81
298.984	79.81
299.214	81.81
299.445	98.81
299.675	82.81
299.905	95.81
300.136	90.81
300.366	82.81
300.597	91.81
300.827	81.81
301.057	88.81
301.288	79.81
301.518	104.81
301.748	74.81
301.979	100.81
302.209	74.81
302.439	88.81
302.669	80.81
302.9	70.81
303.13	92.81
303.36	90.81
303.59	92.81
303.82	97.81
304.051	93.81
304.281	90.81
304.511	84.81
304.741	86.81
304.971	81.81
305.201	89.81
305.431	83.81
305.661	95.81
305.891	89.81
306.121	71.81
306.352	95.81
306.582	105.81
306.812	76.81
307.042	92.81
307.272	84.81
307.502	91.81
307.731	93.81
307.961	82.81
308.191	90.81
308.421	86.81
308.651	84.81
308.881	85.81
309.111	101.81
309.341	90.81
309.571	93.81
309.8	92.81
310.03	94.81
310.26	81.81
310.49	91.81
310.72	85.81
310.949	85.81
311.179	85.81
311.409	92.81
311.639	83.81
311.868	92.81
312.098	88.81
312.328	97.81
312.557	97.81
312.787	92.81
313.017	89.81
313.246	105.81
313.476	92.81
313.706	82.81
313.935	100.81
314.165	101.81
314.394	86.81
314.624	87.81
314.853	109.81
315.083	89.81
315.312	93.81
315.542	84.81
315.771	78.81
316.001	87.81
316.23	80.81
316.46	92.81
316.689	74.81
316.919	80.81
317.148	94.81
317.377	95.81
317.607	90.81
317.836	102.81
318.065	80.81
318.295	88.81
318.524	79.81
318.753	97.81
318.983	112.81
319.212	89.81
319.441	107.81
319.67	121.81
319.9	92.81
320.129	88.81
320.358	86.81
320.587	86.81
320.816	97.81
321.046	102.81
321.275	97.81
321.504	103.81
321.733	85.81
321.962	89.81
322.191	103.81
322.42	105.81
322.649	102.81
322.878	115.81
323.108	104.81
323.337	134.81
323.566	136.81
323.795	148.81
324.024	222.81
324.253	443.81
324.482	987.81
324.71	2032.81
324.939	2729.81
325.168	963.81
325.397	276.81
325.626	161.81
325.855	123.81
326.084	141.81
326.313	142.81
326.542	167.81
326.77	264.81
326.999	539.81
327.228	1103.81
327.457	2064.81
327.686	1610.81
327.914	419.81
328.143	198.81
328.372	142.81
328.6	100.81
328.829	92.81
329.058	115.81
329.287	136.81
329.515	101.81
329.744	88.81
329.972	86.81
330.201	97.81
330.43	107.81
330.658	108.81
330.887	139.81
331.115	122.81
331.344	83.81
331.572	96.81
331.801	96.81
332.03	94.81
332.258	93.81
332.486	87.81
332.715	85.81
332.943	86.81
333.172	79.81
333.4	85.81
333.629	96.81
333.857	108.81
334.085	89.81
334.314	92.81
334.542	90.81
334.771	96.81
334.999	84.81
335.227	100.81
335.455	96.81
335.684	87.81
335.912	90.81
336.14	95.81
336.369	92.81
336.597	102.81
336.825	92.81
337.053	81.81
337.281	78.81
337.51	82.81
337.738	93.81
337.966	93.81
338.194	82.81
338.422	86.81
338.65	85.81
338.878	89.81
339.106	96.81
339.334	92.81
339.562	80.81
339.79	74.81
340.018	75.81
340.246	89.81
340.474	96.81
340.702	87.81
340.93	90.81
341.158	68.81
341.386	82.81
341.614	87.81
341.842	92.81
342.07	91.81
342.298	77.81
342.526	84.81
342.754	88.81
342.981	87.81
343.209	91.81
343.437	94.81
343.665	84.81
343.893	80.81
344.12	84.81
344.348	86.81
344.576	83.81
344.804	85.81
345.031	97.81
345.259	105.81
345.487	100.81
345.714	83.81
345.942	96.81
346.17	88.81
346.397	101.81
346.625	83.81
346.853	77.81
347.08	81.81
347.308	92.81
347.535	92.81
347.763	94.81
347.99	90.81
348.218	89.81
348.445	97.81
348.673	101.81
348.9	93.81
349.128	105.81
349.355	84.81
349.583	87.81
349.81	86.81
350.037	87.81
350.265	84.81
350.492	95.81
350.72	95.81
350.947	111.81
351.174	90.81
351.402	99.81
351.629	86.81
351.856	102.81
352.083	98.81
352.311	98.81
352.538	126.81
352.765	113.81
352.992	118.81
353.22	111.81
353.447	95.81
353.674	84.81
353.901	104.81
354.128	92.81
354.355	116.81
354.583	100.81
354.81	103.81
355.037	90.81
355.264	88.81
355.491	98.81
355.718	94.81
355.945	85.81
356.172	85.81
356.399	85.81
356.626	80.81
356.853	86.81
357.08	95.81
357.307	84.81
357.534	95.81
357.761	68.81
357.988	92.81
358.215	93.81
358.441	92.81
358.668	100.81
358.895	96.81
359.122	89.81
359.349	94.81
359.576	98.81
359.802	94.81
360.029	109.81
360.256	87.81
360.483	90.81
360.709	78.81
360.936	94.81
361.163	99.81
361.39	95.81
361.616	98.81
361.843	90.81
362.07	85.81
362.296	96.81
362.523	77.81
362.749	92.81
362.976	87.81
363.203	92.81
363.429	91.81
363.656	84.81
363.882	82.81
364.109	99.81
364.335	78.81
364.562	97.81
364.788	97.81
365.015	91.81
365.241	101.81
365.468	111.81
365.694	96.81
365.92	98.81
366.147	87.81
366.373	78.81
366.599	80.81
366.826	96.81
367.052	107.81
367.278	78.81
367.505	78.81
367.731	80.81
367.957	83.81
368.184	82.81
368.41	114.81
368.636	103.81
368.862	110.81
369.089	101.81
369.315	85.81
369.541	73.81
369.767	83.81
369.993	93.81
370.219	92.81
370.445	76.81
370.672	90.81
370.898	85.81
371.124	81.81
371.35	81.81
371.576	95.81
371.802	86.81
372.028	97.81
372.254	97.81
372.48	93.81
372.706	84.81
372.932	73.81
373.158	89.81
373.384	85.81
373.61	90.81
373.835	63.81
374.061	92.81
374.287	98.81
374.513	84.81
374.739	92.81
374.965	76.81
375.191	89.81
375.416	83.81
375.642	83.81
375.868	98.81
376.094	88.81
376.319	83.81
376.545	75.81
376.771	95.81
376.997	92.81
377.222	76.81
377.448	91.81
377.674	70.81
377.899	90.81
378.125	77.81
378.35	87.81
378.576	77.81
378.802	78.81
379.027	75.81
379.253	84.81
379.478	84.81
379.704	87.81
379.929	100.81
380.155	90.81
380.38	86.81
380.606	101.81
380.831	85.81
381.057	86.81
381.282	73.81
381.507	72.81
381.733	86.81
381.958	79.81
382.184	92.81
382.409	95.81
382.634	101.81
382.86	89.81
383.085	92.81
383.31	107.81
383.535	93.81
383.761	95.81
383.986	92.81
384.211	108.81
384.436	106.81
384.662	88.81
384.887	95.81
385.112	92.81
385.337	100.81
385.562	89.81
385.787	96.81
386.013	98.81
386.238	98.81
386.463	111.81
386.688	107.81
386.913	113.81
387.138	109.81
387.363	98.81
387.588	97.81
387.813	106.81
388.038	110.81
388.263	99.81
388.488	93.81
388.713	91.81
388.938	90.81
389.163	87.81
389.387	84.81
389.612	87.81
389.837	91.81
390.062	98.81
390.287	90.81
390.512	80.81
390.736	85.81
390.961	69.81
391.186	79.81
391.411	84.81
391.636	92.81
391.86	69.81
392.085	81.81
392.31	90.81
392.534	91.81
392.759	90.81
392.984	88.81
393.208	86.81
393.433	87.81
393.658	94.81
393.882	77.81
394.107	89.81
394.331	71.81
394.556	69.81
394.78	87.81
395.005	81.81
395.229	77.81
395.454	84.81
395.678	92.81
395.903	95.81
396.127	89.81
396.352	89.81
396.576	84.81
396.801	76.81
397.025	77.81
397.249	88.81
397.474	93.81
397.698	83.81
397.922	90.81
398.147	69.81
398.371	80.81
398.595	80.81
398.82	79.81
399.044	66.81
399.268	73.81
399.492	81.81
399.717	90.81
399.941	77.81
400.165	94.81
400.389	89.81
400.613	76.81
400.837	83.81
401.062	81.81
401.286	77.81
401.51	90.81
401.734	86.81
401.958	104.81
402.182	124.81
402.406	156.81
402.63	121.81
402.854	90.81
403.078	74.81
403.302	104.81
403.526	104.81
403.75	92.81
403.974	90.81
404.198	76.81
404.422	75.81
404.645	74.81
404.869	79.81
405.093	80.81
405.317	105.81
405.541	100.81
405.765	82.81
405.988	102.81
406.212	165.81
406.436	249.81
406.66	140.81
406.883	107.81
407.107	90.81
407.331	93.81
407.555	105.81
407.778	101.81
408.002	83.81
408.226	82.81
408.449	90.81
408.673	90.81
408.896	95.81
409.12	79.81
409.344	77.81
409.567	85.81
409.791	90.81
410.014	79.81
410.238	89.81
410.461	89.81
410.685	93.81
410.908	92.81
411.132	89.81
411.355	97.81
411.578	88.81
411.802	81.81
412.025	78.81
412.249	86.81
412.472	59.81
412.695	78.81
412.919	80.81
413.142	86.81
413.365	90.81
413.589	75.81
413.812	95.81
414.035	103.81
414.258	73.81
414.482	77.81
414.705	92.81
414.928	74.81
415.151	83.81
415.374	77.81
415.597	69.81
415.821	102.81
416.044	69.81
416.267	82.81
416.49	78.81
416.713	93.81
416.936	79.81
417.159	76.81
417.382	90.81
417.605	90.81
417.828	81.81
418.051	82.81
418.274	91.81
418.497	80.81
418.72	94.81
418.943	93.81
419.166	77.81
419.389	80.81
419.611	81.81
419.834	93.81
420.057	80.81
420.28	79.81
420.503	90.81
420.726	105.81
420.948	83.81
421.171	85.81
421.394	89.81
421.617	81.81
421.839	94.81
422.062	83.81
422.285	93.81
422.507	108.81
422.73	100.81
422.953	97.81
423.175	81.81
423.398	76.81
423.621	100.81
423.843	106.81
424.066	69.81
424.288	82.81
424.511	88.81
424.733	98.81
424.956	98.81
425.178	91.81
425.401	98.81
425.623	92.81
425.846	89.81
426.068	85.81
426.291	85.81
426.513	94.81
426.735	78.81
426.958	86.81
427.18	99.81
427.402	139.81
427.625	173.81
427.847	98.81
428.069	101.81
428.292	78.81
428.514	82.81
428.736	97.81
428.958	85.81
429.181	70.81
429.403	90.81
429.625	82.81
429.847	91.81
430.069	96.81
430.292	88.81
430.514	86.81
430.736	79.81
430.958	92.81
431.18	81.81
431.402	83.81
431.624	76.81
431.846	84.81
432.068	77.81
432.29	88.81
432.512	80.81
432.734	94.81
432.956	93.81
433.178	92.81
433.4	92.81
433.622	79.81
433.844	82.81
434.066	103.81
434.287	105.81
434.509	96.81
434.731	82.81
434.953	96.81
435.175	85.81
435.397	90.81
435.618	106.81
435.84	115.81
436.062	105.81
436.284	102.81
436.505	88.81
436.727	117.81
436.949	75.81
437.17	85.81
437.392	77.81
437.614	90.81
437.835	120.81
438.057	123.81
438.278	102.81
438.5	99.81
438.721	129.81
438.943	105.81
439.165	81.81
439.386	84.81
439.608	93.81
439.829	89.81
440.05	120.81
440.272	140.81
440.493	108.81
440.715	79.81
440.936	77.81
441.158	97.81
441.379	84.81
441.6	80.81
441.822	84.81
442.043	89.81
442.264	103.81
442.486	85.81
442.707	84.81
442.928	83.81
443.149	132.81
443.371	130.81
443.592	114.81
443.813	113.81
444.034	103.81
444.255	82.81
444.476	81.81
444.698	85.81
444.919	92.81
445.14	129.81
445.361	105.81
445.582	113.81
445.803	117.81
446.024	133.81
446.245	118.81
446.466	98.81
446.687	92.81
446.908	68.81
447.129	81.81
447.35	76.81
447.571	98.81
447.792	108.81
448.013	101.81
448.234	106.81
448.455	98.81
448.675	104.81
448.896	108.81
449.117	99.81
449.338	89.81
449.559	134.81
449.779	125.81
450	95.81
450.221	70.81
450.442	101.81
450.662	99.81
450.883	93.81
451.104	97.81
451.324	88.81
451.545	80.81
451.766	91.81
451.986	85.81
452.207	76.81
452.428	87.81
452.648	95.81
452.869	113.81
453.089	106.81
453.31	129.81
453.53	92.81
453.751	89.81
453.971	94.81
454.192	100.81
454.412	85.81
454.633	84.81
454.853	85.81
455.073	71.81
455.294	82.81
455.514	91.81
455.734	96.81
455.955	75.81
456.175	75.81
456.395	62.81
456.616	80.81
456.836	77.81
457.056	81.81
457.276	83.81
457.497	68.81
457.717	68.81
457.937	101.81
458.157	91.81
458.377	86.81
458.598	111.81
458.818	156.81
459.038	149.81
459.258	121.81
459.478	91.81
459.698	88.81
459.918	73.81
460.138	77.81
460.358	75.81
460.578	87.81
460.798	82.81
461.018	86.81
461.238	88.81
461.458	90.81
461.678	80.81
461.898	80.81
462.118	82.81
462.338	75.81
462.558	73.81
462.777	90.81
462.997	75.81
463.217	69.81
463.437	92.81
463.657	93.81
463.876	84.81
464.096	95.81
464.316	92.81
464.536	84.81
464.755	102.81
464.975	108.81
465.195	179.81
465.414	157.81
465.634	85.81
465.854	84.81
466.073	94.81
466.293	76.81
466.512	79.81
466.732	79.81
466.951	81.81
467.171	95.81
467.391	102.81
467.61	105.81
467.829	97.81
468.049	94.81
468.268	78.81
468.488	75.81
468.707	82.81
468.927	77.81
469.146	80.81
469.365	84.81
469.585	86.81
469.804	77.81
470.023	94.81
470.243	86.81
470.462	103.81
470.681	102.81
470.901	90.81
471.12	91.81
471.339	79.81
471.558	91.81
471.777	83.81
471.997	80.81
472.216	95.81
472.435	92.81
472.654	83.81
472.873	90.81
473.092	97.81
473.311	93.81
473.53	77.81
473.749	62.81
473.968	93.81
474.187	98.81
474.406	91.81
474.625	88.81
474.844	84.81
475.063	80.81
475.282	77.81
475.501	89.81
475.72	86.81
475.939	85.81
476.158	87.81
476.377	96.81
476.596	82.81
476.814	110.81
477.033	99.81
477.252	85.81
477.471	80.81
477.69	77.81
477.908	91.81
478.127	97.81
478.346	86.81
478.564	84.81
478.783	88.81
479.002	84.81
479.22	92.81
479.439	104.81
479.658	88.81
479.876	89.81
480.095	91.81
480.313	89.81
480.532	101.81
480.751	92.81
480.969	83.81
481.188	93.81
481.406	95.81
481.624	78.81
481.843	82.81
482.061	91.81
482.28	72.81
482.498	94.81
482.717	73.81
482.935	80.81
483.153	83.81
483.372	83.81
483.59	81.81
483.808	91.81
484.027	89.81
484.245	102.81
484.463	93.81
484.681	101.81
484.9	80.81
485.118	92.81
485.336	98.81
485.554	93.81
485.772	94.81
485.99	91.81
486.209	98.81
486.427	99.81
486.645	106.81
486.863	115.81
487.081	87.81
487.299	94.81
487.517	90.81
487.735	87.81
487.953	84.81
488.171	96.81
488.389	105.81
488.607	90.81
488.825	86.81
489.043	82.81
489.261	87.81
489.479	79.81
489.696	89.81
489.914	79.81
490.132	85.81
490.35	81.81
490.568	86.81
490.786	80.81
491.003	84.81
491.221	94.81
491.439	98.81
491.657	93.81
491.874	93.81
492.092	85.81
492.31	91.81
492.527	77.81
492.745	87.81
492.963	85.81
493.18	84.81
493.398	89.81
493.615	95.81
493.833	87.81
494.05	86.81
494.268	88.81
494.485	78.81
494.703	92.81
494.92	89.81
495.138	95.81
495.355	94.81
495.573	86.81
495.79	72.81
496.008	109.81
496.225	89.81
496.442	77.81
496.66	87.81
496.877	94.81
497.094	100.81
497.312	97.81
497.529	92.81
497.746	76.81
497.963	77.81
498.181	101.81
498.398	86.81
498.615	103.81
498.832	101.81
499.049	92.81
499.267	89.81
499.484	77.81
499.701	93.81
499.918	83.81
500.135	92.81
500.352	80.81
500.569	83.81
500.786	97.81
501.003	78.81
501.22	100.81
501.437	99.81
501.654	94.81
501.871	98.81
502.088	92.81
502.305	86.81
502.522	80.81
502.739	91.81
502.956	66.81
503.172	94.81
503.389	91.81
503.606	117.81
503.823	97.81
504.04	97.81
504.256	92.81
504.473	97.81
504.69	89.81
504.907	101.81
505.123	91.81
505.34	77.81
505.557	81.81
505.773	74.81
505.99	77.81
506.207	91.81
506.423	77.81
506.64	84.81
506.856	89.81
507.073	84.81
507.289	90.81
507.506	95.81
507.722	110.81
507.939	107.81
508.155	92.81
508.372	89.81
508.588	94.81
508.805	88.81
509.021	77.81
509.238	99.81
509.454	110.81
509.67	99.81
509.887	110.81
510.103	149.81
510.319	233.81
510.536	897.81
510.752	2899.81
510.968	771.81
511.184	165.81
511.401	107.81
511.617	97.81
511.833	99.81
512.049	97.81
512.265	89.81
512.481	103.81
512.698	91.81
512.914	89.81
513.13	92.81
513.346	96.81
513.562	84.81
513.778	92.81
513.994	102.81
514.21	112.81
514.426	133.81
514.642	123.81
514.858	131.81
515.074	162.81
515.29	535.81
515.506	1726.81
515.721	622.81
515.937	160.81
516.153	121.81
516.369	93.81
516.585	94.81
516.801	94.81
517.016	96.81
