Data from Uncirc_2003_H10_HRD10591_00066.txt Node
Date: Wed Jan 03 10:36:01 EST 2024
User: Yrep
Spectrometer: HR+D1059
Trigger mode: 1
Integration Time (sec): 1.000000E-1
Scans to average: 1
Electric dark correction enabled: true
Nonlinearity correction enabled: false
Boxcar width: 0
XAxis mode: Wavelengths
Number of Pixels in Spectrum: 2048
>>>>>Begin Spectral Data<<<<<
223.165	-20.88
223.4	-20.88
223.635	-20.88
223.869	-15.88
224.104	-25.88
224.338	-13.88
224.573	8.12
224.808	-5.88
225.042	-2.88
225.277	-6.88
225.511	-18.88
225.746	4.12
225.98	10.12
226.215	2.12
226.449	18.12
226.683	18.12
226.918	23.12
227.152	27.12
227.387	27.12
227.621	35.12
227.856	55.12
228.09	41.12
228.324	56.12
228.559	70.12
228.793	57.12
229.027	76.12
229.262	74.12
229.496	67.12
229.73	75.12
229.964	81.12
230.199	75.12
230.433	79.12
230.667	87.12
230.901	74.12
231.136	99.12
231.37	92.12
231.604	89.12
231.838	74.12
232.072	92.12
232.306	94.12
232.541	96.12
232.775	77.12
233.009	85.12
233.243	73.12
233.477	90.12
233.711	73.12
233.945	83.12
234.179	98.12
234.413	89.12
234.647	87.12
234.881	77.12
235.115	88.12
235.349	75.12
235.583	80.12
235.817	84.12
236.051	82.12
236.285	80.12
236.519	88.12
236.753	83.12
236.987	76.12
237.221	84.12
237.455	78.12
237.689	90.12
237.922	78.12
238.156	68.12
238.39	67.12
238.624	81.12
238.858	85.12
239.091	74.12
239.325	88.12
239.559	78.12
239.793	76.12
240.027	76.12
240.26	76.12
240.494	72.12
240.728	87.12
240.961	70.12
241.195	86.12
241.429	68.12
241.662	76.12
241.896	70.12
242.13	78.12
242.363	62.12
242.597	80.12
242.83	92.12
243.064	77.12
243.298	84.12
243.531	85.12
243.765	80.12
243.998	77.12
244.232	80.12
244.465	81.12
244.699	81.12
244.932	89.12
245.166	88.12
245.399	69.12
245.633	99.12
245.866	85.12
246.099	69.12
246.333	84.12
246.566	78.12
246.8	77.12
247.033	85.12
247.266	78.12
247.5	85.12
247.733	82.12
247.966	86.12
248.2	85.12
248.433	97.12
248.666	98.12
248.899	82.12
249.133	84.12
249.366	119.12
249.599	82.12
249.832	99.12
250.066	80.12
250.299	76.12
250.532	86.12
250.765	97.12
250.998	69.12
251.231	80.12
251.465	77.12
251.698	83.12
251.931	81.12
252.164	71.12
252.397	85.12
252.63	88.12
252.863	82.12
253.096	77.12
253.329	88.12
253.562	86.12
253.795	68.12
254.028	84.12
254.261	80.12
254.494	85.12
254.727	96.12
254.96	92.12
255.193	80.12
255.426	75.12
255.659	89.12
255.892	77.12
256.124	83.12
256.357	79.12
256.59	77.12
256.823	83.12
257.056	81.12
257.289	87.12
257.521	100.12
257.754	86.12
257.987	84.12
258.22	72.12
258.452	73.12
258.685	77.12
258.918	101.12
259.151	81.12
259.383	86.12
259.616	80.12
259.849	85.12
260.081	77.12
260.314	82.12
260.547	81.12
260.779	97.12
261.012	85.12
261.244	80.12
261.477	88.12
261.71	81.12
261.942	104.12
262.175	99.12
262.407	76.12
262.64	89.12
262.872	88.12
263.105	75.12
263.337	94.12
263.57	85.12
263.802	73.12
264.035	93.12
264.267	86.12
264.499	94.12
264.732	82.12
264.964	83.12
265.197	85.12
265.429	93.12
265.661	85.12
265.894	93.12
266.126	92.12
266.358	89.12
266.591	94.12
266.823	85.12
267.055	98.12
267.287	90.12
267.52	89.12
267.752	84.12
267.984	92.12
268.216	85.12
268.448	82.12
268.681	84.12
268.913	93.12
269.145	78.12
269.377	80.12
269.609	84.12
269.841	86.12
270.073	85.12
270.306	85.12
270.538	81.12
270.77	80.12
271.002	97.12
271.234	85.12
271.466	84.12
271.698	82.12
271.93	99.12
272.162	76.12
272.394	84.12
272.626	97.12
272.858	84.12
273.09	84.12
273.322	92.12
273.553	81.12
273.785	83.12
274.017	85.12
274.249	93.12
274.481	86.12
274.713	87.12
274.945	93.12
275.176	82.12
275.408	85.12
275.64	105.12
275.872	90.12
276.104	93.12
276.335	93.12
276.567	82.12
276.799	105.12
277.031	111.12
277.262	84.12
277.494	92.12
277.726	86.12
277.957	88.12
278.189	78.12
278.421	88.12
278.652	76.12
278.884	106.12
279.115	88.12
279.347	75.12
279.579	89.12
279.81	88.12
280.042	78.12
280.273	86.12
280.505	76.12
280.736	78.12
280.968	93.12
281.199	90.12
281.431	99.12
281.662	105.12
281.894	92.12
282.125	94.12
282.356	107.12
282.588	128.12
282.819	121.12
283.051	96.12
283.282	80.12
283.513	87.12
283.745	84.12
283.976	89.12
284.207	88.12
284.439	81.12
284.67	86.12
284.901	99.12
285.132	84.12
285.364	92.12
285.595	90.12
285.826	79.12
286.057	82.12
286.288	106.12
286.52	73.12
286.751	81.12
286.982	104.12
287.213	86.12
287.444	104.12
287.675	101.12
287.906	86.12
288.138	93.12
288.369	91.12
288.6	93.12
288.831	90.12
289.062	93.12
289.293	83.12
289.524	90.12
289.755	91.12
289.986	95.12
290.217	85.12
290.448	94.12
290.679	91.12
290.91	99.12
291.141	85.12
291.371	92.12
291.602	90.12
291.833	78.12
292.064	94.12
292.295	89.12
292.526	93.12
292.757	100.12
292.987	96.12
293.218	100.12
293.449	89.12
293.68	76.12
293.91	81.12
294.141	96.12
294.372	88.12
294.603	96.12
294.833	90.12
295.064	85.12
295.295	91.12
295.525	89.12
295.756	100.12
295.987	106.12
296.217	131.12
296.448	118.12
296.679	118.12
296.909	97.12
297.14	91.12
297.37	98.12
297.601	96.12
297.831	93.12
298.062	88.12
298.292	72.12
298.523	100.12
298.753	93.12
298.984	92.12
299.214	88.12
299.445	88.12
299.675	93.12
299.905	91.12
300.136	101.12
300.366	86.12
300.597	100.12
300.827	95.12
301.057	98.12
301.288	96.12
301.518	88.12
301.748	83.12
301.979	90.12
302.209	93.12
302.439	89.12
302.669	92.12
302.9	96.12
303.13	80.12
303.36	88.12
303.59	103.12
303.82	117.12
304.051	90.12
304.281	76.12
304.511	79.12
304.741	82.12
304.971	93.12
305.201	86.12
305.431	90.12
305.661	95.12
305.891	89.12
306.121	88.12
306.352	109.12
306.582	108.12
306.812	115.12
307.042	92.12
307.272	93.12
307.502	98.12
307.731	98.12
307.961	87.12
308.191	89.12
308.421	93.12
308.651	96.12
308.881	87.12
309.111	91.12
309.341	101.12
309.571	99.12
309.8	102.12
310.03	102.12
310.26	97.12
310.49	97.12
310.72	108.12
310.949	100.12
311.179	79.12
311.409	91.12
311.639	94.12
311.868	98.12
312.098	94.12
312.328	99.12
312.557	109.12
312.787	102.12
313.017	113.12
313.246	93.12
313.476	87.12
313.706	91.12
313.935	98.12
314.165	101.12
314.394	112.12
314.624	85.12
314.853	92.12
315.083	93.12
315.312	98.12
315.542	81.12
315.771	95.12
316.001	92.12
316.23	85.12
316.46	96.12
316.689	93.12
316.919	92.12
317.148	105.12
317.377	91.12
317.607	100.12
317.836	103.12
318.065	88.12
318.295	102.12
318.524	98.12
318.753	87.12
318.983	99.12
319.212	110.12
319.441	123.12
319.67	93.12
319.9	91.12
320.129	101.12
320.358	90.12
320.587	100.12
320.816	92.12
321.046	98.12
321.275	100.12
321.504	101.12
321.733	88.12
321.962	98.12
322.191	112.12
322.42	102.12
322.649	104.12
322.878	107.12
323.108	107.12
323.337	121.12
323.566	126.12
323.795	152.12
324.024	201.12
324.253	412.12
324.482	827.12
324.71	1722.12
324.939	2272.12
325.168	849.12
325.397	247.12
325.626	152.12
325.855	140.12
326.084	134.12
326.313	133.12
326.542	182.12
326.77	241.12
326.999	474.12
327.228	973.12
327.457	1755.12
327.686	1371.12
327.914	362.12
328.143	190.12
328.372	149.12
328.6	115.12
328.829	112.12
329.058	118.12
329.287	122.12
329.515	101.12
329.744	98.12
329.972	105.12
330.201	112.12
330.43	90.12
330.658	110.12
330.887	110.12
331.115	108.12
331.344	94.12
331.572	97.12
331.801	119.12
332.03	102.12
332.258	105.12
332.486	98.12
332.715	111.12
332.943	100.12
333.172	108.12
333.4	100.12
333.629	106.12
333.857	111.12
334.085	99.12
334.314	101.12
334.542	118.12
334.771	99.12
334.999	97.12
335.227	80.12
335.455	95.12
335.684	110.12
335.912	106.12
336.14	96.12
336.369	92.12
336.597	88.12
336.825	100.12
337.053	96.12
337.281	104.12
337.51	86.12
337.738	101.12
337.966	107.12
338.194	108.12
338.422	94.12
338.65	98.12
338.878	103.12
339.106	91.12
339.334	88.12
339.562	96.12
339.79	98.12
340.018	97.12
340.246	83.12
340.474	100.12
340.702	83.12
340.93	89.12
341.158	98.12
341.386	85.12
341.614	118.12
341.842	97.12
342.07	86.12
342.298	109.12
342.526	90.12
342.754	96.12
342.981	84.12
343.209	85.12
343.437	99.12
343.665	90.12
343.893	91.12
344.12	92.12
344.348	107.12
344.576	96.12
344.804	92.12
345.031	101.12
345.259	96.12
345.487	87.12
345.714	88.12
345.942	91.12
346.17	102.12
346.397	97.12
346.625	95.12
346.853	78.12
347.08	102.12
347.308	94.12
347.535	84.12
347.763	108.12
347.99	99.12
348.218	95.12
348.445	88.12
348.673	105.12
348.9	94.12
349.128	96.12
349.355	100.12
349.583	79.12
349.81	99.12
350.037	88.12
350.265	93.12
350.492	100.12
350.72	92.12
350.947	103.12
351.174	105.12
351.402	109.12
351.629	94.12
351.856	96.12
352.083	98.12
352.311	106.12
352.538	99.12
352.765	109.12
352.992	110.12
353.22	113.12
353.447	119.12
353.674	110.12
353.901	110.12
354.128	95.12
354.355	86.12
354.583	106.12
354.81	115.12
355.037	123.12
355.264	111.12
355.491	98.12
355.718	96.12
355.945	103.12
356.172	101.12
356.399	87.12
356.626	102.12
356.853	113.12
357.08	101.12
357.307	101.12
357.534	112.12
357.761	99.12
357.988	104.12
358.215	101.12
358.441	86.12
358.668	102.12
358.895	92.12
359.122	92.12
359.349	81.12
359.576	105.12
359.802	103.12
360.029	106.12
360.256	115.12
360.483	96.12
360.709	84.12
360.936	91.12
361.163	103.12
361.39	100.12
361.616	108.12
361.843	104.12
362.07	93.12
362.296	93.12
362.523	81.12
362.749	89.12
362.976	103.12
363.203	92.12
363.429	85.12
363.656	107.12
363.882	97.12
364.109	86.12
364.335	93.12
364.562	93.12
364.788	80.12
365.015	90.12
365.241	93.12
365.468	106.12
365.694	87.12
365.92	118.12
366.147	92.12
366.373	93.12
366.599	77.12
366.826	89.12
367.052	98.12
367.278	88.12
367.505	93.12
367.731	103.12
367.957	91.12
368.184	114.12
368.41	99.12
368.636	111.12
368.862	104.12
369.089	104.12
369.315	88.12
369.541	97.12
369.767	90.12
369.993	104.12
370.219	87.12
370.445	97.12
370.672	100.12
370.898	88.12
371.124	84.12
371.35	105.12
371.576	92.12
371.802	83.12
372.028	94.12
372.254	100.12
372.48	91.12
372.706	91.12
372.932	90.12
373.158	91.12
373.384	108.12
373.61	89.12
373.835	95.12
374.061	100.12
374.287	96.12
374.513	93.12
374.739	100.12
374.965	88.12
375.191	85.12
375.416	99.12
375.642	103.12
375.868	92.12
376.094	105.12
376.319	93.12
376.545	84.12
376.771	82.12
376.997	91.12
377.222	97.12
377.448	112.12
377.674	109.12
377.899	98.12
378.125	94.12
378.35	98.12
378.576	105.12
378.802	105.12
379.027	94.12
379.253	93.12
379.478	95.12
379.704	93.12
379.929	102.12
380.155	91.12
380.38	108.12
380.606	100.12
380.831	102.12
381.057	91.12
381.282	100.12
381.507	102.12
381.733	105.12
381.958	99.12
382.184	100.12
382.409	117.12
382.634	115.12
382.86	98.12
383.085	108.12
383.31	100.12
383.535	108.12
383.761	97.12
383.986	104.12
384.211	93.12
384.436	83.12
384.662	104.12
384.887	106.12
385.112	110.12
385.337	102.12
385.562	106.12
385.787	88.12
386.013	122.12
386.238	123.12
386.463	103.12
386.688	115.12
386.913	102.12
387.138	111.12
387.363	97.12
387.588	96.12
387.813	117.12
388.038	114.12
388.263	121.12
388.488	104.12
388.713	108.12
388.938	94.12
389.163	102.12
389.387	111.12
389.612	98.12
389.837	100.12
390.062	103.12
390.287	93.12
390.512	98.12
390.736	88.12
390.961	87.12
391.186	99.12
391.411	92.12
391.636	85.12
391.86	90.12
392.085	84.12
392.31	80.12
392.534	83.12
392.759	91.12
392.984	87.12
393.208	101.12
393.433	91.12
393.658	93.12
393.882	91.12
394.107	88.12
394.331	90.12
394.556	91.12
394.78	100.12
395.005	83.12
395.229	78.12
395.454	92.12
395.678	87.12
395.903	106.12
396.127	98.12
396.352	113.12
396.576	78.12
396.801	95.12
397.025	80.12
397.249	92.12
397.474	98.12
397.698	86.12
397.922	110.12
398.147	100.12
398.371	94.12
398.595	90.12
398.82	92.12
399.044	107.12
399.268	97.12
399.492	96.12
399.717	98.12
399.941	105.12
400.165	104.12
400.389	95.12
400.613	100.12
400.837	89.12
401.062	92.12
401.286	96.12
401.51	90.12
401.734	92.12
401.958	93.12
402.182	129.12
402.406	150.12
402.63	117.12
402.854	103.12
403.078	90.12
403.302	77.12
403.526	86.12
403.75	99.12
403.974	93.12
404.198	96.12
404.422	94.12
404.645	86.12
404.869	94.12
405.093	106.12
405.317	105.12
405.541	103.12
405.765	103.12
405.988	121.12
406.212	160.12
406.436	224.12
406.66	136.12
406.883	116.12
407.107	92.12
407.331	89.12
407.555	98.12
407.778	101.12
408.002	101.12
408.226	89.12
408.449	101.12
408.673	100.12
408.896	88.12
409.12	100.12
409.344	104.12
409.567	112.12
409.791	100.12
410.014	102.12
410.238	91.12
410.461	99.12
410.685	101.12
410.908	97.12
411.132	108.12
411.355	114.12
411.578	93.12
411.802	110.12
412.025	99.12
412.249	94.12
412.472	92.12
412.695	89.12
412.919	92.12
413.142	87.12
413.365	91.12
413.589	92.12
413.812	74.12
414.035	90.12
414.258	93.12
414.482	91.12
414.705	91.12
414.928	79.12
415.151	94.12
415.374	110.12
415.597	102.12
415.821	92.12
416.044	104.12
416.267	87.12
416.49	99.12
416.713	98.12
416.936	100.12
417.159	97.12
417.382	87.12
417.605	87.12
417.828	115.12
418.051	95.12
418.274	95.12
418.497	108.12
418.72	104.12
418.943	100.12
419.166	95.12
419.389	94.12
419.611	83.12
419.834	99.12
420.057	93.12
420.28	81.12
420.503	85.12
420.726	104.12
420.948	106.12
421.171	101.12
421.394	90.12
421.617	97.12
421.839	82.12
422.062	92.12
422.285	100.12
422.507	103.12
422.73	109.12
422.953	96.12
423.175	100.12
423.398	100.12
423.621	83.12
423.843	89.12
424.066	83.12
424.288	99.12
424.511	104.12
424.733	106.12
424.956	100.12
425.178	98.12
425.401	103.12
425.623	101.12
425.846	85.12
426.068	104.12
426.291	100.12
426.513	94.12
426.735	95.12
426.958	98.12
427.18	107.12
427.402	118.12
427.625	152.12
427.847	134.12
428.069	105.12
428.292	91.12
428.514	95.12
428.736	94.12
428.958	91.12
429.181	110.12
429.403	93.12
429.625	93.12
429.847	84.12
430.069	107.12
430.292	94.12
430.514	82.12
430.736	92.12
430.958	83.12
431.18	94.12
431.402	89.12
431.624	98.12
431.846	89.12
432.068	87.12
432.29	88.12
432.512	78.12
432.734	97.12
432.956	103.12
433.178	97.12
433.4	87.12
433.622	105.12
433.844	105.12
434.066	98.12
434.287	93.12
434.509	94.12
434.731	99.12
434.953	91.12
435.175	85.12
435.397	93.12
435.618	97.12
435.84	107.12
436.062	121.12
436.284	116.12
436.505	102.12
436.727	99.12
436.949	88.12
437.17	106.12
437.392	84.12
437.614	114.12
437.835	92.12
438.057	106.12
438.278	107.12
438.5	104.12
438.721	102.12
438.943	117.12
439.165	95.12
439.386	84.12
439.608	83.12
439.829	109.12
440.05	117.12
440.272	131.12
440.493	99.12
440.715	99.12
440.936	85.12
441.158	100.12
441.379	92.12
441.6	102.12
441.822	89.12
442.043	97.12
442.264	109.12
442.486	118.12
442.707	97.12
442.928	113.12
443.149	121.12
443.371	121.12
443.592	96.12
443.813	118.12
444.034	107.12
444.255	100.12
444.476	97.12
444.698	98.12
444.919	99.12
445.14	135.12
445.361	129.12
445.582	109.12
445.803	134.12
446.024	134.12
446.245	133.12
446.466	112.12
446.687	90.12
446.908	104.12
447.129	85.12
447.35	94.12
447.571	76.12
447.792	94.12
448.013	92.12
448.234	109.12
448.455	94.12
448.675	105.12
448.896	113.12
449.117	117.12
449.338	111.12
449.559	129.12
449.779	134.12
450	97.12
450.221	94.12
450.442	95.12
450.662	89.12
450.883	105.12
451.104	120.12
451.324	89.12
451.545	92.12
451.766	97.12
451.986	101.12
452.207	98.12
452.428	99.12
452.648	105.12
452.869	99.12
453.089	107.12
453.31	110.12
453.53	95.12
453.751	92.12
453.971	110.12
454.192	106.12
454.412	94.12
454.633	98.12
454.853	110.12
455.073	104.12
455.294	79.12
455.514	89.12
455.734	90.12
455.955	92.12
456.175	88.12
456.395	74.12
456.616	79.12
456.836	80.12
457.056	85.12
457.276	98.12
457.497	95.12
457.717	87.12
457.937	89.12
458.157	89.12
458.377	87.12
458.598	104.12
458.818	136.12
459.038	148.12
459.258	103.12
459.478	101.12
459.698	91.12
459.918	84.12
460.138	81.12
460.358	90.12
460.578	96.12
460.798	97.12
461.018	107.12
461.238	92.12
461.458	99.12
461.678	88.12
461.898	84.12
462.118	99.12
462.338	77.12
462.558	86.12
462.777	81.12
462.997	98.12
463.217	81.12
463.437	90.12
463.657	96.12
463.876	91.12
464.096	102.12
464.316	95.12
464.536	82.12
464.755	99.12
464.975	104.12
465.195	161.12
465.414	150.12
465.634	105.12
465.854	91.12
466.073	100.12
466.293	98.12
466.512	86.12
466.732	84.12
466.951	104.12
467.171	114.12
467.391	93.12
467.61	96.12
467.829	101.12
468.049	110.12
468.268	95.12
468.488	98.12
468.707	78.12
468.927	93.12
469.146	106.12
469.365	86.12
469.585	88.12
469.804	92.12
470.023	99.12
470.243	94.12
470.462	99.12
470.681	114.12
470.901	84.12
471.12	88.12
471.339	86.12
471.558	89.12
471.777	93.12
471.997	91.12
472.216	92.12
472.435	98.12
472.654	97.12
472.873	107.12
473.092	108.12
473.311	80.12
473.53	93.12
473.749	96.12
473.968	110.12
474.187	108.12
474.406	102.12
474.625	90.12
474.844	96.12
475.063	89.12
475.282	94.12
475.501	91.12
475.72	103.12
475.939	88.12
476.158	93.12
476.377	95.12
476.596	98.12
476.814	98.12
477.033	97.12
477.252	101.12
477.471	93.12
477.69	92.12
477.908	79.12
478.127	80.12
478.346	88.12
478.564	105.12
478.783	99.12
479.002	84.12
479.22	86.12
479.439	98.12
479.658	97.12
479.876	97.12
480.095	95.12
480.313	92.12
480.532	94.12
480.751	85.12
480.969	92.12
481.188	105.12
481.406	106.12
481.624	100.12
481.843	88.12
482.061	94.12
482.28	87.12
482.498	86.12
482.717	95.12
482.935	104.12
483.153	98.12
483.372	91.12
483.59	82.12
483.808	100.12
484.027	91.12
484.245	96.12
484.463	91.12
484.681	93.12
484.9	94.12
485.118	83.12
485.336	96.12
485.554	112.12
485.772	103.12
485.99	98.12
486.209	100.12
486.427	90.12
486.645	107.12
486.863	106.12
487.081	91.12
487.299	106.12
487.517	105.12
487.735	107.12
487.953	104.12
488.171	99.12
488.389	92.12
488.607	102.12
488.825	94.12
489.043	95.12
489.261	91.12
489.479	102.12
489.696	98.12
489.914	88.12
490.132	90.12
490.35	95.12
490.568	108.12
490.786	91.12
491.003	104.12
491.221	105.12
491.439	91.12
491.657	103.12
491.874	92.12
492.092	75.12
492.31	98.12
492.527	92.12
492.745	94.12
492.963	97.12
493.18	97.12
493.398	97.12
493.615	114.12
493.833	108.12
494.05	99.12
494.268	101.12
494.485	93.12
494.703	103.12
494.92	93.12
495.138	91.12
495.355	81.12
495.573	89.12
495.79	84.12
496.008	98.12
496.225	95.12
496.442	93.12
496.66	98.12
496.877	109.12
497.094	103.12
497.312	104.12
497.529	86.12
497.746	97.12
497.963	109.12
498.181	94.12
498.398	94.12
498.615	112.12
498.832	114.12
499.049	106.12
499.267	93.12
499.484	101.12
499.701	86.12
499.918	94.12
500.135	93.12
500.352	97.12
500.569	75.12
500.786	103.12
501.003	90.12
501.22	98.12
501.437	86.12
501.654	113.12
501.871	102.12
502.088	92.12
502.305	92.12
502.522	84.12
502.739	104.12
502.956	102.12
503.172	89.12
503.389	99.12
503.606	102.12
503.823	99.12
504.04	106.12
504.256	89.12
504.473	100.12
504.69	98.12
504.907	100.12
505.123	101.12
505.34	79.12
505.557	101.12
505.773	99.12
505.99	87.12
506.207	95.12
506.423	99.12
506.64	103.12
506.856	98.12
507.073	84.12
507.289	101.12
507.506	92.12
507.722	114.12
507.939	115.12
508.155	108.12
508.372	108.12
508.588	98.12
508.805	92.12
509.021	116.12
509.238	107.12
509.454	96.12
509.67	116.12
509.887	114.12
510.103	144.12
510.319	225.12
510.536	768.12
510.752	2380.12
510.968	682.12
511.184	159.12
511.401	103.12
511.617	90.12
511.833	92.12
512.049	93.12
512.265	100.12
512.481	88.12
512.698	105.12
512.914	93.12
513.13	83.12
513.346	82.12
513.562	99.12
513.778	110.12
513.994	107.12
514.21	106.12
