Data from Uncirc_2003_H10_HRD10591_00080.txt Node
Date: Wed Jan 03 10:36:03 EST 2024
User: Yrep
Spectrometer: HR+D1059
Trigger mode: 1
Integration Time (sec): 1.000000E-1
Scans to average: 1
Electric dark correction enabled: true
Nonlinearity correction enabled: false
Boxcar width: 0
XAxis mode: Wavelengths
Number of Pixels in Spectrum: 2048
>>>>>Begin Spectral Data<<<<<
223.165	-24.38
223.4	-24.38
223.635	-24.38
223.869	-17.38
224.104	-24.38
224.338	-10.38
224.573	-15.38
224.808	-15.38
225.042	-13.38
225.277	6.62
225.511	0.62
225.746	2.62
225.98	14.62
226.215	-0.38
226.449	12.62
226.683	14.62
226.918	34.62
227.152	34.62
227.387	39.62
227.621	45.62
227.856	57.62
228.09	55.62
228.324	53.62
228.559	50.62
228.793	69.62
229.027	61.62
229.262	69.62
229.496	73.62
229.73	81.62
229.964	78.62
230.199	72.62
230.433	72.62
230.667	81.62
230.901	69.62
231.136	80.62
231.37	82.62
231.604	79.62
231.838	83.62
232.072	74.62
232.306	74.62
232.541	86.62
232.775	74.62
233.009	90.62
233.243	84.62
233.477	65.62
233.711	81.62
233.945	80.62
234.179	67.62
234.413	83.62
234.647	82.62
234.881	82.62
235.115	75.62
235.349	76.62
235.583	63.62
235.817	95.62
236.051	74.62
236.285	76.62
236.519	87.62
236.753	76.62
236.987	84.62
237.221	81.62
237.455	77.62
237.689	57.62
237.922	68.62
238.156	74.62
238.39	79.62
238.624	64.62
238.858	69.62
239.091	78.62
239.325	70.62
239.559	71.62
239.793	77.62
240.027	63.62
240.26	88.62
240.494	63.62
240.728	78.62
240.961	86.62
241.195	81.62
241.429	87.62
241.662	67.62
241.896	93.62
242.13	66.62
242.363	77.62
242.597	80.62
242.83	81.62
243.064	78.62
243.298	81.62
243.531	93.62
243.765	69.62
243.998	76.62
244.232	85.62
244.465	79.62
244.699	72.62
244.932	92.62
245.166	83.62
245.399	91.62
245.633	72.62
245.866	79.62
246.099	77.62
246.333	73.62
246.566	72.62
246.8	64.62
247.033	75.62
247.266	70.62
247.5	66.62
247.733	73.62
247.966	73.62
248.2	79.62
248.433	77.62
248.666	67.62
248.899	82.62
249.133	86.62
249.366	93.62
249.599	75.62
249.832	73.62
250.066	75.62
250.299	80.62
250.532	81.62
250.765	72.62
250.998	93.62
251.231	79.62
251.465	84.62
251.698	72.62
251.931	79.62
252.164	70.62
252.397	68.62
252.63	81.62
252.863	78.62
253.096	85.62
253.329	69.62
253.562	89.62
253.795	94.62
254.028	96.62
254.261	80.62
254.494	81.62
254.727	73.62
254.96	80.62
255.193	79.62
255.426	87.62
255.659	80.62
255.892	85.62
256.124	61.62
256.357	74.62
256.59	90.62
256.823	86.62
257.056	78.62
257.289	82.62
257.521	76.62
257.754	88.62
257.987	76.62
258.22	85.62
258.452	69.62
258.685	74.62
258.918	80.62
259.151	94.62
259.383	84.62
259.616	73.62
259.849	80.62
260.081	73.62
260.314	84.62
260.547	71.62
260.779	78.62
261.012	76.62
261.244	92.62
261.477	97.62
261.71	101.62
261.942	109.62
262.175	117.62
262.407	104.62
262.64	86.62
262.872	82.62
263.105	77.62
263.337	80.62
263.57	85.62
263.802	87.62
264.035	87.62
264.267	76.62
264.499	80.62
264.732	81.62
264.964	82.62
265.197	76.62
265.429	95.62
265.661	90.62
265.894	66.62
266.126	95.62
266.358	76.62
266.591	80.62
266.823	86.62
267.055	83.62
267.287	82.62
267.52	87.62
267.752	80.62
267.984	65.62
268.216	76.62
268.448	92.62
268.681	84.62
268.913	104.62
269.145	97.62
269.377	73.62
269.609	81.62
269.841	93.62
270.073	89.62
270.306	80.62
270.538	86.62
270.77	82.62
271.002	83.62
271.234	87.62
271.466	92.62
271.698	100.62
271.93	81.62
272.162	78.62
272.394	86.62
272.626	74.62
272.858	78.62
273.09	92.62
273.322	92.62
273.553	101.62
273.785	79.62
274.017	70.62
274.249	72.62
274.481	85.62
274.713	71.62
274.945	86.62
275.176	97.62
275.408	91.62
275.64	71.62
275.872	88.62
276.104	83.62
276.335	70.62
276.567	87.62
276.799	118.62
277.031	99.62
277.262	97.62
277.494	82.62
277.726	76.62
277.957	82.62
278.189	101.62
278.421	95.62
278.652	85.62
278.884	88.62
279.115	77.62
279.347	86.62
279.579	84.62
279.81	78.62
280.042	97.62
280.273	86.62
280.505	102.62
280.736	94.62
280.968	89.62
281.199	72.62
281.431	83.62
281.662	89.62
281.894	80.62
282.125	89.62
282.356	111.62
282.588	140.62
282.819	126.62
283.051	89.62
283.282	74.62
283.513	90.62
283.745	94.62
283.976	82.62
284.207	84.62
284.439	78.62
284.67	79.62
284.901	95.62
285.132	78.62
285.364	92.62
285.595	86.62
285.826	85.62
286.057	82.62
286.288	86.62
286.52	86.62
286.751	79.62
286.982	87.62
287.213	77.62
287.444	94.62
287.675	94.62
287.906	100.62
288.138	88.62
288.369	85.62
288.6	100.62
288.831	79.62
289.062	96.62
289.293	78.62
289.524	91.62
289.755	81.62
289.986	92.62
290.217	88.62
290.448	85.62
290.679	81.62
290.91	81.62
291.141	76.62
291.371	92.62
291.602	78.62
291.833	77.62
292.064	78.62
292.295	93.62
292.526	89.62
292.757	86.62
292.987	81.62
293.218	87.62
293.449	87.62
293.68	81.62
293.91	83.62
294.141	90.62
294.372	85.62
294.603	90.62
294.833	80.62
295.064	90.62
295.295	90.62
295.525	84.62
295.756	93.62
295.987	129.62
296.217	129.62
296.448	110.62
296.679	84.62
296.909	99.62
297.14	95.62
297.37	98.62
297.601	83.62
297.831	75.62
298.062	86.62
298.292	96.62
298.523	83.62
298.753	88.62
298.984	87.62
299.214	90.62
299.445	90.62
299.675	80.62
299.905	85.62
300.136	94.62
300.366	81.62
300.597	92.62
300.827	95.62
301.057	93.62
301.288	104.62
301.518	95.62
301.748	93.62
301.979	106.62
302.209	95.62
302.439	95.62
302.669	91.62
302.9	94.62
303.13	96.62
303.36	93.62
303.59	104.62
303.82	109.62
304.051	98.62
304.281	104.62
304.511	103.62
304.741	85.62
304.971	85.62
305.201	86.62
305.431	100.62
305.661	89.62
305.891	79.62
306.121	86.62
306.352	106.62
306.582	98.62
306.812	81.62
307.042	89.62
307.272	87.62
307.502	97.62
307.731	84.62
307.961	88.62
308.191	96.62
308.421	83.62
308.651	95.62
308.881	88.62
309.111	85.62
309.341	98.62
309.571	79.62
309.8	99.62
310.03	93.62
310.26	97.62
310.49	104.62
310.72	88.62
310.949	109.62
311.179	97.62
311.409	97.62
311.639	94.62
311.868	92.62
312.098	99.62
312.328	85.62
312.557	97.62
312.787	109.62
313.017	106.62
313.246	93.62
313.476	92.62
313.706	94.62
313.935	80.62
314.165	89.62
314.394	88.62
314.624	107.62
314.853	100.62
315.083	94.62
315.312	89.62
315.542	89.62
315.771	99.62
316.001	72.62
316.23	69.62
316.46	80.62
316.689	89.62
316.919	96.62
317.148	94.62
317.377	87.62
317.607	103.62
317.836	88.62
318.065	93.62
318.295	100.62
318.524	92.62
318.753	105.62
318.983	95.62
319.212	110.62
319.441	97.62
319.67	98.62
319.9	84.62
320.129	98.62
320.358	94.62
320.587	104.62
320.816	102.62
321.046	104.62
321.275	95.62
321.504	94.62
321.733	92.62
321.962	99.62
322.191	97.62
322.42	109.62
322.649	117.62
322.878	126.62
323.108	126.62
323.337	120.62
323.566	135.62
323.795	148.62
324.024	204.62
324.253	407.62
324.482	916.62
324.71	1889.62
324.939	2515.62
325.168	926.62
325.397	268.62
325.626	147.62
325.855	132.62
326.084	119.62
326.313	127.62
326.542	164.62
326.77	243.62
326.999	484.62
327.228	1044.62
327.457	1904.62
327.686	1536.62
327.914	395.62
328.143	192.62
328.372	132.62
328.6	124.62
328.829	114.62
329.058	116.62
329.287	125.62
329.515	109.62
329.744	96.62
329.972	95.62
330.201	109.62
330.43	114.62
330.658	120.62
330.887	110.62
331.115	116.62
331.344	96.62
331.572	118.62
331.801	100.62
332.03	89.62
332.258	103.62
332.486	90.62
332.715	88.62
332.943	87.62
333.172	101.62
333.4	103.62
333.629	97.62
333.857	117.62
334.085	98.62
334.314	97.62
334.542	88.62
334.771	107.62
334.999	101.62
335.227	101.62
335.455	80.62
335.684	82.62
335.912	86.62
336.14	93.62
336.369	88.62
336.597	96.62
336.825	100.62
337.053	84.62
337.281	90.62
337.51	90.62
337.738	94.62
337.966	84.62
338.194	100.62
338.422	111.62
338.65	96.62
338.878	84.62
339.106	93.62
339.334	114.62
339.562	90.62
339.79	83.62
340.018	86.62
340.246	84.62
340.474	92.62
340.702	97.62
340.93	95.62
341.158	90.62
341.386	98.62
341.614	115.62
341.842	95.62
342.07	85.62
342.298	89.62
342.526	89.62
342.754	89.62
342.981	116.62
343.209	102.62
343.437	96.62
343.665	93.62
343.893	86.62
344.12	93.62
344.348	98.62
344.576	92.62
344.804	85.62
345.031	90.62
345.259	100.62
345.487	86.62
345.714	95.62
345.942	78.62
346.17	94.62
346.397	98.62
346.625	85.62
346.853	98.62
347.08	94.62
347.308	93.62
347.535	101.62
347.763	102.62
347.99	86.62
348.218	105.62
348.445	100.62
348.673	92.62
348.9	102.62
349.128	106.62
349.355	101.62
349.583	103.62
349.81	92.62
350.037	86.62
350.265	99.62
350.492	103.62
350.72	93.62
350.947	92.62
351.174	109.62
351.402	101.62
351.629	101.62
351.856	91.62
352.083	97.62
352.311	108.62
352.538	92.62
352.765	103.62
352.992	116.62
353.22	103.62
353.447	105.62
353.674	82.62
353.901	89.62
354.128	104.62
354.355	84.62
354.583	86.62
354.81	88.62
355.037	94.62
355.264	84.62
355.491	92.62
355.718	106.62
355.945	80.62
356.172	92.62
356.399	89.62
356.626	80.62
356.853	85.62
357.08	88.62
357.307	93.62
357.534	85.62
357.761	92.62
357.988	95.62
358.215	102.62
358.441	94.62
358.668	83.62
358.895	78.62
359.122	82.62
359.349	100.62
359.576	92.62
359.802	99.62
360.029	111.62
360.256	108.62
360.483	90.62
360.709	87.62
360.936	102.62
361.163	100.62
361.39	102.62
361.616	100.62
361.843	88.62
362.07	94.62
362.296	96.62
362.523	90.62
362.749	88.62
362.976	92.62
363.203	79.62
363.429	95.62
363.656	85.62
363.882	104.62
364.109	103.62
364.335	96.62
364.562	90.62
364.788	83.62
365.015	90.62
365.241	101.62
365.468	113.62
365.694	96.62
365.92	95.62
366.147	92.62
366.373	86.62
366.599	91.62
366.826	92.62
367.052	76.62
367.278	101.62
367.505	93.62
367.731	100.62
367.957	103.62
368.184	85.62
368.41	98.62
368.636	119.62
368.862	115.62
369.089	99.62
369.315	101.62
369.541	92.62
369.767	86.62
369.993	89.62
370.219	98.62
370.445	80.62
370.672	79.62
370.898	97.62
371.124	92.62
371.35	83.62
371.576	76.62
371.802	85.62
372.028	78.62
372.254	89.62
372.48	86.62
372.706	76.62
372.932	99.62
373.158	88.62
373.384	86.62
373.61	102.62
373.835	90.62
374.061	97.62
374.287	94.62
374.513	88.62
374.739	88.62
374.965	93.62
375.191	94.62
375.416	98.62
375.642	97.62
375.868	86.62
376.094	81.62
376.319	95.62
376.545	90.62
376.771	85.62
376.997	88.62
377.222	81.62
377.448	78.62
377.674	92.62
377.899	88.62
378.125	101.62
378.35	87.62
378.576	99.62
378.802	109.62
379.027	96.62
379.253	97.62
379.478	90.62
379.704	97.62
379.929	104.62
380.155	95.62
380.38	92.62
380.606	84.62
380.831	76.62
381.057	93.62
381.282	85.62
381.507	88.62
381.733	103.62
381.958	106.62
382.184	107.62
382.409	90.62
382.634	94.62
382.86	86.62
383.085	104.62
383.31	96.62
383.535	103.62
383.761	101.62
383.986	89.62
384.211	108.62
384.436	101.62
384.662	92.62
384.887	105.62
385.112	101.62
385.337	110.62
385.562	104.62
385.787	106.62
386.013	114.62
386.238	115.62
386.463	112.62
386.688	125.62
386.913	93.62
387.138	102.62
387.363	88.62
387.588	103.62
387.813	100.62
388.038	116.62
388.263	98.62
388.488	103.62
388.713	99.62
388.938	99.62
389.163	83.62
389.387	83.62
389.612	107.62
389.837	85.62
390.062	108.62
390.287	88.62
390.512	81.62
390.736	90.62
390.961	92.62
391.186	93.62
391.411	103.62
391.636	94.62
391.86	86.62
392.085	90.62
392.31	62.62
392.534	93.62
392.759	81.62
392.984	76.62
393.208	79.62
393.433	100.62
393.658	80.62
393.882	103.62
394.107	98.62
394.331	81.62
394.556	87.62
394.78	85.62
395.005	86.62
395.229	78.62
395.454	96.62
395.678	90.62
395.903	84.62
396.127	85.62
396.352	90.62
396.576	83.62
396.801	94.62
397.025	83.62
397.249	81.62
397.474	85.62
397.698	82.62
397.922	82.62
398.147	90.62
398.371	94.62
398.595	89.62
398.82	90.62
399.044	72.62
399.268	93.62
399.492	90.62
399.717	84.62
399.941	98.62
400.165	99.62
400.389	88.62
400.613	90.62
400.837	79.62
401.062	100.62
401.286	80.62
401.51	85.62
401.734	100.62
401.958	101.62
402.182	132.62
402.406	145.62
402.63	114.62
402.854	93.62
403.078	92.62
403.302	84.62
403.526	84.62
403.75	80.62
403.974	86.62
404.198	90.62
404.422	83.62
404.645	87.62
404.869	85.62
405.093	92.62
405.317	98.62
405.541	100.62
405.765	100.62
405.988	115.62
406.212	177.62
406.436	226.62
406.66	150.62
406.883	110.62
407.107	96.62
407.331	98.62
407.555	94.62
407.778	98.62
408.002	88.62
408.226	86.62
408.449	86.62
408.673	96.62
408.896	78.62
409.12	88.62
409.344	87.62
409.567	81.62
409.791	92.62
410.014	97.62
410.238	83.62
410.461	94.62
410.685	97.62
410.908	93.62
411.132	109.62
411.355	99.62
411.578	80.62
411.802	98.62
412.025	88.62
412.249	101.62
412.472	92.62
412.695	112.62
412.919	85.62
413.142	73.62
413.365	83.62
413.589	85.62
413.812	87.62
414.035	110.62
414.258	89.62
414.482	81.62
414.705	81.62
414.928	93.62
415.151	102.62
415.374	100.62
415.597	85.62
415.821	85.62
416.044	87.62
416.267	95.62
416.49	85.62
416.713	88.62
416.936	92.62
417.159	85.62
417.382	81.62
417.605	104.62
417.828	103.62
418.051	97.62
418.274	81.62
418.497	78.62
418.72	85.62
418.943	77.62
419.166	73.62
419.389	90.62
419.611	96.62
419.834	71.62
420.057	88.62
420.28	89.62
420.503	97.62
420.726	101.62
420.948	91.62
421.171	83.62
421.394	99.62
421.617	89.62
421.839	82.62
422.062	90.62
422.285	113.62
422.507	103.62
422.73	93.62
422.953	94.62
423.175	86.62
423.398	92.62
423.621	88.62
423.843	81.62
424.066	86.62
424.288	108.62
424.511	82.62
424.733	88.62
424.956	103.62
425.178	89.62
425.401	104.62
425.623	89.62
425.846	102.62
426.068	90.62
426.291	87.62
426.513	94.62
426.735	98.62
426.958	89.62
427.18	109.62
427.402	122.62
427.625	168.62
427.847	115.62
428.069	95.62
428.292	91.62
428.514	88.62
428.736	88.62
428.958	88.62
429.181	85.62
429.403	78.62
429.625	74.62
429.847	90.62
430.069	109.62
430.292	96.62
430.514	82.62
430.736	81.62
430.958	90.62
431.18	84.62
431.402	98.62
431.624	92.62
431.846	90.62
432.068	90.62
432.29	90.62
432.512	86.62
432.734	103.62
432.956	97.62
433.178	88.62
433.4	99.62
433.622	87.62
433.844	83.62
434.066	81.62
434.287	85.62
434.509	87.62
434.731	86.62
434.953	85.62
435.175	92.62
435.397	86.62
435.618	94.62
435.84	98.62
436.062	126.62
436.284	111.62
436.505	103.62
436.727	112.62
436.949	93.62
437.17	87.62
437.392	88.62
437.614	81.62
437.835	99.62
438.057	112.62
438.278	100.62
438.5	107.62
438.721	111.62
438.943	98.62
439.165	109.62
439.386	78.62
439.608	93.62
439.829	93.62
440.05	119.62
440.272	126.62
440.493	103.62
440.715	82.62
440.936	83.62
441.158	87.62
441.379	82.62
441.6	94.62
441.822	80.62
442.043	82.62
442.264	97.62
442.486	100.62
442.707	93.62
442.928	98.62
443.149	118.62
443.371	126.62
443.592	113.62
443.813	104.62
444.034	119.62
444.255	87.62
444.476	97.62
444.698	89.62
444.919	83.62
445.14	128.62
445.361	126.62
445.582	116.62
445.803	118.62
446.024	126.62
446.245	127.62
446.466	114.62
446.687	84.62
446.908	90.62
447.129	89.62
447.35	100.62
447.571	87.62
447.792	81.62
448.013	104.62
448.234	110.62
448.455	105.62
448.675	111.62
448.896	106.62
449.117	107.62
449.338	113.62
449.559	138.62
449.779	121.62
450	99.62
450.221	72.62
450.442	87.62
450.662	101.62
450.883	103.62
451.104	115.62
451.324	106.62
451.545	93.62
451.766	86.62
451.986	80.62
452.207	79.62
452.428	89.62
452.648	86.62
452.869	105.62
453.089	99.62
453.31	119.62
453.53	97.62
453.751	98.62
453.971	102.62
454.192	102.62
454.412	91.62
454.633	80.62
454.853	86.62
455.073	95.62
455.294	76.62
455.514	87.62
455.734	97.62
455.955	86.62
456.175	75.62
456.395	70.62
456.616	84.62
456.836	77.62
457.056	86.62
457.276	81.62
457.497	81.62
457.717	86.62
457.937	89.62
458.157	92.62
458.377	89.62
458.598	101.62
458.818	141.62
459.038	146.62
459.258	117.62
459.478	107.62
459.698	75.62
459.918	72.62
460.138	92.62
460.358	75.62
460.578	91.62
460.798	83.62
461.018	84.62
461.238	89.62
461.458	90.62
461.678	81.62
461.898	79.62
462.118	84.62
462.338	86.62
462.558	88.62
462.777	93.62
462.997	94.62
463.217	89.62
463.437	76.62
463.657	92.62
463.876	94.62
464.096	92.62
464.316	91.62
464.536	101.62
464.755	95.62
464.975	107.62
465.195	155.62
465.414	153.62
465.634	105.62
465.854	78.62
466.073	90.62
466.293	87.62
466.512	92.62
466.732	93.62
466.951	92.62
467.171	91.62
467.391	88.62
467.61	99.62
467.829	95.62
468.049	81.62
468.268	89.62
468.488	89.62
468.707	73.62
468.927	89.62
469.146	102.62
469.365	88.62
469.585	102.62
469.804	78.62
470.023	99.62
470.243	89.62
470.462	99.62
470.681	108.62
470.901	93.62
471.12	85.62
471.339	90.62
471.558	87.62
471.777	81.62
471.997	73.62
472.216	90.62
472.435	103.62
472.654	76.62
472.873	85.62
473.092	84.62
473.311	90.62
473.53	80.62
473.749	88.62
473.968	105.62
474.187	116.62
474.406	106.62
474.625	107.62
474.844	86.62
475.063	84.62
475.282	89.62
475.501	74.62
475.72	83.62
475.939	88.62
476.158	97.62
476.377	87.62
476.596	97.62
476.814	102.62
477.033	92.62
477.252	93.62
477.471	91.62
477.69	75.62
477.908	86.62
478.127	89.62
478.346	94.62
478.564	91.62
478.783	103.62
479.002	86.62
479.22	85.62
479.439	88.62
479.658	92.62
479.876	95.62
480.095	76.62
480.313	80.62
480.532	101.62
480.751	89.62
480.969	95.62
481.188	106.62
481.406	97.62
481.624	108.62
481.843	98.62
482.061	96.62
482.28	88.62
482.498	93.62
482.717	90.62
482.935	92.62
483.153	76.62
483.372	84.62
483.59	90.62
483.808	77.62
484.027	93.62
484.245	94.62
484.463	96.62
484.681	97.62
484.9	83.62
485.118	96.62
485.336	101.62
485.554	89.62
485.772	99.62
485.99	104.62
486.209	100.62
486.427	99.62
486.645	94.62
486.863	117.62
487.081	100.62
487.299	96.62
487.517	103.62
487.735	100.62
487.953	96.62
488.171	99.62
488.389	97.62
488.607	103.62
488.825	91.62
489.043	77.62
489.261	78.62
489.479	80.62
489.696	96.62
489.914	84.62
490.132	81.62
490.35	85.62
490.568	101.62
490.786	97.62
491.003	84.62
491.221	85.62
491.439	88.62
491.657	95.62
491.874	93.62
492.092	95.62
492.31	98.62
492.527	83.62
492.745	104.62
492.963	101.62
493.18	85.62
493.398	95.62
493.615	100.62
493.833	93.62
494.05	79.62
494.268	84.62
494.485	94.62
494.703	94.62
494.92	89.62
495.138	82.62
495.355	87.62
495.573	86.62
495.79	105.62
496.008	90.62
496.225	82.62
496.442	83.62
496.66	82.62
496.877	70.62
497.094	92.62
497.312	106.62
497.529	87.62
497.746	87.62
497.963	96.62
498.181	86.62
498.398	85.62
498.615	112.62
498.832	98.62
499.049	85.62
499.267	76.62
499.484	88.62
499.701	81.62
499.918	87.62
500.135	80.62
500.352	90.62
500.569	94.62
500.786	83.62
501.003	101.62
501.22	92.62
501.437	93.62
501.654	86.62
501.871	92.62
502.088	89.62
502.305	100.62
502.522	92.62
502.739	96.62
502.956	87.62
503.172	97.62
503.389	91.62
503.606	100.62
503.823	98.62
504.04	87.62
504.256	90.62
504.473	86.62
504.69	89.62
504.907	83.62
505.123	85.62
505.34	90.62
505.557	88.62
505.773	98.62
505.99	94.62
506.207	94.62
506.423	86.62
506.64	93.62
506.856	91.62
507.073	88.62
507.289	91.62
507.506	90.62
507.722	126.62
507.939	117.62
508.155	91.62
508.372	88.62
508.588	107.62
508.805	89.62
509.021	100.62
509.238	102.62
509.454	98.62
509.67	103.62
509.887	99.62
510.103	133.62
510.319	228.62
510.536	837.62
510.752	2638.62
510.968	740.62
511.184	165.62
511.401	114.62
511.617	90.62
511.833	102.62
512.049	92.62
512.265	90.62
512.481	93.62
512.698	91.62
512.914	91.62
513.13	99.62
513.346	93.62
513.562	106.62
513.778	100.62
513.994	103.62
514.21	108.62
514.426	105.62
514.642	129.62
514.858	130.62
515.074	163.62
515.29	460.62
515.506	1563.62
515.721	572.62
