Data from Uncirc_2003_H10_HRD10591_00098.txt Node
Date: Wed Jan 03 10:36:07 EST 2024
User: Yrep
Spectrometer: HR+D1059
Trigger mode: 1
Integration Time (sec): 1.000000E-1
Scans to average: 1
Electric dark correction enabled: true
Nonlinearity correction enabled: false
Boxcar width: 0
XAxis mode: Wavelengths
Number of Pixels in Spectrum: 2048
>>>>>Begin Spectral Data<<<<<
223.165	-21.38
223.4	-21.38
223.635	-21.38
223.869	-23.38
224.104	-20.38
224.338	-15.38
224.573	-9.38
224.808	-9.38
225.042	-15.38
225.277	-9.38
225.511	-3.38
225.746	7.62
225.98	6.62
226.215	12.62
226.449	8.62
226.683	28.62
226.918	28.62
227.152	34.62
227.387	32.62
227.621	52.62
227.856	57.62
228.09	56.62
228.324	34.62
228.559	66.62
228.793	53.62
229.027	52.62
229.262	63.62
229.496	78.62
229.73	92.62
229.964	78.62
230.199	70.62
230.433	90.62
230.667	69.62
230.901	98.62
231.136	76.62
231.37	80.62
231.604	82.62
231.838	70.62
232.072	78.62
232.306	86.62
232.541	82.62
232.775	68.62
233.009	82.62
233.243	82.62
233.477	83.62
233.711	81.62
233.945	84.62
234.179	72.62
234.413	84.62
234.647	75.62
234.881	76.62
235.115	85.62
235.349	80.62
235.583	82.62
235.817	77.62
236.051	71.62
236.285	74.62
236.519	78.62
236.753	83.62
236.987	98.62
237.221	74.62
237.455	97.62
237.689	83.62
237.922	81.62
238.156	82.62
238.39	65.62
238.624	73.62
238.858	88.62
239.091	69.62
239.325	68.62
239.559	79.62
239.793	87.62
240.027	71.62
240.26	80.62
240.494	74.62
240.728	73.62
240.961	75.62
241.195	73.62
241.429	69.62
241.662	68.62
241.896	82.62
242.13	64.62
242.363	74.62
242.597	85.62
242.83	87.62
243.064	81.62
243.298	72.62
243.531	73.62
243.765	79.62
243.998	91.62
244.232	77.62
244.465	84.62
244.699	81.62
244.932	82.62
245.166	73.62
245.399	76.62
245.633	80.62
245.866	69.62
246.099	76.62
246.333	82.62
246.566	84.62
246.8	76.62
247.033	74.62
247.266	72.62
247.5	70.62
247.733	81.62
247.966	90.62
248.2	75.62
248.433	81.62
248.666	77.62
248.899	79.62
249.133	88.62
249.366	76.62
249.599	88.62
249.832	80.62
250.066	85.62
250.299	80.62
250.532	71.62
250.765	94.62
250.998	83.62
251.231	73.62
251.465	79.62
251.698	76.62
251.931	76.62
252.164	89.62
252.397	91.62
252.63	90.62
252.863	64.62
253.096	90.62
253.329	79.62
253.562	71.62
253.795	83.62
254.028	83.62
254.261	72.62
254.494	70.62
254.727	88.62
254.96	80.62
255.193	79.62
255.426	78.62
255.659	93.62
255.892	82.62
256.124	84.62
256.357	72.62
256.59	69.62
256.823	78.62
257.056	80.62
257.289	70.62
257.521	87.62
257.754	69.62
257.987	88.62
258.22	76.62
258.452	79.62
258.685	78.62
258.918	80.62
259.151	89.62
259.383	81.62
259.616	93.62
259.849	73.62
260.081	84.62
260.314	79.62
260.547	86.62
260.779	87.62
261.012	81.62
261.244	80.62
261.477	85.62
261.71	95.62
261.942	114.62
262.175	120.62
262.407	93.62
262.64	92.62
262.872	90.62
263.105	85.62
263.337	64.62
263.57	71.62
263.802	78.62
264.035	76.62
264.267	71.62
264.499	72.62
264.732	95.62
264.964	94.62
265.197	72.62
265.429	94.62
265.661	90.62
265.894	84.62
266.126	79.62
266.358	93.62
266.591	85.62
266.823	82.62
267.055	82.62
267.287	95.62
267.52	86.62
267.752	78.62
267.984	76.62
268.216	73.62
268.448	71.62
268.681	78.62
268.913	92.62
269.145	86.62
269.377	87.62
269.609	93.62
269.841	82.62
270.073	88.62
270.306	79.62
270.538	100.62
270.77	93.62
271.002	93.62
271.234	81.62
271.466	84.62
271.698	74.62
271.93	85.62
272.162	83.62
272.394	90.62
272.626	88.62
272.858	82.62
273.09	88.62
273.322	83.62
273.553	77.62
273.785	92.62
274.017	88.62
274.249	86.62
274.481	90.62
274.713	69.62
274.945	84.62
275.176	89.62
275.408	77.62
275.64	74.62
275.872	94.62
276.104	94.62
276.335	85.62
276.567	105.62
276.799	109.62
277.031	99.62
277.262	95.62
277.494	93.62
277.726	75.62
277.957	88.62
278.189	80.62
278.421	83.62
278.652	94.62
278.884	97.62
279.115	107.62
279.347	89.62
279.579	93.62
279.81	80.62
280.042	83.62
280.273	101.62
280.505	82.62
280.736	88.62
280.968	89.62
281.199	78.62
281.431	78.62
281.662	97.62
281.894	83.62
282.125	104.62
282.356	118.62
282.588	137.62
282.819	119.62
283.051	94.62
283.282	85.62
283.513	92.62
283.745	98.62
283.976	92.62
284.207	85.62
284.439	100.62
284.67	88.62
284.901	86.62
285.132	99.62
285.364	69.62
285.595	94.62
285.826	89.62
286.057	74.62
286.288	75.62
286.52	91.62
286.751	79.62
286.982	81.62
287.213	88.62
287.444	83.62
287.675	82.62
287.906	80.62
288.138	99.62
288.369	81.62
288.6	115.62
288.831	80.62
289.062	90.62
289.293	88.62
289.524	82.62
289.755	82.62
289.986	81.62
290.217	88.62
290.448	89.62
290.679	85.62
290.91	89.62
291.141	93.62
291.371	97.62
291.602	73.62
291.833	78.62
292.064	87.62
292.295	84.62
292.526	80.62
292.757	88.62
292.987	86.62
293.218	103.62
293.449	85.62
293.68	98.62
293.91	93.62
294.141	105.62
294.372	85.62
294.603	90.62
294.833	97.62
295.064	88.62
295.295	78.62
295.525	96.62
295.756	118.62
295.987	126.62
296.217	156.62
296.448	124.62
296.679	95.62
296.909	74.62
297.14	71.62
297.37	91.62
297.601	83.62
297.831	84.62
298.062	96.62
298.292	89.62
298.523	89.62
298.753	95.62
298.984	82.62
299.214	85.62
299.445	90.62
299.675	101.62
299.905	103.62
300.136	93.62
300.366	87.62
300.597	107.62
300.827	96.62
301.057	96.62
301.288	101.62
301.518	101.62
301.748	96.62
301.979	112.62
302.209	101.62
302.439	81.62
302.669	97.62
302.9	101.62
303.13	97.62
303.36	103.62
303.59	89.62
303.82	91.62
304.051	108.62
304.281	102.62
304.511	83.62
304.741	92.62
304.971	96.62
305.201	83.62
305.431	92.62
305.661	88.62
305.891	87.62
306.121	95.62
306.352	114.62
306.582	98.62
306.812	89.62
307.042	85.62
307.272	85.62
307.502	91.62
307.731	102.62
307.961	94.62
308.191	88.62
308.421	92.62
308.651	90.62
308.881	95.62
309.111	92.62
309.341	96.62
309.571	106.62
309.8	87.62
310.03	81.62
310.26	102.62
310.49	94.62
310.72	87.62
310.949	118.62
311.179	105.62
311.409	105.62
311.639	88.62
311.868	106.62
312.098	80.62
312.328	75.62
312.557	101.62
312.787	94.62
313.017	88.62
313.246	102.62
313.476	82.62
313.706	102.62
313.935	86.62
314.165	92.62
314.394	89.62
314.624	89.62
314.853	86.62
315.083	89.62
315.312	79.62
315.542	86.62
315.771	86.62
316.001	89.62
316.23	80.62
316.46	92.62
316.689	104.62
316.919	100.62
317.148	98.62
317.377	94.62
317.607	89.62
317.836	83.62
318.065	91.62
318.295	102.62
318.524	101.62
318.753	86.62
318.983	85.62
319.212	112.62
319.441	103.62
319.67	98.62
319.9	92.62
320.129	93.62
320.358	107.62
320.587	98.62
320.816	96.62
321.046	108.62
321.275	95.62
321.504	91.62
321.733	109.62
321.962	106.62
322.191	110.62
322.42	97.62
322.649	110.62
322.878	113.62
323.108	108.62
323.337	140.62
323.566	133.62
323.795	158.62
324.024	223.62
324.253	430.62
324.482	950.62
324.71	1946.62
324.939	2608.62
325.168	940.62
325.397	269.62
325.626	137.62
325.855	118.62
326.084	114.62
326.313	130.62
326.542	158.62
326.77	257.62
326.999	514.62
327.228	1082.62
327.457	1992.62
327.686	1546.62
327.914	394.62
328.143	203.62
328.372	147.62
328.6	138.62
328.829	128.62
329.058	116.62
329.287	132.62
329.515	94.62
329.744	102.62
329.972	109.62
330.201	105.62
330.43	110.62
330.658	138.62
330.887	156.62
331.115	140.62
331.344	81.62
331.572	98.62
331.801	98.62
332.03	103.62
332.258	88.62
332.486	95.62
332.715	92.62
332.943	109.62
333.172	103.62
333.4	87.62
333.629	83.62
333.857	119.62
334.085	96.62
334.314	98.62
334.542	106.62
334.771	93.62
334.999	96.62
335.227	102.62
335.455	106.62
335.684	86.62
335.912	95.62
336.14	104.62
336.369	104.62
336.597	95.62
336.825	96.62
337.053	103.62
337.281	98.62
337.51	90.62
337.738	98.62
337.966	84.62
338.194	91.62
338.422	94.62
338.65	94.62
338.878	86.62
339.106	99.62
339.334	87.62
339.562	88.62
339.79	93.62
340.018	89.62
340.246	90.62
340.474	94.62
340.702	84.62
340.93	105.62
341.158	93.62
341.386	100.62
341.614	100.62
341.842	101.62
342.07	84.62
342.298	87.62
342.526	94.62
342.754	80.62
342.981	91.62
343.209	83.62
343.437	95.62
343.665	92.62
343.893	81.62
344.12	95.62
344.348	87.62
344.576	86.62
344.804	90.62
345.031	93.62
345.259	82.62
345.487	90.62
345.714	86.62
345.942	71.62
346.17	82.62
346.397	79.62
346.625	96.62
346.853	85.62
347.08	98.62
347.308	104.62
347.535	86.62
347.763	93.62
347.99	98.62
348.218	105.62
348.445	119.62
348.673	78.62
348.9	96.62
349.128	87.62
349.355	99.62
349.583	98.62
349.81	84.62
350.037	84.62
350.265	91.62
350.492	96.62
350.72	95.62
350.947	112.62
351.174	109.62
351.402	88.62
351.629	100.62
351.856	102.62
352.083	101.62
352.311	100.62
352.538	93.62
352.765	114.62
352.992	113.62
353.22	106.62
353.447	108.62
353.674	97.62
353.901	99.62
354.128	103.62
354.355	98.62
354.583	102.62
354.81	90.62
355.037	87.62
355.264	88.62
355.491	96.62
355.718	97.62
355.945	101.62
356.172	100.62
356.399	101.62
356.626	93.62
356.853	82.62
357.08	105.62
357.307	101.62
357.534	90.62
357.761	105.62
357.988	96.62
358.215	87.62
358.441	97.62
358.668	109.62
358.895	87.62
359.122	103.62
359.349	78.62
359.576	106.62
359.802	96.62
360.029	121.62
360.256	116.62
360.483	104.62
360.709	105.62
360.936	104.62
361.163	81.62
361.39	95.62
361.616	87.62
361.843	88.62
362.07	86.62
362.296	96.62
362.523	75.62
362.749	88.62
362.976	100.62
363.203	102.62
363.429	85.62
363.656	88.62
363.882	84.62
364.109	68.62
364.335	97.62
364.562	84.62
364.788	102.62
365.015	102.62
365.241	103.62
365.468	104.62
365.694	106.62
365.92	88.62
366.147	87.62
366.373	83.62
366.599	76.62
366.826	98.62
367.052	101.62
367.278	79.62
367.505	94.62
367.731	99.62
367.957	76.62
368.184	80.62
368.41	110.62
368.636	107.62
368.862	121.62
369.089	117.62
369.315	88.62
369.541	93.62
369.767	88.62
369.993	90.62
370.219	82.62
370.445	84.62
370.672	76.62
370.898	90.62
371.124	98.62
371.35	84.62
371.576	83.62
371.802	104.62
372.028	90.62
372.254	84.62
372.48	94.62
372.706	100.62
372.932	86.62
373.158	106.62
373.384	97.62
373.61	81.62
373.835	91.62
374.061	96.62
374.287	86.62
374.513	105.62
374.739	74.62
374.965	81.62
375.191	87.62
375.416	100.62
375.642	91.62
375.868	95.62
376.094	89.62
376.319	97.62
376.545	90.62
376.771	98.62
376.997	92.62
377.222	82.62
377.448	92.62
377.674	109.62
377.899	86.62
378.125	87.62
378.35	99.62
378.576	91.62
378.802	82.62
379.027	103.62
379.253	90.62
379.478	89.62
379.704	95.62
379.929	97.62
380.155	73.62
380.38	85.62
380.606	93.62
380.831	102.62
381.057	102.62
381.282	88.62
381.507	98.62
381.733	103.62
381.958	93.62
382.184	81.62
382.409	103.62
382.634	100.62
382.86	101.62
383.085	103.62
383.31	95.62
383.535	102.62
383.761	88.62
383.986	101.62
384.211	105.62
384.436	102.62
384.662	96.62
384.887	91.62
385.112	91.62
385.337	102.62
385.562	100.62
385.787	92.62
386.013	108.62
386.238	107.62
386.463	114.62
386.688	102.62
386.913	104.62
387.138	104.62
387.363	106.62
387.588	101.62
387.813	89.62
388.038	101.62
388.263	99.62
388.488	90.62
388.713	93.62
388.938	101.62
389.163	97.62
389.387	105.62
389.612	106.62
389.837	96.62
390.062	88.62
390.287	101.62
390.512	100.62
390.736	87.62
390.961	81.62
391.186	89.62
391.411	90.62
391.636	93.62
391.86	98.62
392.085	85.62
392.31	85.62
392.534	95.62
392.759	93.62
392.984	87.62
393.208	113.62
393.433	74.62
393.658	103.62
393.882	103.62
394.107	70.62
394.331	72.62
394.556	87.62
394.78	95.62
395.005	76.62
395.229	82.62
395.454	80.62
395.678	82.62
395.903	88.62
396.127	82.62
396.352	94.62
396.576	85.62
396.801	72.62
397.025	90.62
397.249	87.62
397.474	78.62
397.698	83.62
397.922	78.62
398.147	69.62
398.371	79.62
398.595	91.62
398.82	67.62
399.044	86.62
399.268	93.62
399.492	103.62
399.717	82.62
399.941	94.62
400.165	109.62
400.389	90.62
400.613	84.62
400.837	81.62
401.062	80.62
401.286	92.62
401.51	78.62
401.734	88.62
401.958	96.62
402.182	118.62
402.406	175.62
402.63	128.62
402.854	110.62
403.078	86.62
403.302	81.62
403.526	96.62
403.75	84.62
403.974	86.62
404.198	104.62
404.422	76.62
404.645	82.62
404.869	75.62
405.093	103.62
405.317	101.62
405.541	93.62
405.765	110.62
405.988	112.62
406.212	164.62
406.436	234.62
406.66	158.62
406.883	109.62
407.107	89.62
407.331	96.62
407.555	92.62
407.778	91.62
408.002	69.62
408.226	94.62
408.449	86.62
408.673	97.62
408.896	85.62
409.12	93.62
409.344	97.62
409.567	97.62
409.791	96.62
410.014	95.62
410.238	93.62
410.461	96.62
410.685	79.62
410.908	96.62
411.132	102.62
411.355	84.62
411.578	96.62
411.802	81.62
412.025	101.62
412.249	84.62
412.472	105.62
412.695	83.62
412.919	82.62
413.142	88.62
413.365	101.62
413.589	88.62
413.812	79.62
414.035	78.62
414.258	99.62
414.482	90.62
414.705	90.62
414.928	89.62
415.151	89.62
415.374	95.62
415.597	85.62
415.821	105.62
416.044	76.62
416.267	88.62
416.49	90.62
416.713	82.62
416.936	85.62
417.159	108.62
417.382	94.62
417.605	76.62
417.828	92.62
418.051	87.62
418.274	80.62
418.497	90.62
418.72	85.62
418.943	83.62
419.166	91.62
419.389	78.62
419.611	99.62
419.834	98.62
420.057	76.62
420.28	90.62
420.503	82.62
420.726	96.62
420.948	82.62
421.171	86.62
421.394	100.62
421.617	74.62
421.839	80.62
422.062	92.62
422.285	83.62
422.507	92.62
422.73	106.62
422.953	97.62
423.175	90.62
423.398	89.62
423.621	88.62
423.843	98.62
424.066	85.62
424.288	76.62
424.511	80.62
424.733	105.62
424.956	98.62
425.178	90.62
425.401	90.62
425.623	93.62
425.846	98.62
426.068	95.62
426.291	95.62
426.513	73.62
426.735	91.62
426.958	105.62
427.18	100.62
427.402	140.62
427.625	170.62
427.847	135.62
428.069	89.62
428.292	94.62
428.514	89.62
428.736	80.62
428.958	75.62
429.181	90.62
429.403	71.62
429.625	84.62
429.847	89.62
430.069	96.62
430.292	93.62
430.514	88.62
430.736	95.62
430.958	92.62
431.18	81.62
431.402	78.62
431.624	86.62
431.846	88.62
432.068	88.62
432.29	84.62
432.512	93.62
432.734	100.62
432.956	89.62
433.178	102.62
433.4	84.62
433.622	87.62
433.844	78.62
434.066	80.62
434.287	96.62
434.509	90.62
434.731	84.62
434.953	89.62
435.175	95.62
435.397	89.62
435.618	86.62
435.84	98.62
436.062	129.62
436.284	110.62
436.505	105.62
436.727	103.62
436.949	96.62
437.17	101.62
437.392	89.62
437.614	91.62
437.835	113.62
438.057	113.62
438.278	114.62
438.5	101.62
438.721	100.62
438.943	97.62
439.165	96.62
439.386	84.62
439.608	82.62
439.829	92.62
440.05	118.62
440.272	134.62
440.493	103.62
440.715	83.62
440.936	98.62
441.158	90.62
441.379	81.62
441.6	98.62
441.822	100.62
442.043	96.62
442.264	112.62
442.486	98.62
442.707	96.62
442.928	89.62
443.149	110.62
443.371	122.62
443.592	110.62
443.813	96.62
444.034	102.62
444.255	83.62
444.476	82.62
444.698	88.62
444.919	78.62
445.14	138.62
445.361	124.62
445.582	117.62
445.803	135.62
446.024	142.62
446.245	128.62
446.466	104.62
446.687	85.62
446.908	79.62
447.129	90.62
447.35	92.62
447.571	91.62
447.792	102.62
448.013	111.62
448.234	101.62
448.455	105.62
448.675	113.62
448.896	117.62
449.117	98.62
449.338	103.62
449.559	136.62
449.779	143.62
450	87.62
450.221	81.62
450.442	84.62
450.662	105.62
450.883	101.62
451.104	102.62
451.324	93.62
451.545	80.62
451.766	85.62
451.986	90.62
452.207	91.62
452.428	84.62
452.648	87.62
452.869	113.62
453.089	119.62
453.31	105.62
453.53	93.62
453.751	87.62
453.971	102.62
454.192	103.62
454.412	92.62
454.633	79.62
454.853	98.62
455.073	97.62
455.294	78.62
455.514	79.62
455.734	97.62
455.955	75.62
456.175	89.62
456.395	79.62
456.616	109.62
456.836	65.62
457.056	86.62
457.276	74.62
457.497	92.62
457.717	79.62
457.937	87.62
458.157	84.62
458.377	89.62
458.598	96.62
458.818	152.62
459.038	155.62
459.258	113.62
459.478	69.62
459.698	90.62
459.918	83.62
460.138	80.62
460.358	93.62
460.578	73.62
460.798	86.62
461.018	72.62
461.238	79.62
461.458	82.62
461.678	89.62
461.898	100.62
462.118	77.62
462.338	91.62
462.558	94.62
462.777	94.62
462.997	81.62
463.217	89.62
463.437	80.62
463.657	70.62
463.876	89.62
464.096	95.62
464.316	98.62
464.536	91.62
464.755	95.62
464.975	110.62
465.195	168.62
465.414	156.62
465.634	99.62
465.854	95.62
466.073	83.62
466.293	84.62
466.512	85.62
466.732	73.62
466.951	88.62
467.171	98.62
467.391	93.62
467.61	94.62
467.829	96.62
468.049	95.62
468.268	96.62
468.488	86.62
468.707	82.62
468.927	86.62
469.146	96.62
469.365	74.62
469.585	101.62
469.804	79.62
470.023	94.62
470.243	96.62
470.462	100.62
470.681	90.62
470.901	84.62
471.12	71.62
471.339	85.62
471.558	93.62
471.777	89.62
471.997	92.62
472.216	102.62
472.435	106.62
472.654	101.62
472.873	83.62
473.092	88.62
473.311	96.62
473.53	86.62
473.749	88.62
473.968	91.62
474.187	97.62
474.406	89.62
474.625	87.62
474.844	99.62
475.063	86.62
475.282	80.62
475.501	78.62
475.72	89.62
475.939	87.62
476.158	89.62
476.377	84.62
476.596	85.62
476.814	89.62
477.033	93.62
477.252	96.62
477.471	77.62
477.69	87.62
477.908	80.62
478.127	74.62
478.346	106.62
478.564	97.62
478.783	94.62
479.002	85.62
479.22	84.62
479.439	85.62
479.658	89.62
479.876	87.62
480.095	88.62
480.313	89.62
480.532	89.62
480.751	94.62
480.969	89.62
481.188	133.62
481.406	110.62
481.624	93.62
481.843	88.62
482.061	89.62
482.28	86.62
482.498	80.62
482.717	84.62
482.935	89.62
483.153	88.62
483.372	85.62
483.59	96.62
483.808	88.62
484.027	94.62
484.245	100.62
484.463	95.62
484.681	93.62
484.9	83.62
485.118	97.62
485.336	95.62
485.554	91.62
485.772	108.62
485.99	99.62
486.209	109.62
486.427	93.62
486.645	113.62
486.863	99.62
487.081	99.62
487.299	101.62
487.517	101.62
487.735	96.62
487.953	88.62
488.171	94.62
488.389	92.62
488.607	98.62
488.825	89.62
489.043	82.62
489.261	85.62
489.479	108.62
489.696	88.62
489.914	88.62
490.132	93.62
490.35	82.62
490.568	89.62
490.786	100.62
491.003	76.62
491.221	101.62
491.439	100.62
491.657	85.62
491.874	95.62
492.092	99.62
492.31	105.62
492.527	87.62
492.745	89.62
492.963	93.62
493.18	94.62
493.398	95.62
493.615	87.62
493.833	85.62
494.05	80.62
494.268	91.62
494.485	69.62
494.703	94.62
494.92	101.62
495.138	103.62
495.355	100.62
495.573	96.62
495.79	78.62
496.008	99.62
496.225	90.62
496.442	99.62
496.66	95.62
496.877	104.62
497.094	78.62
497.312	76.62
497.529	85.62
497.746	93.62
497.963	84.62
498.181	103.62
498.398	96.62
498.615	119.62
498.832	109.62
499.049	94.62
499.267	93.62
499.484	83.62
499.701	77.62
499.918	104.62
500.135	84.62
500.352	82.62
500.569	82.62
500.786	80.62
501.003	97.62
501.22	79.62
501.437	87.62
501.654	103.62
501.871	99.62
502.088	91.62
502.305	87.62
502.522	80.62
502.739	100.62
502.956	89.62
503.172	99.62
503.389	108.62
503.606	97.62
503.823	87.62
504.04	87.62
504.256	93.62
504.473	80.62
504.69	103.62
504.907	96.62
505.123	80.62
505.34	90.62
505.557	88.62
505.773	94.62
505.99	103.62
506.207	105.62
506.423	81.62
506.64	84.62
506.856	104.62
507.073	101.62
507.289	78.62
507.506	100.62
507.722	112.62
507.939	108.62
508.155	94.62
508.372	88.62
508.588	110.62
508.805	85.62
509.021	88.62
509.238	88.62
509.454	102.62
509.67	107.62
509.887	113.62
510.103	142.62
510.319	236.62
510.536	833.62
510.752	2842.62
510.968	760.62
511.184	171.62
511.401	124.62
511.617	100.62
511.833	87.62
512.049	91.62
512.265	92.62
512.481	96.62
512.698	86.62
512.914	84.62
513.13	98.62
513.346	95.62
513.562	103.62
513.778	96.62
513.994	98.62
514.21	84.62
514.426	115.62
514.642	157.62
514.858	115.62
515.074	165.62
515.29	484.62
515.506	1627.62
