Data from Uncirc_2003_H10_HRD10591_00028.txt Node
Date: Wed Jan 03 10:35:53 EST 2024
User: Yrep
Spectrometer: HR+D1059
Trigger mode: 1
Integration Time (sec): 1.000000E-1
Scans to average: 1
Electric dark correction enabled: true
Nonlinearity correction enabled: false
Boxcar width: 0
XAxis mode: Wavelengths
Number of Pixels in Spectrum: 2048
>>>>>Begin Spectral Data<<<<<
223.165	-12.75
223.4	-12.75
223.635	-12.75
223.869	-17.75
224.104	-12.75
224.338	-8.75
224.573	-8.75
224.808	-20.75
225.042	-17.75
225.277	-3.75
225.511	-3.75
225.746	9.25
225.98	0.25
226.215	8.25
226.449	14.25
226.683	19.25
226.918	20.25
227.152	35.25
227.387	44.25
227.621	40.25
227.856	49.25
228.09	50.25
228.324	65.25
228.559	44.25
228.793	48.25
229.027	70.25
229.262	84.25
229.496	73.25
229.73	79.25
229.964	85.25
230.199	77.25
230.433	79.25
230.667	83.25
230.901	82.25
231.136	76.25
231.37	75.25
231.604	74.25
231.838	84.25
232.072	83.25
232.306	87.25
232.541	91.25
232.775	71.25
233.009	81.25
233.243	74.25
233.477	75.25
233.711	87.25
233.945	92.25
234.179	84.25
234.413	81.25
234.647	82.25
234.881	83.25
235.115	80.25
235.349	94.25
235.583	84.25
235.817	80.25
236.051	82.25
236.285	77.25
236.519	73.25
236.753	83.25
236.987	76.25
237.221	80.25
237.455	95.25
237.689	78.25
237.922	84.25
238.156	82.25
238.39	83.25
238.624	71.25
238.858	70.25
239.091	71.25
239.325	81.25
239.559	74.25
239.793	92.25
240.027	70.25
240.26	73.25
240.494	73.25
240.728	73.25
240.961	70.25
241.195	80.25
241.429	71.25
241.662	79.25
241.896	80.25
242.13	77.25
242.363	82.25
242.597	76.25
242.83	82.25
243.064	87.25
243.298	87.25
243.531	70.25
243.765	83.25
243.998	94.25
244.232	70.25
244.465	77.25
244.699	76.25
244.932	74.25
245.166	80.25
245.399	98.25
245.633	74.25
245.866	88.25
246.099	84.25
246.333	64.25
246.566	68.25
246.8	75.25
247.033	85.25
247.266	87.25
247.5	70.25
247.733	79.25
247.966	65.25
248.2	69.25
248.433	75.25
248.666	70.25
248.899	87.25
249.133	72.25
249.366	102.25
249.599	98.25
249.832	100.25
250.066	87.25
250.299	84.25
250.532	87.25
250.765	95.25
250.998	71.25
251.231	70.25
251.465	75.25
251.698	83.25
251.931	81.25
252.164	88.25
252.397	70.25
252.63	84.25
252.863	71.25
253.096	82.25
253.329	78.25
253.562	67.25
253.795	80.25
254.028	79.25
254.261	69.25
254.494	87.25
254.727	90.25
254.96	81.25
255.193	95.25
255.426	76.25
255.659	82.25
255.892	68.25
256.124	91.25
256.357	77.25
256.59	83.25
256.823	73.25
257.056	82.25
257.289	65.25
257.521	85.25
257.754	82.25
257.987	80.25
258.22	83.25
258.452	86.25
258.685	78.25
258.918	83.25
259.151	93.25
259.383	74.25
259.616	77.25
259.849	92.25
260.081	70.25
260.314	88.25
260.547	77.25
260.779	75.25
261.012	79.25
261.244	87.25
261.477	106.25
261.71	95.25
261.942	103.25
262.175	99.25
262.407	73.25
262.64	81.25
262.872	71.25
263.105	77.25
263.337	95.25
263.57	79.25
263.802	80.25
264.035	101.25
264.267	98.25
264.499	80.25
264.732	86.25
264.964	82.25
265.197	77.25
265.429	86.25
265.661	90.25
265.894	75.25
266.126	92.25
266.358	96.25
266.591	87.25
266.823	90.25
267.055	83.25
267.287	88.25
267.52	79.25
267.752	76.25
267.984	69.25
268.216	85.25
268.448	91.25
268.681	85.25
268.913	87.25
269.145	91.25
269.377	84.25
269.609	100.25
269.841	86.25
270.073	89.25
270.306	76.25
270.538	92.25
270.77	99.25
271.002	85.25
271.234	91.25
271.466	92.25
271.698	85.25
271.93	83.25
272.162	79.25
272.394	79.25
272.626	73.25
272.858	96.25
273.09	81.25
273.322	93.25
273.553	82.25
273.785	89.25
274.017	83.25
274.249	90.25
274.481	85.25
274.713	97.25
274.945	82.25
275.176	81.25
275.408	66.25
275.64	90.25
275.872	91.25
276.104	89.25
276.335	100.25
276.567	91.25
276.799	88.25
277.031	86.25
277.262	92.25
277.494	89.25
277.726	80.25
277.957	85.25
278.189	88.25
278.421	87.25
278.652	88.25
278.884	79.25
279.115	77.25
279.347	91.25
279.579	96.25
279.81	87.25
280.042	89.25
280.273	93.25
280.505	90.25
280.736	81.25
280.968	90.25
281.199	89.25
281.431	95.25
281.662	96.25
281.894	92.25
282.125	92.25
282.356	120.25
282.588	137.25
282.819	111.25
283.051	96.25
283.282	72.25
283.513	100.25
283.745	79.25
283.976	99.25
284.207	83.25
284.439	99.25
284.67	89.25
284.901	95.25
285.132	87.25
285.364	81.25
285.595	90.25
285.826	90.25
286.057	92.25
286.288	89.25
286.52	100.25
286.751	79.25
286.982	74.25
287.213	85.25
287.444	99.25
287.675	101.25
287.906	95.25
288.138	93.25
288.369	93.25
288.6	89.25
288.831	89.25
289.062	95.25
289.293	87.25
289.524	92.25
289.755	97.25
289.986	93.25
290.217	109.25
290.448	97.25
290.679	95.25
290.91	78.25
291.141	95.25
291.371	86.25
291.602	100.25
291.833	89.25
292.064	80.25
292.295	97.25
292.526	93.25
292.757	78.25
292.987	84.25
293.218	83.25
293.449	95.25
293.68	98.25
293.91	93.25
294.141	96.25
294.372	86.25
294.603	85.25
294.833	80.25
295.064	79.25
295.295	91.25
295.525	95.25
295.756	98.25
295.987	107.25
296.217	138.25
296.448	119.25
296.679	82.25
296.909	87.25
297.14	87.25
297.37	95.25
297.601	76.25
297.831	103.25
298.062	94.25
298.292	92.25
298.523	83.25
298.753	92.25
298.984	96.25
299.214	81.25
299.445	92.25
299.675	102.25
299.905	102.25
300.136	101.25
300.366	110.25
300.597	88.25
300.827	106.25
301.057	85.25
301.288	116.25
301.518	100.25
301.748	99.25
301.979	96.25
302.209	91.25
302.439	78.25
302.669	90.25
302.9	93.25
303.13	96.25
303.36	94.25
303.59	100.25
303.82	104.25
304.051	97.25
304.281	99.25
304.511	98.25
304.741	98.25
304.971	99.25
305.201	90.25
305.431	90.25
305.661	88.25
305.891	98.25
306.121	95.25
306.352	103.25
306.582	97.25
306.812	89.25
307.042	92.25
307.272	88.25
307.502	91.25
307.731	103.25
307.961	90.25
308.191	90.25
308.421	105.25
308.651	90.25
308.881	87.25
309.111	89.25
309.341	101.25
309.571	107.25
309.8	101.25
310.03	98.25
310.26	91.25
310.49	86.25
310.72	103.25
310.949	104.25
311.179	103.25
311.409	88.25
311.639	82.25
311.868	90.25
312.098	105.25
312.328	93.25
312.557	98.25
312.787	111.25
313.017	96.25
313.246	94.25
313.476	89.25
313.706	88.25
313.935	100.25
314.165	110.25
314.394	88.25
314.624	87.25
314.853	91.25
315.083	99.25
315.312	102.25
315.542	85.25
315.771	82.25
316.001	96.25
316.23	85.25
316.46	90.25
316.689	97.25
316.919	100.25
317.148	96.25
317.377	86.25
317.607	105.25
317.836	100.25
318.065	97.25
318.295	96.25
318.524	89.25
318.753	84.25
318.983	94.25
319.212	116.25
319.441	110.25
319.67	103.25
319.9	91.25
320.129	92.25
320.358	97.25
320.587	104.25
320.816	93.25
321.046	115.25
321.275	95.25
321.504	97.25
321.733	105.25
321.962	98.25
322.191	107.25
322.42	101.25
322.649	107.25
322.878	107.25
323.108	115.25
323.337	121.25
323.566	131.25
323.795	163.25
324.024	220.25
324.253	421.25
324.482	879.25
324.71	1877.25
324.939	2409.25
325.168	859.25
325.397	264.25
325.626	152.25
325.855	147.25
326.084	128.25
326.313	134.25
326.542	160.25
326.77	234.25
326.999	488.25
327.228	1057.25
327.457	1826.25
327.686	1457.25
327.914	386.25
328.143	182.25
328.372	145.25
328.6	106.25
328.829	110.25
329.058	114.25
329.287	107.25
329.515	106.25
329.744	112.25
329.972	97.25
330.201	96.25
330.43	119.25
330.658	106.25
330.887	130.25
331.115	129.25
331.344	98.25
331.572	100.25
331.801	110.25
332.03	113.25
332.258	108.25
332.486	111.25
332.715	82.25
332.943	96.25
333.172	104.25
333.4	97.25
333.629	108.25
333.857	111.25
334.085	98.25
334.314	103.25
334.542	100.25
334.771	100.25
334.999	89.25
335.227	98.25
335.455	92.25
335.684	118.25
335.912	97.25
336.14	100.25
336.369	96.25
336.597	119.25
336.825	103.25
337.053	93.25
337.281	93.25
337.51	93.25
337.738	101.25
337.966	97.25
338.194	96.25
338.422	99.25
338.65	105.25
338.878	99.25
339.106	100.25
339.334	94.25
339.562	83.25
339.79	101.25
340.018	88.25
340.246	101.25
340.474	96.25
340.702	95.25
340.93	88.25
341.158	90.25
341.386	91.25
341.614	104.25
341.842	97.25
342.07	88.25
342.298	89.25
342.526	98.25
342.754	106.25
342.981	88.25
343.209	85.25
343.437	99.25
343.665	89.25
343.893	96.25
344.12	101.25
344.348	86.25
344.576	95.25
344.804	97.25
345.031	85.25
345.259	104.25
345.487	101.25
345.714	85.25
345.942	105.25
346.17	103.25
346.397	96.25
346.625	96.25
346.853	97.25
347.08	83.25
347.308	97.25
347.535	93.25
347.763	108.25
347.99	87.25
348.218	104.25
348.445	100.25
348.673	90.25
348.9	96.25
349.128	91.25
349.355	94.25
349.583	107.25
349.81	89.25
350.037	103.25
350.265	83.25
350.492	89.25
350.72	83.25
350.947	94.25
351.174	120.25
351.402	101.25
351.629	105.25
351.856	93.25
352.083	117.25
352.311	95.25
352.538	115.25
352.765	119.25
352.992	120.25
353.22	125.25
353.447	114.25
353.674	86.25
353.901	95.25
354.128	93.25
354.355	99.25
354.583	108.25
354.81	93.25
355.037	91.25
355.264	95.25
355.491	97.25
355.718	94.25
355.945	93.25
356.172	107.25
356.399	87.25
356.626	91.25
356.853	94.25
357.08	103.25
357.307	95.25
357.534	92.25
357.761	92.25
357.988	88.25
358.215	94.25
358.441	92.25
358.668	100.25
358.895	95.25
359.122	84.25
359.349	92.25
359.576	97.25
359.802	88.25
360.029	112.25
360.256	98.25
360.483	98.25
360.709	92.25
360.936	86.25
361.163	107.25
361.39	81.25
361.616	92.25
361.843	97.25
362.07	99.25
362.296	85.25
362.523	97.25
362.749	96.25
362.976	93.25
363.203	87.25
363.429	84.25
363.656	94.25
363.882	95.25
364.109	81.25
364.335	101.25
364.562	95.25
364.788	98.25
365.015	108.25
365.241	113.25
365.468	110.25
365.694	107.25
365.92	83.25
366.147	89.25
366.373	99.25
366.599	89.25
366.826	97.25
367.052	91.25
367.278	90.25
367.505	99.25
367.731	96.25
367.957	90.25
368.184	87.25
368.41	91.25
368.636	103.25
368.862	116.25
369.089	106.25
369.315	96.25
369.541	89.25
369.767	102.25
369.993	88.25
370.219	95.25
370.445	84.25
370.672	88.25
370.898	109.25
371.124	88.25
371.35	87.25
371.576	87.25
371.802	74.25
372.028	93.25
372.254	78.25
372.48	99.25
372.706	93.25
372.932	97.25
373.158	89.25
373.384	94.25
373.61	105.25
373.835	83.25
374.061	91.25
374.287	100.25
374.513	94.25
374.739	79.25
374.965	86.25
375.191	93.25
375.416	101.25
375.642	91.25
375.868	103.25
376.094	95.25
376.319	89.25
376.545	107.25
376.771	99.25
376.997	111.25
377.222	85.25
377.448	93.25
377.674	85.25
377.899	93.25
378.125	78.25
378.35	96.25
378.576	96.25
378.802	93.25
379.027	89.25
379.253	100.25
379.478	90.25
379.704	84.25
379.929	89.25
380.155	90.25
380.38	76.25
380.606	92.25
380.831	101.25
381.057	108.25
381.282	99.25
381.507	113.25
381.733	105.25
381.958	96.25
382.184	97.25
382.409	109.25
382.634	106.25
382.86	118.25
383.085	97.25
383.31	103.25
383.535	109.25
383.761	110.25
383.986	99.25
384.211	119.25
384.436	82.25
384.662	95.25
384.887	111.25
385.112	107.25
385.337	98.25
385.562	101.25
385.787	106.25
386.013	99.25
386.238	106.25
386.463	107.25
386.688	120.25
386.913	109.25
387.138	108.25
387.363	108.25
387.588	102.25
387.813	107.25
388.038	101.25
388.263	111.25
388.488	112.25
388.713	88.25
388.938	98.25
389.163	112.25
389.387	92.25
389.612	104.25
389.837	101.25
390.062	86.25
390.287	89.25
390.512	91.25
390.736	96.25
390.961	91.25
391.186	88.25
391.411	95.25
391.636	93.25
391.86	78.25
392.085	82.25
392.31	77.25
392.534	93.25
392.759	91.25
392.984	89.25
393.208	85.25
393.433	106.25
393.658	81.25
393.882	80.25
394.107	102.25
394.331	84.25
394.556	90.25
394.78	92.25
395.005	69.25
395.229	96.25
395.454	95.25
395.678	86.25
395.903	88.25
396.127	100.25
396.352	95.25
396.576	92.25
396.801	87.25
397.025	90.25
397.249	88.25
397.474	99.25
397.698	94.25
397.922	88.25
398.147	95.25
398.371	93.25
398.595	88.25
398.82	85.25
399.044	77.25
399.268	76.25
399.492	102.25
399.717	90.25
399.941	96.25
400.165	90.25
400.389	86.25
400.613	92.25
400.837	84.25
401.062	86.25
401.286	97.25
401.51	79.25
401.734	90.25
401.958	106.25
402.182	130.25
402.406	135.25
402.63	114.25
402.854	103.25
403.078	80.25
403.302	85.25
403.526	81.25
403.75	106.25
403.974	87.25
404.198	88.25
404.422	85.25
404.645	94.25
404.869	87.25
405.093	95.25
405.317	80.25
405.541	88.25
405.765	117.25
405.988	120.25
406.212	175.25
406.436	227.25
406.66	143.25
406.883	100.25
407.107	82.25
407.331	105.25
407.555	94.25
407.778	93.25
408.002	88.25
408.226	95.25
408.449	87.25
408.673	98.25
408.896	95.25
409.12	88.25
409.344	92.25
409.567	85.25
409.791	93.25
410.014	99.25
410.238	96.25
410.461	99.25
410.685	90.25
410.908	99.25
411.132	106.25
411.355	99.25
411.578	88.25
411.802	101.25
412.025	93.25
412.249	103.25
412.472	108.25
412.695	94.25
412.919	87.25
413.142	89.25
413.365	85.25
413.589	96.25
413.812	87.25
414.035	113.25
414.258	106.25
414.482	92.25
414.705	89.25
414.928	81.25
415.151	92.25
415.374	95.25
415.597	89.25
415.821	104.25
416.044	103.25
416.267	95.25
416.49	85.25
416.713	95.25
416.936	86.25
417.159	89.25
417.382	83.25
417.605	81.25
417.828	94.25
418.051	101.25
418.274	91.25
418.497	90.25
418.72	85.25
418.943	79.25
419.166	85.25
419.389	91.25
419.611	83.25
419.834	85.25
420.057	90.25
420.28	86.25
420.503	95.25
420.726	89.25
420.948	92.25
421.171	81.25
421.394	97.25
421.617	99.25
421.839	107.25
422.062	107.25
422.285	80.25
422.507	108.25
422.73	94.25
422.953	104.25
423.175	95.25
423.398	81.25
423.621	83.25
423.843	83.25
424.066	86.25
424.288	79.25
424.511	103.25
424.733	94.25
424.956	98.25
425.178	99.25
425.401	100.25
425.623	95.25
425.846	93.25
426.068	91.25
426.291	97.25
426.513	79.25
426.735	101.25
426.958	92.25
427.18	112.25
427.402	139.25
427.625	156.25
427.847	129.25
428.069	92.25
428.292	88.25
428.514	91.25
428.736	94.25
428.958	98.25
429.181	85.25
429.403	90.25
429.625	95.25
429.847	86.25
430.069	86.25
430.292	111.25
430.514	85.25
430.736	67.25
430.958	83.25
431.18	84.25
431.402	90.25
431.624	88.25
431.846	67.25
432.068	82.25
432.29	89.25
432.512	89.25
432.734	91.25
432.956	79.25
433.178	106.25
433.4	97.25
433.622	101.25
433.844	95.25
434.066	93.25
434.287	96.25
434.509	87.25
434.731	84.25
434.953	97.25
435.175	103.25
435.397	98.25
435.618	94.25
435.84	92.25
436.062	117.25
436.284	122.25
436.505	117.25
436.727	108.25
436.949	105.25
437.17	107.25
437.392	101.25
437.614	89.25
437.835	102.25
438.057	110.25
438.278	110.25
438.5	95.25
438.721	113.25
438.943	87.25
439.165	99.25
439.386	97.25
439.608	84.25
439.829	87.25
440.05	111.25
440.272	132.25
440.493	89.25
440.715	101.25
440.936	90.25
441.158	98.25
441.379	93.25
441.6	91.25
441.822	97.25
442.043	75.25
442.264	90.25
442.486	100.25
442.707	100.25
442.928	109.25
443.149	129.25
443.371	122.25
443.592	107.25
443.813	107.25
444.034	120.25
444.255	84.25
444.476	88.25
444.698	88.25
444.919	98.25
445.14	140.25
445.361	122.25
445.582	111.25
445.803	129.25
446.024	129.25
446.245	124.25
446.466	116.25
446.687	93.25
446.908	85.25
447.129	99.25
447.35	96.25
447.571	85.25
447.792	104.25
448.013	96.25
448.234	109.25
448.455	103.25
448.675	115.25
448.896	116.25
449.117	96.25
449.338	104.25
449.559	105.25
449.779	122.25
450	103.25
450.221	99.25
450.442	93.25
450.662	93.25
450.883	108.25
451.104	113.25
451.324	91.25
451.545	71.25
451.766	94.25
451.986	90.25
452.207	88.25
452.428	88.25
452.648	112.25
452.869	105.25
453.089	116.25
453.31	114.25
453.53	108.25
453.751	99.25
453.971	106.25
454.192	112.25
454.412	87.25
454.633	98.25
454.853	88.25
455.073	89.25
455.294	101.25
455.514	89.25
455.734	74.25
455.955	85.25
456.175	78.25
456.395	82.25
456.616	89.25
456.836	91.25
457.056	88.25
457.276	84.25
457.497	80.25
457.717	109.25
457.937	95.25
458.157	97.25
458.377	89.25
458.598	118.25
458.818	145.25
459.038	143.25
459.258	112.25
459.478	108.25
459.698	84.25
459.918	91.25
460.138	67.25
460.358	97.25
460.578	93.25
460.798	93.25
461.018	88.25
461.238	88.25
461.458	84.25
461.678	87.25
461.898	93.25
462.118	90.25
462.338	85.25
462.558	95.25
462.777	80.25
462.997	84.25
463.217	88.25
463.437	93.25
463.657	74.25
463.876	92.25
464.096	108.25
464.316	91.25
464.536	90.25
464.755	92.25
464.975	105.25
465.195	167.25
465.414	136.25
465.634	96.25
465.854	90.25
466.073	111.25
466.293	95.25
466.512	106.25
466.732	97.25
466.951	81.25
467.171	85.25
467.391	98.25
467.61	101.25
467.829	112.25
468.049	102.25
468.268	90.25
468.488	84.25
468.707	79.25
468.927	95.25
469.146	80.25
469.365	75.25
469.585	96.25
469.804	96.25
470.023	94.25
470.243	82.25
470.462	92.25
470.681	102.25
470.901	81.25
471.12	85.25
471.339	91.25
471.558	89.25
471.777	92.25
471.997	88.25
472.216	92.25
472.435	83.25
472.654	97.25
472.873	88.25
473.092	86.25
473.311	83.25
473.53	104.25
473.749	90.25
473.968	73.25
474.187	105.25
474.406	95.25
474.625	79.25
474.844	80.25
475.063	88.25
475.282	91.25
475.501	83.25
475.72	104.25
475.939	92.25
476.158	84.25
476.377	76.25
476.596	89.25
476.814	85.25
477.033	93.25
477.252	91.25
477.471	96.25
477.69	94.25
477.908	80.25
478.127	84.25
478.346	98.25
478.564	103.25
478.783	94.25
479.002	102.25
479.22	85.25
479.439	96.25
479.658	108.25
479.876	91.25
480.095	94.25
480.313	87.25
480.532	91.25
480.751	95.25
480.969	84.25
481.188	111.25
481.406	94.25
481.624	87.25
481.843	79.25
482.061	109.25
482.28	80.25
482.498	94.25
482.717	75.25
482.935	80.25
483.153	88.25
483.372	92.25
483.59	90.25
483.808	96.25
484.027	89.25
484.245	86.25
484.463	94.25
484.681	95.25
484.9	99.25
485.118	104.25
485.336	93.25
485.554	88.25
485.772	90.25
485.99	96.25
486.209	97.25
486.427	112.25
486.645	106.25
486.863	103.25
487.081	109.25
487.299	93.25
487.517	101.25
487.735	102.25
487.953	98.25
488.171	100.25
488.389	90.25
488.607	108.25
488.825	92.25
489.043	75.25
489.261	80.25
489.479	104.25
489.696	84.25
489.914	83.25
490.132	99.25
490.35	84.25
490.568	93.25
490.786	102.25
491.003	95.25
491.221	85.25
491.439	84.25
491.657	99.25
491.874	110.25
492.092	82.25
492.31	98.25
492.527	87.25
492.745	101.25
492.963	91.25
493.18	88.25
493.398	100.25
493.615	103.25
493.833	101.25
494.05	106.25
494.268	98.25
494.485	93.25
494.703	100.25
494.92	93.25
495.138	87.25
495.355	83.25
495.573	98.25
495.79	95.25
496.008	93.25
496.225	98.25
496.442	104.25
496.66	86.25
496.877	92.25
497.094	94.25
497.312	93.25
497.529	83.25
497.746	88.25
497.963	104.25
498.181	83.25
498.398	93.25
498.615	104.25
498.832	116.25
499.049	105.25
499.267	84.25
499.484	87.25
499.701	87.25
499.918	92.25
500.135	89.25
500.352	99.25
500.569	68.25
500.786	93.25
501.003	91.25
501.22	100.25
501.437	92.25
501.654	112.25
501.871	115.25
502.088	90.25
502.305	98.25
502.522	84.25
502.739	89.25
502.956	96.25
503.172	90.25
503.389	105.25
503.606	111.25
503.823	108.25
504.04	117.25
504.256	103.25
504.473	91.25
504.69	90.25
504.907	96.25
505.123	88.25
505.34	87.25
505.557	106.25
505.773	102.25
505.99	94.25
506.207	91.25
506.423	92.25
506.64	82.25
506.856	87.25
507.073	100.25
507.289	101.25
507.506	111.25
507.722	110.25
507.939	122.25
508.155	90.25
508.372	100.25
508.588	103.25
508.805	117.25
509.021	105.25
509.238	99.25
509.454	104.25
509.67	82.25
509.887	107.25
510.103	132.25
510.319	214.25
510.536	795.25
510.752	2556.25
510.968	696.25
511.184	145.25
511.401	106.25
511.617	84.25
511.833	95.25
512.049	90.25
512.265	91.25
512.481	93.25
512.698	98.25
512.914	103.25
513.13	104.25
513.346	95.25
513.562	99.25
513.778	86.25
513.994	103.25
514.21	114.25
514.426	107.25
514.642	142.25
514.858	133.25
515.074	166.25
