Data from Uncirc_2003_H10_HRD10591_00073.txt Node
Date: Wed Jan 03 10:36:02 EST 2024
User: Yrep
Spectrometer: HR+D1059
Trigger mode: 1
Integration Time (sec): 1.000000E-1
Scans to average: 1
Electric dark correction enabled: true
Nonlinearity correction enabled: false
Boxcar width: 0
XAxis mode: Wavelengths
Number of Pixels in Spectrum: 2048
>>>>>Begin Spectral Data<<<<<
223.165	-36.81
223.4	-36.81
223.635	-36.81
223.869	-24.81
224.104	-22.81
224.338	-19.81
224.573	-16.81
224.808	-12.81
225.042	-14.81
225.277	-1.81
225.511	-6.81
225.746	23.19
225.98	10.19
226.215	19.19
226.449	18.19
226.683	25.19
226.918	30.19
227.152	31.19
227.387	30.19
227.621	48.19
227.856	35.19
228.09	38.19
228.324	49.19
228.559	61.19
228.793	61.19
229.027	53.19
229.262	63.19
229.496	50.19
229.73	87.19
229.964	69.19
230.199	56.19
230.433	77.19
230.667	87.19
230.901	70.19
231.136	74.19
231.37	85.19
231.604	88.19
231.838	86.19
232.072	80.19
232.306	79.19
232.541	76.19
232.775	71.19
233.009	77.19
233.243	70.19
233.477	81.19
233.711	75.19
233.945	92.19
234.179	85.19
234.413	80.19
234.647	64.19
234.881	87.19
235.115	82.19
235.349	71.19
235.583	79.19
235.817	80.19
236.051	76.19
236.285	78.19
236.519	71.19
236.753	66.19
236.987	77.19
237.221	88.19
237.455	91.19
237.689	82.19
237.922	61.19
238.156	73.19
238.39	73.19
238.624	71.19
238.858	74.19
239.091	87.19
239.325	65.19
239.559	85.19
239.793	84.19
240.027	80.19
240.26	94.19
240.494	72.19
240.728	77.19
240.961	75.19
241.195	82.19
241.429	76.19
241.662	72.19
241.896	66.19
242.13	84.19
242.363	75.19
242.597	72.19
242.83	82.19
243.064	77.19
243.298	68.19
243.531	87.19
243.765	72.19
243.998	81.19
244.232	89.19
244.465	86.19
244.699	83.19
244.932	75.19
245.166	64.19
245.399	80.19
245.633	68.19
245.866	71.19
246.099	79.19
246.333	80.19
246.566	68.19
246.8	82.19
247.033	84.19
247.266	77.19
247.5	72.19
247.733	72.19
247.966	80.19
248.2	77.19
248.433	67.19
248.666	77.19
248.899	78.19
249.133	89.19
249.366	94.19
249.599	73.19
249.832	82.19
250.066	80.19
250.299	82.19
250.532	63.19
250.765	76.19
250.998	87.19
251.231	84.19
251.465	84.19
251.698	84.19
251.931	73.19
252.164	58.19
252.397	73.19
252.63	76.19
252.863	79.19
253.096	79.19
253.329	83.19
253.562	69.19
253.795	70.19
254.028	80.19
254.261	101.19
254.494	68.19
254.727	78.19
254.96	82.19
255.193	82.19
255.426	80.19
255.659	71.19
255.892	65.19
256.124	91.19
256.357	86.19
256.59	79.19
256.823	83.19
257.056	84.19
257.289	86.19
257.521	75.19
257.754	75.19
257.987	79.19
258.22	78.19
258.452	86.19
258.685	75.19
258.918	73.19
259.151	94.19
259.383	83.19
259.616	79.19
259.849	84.19
260.081	76.19
260.314	71.19
260.547	86.19
260.779	86.19
261.012	75.19
261.244	97.19
261.477	92.19
261.71	104.19
261.942	117.19
262.175	87.19
262.407	71.19
262.64	79.19
262.872	81.19
263.105	88.19
263.337	77.19
263.57	76.19
263.802	81.19
264.035	83.19
264.267	71.19
264.499	87.19
264.732	87.19
264.964	89.19
265.197	83.19
265.429	79.19
265.661	84.19
265.894	76.19
266.126	67.19
266.358	85.19
266.591	86.19
266.823	89.19
267.055	86.19
267.287	89.19
267.52	75.19
267.752	77.19
267.984	79.19
268.216	87.19
268.448	82.19
268.681	83.19
268.913	81.19
269.145	83.19
269.377	99.19
269.609	77.19
269.841	71.19
270.073	81.19
270.306	84.19
270.538	84.19
270.77	83.19
271.002	87.19
271.234	97.19
271.466	87.19
271.698	94.19
271.93	87.19
272.162	81.19
272.394	91.19
272.626	82.19
272.858	89.19
273.09	90.19
273.322	86.19
273.553	93.19
273.785	98.19
274.017	82.19
274.249	84.19
274.481	93.19
274.713	83.19
274.945	86.19
275.176	82.19
275.408	84.19
275.64	72.19
275.872	84.19
276.104	84.19
276.335	73.19
276.567	91.19
276.799	107.19
277.031	98.19
277.262	79.19
277.494	85.19
277.726	102.19
277.957	95.19
278.189	89.19
278.421	79.19
278.652	81.19
278.884	86.19
279.115	82.19
279.347	89.19
279.579	105.19
279.81	81.19
280.042	90.19
280.273	90.19
280.505	84.19
280.736	90.19
280.968	87.19
281.199	75.19
281.431	83.19
281.662	97.19
281.894	87.19
282.125	75.19
282.356	120.19
282.588	139.19
282.819	107.19
283.051	94.19
283.282	89.19
283.513	96.19
283.745	89.19
283.976	79.19
284.207	84.19
284.439	67.19
284.67	83.19
284.901	92.19
285.132	67.19
285.364	91.19
285.595	98.19
285.826	79.19
286.057	92.19
286.288	73.19
286.52	84.19
286.751	85.19
286.982	94.19
287.213	79.19
287.444	79.19
287.675	89.19
287.906	89.19
288.138	84.19
288.369	101.19
288.6	83.19
288.831	82.19
289.062	89.19
289.293	92.19
289.524	81.19
289.755	81.19
289.986	83.19
290.217	92.19
290.448	78.19
290.679	86.19
290.91	87.19
291.141	80.19
291.371	80.19
291.602	83.19
291.833	82.19
292.064	85.19
292.295	95.19
292.526	75.19
292.757	82.19
292.987	84.19
293.218	96.19
293.449	85.19
293.68	81.19
293.91	79.19
294.141	92.19
294.372	98.19
294.603	85.19
294.833	93.19
295.064	104.19
295.295	81.19
295.525	102.19
295.756	110.19
295.987	115.19
296.217	123.19
296.448	118.19
296.679	95.19
296.909	92.19
297.14	90.19
297.37	92.19
297.601	93.19
297.831	88.19
298.062	79.19
298.292	95.19
298.523	90.19
298.753	88.19
298.984	92.19
299.214	85.19
299.445	88.19
299.675	80.19
299.905	87.19
300.136	86.19
300.366	87.19
300.597	93.19
300.827	101.19
301.057	103.19
301.288	103.19
301.518	96.19
301.748	99.19
301.979	97.19
302.209	91.19
302.439	77.19
302.669	85.19
302.9	86.19
303.13	88.19
303.36	94.19
303.59	102.19
303.82	93.19
304.051	96.19
304.281	86.19
304.511	85.19
304.741	78.19
304.971	104.19
305.201	95.19
305.431	92.19
305.661	98.19
305.891	89.19
306.121	95.19
306.352	95.19
306.582	111.19
306.812	106.19
307.042	101.19
307.272	98.19
307.502	83.19
307.731	89.19
307.961	83.19
308.191	82.19
308.421	92.19
308.651	93.19
308.881	89.19
309.111	92.19
309.341	94.19
309.571	95.19
309.8	100.19
310.03	91.19
310.26	96.19
310.49	98.19
310.72	99.19
310.949	96.19
311.179	92.19
311.409	100.19
311.639	73.19
311.868	92.19
312.098	107.19
312.328	90.19
312.557	100.19
312.787	99.19
313.017	96.19
313.246	93.19
313.476	85.19
313.706	94.19
313.935	89.19
314.165	113.19
314.394	103.19
314.624	99.19
314.853	97.19
315.083	86.19
315.312	91.19
315.542	90.19
315.771	80.19
316.001	75.19
316.23	85.19
316.46	89.19
316.689	86.19
316.919	96.19
317.148	85.19
317.377	83.19
317.607	83.19
317.836	96.19
318.065	92.19
318.295	88.19
318.524	83.19
318.753	93.19
318.983	89.19
319.212	111.19
319.441	99.19
319.67	103.19
319.9	85.19
320.129	94.19
320.358	91.19
320.587	114.19
320.816	116.19
321.046	111.19
321.275	104.19
321.504	103.19
321.733	99.19
321.962	118.19
322.191	112.19
322.42	113.19
322.649	103.19
322.878	107.19
323.108	110.19
323.337	123.19
323.566	133.19
323.795	136.19
324.024	210.19
324.253	416.19
324.482	846.19
324.71	1782.19
324.939	2311.19
325.168	835.19
325.397	245.19
325.626	164.19
325.855	141.19
326.084	115.19
326.313	122.19
326.542	143.19
326.77	243.19
326.999	479.19
327.228	997.19
327.457	1796.19
327.686	1437.19
327.914	367.19
328.143	184.19
328.372	132.19
328.6	123.19
328.829	111.19
329.058	119.19
329.287	123.19
329.515	109.19
329.744	103.19
329.972	92.19
330.201	115.19
330.43	111.19
330.658	116.19
330.887	114.19
331.115	131.19
331.344	93.19
331.572	112.19
331.801	93.19
332.03	94.19
332.258	93.19
332.486	99.19
332.715	94.19
332.943	86.19
333.172	98.19
333.4	106.19
333.629	101.19
333.857	104.19
334.085	87.19
334.314	90.19
334.542	78.19
334.771	99.19
334.999	99.19
335.227	102.19
335.455	102.19
335.684	86.19
335.912	93.19
336.14	89.19
336.369	92.19
336.597	111.19
336.825	100.19
337.053	89.19
337.281	97.19
337.51	108.19
337.738	95.19
337.966	106.19
338.194	86.19
338.422	80.19
338.65	104.19
338.878	93.19
339.106	86.19
339.334	95.19
339.562	92.19
339.79	77.19
340.018	89.19
340.246	94.19
340.474	89.19
340.702	97.19
340.93	95.19
341.158	90.19
341.386	100.19
341.614	95.19
341.842	95.19
342.07	83.19
342.298	89.19
342.526	92.19
342.754	87.19
342.981	81.19
343.209	93.19
343.437	93.19
343.665	73.19
343.893	91.19
344.12	87.19
344.348	85.19
344.576	88.19
344.804	89.19
345.031	96.19
345.259	87.19
345.487	90.19
345.714	89.19
345.942	84.19
346.17	93.19
346.397	94.19
346.625	94.19
346.853	88.19
347.08	101.19
347.308	100.19
347.535	104.19
347.763	88.19
347.99	86.19
348.218	111.19
348.445	86.19
348.673	92.19
348.9	94.19
349.128	94.19
349.355	94.19
349.583	104.19
349.81	87.19
350.037	97.19
350.265	95.19
350.492	94.19
350.72	104.19
350.947	107.19
351.174	116.19
351.402	96.19
351.629	102.19
351.856	96.19
352.083	99.19
352.311	105.19
352.538	118.19
352.765	94.19
352.992	101.19
353.22	108.19
353.447	107.19
353.674	104.19
353.901	105.19
354.128	95.19
354.355	110.19
354.583	96.19
354.81	105.19
355.037	99.19
355.264	73.19
355.491	89.19
355.718	102.19
355.945	88.19
356.172	87.19
356.399	94.19
356.626	96.19
356.853	88.19
357.08	68.19
357.307	100.19
357.534	107.19
357.761	78.19
357.988	108.19
358.215	97.19
358.441	94.19
358.668	89.19
358.895	99.19
359.122	76.19
359.349	100.19
359.576	104.19
359.802	98.19
360.029	106.19
360.256	104.19
360.483	81.19
360.709	84.19
360.936	93.19
361.163	87.19
361.39	97.19
361.616	76.19
361.843	94.19
362.07	96.19
362.296	96.19
362.523	91.19
362.749	93.19
362.976	88.19
363.203	81.19
363.429	93.19
363.656	91.19
363.882	87.19
364.109	83.19
364.335	91.19
364.562	103.19
364.788	92.19
365.015	91.19
365.241	97.19
365.468	107.19
365.694	103.19
365.92	84.19
366.147	87.19
366.373	88.19
366.599	86.19
366.826	86.19
367.052	97.19
367.278	82.19
367.505	85.19
367.731	93.19
367.957	83.19
368.184	88.19
368.41	97.19
368.636	114.19
368.862	114.19
369.089	100.19
369.315	85.19
369.541	83.19
369.767	87.19
369.993	94.19
370.219	94.19
370.445	88.19
370.672	92.19
370.898	72.19
371.124	82.19
371.35	84.19
371.576	100.19
371.802	82.19
372.028	93.19
372.254	79.19
372.48	85.19
372.706	82.19
372.932	76.19
373.158	97.19
373.384	91.19
373.61	90.19
373.835	103.19
374.061	88.19
374.287	87.19
374.513	89.19
374.739	90.19
374.965	88.19
375.191	89.19
375.416	88.19
375.642	92.19
375.868	96.19
376.094	87.19
376.319	84.19
376.545	80.19
376.771	81.19
376.997	78.19
377.222	71.19
377.448	97.19
377.674	94.19
377.899	83.19
378.125	96.19
378.35	101.19
378.576	86.19
378.802	76.19
379.027	93.19
379.253	99.19
379.478	87.19
379.704	82.19
379.929	92.19
380.155	91.19
380.38	92.19
380.606	89.19
380.831	97.19
381.057	88.19
381.282	81.19
381.507	96.19
381.733	102.19
381.958	99.19
382.184	88.19
382.409	104.19
382.634	88.19
382.86	106.19
383.085	113.19
383.31	94.19
383.535	94.19
383.761	106.19
383.986	92.19
384.211	87.19
384.436	99.19
384.662	80.19
384.887	96.19
385.112	100.19
385.337	105.19
385.562	106.19
385.787	106.19
386.013	102.19
386.238	101.19
386.463	111.19
386.688	114.19
386.913	97.19
387.138	98.19
387.363	99.19
387.588	106.19
387.813	93.19
388.038	103.19
388.263	116.19
388.488	110.19
388.713	93.19
388.938	99.19
389.163	103.19
389.387	100.19
389.612	94.19
389.837	108.19
390.062	91.19
390.287	96.19
390.512	83.19
390.736	99.19
390.961	78.19
391.186	92.19
391.411	91.19
391.636	84.19
391.86	108.19
392.085	99.19
392.31	86.19
392.534	83.19
392.759	93.19
392.984	85.19
393.208	88.19
393.433	88.19
393.658	91.19
393.882	83.19
394.107	84.19
394.331	88.19
394.556	79.19
394.78	84.19
395.005	98.19
395.229	87.19
395.454	90.19
395.678	93.19
395.903	98.19
396.127	97.19
396.352	87.19
396.576	75.19
396.801	92.19
397.025	88.19
397.249	79.19
397.474	82.19
397.698	95.19
397.922	83.19
398.147	84.19
398.371	91.19
398.595	94.19
398.82	78.19
399.044	72.19
399.268	86.19
399.492	80.19
399.717	84.19
399.941	83.19
400.165	85.19
400.389	93.19
400.613	79.19
400.837	92.19
401.062	90.19
401.286	69.19
401.51	93.19
401.734	92.19
401.958	91.19
402.182	131.19
402.406	163.19
402.63	101.19
402.854	86.19
403.078	91.19
403.302	88.19
403.526	73.19
403.75	87.19
403.974	78.19
404.198	88.19
404.422	79.19
404.645	58.19
404.869	81.19
405.093	83.19
405.317	89.19
405.541	94.19
405.765	106.19
405.988	110.19
406.212	153.19
406.436	211.19
406.66	129.19
406.883	103.19
407.107	94.19
407.331	89.19
407.555	82.19
407.778	83.19
408.002	83.19
408.226	88.19
408.449	78.19
408.673	77.19
408.896	96.19
409.12	80.19
409.344	83.19
409.567	105.19
409.791	83.19
410.014	95.19
410.238	92.19
410.461	92.19
410.685	92.19
410.908	86.19
411.132	105.19
411.355	91.19
411.578	93.19
411.802	106.19
412.025	89.19
412.249	94.19
412.472	90.19
412.695	100.19
412.919	89.19
413.142	95.19
413.365	90.19
413.589	94.19
413.812	100.19
414.035	88.19
414.258	77.19
414.482	100.19
414.705	79.19
414.928	79.19
415.151	83.19
415.374	88.19
415.597	89.19
415.821	85.19
416.044	85.19
416.267	98.19
416.49	101.19
416.713	89.19
416.936	95.19
417.159	88.19
417.382	93.19
417.605	89.19
417.828	90.19
418.051	77.19
418.274	78.19
418.497	96.19
418.72	81.19
418.943	94.19
419.166	95.19
419.389	73.19
419.611	92.19
419.834	89.19
420.057	92.19
420.28	88.19
420.503	90.19
420.726	84.19
420.948	91.19
421.171	95.19
421.394	81.19
421.617	89.19
421.839	88.19
422.062	95.19
422.285	75.19
422.507	83.19
422.73	89.19
422.953	111.19
423.175	98.19
423.398	84.19
423.621	102.19
423.843	75.19
424.066	78.19
424.288	98.19
424.511	88.19
424.733	110.19
424.956	92.19
425.178	92.19
425.401	93.19
425.623	85.19
425.846	89.19
426.068	95.19
426.291	93.19
426.513	93.19
426.735	97.19
426.958	78.19
427.18	108.19
427.402	133.19
427.625	157.19
427.847	103.19
428.069	103.19
428.292	85.19
428.514	89.19
428.736	89.19
428.958	87.19
429.181	84.19
429.403	79.19
429.625	75.19
429.847	85.19
430.069	101.19
430.292	83.19
430.514	84.19
430.736	74.19
430.958	78.19
431.18	93.19
431.402	77.19
431.624	85.19
431.846	73.19
432.068	76.19
432.29	90.19
432.512	99.19
432.734	77.19
432.956	91.19
433.178	101.19
433.4	94.19
433.622	87.19
433.844	84.19
434.066	78.19
434.287	87.19
434.509	96.19
434.731	81.19
434.953	89.19
435.175	93.19
435.397	78.19
435.618	73.19
435.84	113.19
436.062	124.19
436.284	113.19
436.505	96.19
436.727	88.19
436.949	94.19
437.17	87.19
437.392	85.19
437.614	84.19
437.835	82.19
438.057	112.19
438.278	105.19
438.5	104.19
438.721	113.19
438.943	98.19
439.165	76.19
439.386	76.19
439.608	84.19
439.829	83.19
440.05	115.19
440.272	113.19
440.493	97.19
440.715	85.19
440.936	84.19
441.158	92.19
441.379	70.19
441.6	94.19
441.822	95.19
442.043	84.19
442.264	97.19
442.486	86.19
442.707	79.19
442.928	89.19
443.149	110.19
443.371	124.19
443.592	105.19
443.813	115.19
444.034	104.19
444.255	92.19
444.476	92.19
444.698	79.19
444.919	88.19
445.14	125.19
445.361	113.19
445.582	97.19
445.803	129.19
446.024	131.19
446.245	113.19
446.466	115.19
446.687	92.19
446.908	72.19
447.129	78.19
447.35	89.19
447.571	92.19
447.792	89.19
448.013	88.19
448.234	115.19
448.455	92.19
448.675	101.19
448.896	112.19
449.117	95.19
449.338	105.19
449.559	135.19
449.779	134.19
450	109.19
450.221	95.19
450.442	97.19
450.662	97.19
450.883	93.19
451.104	103.19
451.324	96.19
451.545	87.19
451.766	99.19
451.986	88.19
452.207	82.19
452.428	88.19
452.648	96.19
452.869	114.19
453.089	121.19
453.31	108.19
453.53	86.19
453.751	98.19
453.971	116.19
454.192	104.19
454.412	89.19
454.633	89.19
454.853	84.19
455.073	85.19
455.294	94.19
455.514	109.19
455.734	93.19
455.955	78.19
456.175	92.19
456.395	92.19
456.616	84.19
456.836	87.19
457.056	74.19
457.276	87.19
457.497	89.19
457.717	97.19
457.937	90.19
458.157	81.19
458.377	92.19
458.598	105.19
458.818	143.19
459.038	143.19
459.258	115.19
459.478	89.19
459.698	90.19
459.918	79.19
460.138	74.19
460.358	79.19
460.578	79.19
460.798	98.19
461.018	89.19
461.238	86.19
461.458	102.19
461.678	75.19
461.898	75.19
462.118	65.19
462.338	77.19
462.558	92.19
462.777	82.19
462.997	84.19
463.217	74.19
463.437	86.19
463.657	93.19
463.876	70.19
464.096	98.19
464.316	86.19
464.536	88.19
464.755	97.19
464.975	110.19
465.195	150.19
465.414	154.19
465.634	98.19
465.854	101.19
466.073	92.19
466.293	93.19
466.512	81.19
466.732	93.19
466.951	80.19
467.171	87.19
467.391	101.19
467.61	88.19
467.829	94.19
468.049	91.19
468.268	85.19
468.488	93.19
468.707	85.19
468.927	93.19
469.146	99.19
469.365	72.19
469.585	84.19
469.804	85.19
470.023	97.19
470.243	91.19
470.462	84.19
470.681	105.19
470.901	99.19
471.12	86.19
471.339	94.19
471.558	93.19
471.777	78.19
471.997	82.19
472.216	102.19
472.435	98.19
472.654	87.19
472.873	90.19
473.092	94.19
473.311	69.19
473.53	88.19
473.749	72.19
473.968	96.19
474.187	107.19
474.406	100.19
474.625	91.19
474.844	83.19
475.063	84.19
475.282	89.19
475.501	90.19
475.72	61.19
475.939	77.19
476.158	77.19
476.377	94.19
476.596	94.19
476.814	97.19
477.033	103.19
477.252	89.19
477.471	88.19
477.69	80.19
477.908	87.19
478.127	81.19
478.346	89.19
478.564	88.19
478.783	94.19
479.002	82.19
479.22	86.19
479.439	103.19
479.658	86.19
479.876	95.19
480.095	86.19
480.313	60.19
480.532	96.19
480.751	79.19
480.969	96.19
481.188	109.19
481.406	103.19
481.624	84.19
481.843	94.19
482.061	98.19
482.28	96.19
482.498	81.19
482.717	86.19
482.935	96.19
483.153	79.19
483.372	77.19
483.59	84.19
483.808	94.19
484.027	93.19
484.245	97.19
484.463	84.19
484.681	100.19
484.9	89.19
485.118	91.19
485.336	103.19
485.554	99.19
485.772	102.19
485.99	113.19
486.209	100.19
486.427	94.19
486.645	123.19
486.863	111.19
487.081	103.19
487.299	105.19
487.517	98.19
487.735	98.19
487.953	99.19
488.171	95.19
488.389	89.19
488.607	95.19
488.825	91.19
489.043	88.19
489.261	85.19
489.479	79.19
489.696	82.19
489.914	82.19
490.132	90.19
490.35	111.19
490.568	86.19
490.786	105.19
491.003	90.19
491.221	96.19
491.439	82.19
491.657	90.19
491.874	87.19
492.092	95.19
492.31	93.19
492.527	88.19
492.745	92.19
492.963	85.19
493.18	96.19
493.398	90.19
493.615	99.19
493.833	100.19
494.05	99.19
494.268	95.19
494.485	82.19
494.703	85.19
494.92	89.19
495.138	75.19
495.355	96.19
495.573	89.19
495.79	79.19
496.008	98.19
496.225	87.19
496.442	86.19
496.66	90.19
496.877	72.19
497.094	102.19
497.312	85.19
497.529	100.19
497.746	83.19
497.963	83.19
498.181	89.19
498.398	97.19
498.615	98.19
498.832	115.19
499.049	95.19
499.267	87.19
499.484	99.19
499.701	85.19
499.918	83.19
500.135	103.19
500.352	88.19
500.569	86.19
500.786	98.19
501.003	89.19
501.22	94.19
501.437	111.19
501.654	100.19
501.871	101.19
502.088	84.19
502.305	105.19
502.522	84.19
502.739	87.19
502.956	87.19
503.172	103.19
503.389	88.19
503.606	95.19
503.823	83.19
504.04	85.19
504.256	81.19
504.473	86.19
504.69	91.19
504.907	89.19
505.123	94.19
505.34	98.19
505.557	79.19
505.773	92.19
505.99	85.19
506.207	85.19
506.423	88.19
506.64	79.19
506.856	82.19
507.073	89.19
507.289	97.19
507.506	93.19
507.722	115.19
507.939	99.19
508.155	108.19
508.372	117.19
508.588	91.19
508.805	95.19
509.021	109.19
509.238	98.19
509.454	99.19
509.67	100.19
509.887	99.19
510.103	126.19
510.319	199.19
510.536	781.19
510.752	2462.19
510.968	701.19
511.184	161.19
511.401	118.19
511.617	99.19
511.833	107.19
512.049	79.19
512.265	100.19
512.481	90.19
512.698	96.19
512.914	87.19
513.13	86.19
513.346	93.19
513.562	88.19
513.778	104.19
513.994	97.19
514.21	95.19
514.426	110.19
514.642	129.19
514.858	112.19
515.074	166.19
515.29	441.19
515.506	1450.19
515.721	539.19
515.937	146.19
516.153	106.19
