Data from Uncirc_2003_H10_HRD10591_00036.txt Node
Date: Wed Jan 03 10:35:55 EST 2024
User: Yrep
Spectrometer: HR+D1059
Trigger mode: 1
Integration Time (sec): 1.000000E-1
Scans to average: 1
Electric dark correction enabled: true
Nonlinearity correction enabled: false
Boxcar width: 0
XAxis mode: Wavelengths
Number of Pixels in Spectrum: 2048
>>>>>Begin Spectral Data<<<<<
223.165	-24.88
223.4	-24.88
223.635	-24.88
223.869	-21.88
224.104	-19.88
224.338	-7.88
224.573	-14.88
224.808	-20.88
225.042	-7.88
225.277	-3.88
225.511	1.12
225.746	-15.88
225.98	11.12
226.215	4.12
226.449	11.12
226.683	26.12
226.918	43.12
227.152	41.12
227.387	39.12
227.621	37.12
227.856	42.12
228.09	46.12
228.324	50.12
228.559	49.12
228.793	52.12
229.027	69.12
229.262	66.12
229.496	72.12
229.73	84.12
229.964	75.12
230.199	76.12
230.433	87.12
230.667	80.12
230.901	79.12
231.136	81.12
231.37	74.12
231.604	86.12
231.838	85.12
232.072	83.12
232.306	79.12
232.541	92.12
232.775	81.12
233.009	79.12
233.243	74.12
233.477	73.12
233.711	87.12
233.945	88.12
234.179	71.12
234.413	71.12
234.647	77.12
234.881	78.12
235.115	79.12
235.349	75.12
235.583	84.12
235.817	75.12
236.051	75.12
236.285	74.12
236.519	85.12
236.753	75.12
236.987	81.12
237.221	89.12
237.455	81.12
237.689	76.12
237.922	72.12
238.156	84.12
238.39	81.12
238.624	80.12
238.858	91.12
239.091	72.12
239.325	81.12
239.559	84.12
239.793	71.12
240.027	72.12
240.26	81.12
240.494	71.12
240.728	75.12
240.961	71.12
241.195	86.12
241.429	71.12
241.662	82.12
241.896	80.12
242.13	81.12
242.363	90.12
242.597	86.12
242.83	74.12
243.064	74.12
243.298	77.12
243.531	77.12
243.765	99.12
243.998	74.12
244.232	74.12
244.465	84.12
244.699	80.12
244.932	65.12
245.166	84.12
245.399	86.12
245.633	78.12
245.866	88.12
246.099	71.12
246.333	71.12
246.566	68.12
246.8	90.12
247.033	73.12
247.266	72.12
247.5	86.12
247.733	77.12
247.966	76.12
248.2	71.12
248.433	76.12
248.666	84.12
248.899	83.12
249.133	84.12
249.366	102.12
249.599	104.12
249.832	81.12
250.066	77.12
250.299	86.12
250.532	76.12
250.765	72.12
250.998	82.12
251.231	97.12
251.465	67.12
251.698	88.12
251.931	87.12
252.164	80.12
252.397	81.12
252.63	68.12
252.863	84.12
253.096	70.12
253.329	90.12
253.562	80.12
253.795	88.12
254.028	78.12
254.261	77.12
254.494	90.12
254.727	90.12
254.96	81.12
255.193	95.12
255.426	79.12
255.659	84.12
255.892	90.12
256.124	88.12
256.357	81.12
256.59	96.12
256.823	77.12
257.056	75.12
257.289	98.12
257.521	88.12
257.754	89.12
257.987	82.12
258.22	94.12
258.452	71.12
258.685	83.12
258.918	89.12
259.151	84.12
259.383	82.12
259.616	75.12
259.849	67.12
260.081	85.12
260.314	84.12
260.547	82.12
260.779	74.12
261.012	87.12
261.244	83.12
261.477	81.12
261.71	76.12
261.942	109.12
262.175	119.12
262.407	91.12
262.64	74.12
262.872	88.12
263.105	80.12
263.337	89.12
263.57	85.12
263.802	88.12
264.035	82.12
264.267	89.12
264.499	80.12
264.732	81.12
264.964	86.12
265.197	88.12
265.429	90.12
265.661	86.12
265.894	96.12
266.126	104.12
266.358	88.12
266.591	79.12
266.823	78.12
267.055	86.12
267.287	91.12
267.52	76.12
267.752	79.12
267.984	76.12
268.216	81.12
268.448	79.12
268.681	91.12
268.913	84.12
269.145	79.12
269.377	79.12
269.609	83.12
269.841	76.12
270.073	85.12
270.306	95.12
270.538	89.12
270.77	86.12
271.002	100.12
271.234	96.12
271.466	85.12
271.698	86.12
271.93	87.12
272.162	80.12
272.394	85.12
272.626	92.12
272.858	70.12
273.09	96.12
273.322	84.12
273.553	87.12
273.785	86.12
274.017	78.12
274.249	77.12
274.481	95.12
274.713	77.12
274.945	92.12
275.176	85.12
275.408	78.12
275.64	89.12
275.872	90.12
276.104	77.12
276.335	92.12
276.567	114.12
276.799	108.12
277.031	85.12
277.262	83.12
277.494	91.12
277.726	87.12
277.957	85.12
278.189	92.12
278.421	69.12
278.652	85.12
278.884	86.12
279.115	80.12
279.347	83.12
279.579	85.12
279.81	106.12
280.042	92.12
280.273	85.12
280.505	82.12
280.736	88.12
280.968	83.12
281.199	86.12
281.431	90.12
281.662	97.12
281.894	96.12
282.125	92.12
282.356	124.12
282.588	149.12
282.819	109.12
283.051	93.12
283.282	94.12
283.513	101.12
283.745	89.12
283.976	99.12
284.207	92.12
284.439	80.12
284.67	66.12
284.901	84.12
285.132	85.12
285.364	92.12
285.595	81.12
285.826	96.12
286.057	91.12
286.288	69.12
286.52	78.12
286.751	92.12
286.982	84.12
287.213	102.12
287.444	84.12
287.675	91.12
287.906	106.12
288.138	89.12
288.369	86.12
288.6	88.12
288.831	72.12
289.062	89.12
289.293	87.12
289.524	71.12
289.755	88.12
289.986	97.12
290.217	91.12
290.448	87.12
290.679	97.12
290.91	80.12
291.141	92.12
291.371	89.12
291.602	82.12
291.833	85.12
292.064	97.12
292.295	93.12
292.526	77.12
292.757	79.12
292.987	83.12
293.218	89.12
293.449	102.12
293.68	79.12
293.91	84.12
294.141	93.12
294.372	87.12
294.603	95.12
294.833	87.12
295.064	87.12
295.295	93.12
295.525	100.12
295.756	101.12
295.987	118.12
296.217	132.12
296.448	125.12
296.679	95.12
296.909	90.12
297.14	85.12
297.37	92.12
297.601	92.12
297.831	84.12
298.062	94.12
298.292	87.12
298.523	106.12
298.753	95.12
298.984	89.12
299.214	84.12
299.445	106.12
299.675	91.12
299.905	92.12
300.136	99.12
300.366	85.12
300.597	79.12
300.827	97.12
301.057	109.12
301.288	102.12
301.518	96.12
301.748	96.12
301.979	92.12
302.209	79.12
302.439	90.12
302.669	90.12
302.9	107.12
303.13	102.12
303.36	82.12
303.59	106.12
303.82	96.12
304.051	92.12
304.281	87.12
304.511	83.12
304.741	83.12
304.971	92.12
305.201	90.12
305.431	97.12
305.661	100.12
305.891	98.12
306.121	95.12
306.352	99.12
306.582	107.12
306.812	97.12
307.042	91.12
307.272	84.12
307.502	77.12
307.731	94.12
307.961	104.12
308.191	88.12
308.421	102.12
308.651	86.12
308.881	110.12
309.111	89.12
309.341	109.12
309.571	92.12
309.8	100.12
310.03	98.12
310.26	119.12
310.49	101.12
310.72	100.12
310.949	102.12
311.179	108.12
311.409	103.12
311.639	99.12
311.868	101.12
312.098	92.12
312.328	101.12
312.557	113.12
312.787	117.12
313.017	99.12
313.246	109.12
313.476	80.12
313.706	87.12
313.935	111.12
314.165	98.12
314.394	104.12
314.624	104.12
314.853	103.12
315.083	102.12
315.312	92.12
315.542	85.12
315.771	99.12
316.001	99.12
316.23	88.12
316.46	75.12
316.689	102.12
316.919	95.12
317.148	91.12
317.377	82.12
317.607	90.12
317.836	95.12
318.065	87.12
318.295	99.12
318.524	96.12
318.753	99.12
318.983	93.12
319.212	106.12
319.441	110.12
319.67	115.12
319.9	108.12
320.129	93.12
320.358	116.12
320.587	86.12
320.816	97.12
321.046	108.12
321.275	93.12
321.504	101.12
321.733	98.12
321.962	98.12
322.191	100.12
322.42	111.12
322.649	122.12
322.878	128.12
323.108	120.12
323.337	129.12
323.566	137.12
323.795	164.12
324.024	227.12
324.253	459.12
324.482	970.12
324.71	1981.12
324.939	2666.12
325.168	956.12
325.397	281.12
325.626	148.12
325.855	133.12
326.084	140.12
326.313	147.12
326.542	165.12
326.77	244.12
326.999	530.12
327.228	1119.12
327.457	2003.12
327.686	1615.12
327.914	417.12
328.143	217.12
328.372	151.12
328.6	128.12
328.829	124.12
329.058	124.12
329.287	137.12
329.515	114.12
329.744	87.12
329.972	107.12
330.201	100.12
330.43	114.12
330.658	122.12
330.887	150.12
331.115	131.12
331.344	102.12
331.572	99.12
331.801	104.12
332.03	115.12
332.258	92.12
332.486	97.12
332.715	103.12
332.943	93.12
333.172	100.12
333.4	110.12
333.629	105.12
333.857	117.12
334.085	113.12
334.314	99.12
334.542	89.12
334.771	91.12
334.999	111.12
335.227	101.12
335.455	97.12
335.684	99.12
335.912	82.12
336.14	104.12
336.369	103.12
336.597	99.12
336.825	98.12
337.053	89.12
337.281	103.12
337.51	92.12
337.738	94.12
337.966	109.12
338.194	95.12
338.422	88.12
338.65	93.12
338.878	101.12
339.106	83.12
339.334	96.12
339.562	88.12
339.79	89.12
340.018	92.12
340.246	100.12
340.474	100.12
340.702	91.12
340.93	103.12
341.158	97.12
341.386	86.12
341.614	107.12
341.842	108.12
342.07	86.12
342.298	88.12
342.526	86.12
342.754	103.12
342.981	84.12
343.209	82.12
343.437	101.12
343.665	98.12
343.893	85.12
344.12	95.12
344.348	70.12
344.576	95.12
344.804	107.12
345.031	113.12
345.259	115.12
345.487	107.12
345.714	99.12
345.942	94.12
346.17	86.12
346.397	91.12
346.625	92.12
346.853	88.12
347.08	89.12
347.308	107.12
347.535	94.12
347.763	96.12
347.99	99.12
348.218	101.12
348.445	101.12
348.673	115.12
348.9	95.12
349.128	103.12
349.355	88.12
349.583	104.12
349.81	83.12
350.037	98.12
350.265	87.12
350.492	97.12
350.72	97.12
350.947	92.12
351.174	114.12
351.402	107.12
351.629	112.12
351.856	100.12
352.083	108.12
352.311	108.12
352.538	118.12
352.765	102.12
352.992	117.12
353.22	120.12
353.447	113.12
353.674	106.12
353.901	90.12
354.128	101.12
354.355	101.12
354.583	100.12
354.81	109.12
355.037	98.12
355.264	106.12
355.491	89.12
355.718	92.12
355.945	96.12
356.172	104.12
356.399	107.12
356.626	88.12
356.853	95.12
357.08	95.12
357.307	91.12
357.534	108.12
357.761	85.12
357.988	91.12
358.215	103.12
358.441	110.12
358.668	92.12
358.895	86.12
359.122	90.12
359.349	109.12
359.576	105.12
359.802	101.12
360.029	121.12
360.256	111.12
360.483	96.12
360.709	91.12
360.936	97.12
361.163	92.12
361.39	116.12
361.616	87.12
361.843	85.12
362.07	92.12
362.296	98.12
362.523	100.12
362.749	82.12
362.976	103.12
363.203	94.12
363.429	89.12
363.656	97.12
363.882	83.12
364.109	96.12
364.335	84.12
364.562	86.12
364.788	100.12
365.015	97.12
365.241	102.12
365.468	113.12
365.694	106.12
365.92	108.12
366.147	99.12
366.373	91.12
366.599	97.12
366.826	80.12
367.052	94.12
367.278	102.12
367.505	80.12
367.731	89.12
367.957	85.12
368.184	103.12
368.41	103.12
368.636	116.12
368.862	120.12
369.089	105.12
369.315	102.12
369.541	108.12
369.767	99.12
369.993	76.12
370.219	96.12
370.445	88.12
370.672	99.12
370.898	97.12
371.124	100.12
371.35	114.12
371.576	86.12
371.802	100.12
372.028	88.12
372.254	99.12
372.48	85.12
372.706	99.12
372.932	93.12
373.158	97.12
373.384	90.12
373.61	90.12
373.835	99.12
374.061	93.12
374.287	90.12
374.513	89.12
374.739	85.12
374.965	97.12
375.191	111.12
375.416	91.12
375.642	89.12
375.868	88.12
376.094	71.12
376.319	80.12
376.545	103.12
376.771	93.12
376.997	92.12
377.222	93.12
377.448	96.12
377.674	87.12
377.899	93.12
378.125	89.12
378.35	92.12
378.576	91.12
378.802	104.12
379.027	84.12
379.253	90.12
379.478	90.12
379.704	91.12
379.929	103.12
380.155	93.12
380.38	112.12
380.606	120.12
380.831	93.12
381.057	114.12
381.282	91.12
381.507	110.12
381.733	98.12
381.958	103.12
382.184	96.12
382.409	98.12
382.634	109.12
382.86	99.12
383.085	100.12
383.31	97.12
383.535	105.12
383.761	101.12
383.986	101.12
384.211	111.12
384.436	103.12
384.662	112.12
384.887	103.12
385.112	98.12
385.337	100.12
385.562	111.12
385.787	114.12
386.013	112.12
386.238	123.12
386.463	104.12
386.688	121.12
386.913	103.12
387.138	104.12
387.363	98.12
387.588	107.12
387.813	107.12
388.038	117.12
388.263	119.12
388.488	114.12
388.713	104.12
388.938	89.12
389.163	112.12
389.387	107.12
389.612	94.12
389.837	117.12
390.062	109.12
390.287	97.12
390.512	79.12
390.736	99.12
390.961	88.12
391.186	92.12
391.411	76.12
391.636	82.12
391.86	76.12
392.085	89.12
392.31	97.12
392.534	85.12
392.759	80.12
392.984	85.12
393.208	105.12
393.433	85.12
393.658	83.12
393.882	91.12
394.107	81.12
394.331	71.12
394.556	76.12
394.78	88.12
395.005	88.12
395.229	101.12
395.454	74.12
395.678	93.12
395.903	92.12
396.127	94.12
396.352	86.12
396.576	98.12
396.801	87.12
397.025	85.12
397.249	98.12
397.474	82.12
397.698	100.12
397.922	100.12
398.147	97.12
398.371	85.12
398.595	96.12
398.82	83.12
399.044	84.12
399.268	90.12
399.492	90.12
399.717	76.12
399.941	87.12
400.165	105.12
400.389	104.12
400.613	107.12
400.837	102.12
401.062	76.12
401.286	92.12
401.51	80.12
401.734	98.12
401.958	100.12
402.182	133.12
402.406	172.12
402.63	120.12
402.854	81.12
403.078	83.12
403.302	101.12
403.526	95.12
403.75	82.12
403.974	83.12
404.198	97.12
404.422	86.12
404.645	104.12
404.869	84.12
405.093	101.12
405.317	97.12
405.541	100.12
405.765	106.12
405.988	128.12
406.212	174.12
406.436	244.12
406.66	148.12
406.883	106.12
407.107	99.12
407.331	98.12
407.555	116.12
407.778	104.12
408.002	84.12
408.226	96.12
408.449	83.12
408.673	91.12
408.896	97.12
409.12	98.12
409.344	91.12
409.567	98.12
409.791	84.12
410.014	108.12
410.238	100.12
410.461	101.12
410.685	97.12
410.908	99.12
411.132	100.12
411.355	103.12
411.578	96.12
411.802	97.12
412.025	93.12
412.249	100.12
412.472	104.12
412.695	81.12
412.919	101.12
413.142	102.12
413.365	94.12
413.589	92.12
413.812	91.12
414.035	99.12
414.258	94.12
414.482	96.12
414.705	96.12
414.928	96.12
415.151	88.12
415.374	95.12
415.597	90.12
415.821	85.12
416.044	83.12
416.267	95.12
416.49	81.12
416.713	87.12
416.936	92.12
417.159	99.12
417.382	95.12
417.605	90.12
417.828	95.12
418.051	114.12
418.274	84.12
418.497	87.12
418.72	98.12
418.943	92.12
419.166	88.12
419.389	97.12
419.611	95.12
419.834	91.12
420.057	100.12
420.28	93.12
420.503	82.12
420.726	87.12
420.948	91.12
421.171	81.12
421.394	96.12
421.617	89.12
421.839	96.12
422.062	99.12
422.285	90.12
422.507	104.12
422.73	111.12
422.953	95.12
423.175	112.12
423.398	87.12
423.621	92.12
423.843	92.12
424.066	90.12
424.288	97.12
424.511	89.12
424.733	87.12
424.956	87.12
425.178	96.12
425.401	117.12
425.623	107.12
425.846	99.12
426.068	99.12
426.291	80.12
426.513	95.12
426.735	91.12
426.958	104.12
427.18	113.12
427.402	149.12
427.625	167.12
427.847	115.12
428.069	107.12
428.292	95.12
428.514	83.12
428.736	80.12
428.958	99.12
429.181	81.12
429.403	89.12
429.625	92.12
429.847	91.12
430.069	100.12
430.292	99.12
430.514	66.12
430.736	102.12
430.958	104.12
431.18	95.12
431.402	87.12
431.624	97.12
431.846	89.12
432.068	80.12
432.29	82.12
432.512	87.12
432.734	76.12
432.956	86.12
433.178	110.12
433.4	117.12
433.622	95.12
433.844	93.12
434.066	95.12
434.287	99.12
434.509	91.12
434.731	99.12
434.953	85.12
435.175	95.12
435.397	79.12
435.618	100.12
435.84	101.12
436.062	135.12
436.284	114.12
436.505	103.12
436.727	99.12
436.949	98.12
437.17	86.12
437.392	91.12
437.614	114.12
437.835	86.12
438.057	115.12
438.278	115.12
438.5	110.12
438.721	141.12
438.943	116.12
439.165	88.12
439.386	82.12
439.608	96.12
439.829	102.12
440.05	120.12
440.272	149.12
440.493	95.12
440.715	101.12
440.936	98.12
441.158	107.12
441.379	93.12
441.6	97.12
441.822	101.12
442.043	82.12
442.264	102.12
442.486	111.12
442.707	95.12
442.928	123.12
443.149	140.12
443.371	133.12
443.592	106.12
443.813	114.12
444.034	115.12
444.255	114.12
444.476	89.12
444.698	90.12
444.919	90.12
445.14	137.12
445.361	132.12
445.582	116.12
445.803	146.12
446.024	131.12
446.245	145.12
446.466	101.12
446.687	98.12
446.908	99.12
447.129	78.12
447.35	89.12
447.571	94.12
447.792	99.12
448.013	112.12
448.234	112.12
448.455	93.12
448.675	131.12
448.896	111.12
449.117	101.12
449.338	108.12
449.559	141.12
449.779	144.12
450	90.12
450.221	90.12
450.442	109.12
450.662	100.12
450.883	93.12
451.104	111.12
451.324	98.12
451.545	71.12
451.766	103.12
451.986	89.12
452.207	96.12
452.428	109.12
452.648	101.12
452.869	124.12
453.089	129.12
453.31	125.12
453.53	95.12
453.751	98.12
453.971	100.12
454.192	120.12
454.412	95.12
454.633	102.12
454.853	90.12
455.073	89.12
455.294	91.12
455.514	92.12
455.734	107.12
455.955	77.12
456.175	103.12
456.395	100.12
456.616	101.12
456.836	69.12
457.056	89.12
457.276	89.12
457.497	89.12
457.717	90.12
457.937	83.12
458.157	87.12
458.377	100.12
458.598	107.12
458.818	152.12
459.038	177.12
459.258	117.12
459.478	99.12
459.698	87.12
459.918	86.12
460.138	84.12
460.358	91.12
460.578	92.12
460.798	96.12
461.018	84.12
461.238	91.12
461.458	98.12
461.678	103.12
461.898	88.12
462.118	93.12
462.338	94.12
462.558	86.12
462.777	77.12
462.997	100.12
463.217	82.12
463.437	73.12
463.657	88.12
463.876	84.12
464.096	86.12
464.316	103.12
464.536	100.12
464.755	95.12
464.975	118.12
465.195	182.12
465.414	165.12
465.634	107.12
465.854	79.12
466.073	74.12
466.293	83.12
466.512	88.12
466.732	80.12
466.951	82.12
467.171	86.12
467.391	96.12
467.61	110.12
467.829	103.12
468.049	93.12
468.268	81.12
468.488	98.12
468.707	97.12
468.927	89.12
469.146	82.12
469.365	76.12
469.585	96.12
469.804	105.12
470.023	87.12
470.243	85.12
470.462	103.12
470.681	124.12
470.901	95.12
471.12	91.12
471.339	92.12
471.558	89.12
471.777	89.12
471.997	88.12
472.216	85.12
472.435	103.12
472.654	99.12
472.873	85.12
473.092	100.12
473.311	88.12
473.53	85.12
473.749	84.12
473.968	101.12
474.187	114.12
474.406	93.12
474.625	81.12
474.844	89.12
475.063	96.12
475.282	100.12
475.501	79.12
475.72	100.12
475.939	91.12
476.158	87.12
476.377	93.12
476.596	96.12
476.814	105.12
477.033	108.12
477.252	98.12
477.471	86.12
477.69	94.12
477.908	83.12
478.127	90.12
478.346	83.12
478.564	97.12
478.783	80.12
479.002	102.12
479.22	95.12
479.439	108.12
479.658	95.12
479.876	111.12
480.095	90.12
480.313	92.12
480.532	79.12
480.751	76.12
480.969	81.12
481.188	109.12
481.406	99.12
481.624	97.12
481.843	91.12
482.061	103.12
482.28	94.12
482.498	82.12
482.717	91.12
482.935	100.12
483.153	98.12
483.372	87.12
483.59	96.12
483.808	103.12
484.027	87.12
484.245	98.12
484.463	99.12
484.681	90.12
484.9	99.12
485.118	110.12
485.336	87.12
485.554	82.12
485.772	108.12
485.99	109.12
486.209	100.12
486.427	106.12
486.645	115.12
486.863	108.12
487.081	99.12
487.299	88.12
487.517	98.12
487.735	105.12
487.953	90.12
488.171	101.12
488.389	102.12
488.607	108.12
488.825	98.12
489.043	91.12
489.261	91.12
489.479	98.12
489.696	92.12
489.914	94.12
490.132	90.12
490.35	92.12
490.568	98.12
490.786	102.12
491.003	81.12
491.221	96.12
491.439	90.12
491.657	111.12
491.874	101.12
492.092	96.12
492.31	89.12
492.527	81.12
492.745	92.12
492.963	76.12
493.18	88.12
493.398	100.12
493.615	100.12
493.833	106.12
494.05	106.12
494.268	101.12
494.485	95.12
494.703	95.12
494.92	70.12
495.138	86.12
495.355	93.12
495.573	93.12
495.79	94.12
496.008	89.12
496.225	90.12
496.442	98.12
496.66	88.12
496.877	87.12
497.094	102.12
497.312	97.12
497.529	96.12
497.746	96.12
497.963	83.12
498.181	112.12
498.398	93.12
498.615	103.12
498.832	123.12
499.049	83.12
499.267	95.12
499.484	97.12
499.701	80.12
499.918	97.12
500.135	96.12
500.352	94.12
500.569	104.12
500.786	97.12
501.003	83.12
501.22	85.12
501.437	92.12
501.654	108.12
501.871	114.12
502.088	90.12
502.305	76.12
502.522	98.12
502.739	85.12
502.956	87.12
503.172	85.12
503.389	100.12
503.606	100.12
503.823	108.12
504.04	93.12
504.256	89.12
504.473	88.12
504.69	93.12
504.907	101.12
505.123	93.12
505.34	87.12
505.557	89.12
505.773	91.12
505.99	98.12
506.207	105.12
506.423	101.12
506.64	97.12
506.856	101.12
507.073	97.12
507.289	95.12
507.506	99.12
507.722	102.12
507.939	114.12
508.155	93.12
508.372	101.12
508.588	91.12
508.805	118.12
509.021	99.12
509.238	101.12
509.454	93.12
509.67	99.12
509.887	113.12
510.103	129.12
510.319	212.12
510.536	872.12
510.752	2811.12
510.968	760.12
511.184	181.12
511.401	111.12
511.617	104.12
511.833	84.12
512.049	101.12
512.265	93.12
512.481	103.12
512.698	97.12
512.914	98.12
513.13	92.12
513.346	90.12
513.562	86.12
513.778	106.12
513.994	106.12
514.21	113.12
