Data from 2145_1_HRD10591_00027.txt Node
Date: Mon Jan 19 14:21:22 EST 2026
User: Yrep
Spectrometer: HR+D1059
Trigger mode: 1
Integration Time (sec): 1.000000E-1
Scans to average: 1
Electric dark correction enabled: true
Nonlinearity correction enabled: false
Boxcar width: 0
XAxis mode: Wavelengths
Number of Pixels in Spectrum: 2048
>>>>>Begin Spectral Data<<<<<
223.165	-16.38
223.4	-16.38
223.635	-16.38
223.869	-18.38
224.104	-21.38
224.338	-3.38
224.573	-24.38
224.808	-27.38
225.042	-22.38
225.277	-3.38
225.511	10.62
225.746	9.62
225.98	20.62
226.215	15.62
226.449	11.62
226.683	19.62
226.918	32.62
227.152	16.62
227.387	32.62
227.621	38.62
227.856	28.62
228.09	40.62
228.324	53.62
228.559	62.62
228.793	68.62
229.027	73.62
229.262	46.62
229.496	57.62
229.73	66.62
229.964	67.62
230.199	76.62
230.433	80.62
230.667	66.62
230.901	79.62
231.136	82.62
231.37	77.62
231.604	78.62
231.838	76.62
232.072	97.62
232.306	89.62
232.541	74.62
232.775	83.62
233.009	75.62
233.243	82.62
233.477	84.62
233.711	82.62
233.945	72.62
234.179	78.62
234.413	88.62
234.647	85.62
234.881	60.62
235.115	77.62
235.349	67.62
235.583	68.62
235.817	60.62
236.051	55.62
236.285	60.62
236.519	83.62
236.753	68.62
236.987	74.62
237.221	74.62
237.455	74.62
237.689	69.62
237.922	64.62
238.156	66.62
238.39	73.62
238.624	62.62
238.858	64.62
239.091	71.62
239.325	69.62
239.559	77.62
239.793	82.62
240.027	77.62
240.26	80.62
240.494	65.62
240.728	88.62
240.961	79.62
241.195	73.62
241.429	72.62
241.662	71.62
241.896	57.62
242.13	70.62
242.363	79.62
242.597	74.62
242.83	89.62
243.064	75.62
243.298	83.62
243.531	69.62
243.765	82.62
243.998	71.62
244.232	88.62
244.465	84.62
244.699	64.62
244.932	65.62
245.166	74.62
245.399	80.62
245.633	76.62
245.866	77.62
246.099	82.62
246.333	71.62
246.566	60.62
246.8	79.62
247.033	80.62
247.266	73.62
247.5	72.62
247.733	73.62
247.966	77.62
248.2	62.62
248.433	68.62
248.666	68.62
248.899	77.62
249.133	65.62
249.366	77.62
249.599	84.62
249.832	86.62
250.066	86.62
250.299	80.62
250.532	65.62
250.765	75.62
250.998	71.62
251.231	70.62
251.465	74.62
251.698	76.62
251.931	86.62
252.164	79.62
252.397	73.62
252.63	60.62
252.863	68.62
253.096	80.62
253.329	86.62
253.562	64.62
253.795	90.62
254.028	70.62
254.261	62.62
254.494	84.62
254.727	86.62
254.96	93.62
255.193	73.62
255.426	73.62
255.659	80.62
255.892	72.62
256.124	80.62
256.357	86.62
256.59	99.62
256.823	73.62
257.056	65.62
257.289	78.62
257.521	58.62
257.754	77.62
257.987	84.62
258.22	70.62
258.452	80.62
258.685	78.62
258.918	69.62
259.151	74.62
259.383	79.62
259.616	92.62
259.849	70.62
260.081	77.62
260.314	84.62
260.547	73.62
260.779	72.62
261.012	71.62
261.244	77.62
261.477	84.62
261.71	80.62
261.942	78.62
262.175	78.62
262.407	72.62
262.64	78.62
262.872	84.62
263.105	75.62
263.337	70.62
263.57	84.62
263.802	69.62
264.035	77.62
264.267	81.62
264.499	80.62
264.732	66.62
264.964	84.62
265.197	70.62
265.429	74.62
265.661	93.62
265.894	90.62
266.126	72.62
266.358	78.62
266.591	67.62
266.823	65.62
267.055	68.62
267.287	78.62
267.52	80.62
267.752	79.62
267.984	87.62
268.216	77.62
268.448	90.62
268.681	87.62
268.913	88.62
269.145	76.62
269.377	93.62
269.609	77.62
269.841	77.62
270.073	93.62
270.306	74.62
270.538	90.62
270.77	76.62
271.002	66.62
271.234	90.62
271.466	77.62
271.698	83.62
271.93	74.62
272.162	91.62
272.394	70.62
272.626	80.62
272.858	82.62
273.09	85.62
273.322	71.62
273.553	76.62
273.785	86.62
274.017	86.62
274.249	74.62
274.481	77.62
274.713	86.62
274.945	81.62
275.176	75.62
275.408	72.62
275.64	78.62
275.872	73.62
276.104	83.62
276.335	78.62
276.567	76.62
276.799	48.62
277.031	76.62
277.262	73.62
277.494	79.62
277.726	81.62
277.957	70.62
278.189	101.62
278.421	80.62
278.652	88.62
278.884	78.62
279.115	86.62
279.347	76.62
279.579	81.62
279.81	74.62
280.042	79.62
280.273	92.62
280.505	73.62
280.736	74.62
280.968	79.62
281.199	95.62
281.431	91.62
281.662	92.62
281.894	83.62
282.125	75.62
282.356	76.62
282.588	87.62
282.819	93.62
283.051	86.62
283.282	76.62
283.513	77.62
283.745	78.62
283.976	77.62
284.207	88.62
284.439	82.62
284.67	82.62
284.901	77.62
285.132	74.62
285.364	94.62
285.595	80.62
285.826	82.62
286.057	70.62
286.288	79.62
286.52	77.62
286.751	86.62
286.982	92.62
287.213	78.62
287.444	75.62
287.675	89.62
287.906	82.62
288.138	91.62
288.369	83.62
288.6	86.62
288.831	68.62
289.062	78.62
289.293	85.62
289.524	69.62
289.755	83.62
289.986	91.62
290.217	71.62
290.448	85.62
290.679	89.62
290.91	89.62
291.141	77.62
291.371	76.62
291.602	82.62
291.833	98.62
292.064	85.62
292.295	82.62
292.526	92.62
292.757	92.62
292.987	89.62
293.218	83.62
293.449	73.62
293.68	74.62
293.91	94.62
294.141	90.62
294.372	82.62
294.603	84.62
294.833	75.62
295.064	75.62
295.295	86.62
295.525	89.62
295.756	93.62
295.987	75.62
296.217	70.62
296.448	82.62
296.679	80.62
296.909	74.62
297.14	82.62
297.37	88.62
297.601	80.62
297.831	88.62
298.062	78.62
298.292	72.62
298.523	86.62
298.753	82.62
298.984	86.62
299.214	69.62
299.445	85.62
299.675	89.62
299.905	93.62
300.136	87.62
300.366	74.62
300.597	85.62
300.827	75.62
301.057	69.62
301.288	73.62
301.518	75.62
301.748	74.62
301.979	84.62
302.209	69.62
302.439	83.62
302.669	86.62
302.9	82.62
303.13	81.62
303.36	81.62
303.59	90.62
303.82	77.62
304.051	72.62
304.281	77.62
304.511	98.62
304.741	95.62
304.971	84.62
305.201	76.62
305.431	85.62
305.661	88.62
305.891	75.62
306.121	74.62
306.352	82.62
306.582	82.62
306.812	88.62
307.042	85.62
307.272	82.62
307.502	72.62
307.731	88.62
307.961	85.62
308.191	80.62
308.421	83.62
308.651	88.62
308.881	78.62
309.111	89.62
309.341	95.62
309.571	98.62
309.8	78.62
310.03	82.62
310.26	86.62
310.49	81.62
310.72	72.62
310.949	82.62
311.179	73.62
311.409	79.62
311.639	80.62
311.868	90.62
312.098	69.62
312.328	84.62
312.557	84.62
312.787	82.62
313.017	90.62
313.246	80.62
313.476	75.62
313.706	88.62
313.935	82.62
314.165	91.62
314.394	94.62
314.624	78.62
314.853	79.62
315.083	87.62
315.312	89.62
315.542	102.62
315.771	92.62
316.001	80.62
316.23	86.62
316.46	82.62
316.689	78.62
316.919	90.62
317.148	82.62
317.377	86.62
317.607	71.62
317.836	83.62
318.065	84.62
318.295	80.62
318.524	81.62
318.753	82.62
318.983	79.62
319.212	90.62
319.441	74.62
319.67	85.62
319.9	93.62
320.129	82.62
320.358	72.62
320.587	77.62
320.816	76.62
321.046	81.62
321.275	88.62
321.504	89.62
321.733	86.62
321.962	87.62
322.191	105.62
322.42	74.62
322.649	105.62
322.878	92.62
323.108	80.62
323.337	94.62
323.566	88.62
323.795	81.62
324.024	77.62
324.253	88.62
324.482	76.62
324.71	82.62
324.939	81.62
325.168	92.62
325.397	80.62
325.626	75.62
325.855	90.62
326.084	84.62
326.313	90.62
326.542	93.62
326.77	81.62
326.999	81.62
327.228	77.62
327.457	103.62
327.686	91.62
327.914	87.62
328.143	82.62
328.372	82.62
328.6	97.62
328.829	77.62
329.058	84.62
329.287	79.62
329.515	79.62
329.744	83.62
329.972	87.62
330.201	75.62
330.43	103.62
330.658	86.62
330.887	97.62
331.115	80.62
331.344	80.62
331.572	111.62
331.801	80.62
332.03	94.62
332.258	104.62
332.486	89.62
332.715	74.62
332.943	94.62
333.172	86.62
333.4	87.62
333.629	93.62
333.857	80.62
334.085	76.62
334.314	77.62
334.542	91.62
334.771	91.62
334.999	91.62
335.227	95.62
335.455	88.62
335.684	84.62
335.912	98.62
336.14	85.62
336.369	85.62
336.597	60.62
336.825	92.62
337.053	76.62
337.281	86.62
337.51	88.62
337.738	87.62
337.966	83.62
338.194	77.62
338.422	92.62
338.65	88.62
338.878	78.62
339.106	87.62
339.334	84.62
339.562	92.62
339.79	83.62
340.018	84.62
340.246	83.62
340.474	83.62
340.702	90.62
340.93	68.62
341.158	69.62
341.386	96.62
341.614	86.62
341.842	85.62
342.07	74.62
342.298	78.62
342.526	94.62
342.754	88.62
342.981	72.62
343.209	87.62
343.437	73.62
343.665	78.62
343.893	75.62
344.12	96.62
344.348	81.62
344.576	84.62
344.804	84.62
345.031	87.62
345.259	69.62
345.487	77.62
345.714	84.62
345.942	73.62
346.17	89.62
346.397	91.62
346.625	86.62
346.853	88.62
347.08	79.62
347.308	81.62
347.535	83.62
347.763	72.62
347.99	94.62
348.218	77.62
348.445	89.62
348.673	79.62
348.9	80.62
349.128	76.62
349.355	74.62
349.583	81.62
349.81	62.62
350.037	82.62
350.265	87.62
350.492	86.62
350.72	90.62
350.947	82.62
351.174	80.62
351.402	80.62
351.629	66.62
351.856	88.62
352.083	96.62
352.311	83.62
352.538	84.62
352.765	101.62
352.992	96.62
353.22	87.62
353.447	74.62
353.674	88.62
353.901	84.62
354.128	81.62
354.355	81.62
354.583	84.62
354.81	88.62
355.037	89.62
355.264	89.62
355.491	98.62
355.718	89.62
355.945	82.62
356.172	84.62
356.399	99.62
356.626	88.62
356.853	88.62
357.08	98.62
357.307	92.62
357.534	84.62
357.761	76.62
357.988	96.62
358.215	89.62
358.441	93.62
358.668	98.62
358.895	84.62
359.122	81.62
359.349	83.62
359.576	87.62
359.802	75.62
360.029	63.62
360.256	75.62
360.483	78.62
360.709	84.62
360.936	84.62
361.163	87.62
361.39	76.62
361.616	84.62
361.843	87.62
362.07	84.62
362.296	82.62
362.523	97.62
362.749	95.62
362.976	96.62
363.203	93.62
363.429	94.62
363.656	92.62
363.882	87.62
364.109	99.62
364.335	93.62
364.562	104.62
364.788	88.62
365.015	84.62
365.241	72.62
365.468	83.62
365.694	80.62
365.92	87.62
366.147	80.62
366.373	80.62
366.599	81.62
366.826	85.62
367.052	97.62
367.278	85.62
367.505	87.62
367.731	78.62
367.957	92.62
368.184	80.62
368.41	89.62
368.636	78.62
368.862	81.62
369.089	91.62
369.315	78.62
369.541	92.62
369.767	79.62
369.993	91.62
370.219	74.62
370.445	80.62
370.672	85.62
370.898	82.62
371.124	90.62
371.35	94.62
371.576	78.62
371.802	87.62
372.028	94.62
372.254	72.62
372.48	72.62
372.706	80.62
372.932	82.62
373.158	85.62
373.384	82.62
373.61	94.62
373.835	73.62
374.061	95.62
374.287	84.62
374.513	78.62
374.739	89.62
374.965	87.62
375.191	75.62
375.416	87.62
375.642	92.62
375.868	89.62
376.094	86.62
376.319	88.62
376.545	83.62
376.771	88.62
376.997	84.62
377.222	89.62
377.448	89.62
377.674	80.62
377.899	78.62
378.125	89.62
378.35	64.62
378.576	78.62
378.802	86.62
379.027	83.62
379.253	92.62
379.478	76.62
379.704	81.62
379.929	84.62
380.155	79.62
380.38	81.62
380.606	82.62
380.831	84.62
381.057	78.62
381.282	80.62
381.507	77.62
381.733	106.62
381.958	88.62
382.184	75.62
382.409	82.62
382.634	64.62
382.86	86.62
383.085	90.62
383.31	75.62
383.535	92.62
383.761	88.62
383.986	84.62
384.211	83.62
384.436	79.62
384.662	92.62
384.887	92.62
385.112	76.62
385.337	78.62
385.562	101.62
385.787	86.62
386.013	90.62
386.238	76.62
386.463	84.62
386.688	79.62
386.913	80.62
387.138	76.62
387.363	92.62
387.588	91.62
387.813	83.62
388.038	91.62
388.263	84.62
388.488	81.62
388.713	82.62
388.938	73.62
389.163	78.62
389.387	84.62
389.612	71.62
389.837	85.62
390.062	94.62
390.287	80.62
390.512	67.62
390.736	66.62
390.961	83.62
391.186	84.62
391.411	85.62
391.636	73.62
391.86	74.62
392.085	86.62
392.31	92.62
392.534	86.62
392.759	101.62
392.984	104.62
393.208	156.62
393.433	193.62
393.658	158.62
393.882	101.62
394.107	99.62
394.331	97.62
394.556	94.62
394.78	89.62
395.005	76.62
395.229	85.62
395.454	84.62
395.678	88.62
395.903	109.62
396.127	92.62
396.352	103.62
396.576	128.62
396.801	141.62
397.025	162.62
397.249	124.62
397.474	100.62
397.698	79.62
397.922	83.62
398.147	89.62
398.371	82.62
398.595	88.62
398.82	82.62
399.044	78.62
399.268	84.62
399.492	85.62
399.717	84.62
399.941	80.62
400.165	87.62
400.389	77.62
400.613	67.62
400.837	82.62
401.062	84.62
401.286	88.62
401.51	84.62
401.734	85.62
401.958	87.62
402.182	76.62
402.406	76.62
402.63	82.62
402.854	98.62
403.078	84.62
403.302	92.62
403.526	78.62
403.75	80.62
403.974	106.62
404.198	101.62
404.422	151.62
404.645	161.62
404.869	141.62
405.093	101.62
405.317	94.62
405.541	91.62
405.765	90.62
405.988	96.62
406.212	80.62
406.436	88.62
406.66	80.62
406.883	85.62
407.107	84.62
407.331	86.62
407.555	110.62
407.778	106.62
408.002	97.62
408.226	81.62
408.449	87.62
408.673	77.62
408.896	85.62
409.12	90.62
409.344	69.62
409.567	82.62
409.791	84.62
410.014	86.62
410.238	89.62
410.461	85.62
410.685	87.62
410.908	85.62
411.132	101.62
411.355	83.62
411.578	86.62
411.802	72.62
412.025	78.62
412.249	69.62
412.472	71.62
412.695	86.62
412.919	70.62
413.142	81.62
413.365	70.62
413.589	78.62
413.812	95.62
414.035	93.62
414.258	86.62
414.482	79.62
414.705	81.62
414.928	82.62
415.151	82.62
415.374	77.62
415.597	86.62
415.821	89.62
416.044	88.62
416.267	91.62
416.49	82.62
416.713	70.62
416.936	82.62
417.159	83.62
417.382	88.62
417.605	75.62
417.828	76.62
418.051	72.62
418.274	87.62
418.497	82.62
418.72	65.62
418.943	75.62
419.166	79.62
419.389	85.62
419.611	74.62
419.834	67.62
420.057	80.62
420.28	101.62
420.503	96.62
420.726	86.62
420.948	92.62
421.171	92.62
421.394	90.62
421.617	87.62
421.839	92.62
422.062	109.62
422.285	148.62
422.507	220.62
422.73	302.62
422.953	284.62
423.175	163.62
423.398	112.62
423.621	104.62
423.843	89.62
424.066	94.62
424.288	97.62
424.511	90.62
424.733	78.62
424.956	91.62
425.178	84.62
425.401	78.62
425.623	75.62
425.846	82.62
426.068	86.62
426.291	88.62
426.513	88.62
426.735	95.62
426.958	85.62
427.18	81.62
427.402	81.62
427.625	82.62
427.847	79.62
428.069	101.62
428.292	102.62
428.514	114.62
428.736	108.62
428.958	105.62
429.181	120.62
429.403	94.62
429.625	96.62
429.847	96.62
430.069	136.62
430.292	152.62
430.514	132.62
430.736	126.62
430.958	107.62
431.18	103.62
431.402	76.62
431.624	97.62
431.846	104.62
432.068	118.62
432.29	92.62
432.512	87.62
432.734	81.62
432.956	75.62
433.178	71.62
433.4	72.62
433.622	90.62
433.844	81.62
434.066	93.62
434.287	85.62
434.509	80.62
434.731	75.62
434.953	81.62
435.175	85.62
435.397	70.62
435.618	73.62
435.84	68.62
436.062	79.62
436.284	77.62
436.505	82.62
436.727	71.62
436.949	77.62
437.17	88.62
437.392	78.62
437.614	71.62
437.835	71.62
438.057	78.62
438.278	84.62
438.5	77.62
438.721	89.62
438.943	81.62
439.165	68.62
439.386	84.62
439.608	89.62
439.829	69.62
440.05	69.62
440.272	87.62
440.493	81.62
440.715	75.62
440.936	85.62
441.158	88.62
441.379	79.62
441.6	72.62
441.822	72.62
442.043	92.62
442.264	80.62
442.486	116.62
442.707	122.62
442.928	95.62
443.149	88.62
443.371	124.62
443.592	190.62
443.813	161.62
444.034	98.62
444.255	85.62
444.476	92.62
444.698	97.62
444.919	104.62
445.14	187.62
445.361	168.62
445.582	244.62
445.803	202.62
446.024	118.62
446.245	96.62
446.466	90.62
446.687	101.62
446.908	88.62
447.129	60.62
447.35	78.62
447.571	68.62
447.792	57.62
448.013	90.62
448.234	91.62
448.455	88.62
448.675	78.62
448.896	71.62
449.117	77.62
449.338	93.62
449.559	88.62
449.779	75.62
450	71.62
450.221	74.62
450.442	78.62
450.662	89.62
450.883	82.62
451.104	79.62
451.324	84.62
451.545	89.62
451.766	75.62
451.986	74.62
452.207	78.62
452.428	76.62
452.648	76.62
452.869	75.62
453.089	80.62
453.31	78.62
453.53	86.62
453.751	80.62
453.971	89.62
454.192	85.62
454.412	78.62
454.633	85.62
454.853	82.62
455.073	71.62
455.294	92.62
455.514	87.62
455.734	87.62
455.955	81.62
456.175	74.62
456.395	80.62
456.616	86.62
456.836	88.62
457.056	80.62
457.276	75.62
457.497	85.62
457.717	64.62
457.937	90.62
458.157	93.62
458.377	99.62
458.598	101.62
458.818	94.62
459.038	96.62
459.258	74.62
459.478	82.62
459.698	65.62
459.918	75.62
460.138	61.62
460.358	84.62
460.578	100.62
460.798	105.62
461.018	86.62
461.238	86.62
461.458	90.62
461.678	73.62
461.898	80.62
462.118	73.62
462.338	76.62
462.558	86.62
462.777	85.62
462.997	74.62
463.217	80.62
463.437	93.62
463.657	70.62
463.876	88.62
464.096	78.62
464.316	80.62
464.536	84.62
464.755	86.62
464.975	78.62
465.195	70.62
465.414	76.62
465.634	80.62
465.854	80.62
466.073	58.62
466.293	81.62
466.512	91.62
466.732	83.62
466.951	80.62
467.171	76.62
467.391	71.62
467.61	78.62
467.829	79.62
468.049	70.62
468.268	81.62
468.488	90.62
468.707	76.62
468.927	67.62
469.146	94.62
469.365	89.62
469.585	77.62
469.804	88.62
470.023	68.62
470.243	82.62
470.462	64.62
470.681	75.62
470.901	87.62
471.12	80.62
471.339	80.62
471.558	81.62
471.777	85.62
471.997	87.62
472.216	87.62
472.435	80.62
472.654	78.62
472.873	102.62
473.092	92.62
473.311	89.62
473.53	74.62
473.749	86.62
473.968	82.62
474.187	73.62
474.406	75.62
474.625	86.62
474.844	87.62
475.063	96.62
475.282	66.62
475.501	81.62
475.72	96.62
475.939	83.62
476.158	68.62
476.377	84.62
476.596	82.62
476.814	93.62
477.033	90.62
477.252	84.62
477.471	79.62
477.69	86.62
477.908	90.62
478.127	84.62
478.346	78.62
478.564	86.62
478.783	68.62
479.002	76.62
479.22	72.62
479.439	72.62
479.658	91.62
479.876	76.62
480.095	64.62
480.313	82.62
480.532	96.62
480.751	80.62
480.969	92.62
481.188	84.62
481.406	74.62
481.624	80.62
481.843	74.62
482.061	81.62
482.28	97.62
482.498	88.62
482.717	81.62
482.935	92.62
483.153	84.62
483.372	84.62
483.59	78.62
483.808	68.62
484.027	84.62
484.245	72.62
484.463	68.62
484.681	87.62
484.9	100.62
485.118	87.62
485.336	80.62
485.554	92.62
485.772	84.62
485.99	73.62
486.209	83.62
486.427	83.62
486.645	76.62
486.863	82.62
487.081	85.62
487.299	96.62
487.517	99.62
487.735	94.62
487.953	137.62
488.171	108.62
488.389	87.62
488.607	72.62
488.825	75.62
489.043	66.62
489.261	63.62
489.479	83.62
489.696	77.62
489.914	93.62
490.132	87.62
490.35	77.62
490.568	83.62
490.786	80.62
491.003	80.62
491.221	81.62
491.439	81.62
491.657	94.62
491.874	82.62
492.092	77.62
492.31	73.62
492.527	88.62
492.745	89.62
492.963	97.62
493.18	80.62
493.398	85.62
493.615	93.62
493.833	77.62
494.05	68.62
494.268	77.62
494.485	101.62
494.703	76.62
494.92	71.62
495.138	88.62
495.355	77.62
495.573	87.62
495.79	71.62
496.008	68.62
496.225	78.62
496.442	97.62
496.66	95.62
496.877	94.62
497.094	82.62
497.312	80.62
497.529	95.62
497.746	86.62
497.963	64.62
498.181	77.62
498.398	89.62
498.615	77.62
498.832	78.62
499.049	89.62
499.267	86.62
499.484	73.62
499.701	80.62
499.918	66.62
500.135	78.62
500.352	76.62
500.569	98.62
500.786	94.62
501.003	79.62
501.22	89.62
501.437	74.62
501.654	73.62
501.871	80.62
502.088	80.62
502.305	75.62
502.522	85.62
502.739	92.62
502.956	80.62
503.172	79.62
503.389	80.62
503.606	94.62
503.823	72.62
504.04	87.62
504.256	100.62
504.473	92.62
504.69	96.62
504.907	96.62
505.123	86.62
505.34	90.62
505.557	93.62
505.773	101.62
505.99	82.62
506.207	82.62
506.423	80.62
506.64	88.62
506.856	75.62
507.073	80.62
507.289	87.62
507.506	85.62
507.722	79.62
507.939	92.62
508.155	71.62
508.372	66.62
508.588	75.62
508.805	102.62
509.021	78.62
509.238	83.62
509.454	86.62
509.67	86.62
509.887	81.62
510.103	87.62
510.319	80.62
510.536	72.62
510.752	82.62
510.968	92.62
511.184	80.62
511.401	75.62
511.617	94.62
511.833	84.62
512.049	86.62
512.265	88.62
512.481	91.62
512.698	81.62
512.914	86.62
513.13	87.62
513.346	82.62
513.562	84.62
513.778	80.62
513.994	79.62
514.21	83.62
514.426	82.62
514.642	94.62
514.858	83.62
515.074	86.62
515.29	82.62
515.506	87.62
515.721	81.62
515.937	79.62
516.153	85.62
516.369	80.62
516.585	76.62
516.801	77.62
517.016	93.62
517.232	95.62
517.448	108.62
517.664	99.62
517.879	69.62
518.095	80.62
518.311	89.62
518.527	79.62
518.742	88.62
518.958	115.62
519.173	129.62
