Data from 2145_1_HRD10591_00014.txt Node
Date: Mon Jan 19 14:21:16 EST 2026
User: Yrep
Spectrometer: HR+D1059
Trigger mode: 1
Integration Time (sec): 1.000000E-1
Scans to average: 1
Electric dark correction enabled: true
Nonlinearity correction enabled: false
Boxcar width: 0
XAxis mode: Wavelengths
Number of Pixels in Spectrum: 2048
>>>>>Begin Spectral Data<<<<<
223.165	-9
223.4	-9
223.635	-9
223.869	-29
224.104	-15
224.338	-11
224.573	-15
224.808	-14
225.042	-8
225.277	-4
225.511	-2
225.746	-12
225.98	9
226.215	25
226.449	13
226.683	21
226.918	24
227.152	27
227.387	24
227.621	35
227.856	45
228.09	48
228.324	41
228.559	58
228.793	43
229.027	57
229.262	65
229.496	64
229.73	57
229.964	66
230.199	85
230.433	62
230.667	63
230.901	74
231.136	74
231.37	93
231.604	76
231.838	69
232.072	68
232.306	85
232.541	77
232.775	77
233.009	70
233.243	79
233.477	68
233.711	88
233.945	80
234.179	96
234.413	71
234.647	83
234.881	81
235.115	74
235.349	83
235.583	82
235.817	85
236.051	87
236.285	80
236.519	88
236.753	67
236.987	77
237.221	78
237.455	79
237.689	74
237.922	85
238.156	91
238.39	85
238.624	78
238.858	79
239.091	69
239.325	72
239.559	62
239.793	66
240.027	75
240.26	89
240.494	85
240.728	72
240.961	65
241.195	80
241.429	65
241.662	71
241.896	81
242.13	76
242.363	75
242.597	76
242.83	60
243.064	71
243.298	73
243.531	74
243.765	68
243.998	90
244.232	85
244.465	73
244.699	81
244.932	82
245.166	89
245.399	96
245.633	76
245.866	75
246.099	86
246.333	58
246.566	72
246.8	87
247.033	83
247.266	87
247.5	82
247.733	73
247.966	59
248.2	75
248.433	83
248.666	74
248.899	81
249.133	73
249.366	69
249.599	78
249.832	81
250.066	80
250.299	85
250.532	75
250.765	85
250.998	85
251.231	83
251.465	76
251.698	75
251.931	82
252.164	74
252.397	82
252.63	67
252.863	85
253.096	84
253.329	81
253.562	78
253.795	86
254.028	79
254.261	83
254.494	89
254.727	85
254.96	83
255.193	82
255.426	83
255.659	86
255.892	79
256.124	86
256.357	73
256.59	68
256.823	76
257.056	83
257.289	76
257.521	76
257.754	78
257.987	56
258.22	91
258.452	83
258.685	89
258.918	73
259.151	72
259.383	85
259.616	86
259.849	81
260.081	80
260.314	65
260.547	93
260.779	81
261.012	80
261.244	82
261.477	83
261.71	78
261.942	73
262.175	88
262.407	64
262.64	72
262.872	78
263.105	71
263.337	88
263.57	69
263.802	74
264.035	86
264.267	83
264.499	69
264.732	83
264.964	83
265.197	72
265.429	81
265.661	71
265.894	76
266.126	87
266.358	90
266.591	97
266.823	93
267.055	84
267.287	69
267.52	84
267.752	81
267.984	83
268.216	73
268.448	72
268.681	73
268.913	93
269.145	89
269.377	86
269.609	73
269.841	95
270.073	78
270.306	83
270.538	85
270.77	87
271.002	84
271.234	69
271.466	71
271.698	71
271.93	64
272.162	91
272.394	95
272.626	74
272.858	81
273.09	88
273.322	74
273.553	66
273.785	74
274.017	84
274.249	76
274.481	99
274.713	81
274.945	92
275.176	81
275.408	77
275.64	86
275.872	80
276.104	77
276.335	93
276.567	82
276.799	85
277.031	92
277.262	91
277.494	81
277.726	69
277.957	79
278.189	82
278.421	68
278.652	84
278.884	95
279.115	82
279.347	81
279.579	78
279.81	80
280.042	85
280.273	85
280.505	84
280.736	80
280.968	84
281.199	92
281.431	84
281.662	83
281.894	91
282.125	93
282.356	81
282.588	77
282.819	91
283.051	91
283.282	69
283.513	86
283.745	78
283.976	89
284.207	68
284.439	81
284.67	83
284.901	89
285.132	75
285.364	89
285.595	83
285.826	79
286.057	83
286.288	84
286.52	77
286.751	89
286.982	78
287.213	74
287.444	93
287.675	70
287.906	79
288.138	75
288.369	87
288.6	75
288.831	78
289.062	86
289.293	84
289.524	85
289.755	91
289.986	91
290.217	75
290.448	85
290.679	95
290.91	85
291.141	80
291.371	81
291.602	90
291.833	87
292.064	89
292.295	87
292.526	80
292.757	86
292.987	84
293.218	83
293.449	90
293.68	80
293.91	85
294.141	83
294.372	80
294.603	79
294.833	86
295.064	94
295.295	84
295.525	72
295.756	94
295.987	91
296.217	85
296.448	80
296.679	84
296.909	82
297.14	83
297.37	84
297.601	93
297.831	89
298.062	67
298.292	65
298.523	83
298.753	96
298.984	86
299.214	89
299.445	89
299.675	86
299.905	81
300.136	90
300.366	85
300.597	84
300.827	80
301.057	98
301.288	71
301.518	90
301.748	75
301.979	89
302.209	90
302.439	76
302.669	93
302.9	90
303.13	98
303.36	84
303.59	73
303.82	86
304.051	94
304.281	77
304.511	80
304.741	81
304.971	80
305.201	81
305.431	80
305.661	92
305.891	80
306.121	91
306.352	93
306.582	93
306.812	92
307.042	87
307.272	72
307.502	90
307.731	81
307.961	96
308.191	72
308.421	93
308.651	91
308.881	110
309.111	87
309.341	96
309.571	93
309.8	76
310.03	84
310.26	93
310.49	100
310.72	97
310.949	79
311.179	89
311.409	85
311.639	81
311.868	80
312.098	82
312.328	77
312.557	89
312.787	82
313.017	97
313.246	89
313.476	75
313.706	81
313.935	76
314.165	86
314.394	83
314.624	93
314.853	80
315.083	89
315.312	87
315.542	95
315.771	80
316.001	87
316.23	88
316.46	90
316.689	103
316.919	85
317.148	87
317.377	81
317.607	81
317.836	76
318.065	85
318.295	81
318.524	80
318.753	88
318.983	88
319.212	104
319.441	70
319.67	90
319.9	88
320.129	82
320.358	75
320.587	86
320.816	96
321.046	81
321.275	80
321.504	91
321.733	87
321.962	85
322.191	89
322.42	87
322.649	103
322.878	71
323.108	97
323.337	92
323.566	98
323.795	73
324.024	91
324.253	82
324.482	83
324.71	97
324.939	78
325.168	102
325.397	96
325.626	71
325.855	100
326.084	95
326.313	93
326.542	80
326.77	102
326.999	92
327.228	81
327.457	73
327.686	87
327.914	89
328.143	80
328.372	92
328.6	78
328.829	91
329.058	78
329.287	83
329.515	95
329.744	90
329.972	88
330.201	95
330.43	87
330.658	89
330.887	95
331.115	71
331.344	84
331.572	76
331.801	94
332.03	66
332.258	89
332.486	87
332.715	80
332.943	80
333.172	89
333.4	84
333.629	87
333.857	73
334.085	85
334.314	103
334.542	83
334.771	85
334.999	92
335.227	79
335.455	88
335.684	97
335.912	82
336.14	90
336.369	103
336.597	85
336.825	100
337.053	87
337.281	81
337.51	83
337.738	91
337.966	93
338.194	92
338.422	83
338.65	74
338.878	77
339.106	73
339.334	88
339.562	76
339.79	70
340.018	84
340.246	94
340.474	88
340.702	66
340.93	71
341.158	77
341.386	77
341.614	92
341.842	84
342.07	89
342.298	87
342.526	90
342.754	85
342.981	76
343.209	91
343.437	114
343.665	82
343.893	88
344.12	91
344.348	88
344.576	101
344.804	85
345.031	80
345.259	81
345.487	88
345.714	86
345.942	80
346.17	87
346.397	90
346.625	83
346.853	71
347.08	92
347.308	65
347.535	84
347.763	91
347.99	94
348.218	84
348.445	85
348.673	87
348.9	87
349.128	80
349.355	78
349.583	72
349.81	88
350.037	71
350.265	96
350.492	91
350.72	85
350.947	104
351.174	82
351.402	88
351.629	92
351.856	88
352.083	80
352.311	91
352.538	88
352.765	88
352.992	82
353.22	68
353.447	69
353.674	89
353.901	90
354.128	107
354.355	89
354.583	76
354.81	70
355.037	90
355.264	94
355.491	88
355.718	94
355.945	82
356.172	93
356.399	86
356.626	87
356.853	90
357.08	83
357.307	80
357.534	89
357.761	90
357.988	82
358.215	93
358.441	91
358.668	95
358.895	79
359.122	73
359.349	90
359.576	90
359.802	81
360.029	87
360.256	79
360.483	96
360.709	90
360.936	86
361.163	86
361.39	88
361.616	83
361.843	97
362.07	82
362.296	104
362.523	99
362.749	104
362.976	88
363.203	96
363.429	94
363.656	88
363.882	100
364.109	98
364.335	120
364.562	124
364.788	100
365.015	96
365.241	86
365.468	88
365.694	91
365.92	101
366.147	76
366.373	99
366.599	86
366.826	75
367.052	85
367.278	87
367.505	85
367.731	100
367.957	79
368.184	88
368.41	103
368.636	83
368.862	80
369.089	88
369.315	82
369.541	80
369.767	95
369.993	78
370.219	84
370.445	84
370.672	91
370.898	87
371.124	84
371.35	77
371.576	78
371.802	87
372.028	96
372.254	82
372.48	72
372.706	86
372.932	88
373.158	99
373.384	98
373.61	102
373.835	107
374.061	87
374.287	94
374.513	89
374.739	98
374.965	95
375.191	87
375.416	76
375.642	88
375.868	80
376.094	75
376.319	89
376.545	86
376.771	95
376.997	91
377.222	90
377.448	80
377.674	88
377.899	81
378.125	82
378.35	90
378.576	80
378.802	92
379.027	78
379.253	81
379.478	92
379.704	72
379.929	68
380.155	77
380.38	84
380.606	93
380.831	82
381.057	95
381.282	79
381.507	88
381.733	91
381.958	90
382.184	96
382.409	77
382.634	83
382.86	99
383.085	91
383.31	87
383.535	99
383.761	93
383.986	83
384.211	81
384.436	65
384.662	81
384.887	92
385.112	82
385.337	99
385.562	88
385.787	84
386.013	90
386.238	96
386.463	72
386.688	91
386.913	88
387.138	86
387.363	87
387.588	101
387.813	102
388.038	89
388.263	93
388.488	86
388.713	100
388.938	77
389.163	91
389.387	88
389.612	95
389.837	85
390.062	82
390.287	84
390.512	79
390.736	87
390.961	82
391.186	75
391.411	84
391.636	88
391.86	92
392.085	97
392.31	84
392.534	89
392.759	112
392.984	117
393.208	177
393.433	259
393.658	216
393.882	111
394.107	106
394.331	118
394.556	109
394.78	95
395.005	93
395.229	86
395.454	91
395.678	100
395.903	117
396.127	115
396.352	140
396.576	131
396.801	183
397.025	210
397.249	126
397.474	108
397.698	91
397.922	106
398.147	93
398.371	94
398.595	81
398.82	93
399.044	88
399.268	77
399.492	89
399.717	92
399.941	78
400.165	91
400.389	72
400.613	86
400.837	86
401.062	81
401.286	87
401.51	87
401.734	88
401.958	99
402.182	87
402.406	90
402.63	91
402.854	95
403.078	99
403.302	85
403.526	95
403.75	94
403.974	98
404.198	105
404.422	123
404.645	121
404.869	115
405.093	93
405.317	93
405.541	88
405.765	82
405.988	84
406.212	90
406.436	83
406.66	83
406.883	98
407.107	82
407.331	100
407.555	90
407.778	112
408.002	107
408.226	87
408.449	84
408.673	89
408.896	91
409.12	79
409.344	95
409.567	85
409.791	92
410.014	97
410.238	90
410.461	91
410.685	97
410.908	91
411.132	65
411.355	103
411.578	89
411.802	86
412.025	73
412.249	97
412.472	85
412.695	85
412.919	86
413.142	71
413.365	80
413.589	89
413.812	86
414.035	92
414.258	95
414.482	68
414.705	83
414.928	97
415.151	77
415.374	78
415.597	89
415.821	85
416.044	81
416.267	83
416.49	80
416.713	87
416.936	78
417.159	87
417.382	95
417.605	74
417.828	82
418.051	78
418.274	91
418.497	99
418.72	83
418.943	88
419.166	73
419.389	81
419.611	84
419.834	80
420.057	96
420.28	94
420.503	93
420.726	78
420.948	98
421.171	87
421.394	102
421.617	105
421.839	118
422.062	131
422.285	169
422.507	271
422.73	363
422.953	313
423.175	214
423.398	134
423.621	103
423.843	94
424.066	102
424.288	93
424.511	91
424.733	104
424.956	80
425.178	83
425.401	86
425.623	91
425.846	93
426.068	73
426.291	89
426.513	83
426.735	98
426.958	90
427.18	77
427.402	80
427.625	83
427.847	79
428.069	94
428.292	101
428.514	132
428.736	103
428.958	123
429.181	128
429.403	93
429.625	95
429.847	119
430.069	148
430.292	153
430.514	169
430.736	130
430.958	122
431.18	89
431.402	77
431.624	99
431.846	111
432.068	134
432.29	87
432.512	102
432.734	76
432.956	83
433.178	85
433.4	92
433.622	80
433.844	76
434.066	70
434.287	89
434.509	78
434.731	91
434.953	98
435.175	89
435.397	92
435.618	104
435.84	89
436.062	80
436.284	83
436.505	75
436.727	74
436.949	88
437.17	75
437.392	58
437.614	75
437.835	67
438.057	88
438.278	95
438.5	81
438.721	83
438.943	93
439.165	91
439.386	81
439.608	85
439.829	81
440.05	85
440.272	95
440.493	92
440.715	99
440.936	87
441.158	77
441.379	75
441.6	88
441.822	87
442.043	90
442.264	97
442.486	129
442.707	153
442.928	116
443.149	119
443.371	133
443.592	212
443.813	189
444.034	108
444.255	99
444.476	93
444.698	91
444.919	106
445.14	196
445.361	190
445.582	246
445.803	236
446.024	120
446.245	98
446.466	85
446.687	83
446.908	89
447.129	88
447.35	83
447.571	83
447.792	71
448.013	87
448.234	68
448.455	93
448.675	84
448.896	91
449.117	81
449.338	96
449.559	71
449.779	83
450	79
450.221	72
450.442	88
450.662	90
450.883	87
451.104	90
451.324	97
451.545	79
451.766	74
451.986	76
452.207	92
452.428	90
452.648	83
452.869	96
453.089	95
453.31	88
453.53	81
453.751	99
453.971	79
454.192	87
454.412	79
454.633	83
454.853	88
455.073	83
455.294	73
455.514	85
455.734	81
455.955	80
456.175	71
456.395	76
456.616	82
456.836	95
457.056	82
457.276	78
457.497	80
457.717	97
457.937	105
458.157	123
458.377	115
458.598	119
458.818	108
459.038	91
459.258	95
459.478	101
459.698	97
459.918	92
460.138	77
460.358	88
460.578	87
460.798	118
461.018	122
461.238	91
461.458	85
461.678	80
461.898	97
462.118	86
462.338	79
462.558	105
462.777	81
462.997	85
463.217	84
463.437	80
463.657	90
463.876	84
464.096	73
464.316	76
464.536	78
464.755	85
464.975	87
465.195	83
465.414	92
465.634	82
465.854	84
466.073	77
466.293	79
466.512	83
466.732	60
466.951	72
467.171	83
467.391	92
467.61	99
467.829	90
468.049	72
468.268	88
468.488	92
468.707	99
468.927	87
469.146	74
469.365	71
469.585	84
469.804	97
470.023	84
470.243	93
470.462	102
470.681	77
470.901	75
471.12	91
471.339	94
471.558	89
471.777	71
471.997	87
472.216	80
472.435	84
472.654	82
472.873	94
473.092	78
473.311	100
473.53	96
473.749	84
473.968	86
474.187	88
474.406	88
474.625	81
474.844	72
475.063	75
475.282	87
475.501	80
475.72	102
475.939	81
476.158	76
476.377	87
476.596	83
476.814	89
477.033	81
477.252	86
477.471	79
477.69	88
477.908	76
478.127	75
478.346	84
478.564	77
478.783	90
479.002	90
479.22	83
479.439	96
479.658	85
479.876	94
480.095	75
480.313	76
480.532	84
480.751	82
480.969	84
481.188	94
481.406	87
481.624	79
481.843	80
482.061	92
482.28	80
482.498	94
482.717	85
482.935	96
483.153	88
483.372	86
483.59	74
483.808	87
484.027	86
484.245	95
484.463	81
484.681	92
484.9	89
485.118	95
485.336	93
485.554	79
485.772	99
485.99	88
486.209	98
486.427	84
486.645	85
486.863	88
487.081	84
487.299	99
487.517	103
487.735	117
487.953	152
488.171	152
488.389	103
488.607	94
488.825	87
489.043	88
489.261	97
489.479	85
489.696	79
489.914	86
490.132	91
490.35	91
490.568	77
490.786	88
491.003	109
491.221	82
491.439	85
491.657	88
491.874	82
492.092	89
492.31	85
492.527	91
492.745	94
492.963	82
493.18	95
493.398	84
493.615	82
493.833	90
494.05	98
494.268	94
494.485	70
494.703	95
494.92	82
495.138	80
495.355	100
495.573	76
495.79	90
496.008	74
496.225	95
496.442	99
496.66	86
496.877	92
497.094	87
497.312	89
497.529	99
497.746	81
497.963	86
498.181	91
498.398	85
498.615	96
498.832	92
499.049	86
499.267	110
499.484	92
499.701	89
499.918	79
500.135	93
500.352	85
500.569	106
500.786	94
501.003	89
501.22	90
501.437	92
501.654	87
501.871	91
502.088	91
502.305	91
502.522	90
502.739	89
502.956	86
503.172	88
503.389	92
503.606	94
503.823	84
504.04	96
504.256	129
504.473	128
504.69	96
504.907	93
505.123	86
505.34	79
505.557	77
505.773	97
505.99	89
506.207	83
506.423	84
506.64	80
506.856	80
507.073	97
507.289	87
507.506	85
507.722	88
507.939	87
508.155	95
508.372	83
508.588	88
508.805	86
509.021	87
509.238	94
509.454	75
509.67	83
509.887	85
510.103	92
510.319	88
510.536	85
510.752	97
510.968	104
511.184	81
511.401	87
511.617	92
511.833	98
512.049	83
512.265	88
512.481	98
512.698	82
512.914	77
513.13	79
513.346	91
513.562	95
513.778	96
513.994	71
514.21	91
514.426	82
514.642	76
514.858	89
515.074	89
515.29	91
515.506	92
515.721	79
515.937	96
516.153	95
516.369	90
516.585	83
516.801	87
517.016	108
517.232	95
517.448	101
517.664	82
517.879	82
518.095	98
518.311	88
518.527	85
518.742	92
518.958	147
519.173	143
519.389	102
519.605	89
519.82	82
520.036	100
520.251	94
520.467	86
520.682	101
520.898	82
521.113	95
521.329	96
521.544	77
521.76	77
521.975	98
522.19	96
522.406	81
522.621	79
522.836	86
523.052	96
523.267	88
523.482	81
523.698	77
523.913	87
524.128	83
524.343	92
524.559	87
524.774	82
524.989	86
525.204	94
525.419	81
525.634	93
525.849	106
526.064	125
526.28	229
526.495	265
526.71	316
526.925	207
527.14	243
527.355	243
527.57	115
527.785	98
527.999	78
528.214	87
528.429	98
528.644	83
528.859	85
529.074	90
529.289	97
529.503	93
529.718	103
529.933	83
530.148	102
530.363	89
530.577	90
530.792	93
531.007	85
531.221	85
531.436	93
531.651	101
531.865	91
532.08	97
532.295	84
532.509	92
532.724	87
532.938	96
533.153	86
533.367	91
533.582	88
533.796	95
534.011	87
534.225	105
534.44	115
534.654	108
534.868	97
535.083	158
535.297	127
535.511	100
535.726	99
535.94	101
536.154	100
536.369	93
536.583	98
536.797	98
537.011	95
537.225	99
537.44	91
537.654	95
537.868	115
538.082	95
538.296	104
538.51	101
538.724	95
538.938	88
539.153	99
539.367	94
539.581	105
539.795	115
540.009	104
540.222	76
540.436	92
540.65	101
540.864	111
541.078	104
541.292	84
541.506	106
541.72	108
541.934	96
542.147	97
542.361	103
542.575	84
542.789	83
543.002	94
543.216	107
543.43	100
543.644	92
543.857	99
544.071	86
544.285	104
544.498	92
544.712	98
544.925	92
545.139	81
545.352	87
545.566	93
545.779	84
545.993	106
546.206	107
546.42	111
546.633	97
546.847	127
547.06	116
547.274	131
547.487	157
547.7	162
547.914	154
548.127	175
548.34	171
548.554	166
548.767	175
548.98	191
549.193	183
549.407	170
549.62	176
549.833	187
550.046	221
550.259	219
550.473	220
550.686	232
550.899	243
551.112	254
551.325	260
551.538	286
551.751	254
551.964	237
552.177	240
552.39	236
552.603	233
552.816	233
553.029	227
553.242	243
553.455	223
553.667	251
553.88	248
554.093	245
554.306	244
554.519	236
554.732	240
554.944	243
555.157	221
555.37	212
555.583	215
555.795	198
556.008	195
556.221	195
556.433	178
556.646	179
556.859	161
557.071	168
557.284	145
557.496	137
557.709	132
557.921	151
558.134	166
558.346	193
558.559	167
558.771	155
558.984	294
559.196	356
559.409	184
559.621	300
559.833	217
560.046	272
560.258	214
560.47	213
560.683	130
560.895	101
561.107	105
561.32	113
561.532	119
561.744	101
561.956	97
562.168	103
562.381	99
562.593	90
562.805	93
563.017	107
563.229	92
563.441	94
563.653	99
563.865	104
564.077	93
564.289	83
564.501	96
564.713	93
564.925	96
565.137	95
565.349	97
565.561	77
565.773	88
565.985	106
566.197	96
566.408	105
566.62	87
566.832	99
567.044	100
567.255	95
567.467	85
567.679	79
567.891	94
568.102	97
568.314	99
568.526	97
568.737	118
568.949	120
569.161	101
569.372	101
569.584	102
569.795	100
570.007	105
570.218	103
570.43	76
570.641	92
570.853	101
571.064	95
571.276	97
571.487	97
571.698	103
571.91	94
572.121	91
572.333	91
572.544	104
572.755	100
572.966	86
573.178	91
573.389	94
573.6	95
573.811	99
574.023	98
574.234	107
574.445	103
574.656	92
574.867	77
575.078	89
575.289	95
575.501	92
575.712	96
575.923	85
576.134	88
576.345	78
576.556	99
576.767	100
576.978	101
577.188	94
577.399	93
577.61	94
577.821	90
578.032	83
578.243	99
578.454	99
578.665	98
578.875	91
579.086	100
579.297	87
579.508	91
579.718	95
579.929	86
580.14	101
580.35	102
580.561	107
580.772	108
580.982	86
581.193	95
581.403	93
581.614	77
581.825	75
582.035	81
582.246	94
582.456	77
582.667	78
582.877	96
583.087	90
583.298	92
583.508	102
583.719	96
583.929	87
584.139	90
584.35	104
584.56	92
584.77	79
584.981	93
585.191	103
585.401	96
585.611	88
585.821	155
586.032	227
586.242	123
586.452	102
