Data from 2145_1_HRD10591_00042.txt Node
Date: Mon Jan 19 14:21:30 EST 2026
User: Yrep
Spectrometer: HR+D1059
Trigger mode: 1
Integration Time (sec): 1.000000E-1
Scans to average: 1
Electric dark correction enabled: true
Nonlinearity correction enabled: false
Boxcar width: 0
XAxis mode: Wavelengths
Number of Pixels in Spectrum: 2048
>>>>>Begin Spectral Data<<<<<
223.165	-12.94
223.4	-12.94
223.635	-12.94
223.869	-25.94
224.104	-28.94
224.338	-2.94
224.573	-34.94
224.808	-19.94
225.042	-9.94
225.277	-7.94
225.511	-2.94
225.746	14.06
225.98	16.06
226.215	0.06
226.449	20.06
226.683	31.06
226.918	26.06
227.152	39.06
227.387	44.06
227.621	46.06
227.856	44.06
228.09	59.06
228.324	62.06
228.559	67.06
228.793	66.06
229.027	60.06
229.262	76.06
229.496	75.06
229.73	76.06
229.964	83.06
230.199	85.06
230.433	77.06
230.667	72.06
230.901	94.06
231.136	101.06
231.37	111.06
231.604	101.06
231.838	76.06
232.072	84.06
232.306	85.06
232.541	94.06
232.775	82.06
233.009	79.06
233.243	86.06
233.477	73.06
233.711	74.06
233.945	78.06
234.179	75.06
234.413	78.06
234.647	75.06
234.881	84.06
235.115	73.06
235.349	84.06
235.583	95.06
235.817	84.06
236.051	82.06
236.285	85.06
236.519	78.06
236.753	87.06
236.987	79.06
237.221	75.06
237.455	72.06
237.689	70.06
237.922	95.06
238.156	82.06
238.39	85.06
238.624	84.06
238.858	74.06
239.091	84.06
239.325	84.06
239.559	100.06
239.793	98.06
240.027	79.06
240.26	93.06
240.494	82.06
240.728	72.06
240.961	78.06
241.195	71.06
241.429	89.06
241.662	76.06
241.896	91.06
242.13	82.06
242.363	86.06
242.597	61.06
242.83	82.06
243.064	72.06
243.298	79.06
243.531	71.06
243.765	85.06
243.998	79.06
244.232	79.06
244.465	84.06
244.699	85.06
244.932	78.06
245.166	89.06
245.399	75.06
245.633	84.06
245.866	79.06
246.099	88.06
246.333	90.06
246.566	71.06
246.8	79.06
247.033	76.06
247.266	79.06
247.5	80.06
247.733	85.06
247.966	67.06
248.2	76.06
248.433	80.06
248.666	86.06
248.899	80.06
249.133	80.06
249.366	90.06
249.599	88.06
249.832	98.06
250.066	88.06
250.299	82.06
250.532	75.06
250.765	68.06
250.998	83.06
251.231	83.06
251.465	83.06
251.698	82.06
251.931	92.06
252.164	75.06
252.397	72.06
252.63	80.06
252.863	80.06
253.096	86.06
253.329	76.06
253.562	98.06
253.795	80.06
254.028	82.06
254.261	66.06
254.494	87.06
254.727	80.06
254.96	79.06
255.193	70.06
255.426	81.06
255.659	83.06
255.892	92.06
256.124	97.06
256.357	83.06
256.59	94.06
256.823	80.06
257.056	75.06
257.289	68.06
257.521	84.06
257.754	90.06
257.987	81.06
258.22	89.06
258.452	81.06
258.685	93.06
258.918	91.06
259.151	91.06
259.383	88.06
259.616	63.06
259.849	80.06
260.081	100.06
260.314	91.06
260.547	92.06
260.779	85.06
261.012	72.06
261.244	83.06
261.477	87.06
261.71	80.06
261.942	81.06
262.175	78.06
262.407	74.06
262.64	93.06
262.872	78.06
263.105	84.06
263.337	88.06
263.57	84.06
263.802	83.06
264.035	87.06
264.267	85.06
264.499	87.06
264.732	81.06
264.964	95.06
265.197	80.06
265.429	84.06
265.661	87.06
265.894	89.06
266.126	84.06
266.358	69.06
266.591	81.06
266.823	82.06
267.055	83.06
267.287	84.06
267.52	94.06
267.752	85.06
267.984	83.06
268.216	74.06
268.448	80.06
268.681	95.06
268.913	80.06
269.145	80.06
269.377	100.06
269.609	92.06
269.841	82.06
270.073	90.06
270.306	94.06
270.538	83.06
270.77	83.06
271.002	96.06
271.234	94.06
271.466	80.06
271.698	92.06
271.93	100.06
272.162	84.06
272.394	86.06
272.626	92.06
272.858	88.06
273.09	84.06
273.322	86.06
273.553	91.06
273.785	91.06
274.017	87.06
274.249	88.06
274.481	92.06
274.713	80.06
274.945	93.06
275.176	79.06
275.408	90.06
275.64	86.06
275.872	72.06
276.104	94.06
276.335	92.06
276.567	85.06
276.799	77.06
277.031	91.06
277.262	84.06
277.494	83.06
277.726	80.06
277.957	92.06
278.189	94.06
278.421	94.06
278.652	90.06
278.884	77.06
279.115	86.06
279.347	79.06
279.579	82.06
279.81	88.06
280.042	100.06
280.273	92.06
280.505	88.06
280.736	96.06
280.968	105.06
281.199	100.06
281.431	86.06
281.662	83.06
281.894	80.06
282.125	92.06
282.356	92.06
282.588	84.06
282.819	88.06
283.051	84.06
283.282	88.06
283.513	85.06
283.745	96.06
283.976	86.06
284.207	92.06
284.439	93.06
284.67	79.06
284.901	87.06
285.132	82.06
285.364	86.06
285.595	94.06
285.826	92.06
286.057	100.06
286.288	94.06
286.52	95.06
286.751	93.06
286.982	89.06
287.213	98.06
287.444	90.06
287.675	82.06
287.906	78.06
288.138	93.06
288.369	96.06
288.6	91.06
288.831	91.06
289.062	94.06
289.293	92.06
289.524	87.06
289.755	69.06
289.986	68.06
290.217	80.06
290.448	90.06
290.679	97.06
290.91	101.06
291.141	86.06
291.371	105.06
291.602	83.06
291.833	84.06
292.064	89.06
292.295	96.06
292.526	84.06
292.757	79.06
292.987	76.06
293.218	86.06
293.449	91.06
293.68	90.06
293.91	69.06
294.141	72.06
294.372	86.06
294.603	93.06
294.833	81.06
295.064	84.06
295.295	87.06
295.525	93.06
295.756	91.06
295.987	85.06
296.217	84.06
296.448	85.06
296.679	79.06
296.909	82.06
297.14	74.06
297.37	91.06
297.601	84.06
297.831	83.06
298.062	90.06
298.292	102.06
298.523	86.06
298.753	92.06
298.984	95.06
299.214	76.06
299.445	103.06
299.675	86.06
299.905	77.06
300.136	92.06
300.366	86.06
300.597	83.06
300.827	100.06
301.057	82.06
301.288	101.06
301.518	95.06
301.748	94.06
301.979	110.06
302.209	77.06
302.439	86.06
302.669	92.06
302.9	86.06
303.13	94.06
303.36	78.06
303.59	71.06
303.82	92.06
304.051	102.06
304.281	80.06
304.511	94.06
304.741	70.06
304.971	94.06
305.201	97.06
305.431	99.06
305.661	79.06
305.891	104.06
306.121	102.06
306.352	87.06
306.582	78.06
306.812	86.06
307.042	95.06
307.272	74.06
307.502	76.06
307.731	95.06
307.961	94.06
308.191	86.06
308.421	95.06
308.651	103.06
308.881	83.06
309.111	88.06
309.341	76.06
309.571	90.06
309.8	84.06
310.03	91.06
310.26	84.06
310.49	85.06
310.72	86.06
310.949	81.06
311.179	83.06
311.409	98.06
311.639	89.06
311.868	96.06
312.098	91.06
312.328	95.06
312.557	80.06
312.787	96.06
313.017	87.06
313.246	98.06
313.476	92.06
313.706	87.06
313.935	85.06
314.165	89.06
314.394	94.06
314.624	84.06
314.853	81.06
315.083	98.06
315.312	101.06
315.542	83.06
315.771	78.06
316.001	80.06
316.23	91.06
316.46	83.06
316.689	78.06
316.919	94.06
317.148	95.06
317.377	102.06
317.607	90.06
317.836	78.06
318.065	92.06
318.295	86.06
318.524	86.06
318.753	94.06
318.983	95.06
319.212	99.06
319.441	85.06
319.67	92.06
319.9	74.06
320.129	96.06
320.358	88.06
320.587	99.06
320.816	88.06
321.046	86.06
321.275	93.06
321.504	100.06
321.733	96.06
321.962	88.06
322.191	99.06
322.42	86.06
322.649	80.06
322.878	84.06
323.108	95.06
323.337	86.06
323.566	76.06
323.795	82.06
324.024	77.06
324.253	85.06
324.482	95.06
324.71	99.06
324.939	96.06
325.168	86.06
325.397	80.06
325.626	84.06
325.855	91.06
326.084	88.06
326.313	91.06
326.542	86.06
326.77	76.06
326.999	87.06
327.228	88.06
327.457	100.06
327.686	89.06
327.914	76.06
328.143	100.06
328.372	87.06
328.6	89.06
328.829	94.06
329.058	87.06
329.287	84.06
329.515	86.06
329.744	95.06
329.972	79.06
330.201	86.06
330.43	86.06
330.658	101.06
330.887	88.06
331.115	78.06
331.344	90.06
331.572	93.06
331.801	84.06
332.03	81.06
332.258	95.06
332.486	98.06
332.715	90.06
332.943	88.06
333.172	90.06
333.4	98.06
333.629	83.06
333.857	78.06
334.085	72.06
334.314	106.06
334.542	98.06
334.771	87.06
334.999	77.06
335.227	92.06
335.455	87.06
335.684	96.06
335.912	93.06
336.14	98.06
336.369	88.06
336.597	95.06
336.825	88.06
337.053	102.06
337.281	76.06
337.51	89.06
337.738	88.06
337.966	87.06
338.194	93.06
338.422	93.06
338.65	78.06
338.878	93.06
339.106	76.06
339.334	99.06
339.562	92.06
339.79	88.06
340.018	98.06
340.246	90.06
340.474	100.06
340.702	79.06
340.93	96.06
341.158	86.06
341.386	92.06
341.614	93.06
341.842	83.06
342.07	79.06
342.298	94.06
342.526	84.06
342.754	75.06
342.981	98.06
343.209	78.06
343.437	102.06
343.665	92.06
343.893	90.06
344.12	83.06
344.348	70.06
344.576	84.06
344.804	92.06
345.031	109.06
345.259	95.06
345.487	86.06
345.714	83.06
345.942	90.06
346.17	90.06
346.397	89.06
346.625	74.06
346.853	99.06
347.08	83.06
347.308	92.06
347.535	82.06
347.763	71.06
347.99	76.06
348.218	84.06
348.445	76.06
348.673	86.06
348.9	84.06
349.128	96.06
349.355	79.06
349.583	92.06
349.81	90.06
350.037	78.06
350.265	95.06
350.492	82.06
350.72	78.06
350.947	90.06
351.174	85.06
351.402	85.06
351.629	87.06
351.856	90.06
352.083	78.06
352.311	71.06
352.538	75.06
352.765	88.06
352.992	74.06
353.22	83.06
353.447	70.06
353.674	88.06
353.901	100.06
354.128	94.06
354.355	90.06
354.583	88.06
354.81	82.06
355.037	95.06
355.264	83.06
355.491	89.06
355.718	92.06
355.945	96.06
356.172	88.06
356.399	97.06
356.626	85.06
356.853	86.06
357.08	83.06
357.307	83.06
357.534	82.06
357.761	85.06
357.988	90.06
358.215	92.06
358.441	76.06
358.668	80.06
358.895	92.06
359.122	88.06
359.349	86.06
359.576	86.06
359.802	80.06
360.029	79.06
360.256	86.06
360.483	64.06
360.709	84.06
360.936	74.06
361.163	83.06
361.39	82.06
361.616	86.06
361.843	92.06
362.07	82.06
362.296	94.06
362.523	81.06
362.749	92.06
362.976	92.06
363.203	94.06
363.429	91.06
363.656	91.06
363.882	91.06
364.109	92.06
364.335	98.06
364.562	107.06
364.788	97.06
365.015	90.06
365.241	76.06
365.468	111.06
365.694	94.06
365.92	86.06
366.147	85.06
366.373	87.06
366.599	92.06
366.826	71.06
367.052	82.06
367.278	80.06
367.505	93.06
367.731	88.06
367.957	75.06
368.184	77.06
368.41	89.06
368.636	78.06
368.862	84.06
369.089	91.06
369.315	85.06
369.541	77.06
369.767	90.06
369.993	96.06
370.219	87.06
370.445	98.06
370.672	86.06
370.898	81.06
371.124	85.06
371.35	79.06
371.576	90.06
371.802	76.06
372.028	87.06
372.254	82.06
372.48	82.06
372.706	84.06
372.932	92.06
373.158	83.06
373.384	82.06
373.61	94.06
373.835	95.06
374.061	101.06
374.287	99.06
374.513	84.06
374.739	87.06
374.965	87.06
375.191	88.06
375.416	71.06
375.642	96.06
375.868	92.06
376.094	78.06
376.319	78.06
376.545	97.06
376.771	78.06
376.997	87.06
377.222	77.06
377.448	76.06
377.674	89.06
377.899	94.06
378.125	93.06
378.35	88.06
378.576	86.06
378.802	90.06
379.027	81.06
379.253	85.06
379.478	74.06
379.704	92.06
379.929	77.06
380.155	86.06
380.38	90.06
380.606	73.06
380.831	91.06
381.057	90.06
381.282	93.06
381.507	99.06
381.733	81.06
381.958	86.06
382.184	93.06
382.409	85.06
382.634	97.06
382.86	74.06
383.085	100.06
383.31	90.06
383.535	76.06
383.761	77.06
383.986	104.06
384.211	88.06
384.436	88.06
384.662	90.06
384.887	84.06
385.112	100.06
385.337	97.06
385.562	89.06
385.787	86.06
386.013	99.06
386.238	96.06
386.463	99.06
386.688	98.06
386.913	67.06
387.138	100.06
387.363	91.06
387.588	96.06
387.813	84.06
388.038	86.06
388.263	94.06
388.488	79.06
388.713	86.06
388.938	72.06
389.163	94.06
389.387	91.06
389.612	83.06
389.837	76.06
390.062	78.06
390.287	81.06
390.512	85.06
390.736	91.06
390.961	86.06
391.186	98.06
391.411	84.06
391.636	98.06
391.86	85.06
392.085	85.06
392.31	79.06
392.534	72.06
392.759	92.06
392.984	111.06
393.208	137.06
393.433	191.06
393.658	151.06
393.882	111.06
394.107	87.06
394.331	93.06
394.556	87.06
394.78	74.06
395.005	84.06
395.229	100.06
395.454	83.06
395.678	99.06
395.903	105.06
396.127	101.06
396.352	116.06
396.576	116.06
396.801	150.06
397.025	175.06
397.249	121.06
397.474	103.06
397.698	91.06
397.922	96.06
398.147	75.06
398.371	87.06
398.595	87.06
398.82	84.06
399.044	87.06
399.268	89.06
399.492	75.06
399.717	87.06
399.941	86.06
400.165	85.06
400.389	83.06
400.613	89.06
400.837	88.06
401.062	94.06
401.286	92.06
401.51	84.06
401.734	90.06
401.958	98.06
402.182	87.06
402.406	74.06
402.63	86.06
402.854	74.06
403.078	74.06
403.302	91.06
403.526	85.06
403.75	92.06
403.974	88.06
404.198	103.06
404.422	130.06
404.645	159.06
404.869	121.06
405.093	96.06
405.317	99.06
405.541	84.06
405.765	97.06
405.988	101.06
406.212	81.06
406.436	90.06
406.66	92.06
406.883	91.06
407.107	97.06
407.331	90.06
407.555	87.06
407.778	82.06
408.002	115.06
408.226	95.06
408.449	85.06
408.673	85.06
408.896	83.06
409.12	79.06
409.344	83.06
409.567	78.06
409.791	78.06
410.014	88.06
410.238	76.06
410.461	86.06
410.685	95.06
410.908	85.06
411.132	94.06
411.355	92.06
411.578	72.06
411.802	82.06
412.025	84.06
412.249	94.06
412.472	93.06
412.695	89.06
412.919	85.06
413.142	82.06
413.365	96.06
413.589	92.06
413.812	93.06
414.035	84.06
414.258	72.06
414.482	83.06
414.705	76.06
414.928	70.06
415.151	83.06
415.374	107.06
415.597	85.06
415.821	70.06
416.044	80.06
416.267	88.06
416.49	93.06
416.713	92.06
416.936	78.06
417.159	88.06
417.382	88.06
417.605	85.06
417.828	80.06
418.051	80.06
418.274	72.06
418.497	90.06
418.72	86.06
418.943	78.06
419.166	78.06
419.389	76.06
419.611	93.06
419.834	106.06
420.057	86.06
420.28	88.06
420.503	75.06
420.726	82.06
420.948	85.06
421.171	84.06
421.394	87.06
421.617	100.06
421.839	104.06
422.062	101.06
422.285	112.06
422.507	171.06
422.73	259.06
422.953	240.06
423.175	140.06
423.398	106.06
423.621	86.06
423.843	100.06
424.066	92.06
424.288	83.06
424.511	88.06
424.733	94.06
424.956	79.06
425.178	90.06
425.401	82.06
425.623	95.06
425.846	90.06
426.068	85.06
426.291	86.06
426.513	84.06
426.735	85.06
426.958	87.06
427.18	87.06
427.402	93.06
427.625	100.06
427.847	94.06
428.069	93.06
428.292	103.06
428.514	95.06
428.736	92.06
428.958	119.06
429.181	108.06
429.403	100.06
429.625	89.06
429.847	111.06
430.069	110.06
430.292	137.06
430.514	137.06
430.736	108.06
430.958	104.06
431.18	85.06
431.402	106.06
431.624	80.06
431.846	125.06
432.068	103.06
432.29	100.06
432.512	80.06
432.734	87.06
432.956	81.06
433.178	88.06
433.4	72.06
433.622	87.06
433.844	96.06
434.066	90.06
434.287	90.06
434.509	93.06
434.731	86.06
434.953	92.06
435.175	75.06
435.397	94.06
435.618	86.06
435.84	80.06
436.062	75.06
436.284	85.06
436.505	92.06
436.727	78.06
436.949	75.06
437.17	86.06
437.392	84.06
437.614	93.06
437.835	81.06
438.057	79.06
438.278	81.06
438.5	89.06
438.721	77.06
438.943	86.06
439.165	90.06
439.386	75.06
439.608	85.06
439.829	82.06
440.05	95.06
440.272	89.06
440.493	87.06
440.715	70.06
440.936	100.06
441.158	82.06
441.379	86.06
441.6	81.06
441.822	83.06
442.043	89.06
442.264	95.06
442.486	103.06
442.707	119.06
442.928	103.06
443.149	90.06
443.371	119.06
443.592	166.06
443.813	149.06
444.034	98.06
444.255	86.06
444.476	87.06
444.698	84.06
444.919	74.06
445.14	182.06
445.361	152.06
445.582	178.06
445.803	141.06
446.024	103.06
446.245	88.06
446.466	85.06
446.687	86.06
446.908	76.06
447.129	94.06
447.35	90.06
447.571	99.06
447.792	88.06
448.013	92.06
448.234	89.06
448.455	91.06
448.675	84.06
448.896	86.06
449.117	86.06
449.338	78.06
449.559	78.06
449.779	75.06
450	98.06
450.221	92.06
450.442	91.06
450.662	87.06
450.883	85.06
451.104	81.06
451.324	95.06
451.545	87.06
451.766	85.06
451.986	84.06
452.207	89.06
452.428	85.06
452.648	85.06
452.869	95.06
453.089	84.06
453.31	84.06
453.53	96.06
453.751	92.06
453.971	99.06
454.192	91.06
454.412	92.06
454.633	90.06
454.853	75.06
455.073	94.06
455.294	91.06
455.514	88.06
455.734	86.06
455.955	75.06
456.175	90.06
456.395	86.06
456.616	91.06
456.836	80.06
457.056	89.06
457.276	83.06
457.497	91.06
457.717	76.06
457.937	87.06
458.157	99.06
458.377	89.06
458.598	102.06
458.818	78.06
459.038	93.06
459.258	90.06
459.478	84.06
459.698	78.06
459.918	99.06
460.138	86.06
460.358	88.06
460.578	85.06
460.798	115.06
461.018	92.06
461.238	105.06
461.458	102.06
461.678	95.06
461.898	86.06
462.118	88.06
462.338	86.06
462.558	92.06
462.777	89.06
462.997	78.06
463.217	84.06
463.437	88.06
463.657	88.06
463.876	93.06
464.096	80.06
464.316	98.06
464.536	84.06
464.755	75.06
464.975	67.06
465.195	99.06
465.414	88.06
465.634	75.06
465.854	98.06
466.073	94.06
466.293	87.06
466.512	86.06
466.732	75.06
466.951	61.06
467.171	79.06
467.391	92.06
467.61	86.06
467.829	93.06
468.049	83.06
468.268	88.06
468.488	102.06
468.707	94.06
468.927	87.06
469.146	100.06
469.365	101.06
469.585	88.06
469.804	90.06
470.023	110.06
470.243	88.06
470.462	99.06
470.681	85.06
470.901	79.06
471.12	88.06
471.339	90.06
471.558	86.06
471.777	84.06
471.997	92.06
472.216	84.06
472.435	78.06
472.654	80.06
472.873	78.06
473.092	92.06
473.311	80.06
473.53	78.06
473.749	96.06
473.968	98.06
474.187	88.06
474.406	100.06
474.625	77.06
474.844	105.06
475.063	79.06
475.282	90.06
475.501	95.06
475.72	98.06
475.939	95.06
476.158	68.06
476.377	92.06
476.596	86.06
476.814	66.06
477.033	83.06
477.252	86.06
477.471	86.06
477.69	101.06
477.908	88.06
478.127	90.06
478.346	88.06
478.564	94.06
478.783	78.06
479.002	87.06
479.22	91.06
479.439	81.06
479.658	96.06
479.876	88.06
480.095	87.06
480.313	103.06
480.532	83.06
480.751	77.06
480.969	80.06
481.188	98.06
481.406	83.06
481.624	83.06
481.843	77.06
482.061	94.06
482.28	84.06
482.498	90.06
482.717	87.06
482.935	97.06
483.153	92.06
483.372	95.06
483.59	86.06
483.808	74.06
484.027	106.06
484.245	79.06
484.463	91.06
484.681	94.06
484.9	84.06
485.118	99.06
485.336	78.06
485.554	77.06
485.772	92.06
485.99	102.06
486.209	76.06
486.427	103.06
486.645	87.06
486.863	85.06
487.081	84.06
487.299	103.06
487.517	89.06
487.735	94.06
487.953	102.06
488.171	107.06
488.389	101.06
488.607	82.06
488.825	100.06
489.043	80.06
489.261	98.06
489.479	80.06
489.696	91.06
489.914	84.06
490.132	102.06
490.35	89.06
490.568	90.06
490.786	78.06
491.003	94.06
491.221	88.06
491.439	91.06
491.657	98.06
491.874	93.06
492.092	86.06
492.31	100.06
492.527	99.06
492.745	76.06
492.963	78.06
493.18	87.06
493.398	92.06
493.615	92.06
493.833	79.06
494.05	78.06
494.268	92.06
494.485	96.06
494.703	75.06
494.92	89.06
495.138	84.06
495.355	86.06
495.573	88.06
495.79	92.06
496.008	92.06
496.225	91.06
496.442	76.06
496.66	91.06
496.877	77.06
497.094	98.06
497.312	80.06
497.529	103.06
497.746	90.06
497.963	91.06
498.181	91.06
498.398	84.06
498.615	94.06
498.832	90.06
499.049	89.06
499.267	88.06
499.484	91.06
499.701	76.06
499.918	91.06
500.135	96.06
500.352	85.06
500.569	72.06
500.786	83.06
501.003	90.06
501.22	87.06
501.437	82.06
501.654	93.06
501.871	86.06
502.088	74.06
502.305	98.06
502.522	92.06
502.739	79.06
502.956	86.06
503.172	86.06
503.389	91.06
503.606	102.06
503.823	90.06
504.04	95.06
504.256	104.06
504.473	90.06
504.69	97.06
504.907	91.06
505.123	77.06
505.34	79.06
505.557	79.06
505.773	87.06
505.99	98.06
506.207	84.06
506.423	93.06
506.64	80.06
506.856	93.06
507.073	100.06
507.289	94.06
507.506	80.06
507.722	84.06
507.939	93.06
508.155	78.06
508.372	86.06
508.588	96.06
508.805	108.06
509.021	84.06
509.238	102.06
509.454	90.06
509.67	78.06
509.887	90.06
510.103	94.06
510.319	94.06
510.536	87.06
510.752	87.06
510.968	80.06
511.184	77.06
511.401	79.06
511.617	89.06
511.833	85.06
512.049	99.06
512.265	87.06
512.481	87.06
512.698	83.06
512.914	86.06
513.13	84.06
513.346	91.06
513.562	87.06
513.778	85.06
513.994	88.06
514.21	94.06
514.426	86.06
514.642	91.06
514.858	86.06
515.074	88.06
515.29	102.06
515.506	105.06
515.721	92.06
515.937	87.06
516.153	78.06
516.369	82.06
516.585	87.06
516.801	94.06
517.016	102.06
517.232	92.06
517.448	94.06
517.664	98.06
517.879	94.06
518.095	94.06
518.311	91.06
518.527	96.06
