Data from 2145_1_HRD10591_00033.txt Node
Date: Mon Jan 19 14:21:25 EST 2026
User: Yrep
Spectrometer: HR+D1059
Trigger mode: 1
Integration Time (sec): 1.000000E-1
Scans to average: 1
Electric dark correction enabled: true
Nonlinearity correction enabled: false
Boxcar width: 0
XAxis mode: Wavelengths
Number of Pixels in Spectrum: 2048
>>>>>Begin Spectral Data<<<<<
223.165	-5.81
223.4	-5.81
223.635	-5.81
223.869	-10.81
224.104	-23.81
224.338	-19.81
224.573	-6.81
224.808	-10.81
225.042	-11.81
225.277	-9.81
225.511	6.19
225.746	10.19
225.98	4.19
226.215	7.19
226.449	20.19
226.683	12.19
226.918	19.19
227.152	20.19
227.387	40.19
227.621	34.19
227.856	53.19
228.09	35.19
228.324	49.19
228.559	55.19
228.793	56.19
229.027	67.19
229.262	61.19
229.496	75.19
229.73	65.19
229.964	69.19
230.199	75.19
230.433	80.19
230.667	65.19
230.901	73.19
231.136	71.19
231.37	70.19
231.604	96.19
231.838	76.19
232.072	88.19
232.306	77.19
232.541	84.19
232.775	75.19
233.009	76.19
233.243	84.19
233.477	74.19
233.711	90.19
233.945	82.19
234.179	81.19
234.413	87.19
234.647	66.19
234.881	79.19
235.115	81.19
235.349	80.19
235.583	72.19
235.817	65.19
236.051	73.19
236.285	64.19
236.519	81.19
236.753	77.19
236.987	76.19
237.221	67.19
237.455	70.19
237.689	73.19
237.922	81.19
238.156	73.19
238.39	70.19
238.624	69.19
238.858	81.19
239.091	76.19
239.325	72.19
239.559	65.19
239.793	83.19
240.027	79.19
240.26	80.19
240.494	70.19
240.728	69.19
240.961	79.19
241.195	69.19
241.429	66.19
241.662	68.19
241.896	84.19
242.13	65.19
242.363	85.19
242.597	81.19
242.83	81.19
243.064	70.19
243.298	70.19
243.531	73.19
243.765	79.19
243.998	83.19
244.232	65.19
244.465	74.19
244.699	63.19
244.932	67.19
245.166	65.19
245.399	81.19
245.633	73.19
245.866	66.19
246.099	65.19
246.333	63.19
246.566	77.19
246.8	75.19
247.033	71.19
247.266	76.19
247.5	95.19
247.733	78.19
247.966	86.19
248.2	72.19
248.433	69.19
248.666	84.19
248.899	69.19
249.133	72.19
249.366	93.19
249.599	67.19
249.832	73.19
250.066	74.19
250.299	74.19
250.532	68.19
250.765	75.19
250.998	81.19
251.231	79.19
251.465	83.19
251.698	77.19
251.931	87.19
252.164	85.19
252.397	80.19
252.63	68.19
252.863	78.19
253.096	73.19
253.329	81.19
253.562	84.19
253.795	84.19
254.028	76.19
254.261	80.19
254.494	64.19
254.727	71.19
254.96	72.19
255.193	75.19
255.426	85.19
255.659	76.19
255.892	75.19
256.124	83.19
256.357	84.19
256.59	68.19
256.823	61.19
257.056	70.19
257.289	65.19
257.521	78.19
257.754	71.19
257.987	65.19
258.22	66.19
258.452	78.19
258.685	73.19
258.918	82.19
259.151	71.19
259.383	65.19
259.616	77.19
259.849	75.19
260.081	75.19
260.314	73.19
260.547	93.19
260.779	90.19
261.012	79.19
261.244	71.19
261.477	77.19
261.71	95.19
261.942	67.19
262.175	77.19
262.407	83.19
262.64	79.19
262.872	76.19
263.105	77.19
263.337	86.19
263.57	80.19
263.802	77.19
264.035	73.19
264.267	78.19
264.499	90.19
264.732	83.19
264.964	68.19
265.197	67.19
265.429	86.19
265.661	78.19
265.894	79.19
266.126	83.19
266.358	82.19
266.591	68.19
266.823	83.19
267.055	87.19
267.287	94.19
267.52	85.19
267.752	70.19
267.984	83.19
268.216	68.19
268.448	77.19
268.681	89.19
268.913	101.19
269.145	89.19
269.377	90.19
269.609	86.19
269.841	82.19
270.073	72.19
270.306	84.19
270.538	87.19
270.77	69.19
271.002	89.19
271.234	93.19
271.466	99.19
271.698	75.19
271.93	63.19
272.162	76.19
272.394	78.19
272.626	91.19
272.858	70.19
273.09	86.19
273.322	79.19
273.553	80.19
273.785	84.19
274.017	86.19
274.249	79.19
274.481	81.19
274.713	89.19
274.945	88.19
275.176	81.19
275.408	76.19
275.64	94.19
275.872	78.19
276.104	73.19
276.335	91.19
276.567	65.19
276.799	79.19
277.031	92.19
277.262	79.19
277.494	75.19
277.726	84.19
277.957	90.19
278.189	70.19
278.421	89.19
278.652	79.19
278.884	73.19
279.115	83.19
279.347	91.19
279.579	81.19
279.81	80.19
280.042	91.19
280.273	81.19
280.505	87.19
280.736	84.19
280.968	92.19
281.199	81.19
281.431	90.19
281.662	84.19
281.894	84.19
282.125	87.19
282.356	87.19
282.588	81.19
282.819	94.19
283.051	89.19
283.282	80.19
283.513	84.19
283.745	89.19
283.976	84.19
284.207	85.19
284.439	88.19
284.67	78.19
284.901	81.19
285.132	97.19
285.364	101.19
285.595	87.19
285.826	92.19
286.057	92.19
286.288	84.19
286.52	82.19
286.751	91.19
286.982	70.19
287.213	73.19
287.444	83.19
287.675	108.19
287.906	84.19
288.138	87.19
288.369	90.19
288.6	83.19
288.831	88.19
289.062	65.19
289.293	87.19
289.524	78.19
289.755	77.19
289.986	75.19
290.217	99.19
290.448	76.19
290.679	75.19
290.91	81.19
291.141	63.19
291.371	73.19
291.602	70.19
291.833	84.19
292.064	85.19
292.295	85.19
292.526	83.19
292.757	92.19
292.987	89.19
293.218	86.19
293.449	86.19
293.68	86.19
293.91	91.19
294.141	86.19
294.372	79.19
294.603	98.19
294.833	93.19
295.064	84.19
295.295	70.19
295.525	92.19
295.756	83.19
295.987	85.19
296.217	88.19
296.448	86.19
296.679	92.19
296.909	74.19
297.14	95.19
297.37	97.19
297.601	81.19
297.831	78.19
298.062	76.19
298.292	79.19
298.523	91.19
298.753	98.19
298.984	73.19
299.214	71.19
299.445	79.19
299.675	88.19
299.905	85.19
300.136	87.19
300.366	89.19
300.597	86.19
300.827	103.19
301.057	81.19
301.288	93.19
301.518	92.19
301.748	94.19
301.979	91.19
302.209	99.19
302.439	87.19
302.669	90.19
302.9	77.19
303.13	85.19
303.36	88.19
303.59	72.19
303.82	98.19
304.051	87.19
304.281	77.19
304.511	74.19
304.741	79.19
304.971	93.19
305.201	85.19
305.431	77.19
305.661	77.19
305.891	72.19
306.121	95.19
306.352	79.19
306.582	91.19
306.812	88.19
307.042	77.19
307.272	88.19
307.502	89.19
307.731	83.19
307.961	92.19
308.191	105.19
308.421	105.19
308.651	95.19
308.881	96.19
309.111	91.19
309.341	114.19
309.571	89.19
309.8	81.19
310.03	76.19
310.26	79.19
310.49	79.19
310.72	87.19
310.949	96.19
311.179	92.19
311.409	75.19
311.639	96.19
311.868	81.19
312.098	97.19
312.328	80.19
312.557	93.19
312.787	77.19
313.017	83.19
313.246	71.19
313.476	67.19
313.706	81.19
313.935	71.19
314.165	88.19
314.394	91.19
314.624	95.19
314.853	89.19
315.083	80.19
315.312	90.19
315.542	71.19
315.771	94.19
316.001	101.19
316.23	89.19
316.46	89.19
316.689	85.19
316.919	92.19
317.148	93.19
317.377	83.19
317.607	92.19
317.836	81.19
318.065	85.19
318.295	88.19
318.524	84.19
318.753	85.19
318.983	91.19
319.212	88.19
319.441	98.19
319.67	91.19
319.9	97.19
320.129	87.19
320.358	65.19
320.587	97.19
320.816	87.19
321.046	79.19
321.275	100.19
321.504	96.19
321.733	76.19
321.962	99.19
322.191	85.19
322.42	82.19
322.649	100.19
322.878	90.19
323.108	83.19
323.337	102.19
323.566	106.19
323.795	79.19
324.024	84.19
324.253	93.19
324.482	95.19
324.71	89.19
324.939	80.19
325.168	95.19
325.397	83.19
325.626	95.19
325.855	84.19
326.084	83.19
326.313	87.19
326.542	81.19
326.77	85.19
326.999	93.19
327.228	97.19
327.457	103.19
327.686	100.19
327.914	85.19
328.143	101.19
328.372	92.19
328.6	73.19
328.829	78.19
329.058	91.19
329.287	78.19
329.515	100.19
329.744	83.19
329.972	97.19
330.201	96.19
330.43	78.19
330.658	83.19
330.887	80.19
331.115	107.19
331.344	84.19
331.572	101.19
331.801	92.19
332.03	86.19
332.258	89.19
332.486	87.19
332.715	97.19
332.943	79.19
333.172	92.19
333.4	89.19
333.629	80.19
333.857	72.19
334.085	91.19
334.314	102.19
334.542	85.19
334.771	91.19
334.999	103.19
335.227	81.19
335.455	89.19
335.684	83.19
335.912	93.19
336.14	113.19
336.369	87.19
336.597	98.19
336.825	95.19
337.053	96.19
337.281	90.19
337.51	84.19
337.738	79.19
337.966	90.19
338.194	87.19
338.422	92.19
338.65	105.19
338.878	92.19
339.106	74.19
339.334	95.19
339.562	85.19
339.79	82.19
340.018	91.19
340.246	91.19
340.474	89.19
340.702	90.19
340.93	89.19
341.158	87.19
341.386	85.19
341.614	83.19
341.842	88.19
342.07	79.19
342.298	79.19
342.526	84.19
342.754	94.19
342.981	76.19
343.209	81.19
343.437	91.19
343.665	88.19
343.893	89.19
344.12	91.19
344.348	87.19
344.576	88.19
344.804	106.19
345.031	91.19
345.259	91.19
345.487	82.19
345.714	78.19
345.942	93.19
346.17	81.19
346.397	88.19
346.625	90.19
346.853	77.19
347.08	85.19
347.308	89.19
347.535	82.19
347.763	81.19
347.99	82.19
348.218	96.19
348.445	91.19
348.673	91.19
348.9	82.19
349.128	74.19
349.355	71.19
349.583	89.19
349.81	77.19
350.037	76.19
350.265	95.19
350.492	81.19
350.72	94.19
350.947	85.19
351.174	85.19
351.402	70.19
351.629	93.19
351.856	70.19
352.083	75.19
352.311	85.19
352.538	99.19
352.765	77.19
352.992	93.19
353.22	101.19
353.447	90.19
353.674	83.19
353.901	85.19
354.128	88.19
354.355	78.19
354.583	88.19
354.81	86.19
355.037	87.19
355.264	83.19
355.491	89.19
355.718	93.19
355.945	98.19
356.172	77.19
356.399	76.19
356.626	90.19
356.853	82.19
357.08	93.19
357.307	87.19
357.534	93.19
357.761	80.19
357.988	80.19
358.215	102.19
358.441	93.19
358.668	101.19
358.895	87.19
359.122	70.19
359.349	88.19
359.576	87.19
359.802	85.19
360.029	88.19
360.256	93.19
360.483	88.19
360.709	82.19
360.936	82.19
361.163	99.19
361.39	77.19
361.616	85.19
361.843	79.19
362.07	92.19
362.296	91.19
362.523	102.19
362.749	88.19
362.976	120.19
363.203	121.19
363.429	104.19
363.656	97.19
363.882	113.19
364.109	126.19
364.335	137.19
364.562	127.19
364.788	102.19
365.015	100.19
365.241	95.19
365.468	102.19
365.694	84.19
365.92	88.19
366.147	91.19
366.373	82.19
366.599	73.19
366.826	88.19
367.052	87.19
367.278	76.19
367.505	85.19
367.731	100.19
367.957	84.19
368.184	94.19
368.41	103.19
368.636	85.19
368.862	81.19
369.089	98.19
369.315	95.19
369.541	85.19
369.767	93.19
369.993	100.19
370.219	82.19
370.445	87.19
370.672	91.19
370.898	86.19
371.124	87.19
371.35	93.19
371.576	94.19
371.802	95.19
372.028	107.19
372.254	90.19
372.48	90.19
372.706	92.19
372.932	73.19
373.158	87.19
373.384	101.19
373.61	116.19
373.835	115.19
374.061	95.19
374.287	91.19
374.513	87.19
374.739	96.19
374.965	93.19
375.191	93.19
375.416	96.19
375.642	81.19
375.868	87.19
376.094	104.19
376.319	89.19
376.545	82.19
376.771	86.19
376.997	87.19
377.222	83.19
377.448	88.19
377.674	92.19
377.899	82.19
378.125	84.19
378.35	92.19
378.576	92.19
378.802	79.19
379.027	90.19
379.253	99.19
379.478	105.19
379.704	99.19
379.929	86.19
380.155	90.19
380.38	65.19
380.606	79.19
380.831	83.19
381.057	87.19
381.282	78.19
381.507	97.19
381.733	89.19
381.958	96.19
382.184	88.19
382.409	95.19
382.634	91.19
382.86	91.19
383.085	94.19
383.31	98.19
383.535	96.19
383.761	94.19
383.986	111.19
384.211	91.19
384.436	108.19
384.662	82.19
384.887	95.19
385.112	106.19
385.337	98.19
385.562	81.19
385.787	96.19
386.013	95.19
386.238	95.19
386.463	90.19
386.688	93.19
386.913	84.19
387.138	98.19
387.363	99.19
387.588	102.19
387.813	90.19
388.038	89.19
388.263	95.19
388.488	91.19
388.713	100.19
388.938	87.19
389.163	80.19
389.387	90.19
389.612	80.19
389.837	90.19
390.062	87.19
390.287	91.19
390.512	89.19
390.736	87.19
390.961	75.19
391.186	89.19
391.411	96.19
391.636	94.19
391.86	90.19
392.085	97.19
392.31	104.19
392.534	101.19
392.759	150.19
392.984	180.19
393.208	337.19
393.433	531.19
393.658	427.19
393.882	159.19
394.107	123.19
394.331	132.19
394.556	129.19
394.78	91.19
395.005	87.19
395.229	84.19
395.454	98.19
395.678	109.19
395.903	148.19
396.127	148.19
396.352	179.19
396.576	217.19
396.801	344.19
397.025	427.19
397.249	206.19
397.474	129.19
397.698	111.19
397.922	95.19
398.147	96.19
398.371	83.19
398.595	89.19
398.82	83.19
399.044	83.19
399.268	97.19
399.492	77.19
399.717	87.19
399.941	69.19
400.165	102.19
400.389	78.19
400.613	92.19
400.837	80.19
401.062	83.19
401.286	83.19
401.51	80.19
401.734	76.19
401.958	102.19
402.182	85.19
402.406	95.19
402.63	96.19
402.854	94.19
403.078	72.19
403.302	95.19
403.526	86.19
403.75	96.19
403.974	97.19
404.198	143.19
404.422	219.19
404.645	273.19
404.869	197.19
405.093	133.19
405.317	112.19
405.541	80.19
405.765	82.19
405.988	78.19
406.212	87.19
406.436	91.19
406.66	92.19
406.883	85.19
407.107	82.19
407.331	91.19
407.555	93.19
407.778	119.19
408.002	135.19
408.226	100.19
408.449	87.19
408.673	100.19
408.896	92.19
409.12	89.19
409.344	91.19
409.567	97.19
409.791	94.19
410.014	108.19
410.238	93.19
410.461	85.19
410.685	81.19
410.908	86.19
411.132	91.19
411.355	87.19
411.578	104.19
411.802	73.19
412.025	86.19
412.249	88.19
412.472	88.19
412.695	90.19
412.919	79.19
413.142	80.19
413.365	91.19
413.589	74.19
413.812	74.19
414.035	86.19
414.258	86.19
414.482	70.19
414.705	90.19
414.928	89.19
415.151	106.19
415.374	92.19
415.597	98.19
415.821	80.19
416.044	95.19
416.267	86.19
416.49	85.19
416.713	77.19
416.936	75.19
417.159	92.19
417.382	89.19
417.605	87.19
417.828	97.19
418.051	76.19
418.274	83.19
418.497	86.19
418.72	96.19
418.943	80.19
419.166	90.19
419.389	78.19
419.611	87.19
419.834	83.19
420.057	89.19
420.28	100.19
420.503	92.19
420.726	98.19
420.948	97.19
421.171	103.19
421.394	104.19
421.617	140.19
421.839	145.19
422.062	143.19
422.285	219.19
422.507	410.19
422.73	677.19
422.953	594.19
423.175	279.19
423.398	157.19
423.621	113.19
423.843	111.19
424.066	109.19
424.288	91.19
424.511	97.19
424.733	91.19
424.956	90.19
425.178	101.19
425.401	75.19
425.623	85.19
425.846	76.19
426.068	99.19
426.291	83.19
426.513	89.19
426.735	94.19
426.958	84.19
427.18	84.19
427.402	97.19
427.625	87.19
427.847	85.19
428.069	117.19
428.292	170.19
428.514	188.19
428.736	142.19
428.958	167.19
429.181	166.19
429.403	111.19
429.625	120.19
429.847	156.19
430.069	243.19
430.292	272.19
430.514	255.19
430.736	187.19
430.958	183.19
431.18	124.19
431.402	100.19
431.624	117.19
431.846	146.19
432.068	185.19
432.29	117.19
432.512	109.19
432.734	91.19
432.956	91.19
433.178	101.19
433.4	84.19
433.622	84.19
433.844	93.19
434.066	77.19
434.287	93.19
434.509	76.19
434.731	90.19
434.953	79.19
435.175	85.19
435.397	87.19
435.618	89.19
435.84	96.19
436.062	88.19
436.284	77.19
436.505	88.19
436.727	89.19
436.949	88.19
437.17	77.19
437.392	89.19
437.614	82.19
437.835	78.19
438.057	81.19
438.278	91.19
438.5	83.19
438.721	92.19
438.943	88.19
439.165	89.19
439.386	87.19
439.608	91.19
439.829	87.19
440.05	68.19
440.272	91.19
440.493	95.19
440.715	81.19
440.936	91.19
441.158	88.19
441.379	84.19
441.6	86.19
441.822	101.19
442.043	93.19
442.264	111.19
442.486	167.19
442.707	220.19
442.928	144.19
443.149	137.19
443.371	227.19
443.592	381.19
443.813	313.19
444.034	126.19
444.255	119.19
444.476	96.19
444.698	99.19
444.919	105.19
445.14	212.19
445.361	293.19
445.582	469.19
445.803	379.19
446.024	149.19
446.245	108.19
446.466	95.19
446.687	99.19
446.908	102.19
447.129	95.19
447.35	83.19
447.571	97.19
447.792	87.19
448.013	89.19
448.234	80.19
448.455	78.19
448.675	78.19
448.896	88.19
449.117	90.19
449.338	88.19
449.559	85.19
449.779	98.19
450	84.19
450.221	82.19
450.442	80.19
450.662	82.19
450.883	80.19
451.104	95.19
451.324	76.19
451.545	88.19
451.766	73.19
451.986	81.19
452.207	85.19
452.428	104.19
452.648	87.19
452.869	95.19
453.089	98.19
453.31	89.19
453.53	83.19
453.751	95.19
453.971	76.19
454.192	97.19
454.412	87.19
454.633	94.19
454.853	86.19
455.073	93.19
455.294	85.19
455.514	94.19
455.734	87.19
455.955	85.19
456.175	90.19
456.395	94.19
456.616	89.19
456.836	79.19
457.056	81.19
457.276	93.19
457.497	77.19
457.717	100.19
457.937	102.19
458.157	133.19
458.377	147.19
458.598	136.19
458.818	152.19
459.038	108.19
459.258	84.19
459.478	85.19
459.698	88.19
459.918	76.19
460.138	80.19
460.358	87.19
460.578	129.19
460.798	154.19
461.018	145.19
461.238	95.19
461.458	83.19
461.678	95.19
461.898	82.19
462.118	81.19
462.338	75.19
462.558	87.19
462.777	73.19
462.997	97.19
463.217	80.19
463.437	96.19
463.657	97.19
463.876	76.19
464.096	78.19
464.316	95.19
464.536	89.19
464.755	86.19
464.975	85.19
465.195	79.19
465.414	93.19
465.634	81.19
465.854	90.19
466.073	82.19
466.293	87.19
466.512	85.19
466.732	83.19
466.951	86.19
467.171	76.19
467.391	98.19
467.61	92.19
467.829	79.19
468.049	80.19
468.268	106.19
468.488	84.19
468.707	90.19
468.927	99.19
469.146	87.19
469.365	97.19
469.585	101.19
469.804	91.19
470.023	95.19
470.243	79.19
470.462	75.19
470.681	98.19
470.901	89.19
471.12	73.19
471.339	87.19
471.558	99.19
471.777	87.19
471.997	84.19
472.216	81.19
472.435	91.19
472.654	80.19
472.873	88.19
473.092	82.19
473.311	100.19
473.53	87.19
473.749	84.19
473.968	92.19
474.187	89.19
474.406	90.19
474.625	97.19
474.844	83.19
475.063	95.19
475.282	100.19
475.501	79.19
475.72	85.19
475.939	73.19
476.158	77.19
476.377	88.19
476.596	96.19
476.814	88.19
477.033	90.19
477.252	92.19
477.471	79.19
477.69	97.19
477.908	92.19
478.127	83.19
478.346	84.19
478.564	76.19
478.783	93.19
479.002	87.19
479.22	101.19
479.439	100.19
479.658	87.19
479.876	87.19
480.095	79.19
480.313	100.19
480.532	96.19
480.751	88.19
480.969	75.19
481.188	97.19
481.406	92.19
481.624	97.19
481.843	99.19
482.061	82.19
482.28	81.19
482.498	77.19
482.717	69.19
482.935	78.19
483.153	91.19
483.372	96.19
483.59	96.19
483.808	89.19
484.027	108.19
484.245	87.19
484.463	81.19
484.681	93.19
484.9	102.19
485.118	93.19
485.336	87.19
485.554	95.19
485.772	102.19
485.99	91.19
486.209	80.19
486.427	83.19
486.645	103.19
486.863	108.19
487.081	93.19
487.299	91.19
487.517	105.19
487.735	103.19
487.953	161.19
488.171	159.19
488.389	115.19
488.607	97.19
488.825	91.19
489.043	88.19
489.261	91.19
489.479	73.19
489.696	87.19
489.914	101.19
490.132	101.19
490.35	91.19
490.568	92.19
490.786	96.19
491.003	86.19
491.221	91.19
491.439	90.19
491.657	90.19
491.874	93.19
492.092	92.19
492.31	93.19
492.527	86.19
492.745	94.19
492.963	107.19
493.18	86.19
493.398	91.19
493.615	96.19
493.833	81.19
494.05	83.19
494.268	84.19
494.485	79.19
494.703	97.19
494.92	90.19
495.138	102.19
495.355	103.19
495.573	92.19
495.79	95.19
496.008	106.19
496.225	98.19
496.442	92.19
496.66	93.19
496.877	83.19
497.094	107.19
497.312	85.19
497.529	87.19
497.746	71.19
497.963	109.19
498.181	88.19
498.398	87.19
498.615	101.19
498.832	90.19
499.049	100.19
499.267	91.19
499.484	89.19
499.701	88.19
499.918	100.19
500.135	86.19
500.352	90.19
500.569	80.19
500.786	97.19
501.003	93.19
501.22	104.19
501.437	78.19
501.654	94.19
501.871	87.19
502.088	83.19
502.305	92.19
502.522	87.19
502.739	96.19
502.956	106.19
503.172	95.19
503.389	85.19
503.606	104.19
503.823	107.19
504.04	102.19
504.256	132.19
504.473	144.19
504.69	112.19
504.907	97.19
505.123	81.19
505.34	107.19
505.557	101.19
505.773	80.19
505.99	81.19
506.207	90.19
506.423	99.19
506.64	99.19
506.856	94.19
507.073	83.19
507.289	97.19
507.506	91.19
507.722	100.19
507.939	90.19
508.155	104.19
508.372	90.19
508.588	96.19
508.805	101.19
509.021	97.19
509.238	91.19
509.454	84.19
509.67	101.19
509.887	97.19
510.103	104.19
510.319	88.19
510.536	100.19
510.752	86.19
510.968	97.19
511.184	96.19
511.401	102.19
511.617	108.19
511.833	89.19
512.049	102.19
512.265	102.19
512.481	85.19
512.698	97.19
512.914	93.19
513.13	90.19
513.346	83.19
513.562	76.19
513.778	97.19
513.994	90.19
514.21	96.19
514.426	83.19
514.642	88.19
514.858	110.19
515.074	95.19
515.29	101.19
515.506	85.19
515.721	80.19
515.937	102.19
516.153	93.19
516.369	73.19
516.585	88.19
516.801	88.19
517.016	100.19
517.232	98.19
517.448	100.19
