Data from 2145_1_HRD10591_00032.txt Node
Date: Mon Jan 19 14:21:25 EST 2026
User: Yrep
Spectrometer: HR+D1059
Trigger mode: 1
Integration Time (sec): 1.000000E-1
Scans to average: 1
Electric dark correction enabled: true
Nonlinearity correction enabled: false
Boxcar width: 0
XAxis mode: Wavelengths
Number of Pixels in Spectrum: 2048
>>>>>Begin Spectral Data<<<<<
223.165	-2.56
223.4	-2.56
223.635	-2.56
223.869	-14.56
224.104	-29.56
224.338	-8.56
224.573	-4.56
224.808	-16.56
225.042	-5.56
225.277	-20.56
225.511	8.44
225.746	2.44
225.98	2.44
226.215	5.44
226.449	12.44
226.683	17.44
226.918	28.44
227.152	25.44
227.387	39.44
227.621	38.44
227.856	46.44
228.09	53.44
228.324	66.44
228.559	61.44
228.793	63.44
229.027	56.44
229.262	53.44
229.496	74.44
229.73	65.44
229.964	74.44
230.199	70.44
230.433	69.44
230.667	86.44
230.901	77.44
231.136	69.44
231.37	78.44
231.604	77.44
231.838	76.44
232.072	80.44
232.306	85.44
232.541	79.44
232.775	73.44
233.009	84.44
233.243	77.44
233.477	61.44
233.711	82.44
233.945	83.44
234.179	91.44
234.413	80.44
234.647	82.44
234.881	64.44
235.115	76.44
235.349	79.44
235.583	65.44
235.817	82.44
236.051	77.44
236.285	94.44
236.519	76.44
236.753	70.44
236.987	65.44
237.221	68.44
237.455	71.44
237.689	91.44
237.922	87.44
238.156	84.44
238.39	90.44
238.624	82.44
238.858	79.44
239.091	69.44
239.325	79.44
239.559	76.44
239.793	65.44
240.027	70.44
240.26	76.44
240.494	83.44
240.728	75.44
240.961	70.44
241.195	82.44
241.429	79.44
241.662	61.44
241.896	69.44
242.13	69.44
242.363	81.44
242.597	75.44
242.83	104.44
243.064	82.44
243.298	77.44
243.531	65.44
243.765	91.44
243.998	89.44
244.232	87.44
244.465	92.44
244.699	67.44
244.932	73.44
245.166	81.44
245.399	71.44
245.633	72.44
245.866	81.44
246.099	70.44
246.333	75.44
246.566	77.44
246.8	75.44
247.033	76.44
247.266	96.44
247.5	85.44
247.733	73.44
247.966	62.44
248.2	75.44
248.433	74.44
248.666	74.44
248.899	86.44
249.133	67.44
249.366	71.44
249.599	74.44
249.832	70.44
250.066	89.44
250.299	68.44
250.532	71.44
250.765	68.44
250.998	66.44
251.231	59.44
251.465	83.44
251.698	82.44
251.931	75.44
252.164	86.44
252.397	84.44
252.63	72.44
252.863	75.44
253.096	78.44
253.329	74.44
253.562	95.44
253.795	86.44
254.028	85.44
254.261	69.44
254.494	70.44
254.727	85.44
254.96	82.44
255.193	73.44
255.426	80.44
255.659	97.44
255.892	91.44
256.124	70.44
256.357	75.44
256.59	83.44
256.823	78.44
257.056	85.44
257.289	78.44
257.521	67.44
257.754	78.44
257.987	86.44
258.22	81.44
258.452	84.44
258.685	71.44
258.918	81.44
259.151	78.44
259.383	83.44
259.616	81.44
259.849	86.44
260.081	65.44
260.314	91.44
260.547	83.44
260.779	91.44
261.012	84.44
261.244	81.44
261.477	92.44
261.71	81.44
261.942	71.44
262.175	79.44
262.407	77.44
262.64	85.44
262.872	68.44
263.105	78.44
263.337	92.44
263.57	97.44
263.802	90.44
264.035	85.44
264.267	79.44
264.499	79.44
264.732	71.44
264.964	79.44
265.197	77.44
265.429	91.44
265.661	77.44
265.894	98.44
266.126	89.44
266.358	79.44
266.591	78.44
266.823	87.44
267.055	69.44
267.287	83.44
267.52	80.44
267.752	80.44
267.984	77.44
268.216	78.44
268.448	75.44
268.681	85.44
268.913	91.44
269.145	83.44
269.377	91.44
269.609	83.44
269.841	83.44
270.073	91.44
270.306	85.44
270.538	97.44
270.77	84.44
271.002	97.44
271.234	87.44
271.466	102.44
271.698	70.44
271.93	86.44
272.162	85.44
272.394	77.44
272.626	96.44
272.858	98.44
273.09	85.44
273.322	71.44
273.553	77.44
273.785	76.44
274.017	63.44
274.249	96.44
274.481	81.44
274.713	86.44
274.945	87.44
275.176	87.44
275.408	93.44
275.64	83.44
275.872	90.44
276.104	89.44
276.335	90.44
276.567	88.44
276.799	93.44
277.031	80.44
277.262	78.44
277.494	95.44
277.726	78.44
277.957	83.44
278.189	80.44
278.421	76.44
278.652	89.44
278.884	85.44
279.115	97.44
279.347	84.44
279.579	84.44
279.81	94.44
280.042	84.44
280.273	76.44
280.505	86.44
280.736	80.44
280.968	77.44
281.199	79.44
281.431	80.44
281.662	61.44
281.894	83.44
282.125	83.44
282.356	72.44
282.588	80.44
282.819	79.44
283.051	89.44
283.282	94.44
283.513	82.44
283.745	82.44
283.976	94.44
284.207	81.44
284.439	78.44
284.67	96.44
284.901	75.44
285.132	66.44
285.364	80.44
285.595	93.44
285.826	92.44
286.057	76.44
286.288	70.44
286.52	90.44
286.751	77.44
286.982	75.44
287.213	82.44
287.444	92.44
287.675	89.44
287.906	94.44
288.138	79.44
288.369	78.44
288.6	84.44
288.831	92.44
289.062	91.44
289.293	91.44
289.524	77.44
289.755	93.44
289.986	81.44
290.217	80.44
290.448	82.44
290.679	69.44
290.91	81.44
291.141	86.44
291.371	85.44
291.602	75.44
291.833	85.44
292.064	85.44
292.295	79.44
292.526	82.44
292.757	79.44
292.987	91.44
293.218	81.44
293.449	93.44
293.68	80.44
293.91	77.44
294.141	91.44
294.372	81.44
294.603	73.44
294.833	88.44
295.064	86.44
295.295	91.44
295.525	97.44
295.756	80.44
295.987	87.44
296.217	79.44
296.448	85.44
296.679	88.44
296.909	85.44
297.14	96.44
297.37	99.44
297.601	88.44
297.831	98.44
298.062	94.44
298.292	86.44
298.523	93.44
298.753	89.44
298.984	99.44
299.214	92.44
299.445	95.44
299.675	88.44
299.905	85.44
300.136	76.44
300.366	93.44
300.597	84.44
300.827	89.44
301.057	85.44
301.288	84.44
301.518	93.44
301.748	94.44
301.979	110.44
302.209	88.44
302.439	88.44
302.669	94.44
302.9	85.44
303.13	89.44
303.36	76.44
303.59	103.44
303.82	90.44
304.051	75.44
304.281	79.44
304.511	80.44
304.741	87.44
304.971	84.44
305.201	97.44
305.431	74.44
305.661	79.44
305.891	75.44
306.121	96.44
306.352	91.44
306.582	77.44
306.812	80.44
307.042	76.44
307.272	79.44
307.502	90.44
307.731	79.44
307.961	95.44
308.191	92.44
308.421	76.44
308.651	96.44
308.881	92.44
309.111	95.44
309.341	91.44
309.571	105.44
309.8	82.44
310.03	81.44
310.26	92.44
310.49	105.44
310.72	97.44
310.949	82.44
311.179	90.44
311.409	96.44
311.639	106.44
311.868	85.44
312.098	74.44
312.328	76.44
312.557	85.44
312.787	71.44
313.017	80.44
313.246	93.44
313.476	97.44
313.706	77.44
313.935	71.44
314.165	93.44
314.394	85.44
314.624	82.44
314.853	91.44
315.083	72.44
315.312	77.44
315.542	94.44
315.771	79.44
316.001	83.44
316.23	84.44
316.46	93.44
316.689	85.44
316.919	81.44
317.148	81.44
317.377	76.44
317.607	92.44
317.836	82.44
318.065	83.44
318.295	79.44
318.524	87.44
318.753	97.44
318.983	83.44
319.212	85.44
319.441	76.44
319.67	93.44
319.9	93.44
320.129	93.44
320.358	80.44
320.587	93.44
320.816	81.44
321.046	97.44
321.275	88.44
321.504	99.44
321.733	76.44
321.962	65.44
322.191	87.44
322.42	93.44
322.649	97.44
322.878	88.44
323.108	88.44
323.337	86.44
323.566	92.44
323.795	95.44
324.024	88.44
324.253	79.44
324.482	94.44
324.71	98.44
324.939	91.44
325.168	83.44
325.397	87.44
325.626	84.44
325.855	88.44
326.084	71.44
326.313	83.44
326.542	87.44
326.77	99.44
326.999	94.44
327.228	91.44
327.457	74.44
327.686	94.44
327.914	78.44
328.143	103.44
328.372	94.44
328.6	89.44
328.829	101.44
329.058	95.44
329.287	81.44
329.515	106.44
329.744	83.44
329.972	79.44
330.201	85.44
330.43	98.44
330.658	94.44
330.887	95.44
331.115	93.44
331.344	79.44
331.572	97.44
331.801	99.44
332.03	97.44
332.258	89.44
332.486	83.44
332.715	76.44
332.943	77.44
333.172	92.44
333.4	87.44
333.629	78.44
333.857	98.44
334.085	89.44
334.314	101.44
334.542	88.44
334.771	89.44
334.999	95.44
335.227	93.44
335.455	77.44
335.684	86.44
335.912	75.44
336.14	99.44
336.369	80.44
336.597	68.44
336.825	97.44
337.053	87.44
337.281	81.44
337.51	86.44
337.738	93.44
337.966	97.44
338.194	88.44
338.422	83.44
338.65	97.44
338.878	90.44
339.106	101.44
339.334	86.44
339.562	79.44
339.79	102.44
340.018	83.44
340.246	77.44
340.474	81.44
340.702	83.44
340.93	80.44
341.158	85.44
341.386	93.44
341.614	75.44
341.842	76.44
342.07	85.44
342.298	85.44
342.526	95.44
342.754	89.44
342.981	88.44
343.209	85.44
343.437	101.44
343.665	95.44
343.893	93.44
344.12	98.44
344.348	103.44
344.576	102.44
344.804	104.44
345.031	95.44
345.259	88.44
345.487	98.44
345.714	94.44
345.942	103.44
346.17	93.44
346.397	86.44
346.625	93.44
346.853	92.44
347.08	79.44
347.308	96.44
347.535	89.44
347.763	89.44
347.99	88.44
348.218	79.44
348.445	88.44
348.673	97.44
348.9	95.44
349.128	85.44
349.355	85.44
349.583	86.44
349.81	89.44
350.037	91.44
350.265	82.44
350.492	84.44
350.72	87.44
350.947	88.44
351.174	95.44
351.402	107.44
351.629	101.44
351.856	85.44
352.083	93.44
352.311	75.44
352.538	96.44
352.765	89.44
352.992	80.44
353.22	73.44
353.447	99.44
353.674	93.44
353.901	83.44
354.128	85.44
354.355	81.44
354.583	76.44
354.81	79.44
355.037	97.44
355.264	92.44
355.491	89.44
355.718	82.44
355.945	86.44
356.172	95.44
356.399	86.44
356.626	86.44
356.853	99.44
357.08	89.44
357.307	82.44
357.534	94.44
357.761	80.44
357.988	98.44
358.215	94.44
358.441	85.44
358.668	83.44
358.895	99.44
359.122	86.44
359.349	83.44
359.576	69.44
359.802	79.44
360.029	96.44
360.256	93.44
360.483	94.44
360.709	80.44
360.936	104.44
361.163	83.44
361.39	83.44
361.616	98.44
361.843	94.44
362.07	93.44
362.296	107.44
362.523	104.44
362.749	89.44
362.976	110.44
363.203	110.44
363.429	88.44
363.656	97.44
363.882	103.44
364.109	102.44
364.335	116.44
364.562	117.44
364.788	91.44
365.015	94.44
365.241	103.44
365.468	92.44
365.694	97.44
365.92	93.44
366.147	81.44
366.373	90.44
366.599	92.44
366.826	69.44
367.052	77.44
367.278	79.44
367.505	88.44
367.731	92.44
367.957	104.44
368.184	76.44
368.41	76.44
368.636	75.44
368.862	102.44
369.089	85.44
369.315	91.44
369.541	90.44
369.767	87.44
369.993	73.44
370.219	83.44
370.445	89.44
370.672	96.44
370.898	100.44
371.124	101.44
371.35	74.44
371.576	87.44
371.802	91.44
372.028	84.44
372.254	95.44
372.48	89.44
372.706	82.44
372.932	90.44
373.158	99.44
373.384	97.44
373.61	90.44
373.835	97.44
374.061	91.44
374.287	81.44
374.513	95.44
374.739	94.44
374.965	93.44
375.191	90.44
375.416	105.44
375.642	79.44
375.868	93.44
376.094	95.44
376.319	74.44
376.545	86.44
376.771	84.44
376.997	96.44
377.222	88.44
377.448	105.44
377.674	78.44
377.899	91.44
378.125	73.44
378.35	87.44
378.576	89.44
378.802	82.44
379.027	95.44
379.253	83.44
379.478	89.44
379.704	87.44
379.929	90.44
380.155	79.44
380.38	87.44
380.606	87.44
380.831	87.44
381.057	105.44
381.282	102.44
381.507	106.44
381.733	82.44
381.958	87.44
382.184	105.44
382.409	101.44
382.634	94.44
382.86	87.44
383.085	104.44
383.31	85.44
383.535	87.44
383.761	93.44
383.986	99.44
384.211	89.44
384.436	97.44
384.662	78.44
384.887	85.44
385.112	77.44
385.337	86.44
385.562	91.44
385.787	93.44
386.013	90.44
386.238	93.44
386.463	90.44
386.688	98.44
386.913	85.44
387.138	101.44
387.363	92.44
387.588	80.44
387.813	83.44
388.038	81.44
388.263	92.44
388.488	97.44
388.713	93.44
388.938	75.44
389.163	81.44
389.387	96.44
389.612	80.44
389.837	82.44
390.062	95.44
390.287	95.44
390.512	91.44
390.736	82.44
390.961	87.44
391.186	98.44
391.411	96.44
391.636	94.44
391.86	97.44
392.085	87.44
392.31	93.44
392.534	106.44
392.759	107.44
392.984	133.44
393.208	219.44
393.433	326.44
393.658	229.44
393.882	136.44
394.107	111.44
394.331	102.44
394.556	125.44
394.78	105.44
395.005	79.44
395.229	98.44
395.454	100.44
395.678	97.44
395.903	113.44
396.127	131.44
396.352	145.44
396.576	149.44
396.801	213.44
397.025	262.44
397.249	154.44
397.474	102.44
397.698	97.44
397.922	96.44
398.147	79.44
398.371	89.44
398.595	86.44
398.82	85.44
399.044	90.44
399.268	90.44
399.492	90.44
399.717	100.44
399.941	92.44
400.165	85.44
400.389	74.44
400.613	91.44
400.837	83.44
401.062	94.44
401.286	85.44
401.51	83.44
401.734	88.44
401.958	95.44
402.182	87.44
402.406	92.44
402.63	99.44
402.854	106.44
403.078	95.44
403.302	86.44
403.526	82.44
403.75	91.44
403.974	124.44
404.198	134.44
404.422	209.44
404.645	253.44
404.869	205.44
405.093	141.44
405.317	106.44
405.541	95.44
405.765	94.44
405.988	92.44
406.212	92.44
406.436	83.44
406.66	89.44
406.883	94.44
407.107	84.44
407.331	89.44
407.555	91.44
407.778	110.44
408.002	105.44
408.226	80.44
408.449	90.44
408.673	100.44
408.896	95.44
409.12	94.44
409.344	88.44
409.567	92.44
409.791	95.44
410.014	95.44
410.238	86.44
410.461	94.44
410.685	99.44
410.908	90.44
411.132	90.44
411.355	79.44
411.578	85.44
411.802	83.44
412.025	85.44
412.249	79.44
412.472	67.44
412.695	84.44
412.919	93.44
413.142	83.44
413.365	79.44
413.589	87.44
413.812	91.44
414.035	92.44
414.258	80.44
414.482	82.44
414.705	81.44
414.928	89.44
415.151	97.44
415.374	94.44
415.597	87.44
415.821	88.44
416.044	88.44
416.267	80.44
416.49	92.44
416.713	97.44
416.936	89.44
417.159	86.44
417.382	77.44
417.605	87.44
417.828	97.44
418.051	97.44
418.274	78.44
418.497	85.44
418.72	101.44
418.943	92.44
419.166	89.44
419.389	88.44
419.611	80.44
419.834	84.44
420.057	90.44
420.28	99.44
420.503	101.44
420.726	105.44
420.948	91.44
421.171	92.44
421.394	123.44
421.617	124.44
421.839	121.44
422.062	143.44
422.285	196.44
422.507	323.44
422.73	522.44
422.953	461.44
423.175	243.44
423.398	144.44
423.621	108.44
423.843	118.44
424.066	110.44
424.288	105.44
424.511	108.44
424.733	98.44
424.956	98.44
425.178	90.44
425.401	93.44
425.623	93.44
425.846	60.44
426.068	87.44
426.291	82.44
426.513	93.44
426.735	86.44
426.958	93.44
427.18	85.44
427.402	102.44
427.625	97.44
427.847	93.44
428.069	126.44
428.292	156.44
428.514	167.44
428.736	131.44
428.958	142.44
429.181	151.44
429.403	97.44
429.625	105.44
429.847	137.44
430.069	191.44
430.292	227.44
430.514	218.44
430.736	150.44
430.958	150.44
431.18	116.44
431.402	97.44
431.624	105.44
431.846	140.44
432.068	155.44
432.29	96.44
432.512	98.44
432.734	98.44
432.956	89.44
433.178	82.44
433.4	87.44
433.622	83.44
433.844	90.44
434.066	101.44
434.287	77.44
434.509	85.44
434.731	95.44
434.953	103.44
435.175	91.44
435.397	85.44
435.618	93.44
435.84	92.44
436.062	83.44
436.284	80.44
436.505	89.44
436.727	90.44
436.949	100.44
437.17	90.44
437.392	74.44
437.614	79.44
437.835	90.44
438.057	78.44
438.278	85.44
438.5	86.44
438.721	88.44
438.943	97.44
439.165	97.44
439.386	89.44
439.608	96.44
439.829	74.44
440.05	88.44
440.272	79.44
440.493	89.44
440.715	75.44
440.936	87.44
441.158	93.44
441.379	89.44
441.6	91.44
441.822	102.44
442.043	88.44
442.264	95.44
442.486	145.44
442.707	171.44
442.928	109.44
443.149	121.44
443.371	165.44
443.592	268.44
443.813	256.44
444.034	127.44
444.255	87.44
444.476	96.44
444.698	89.44
444.919	101.44
445.14	207.44
445.361	248.44
445.582	356.44
445.803	295.44
446.024	142.44
446.245	104.44
446.466	101.44
446.687	79.44
446.908	79.44
447.129	86.44
447.35	88.44
447.571	91.44
447.792	94.44
448.013	80.44
448.234	83.44
448.455	79.44
448.675	99.44
448.896	109.44
449.117	102.44
449.338	86.44
449.559	95.44
449.779	79.44
450	78.44
450.221	105.44
450.442	92.44
450.662	86.44
450.883	89.44
451.104	69.44
451.324	89.44
451.545	93.44
451.766	80.44
451.986	74.44
452.207	85.44
452.428	89.44
452.648	102.44
452.869	87.44
453.089	78.44
453.31	82.44
453.53	91.44
453.751	84.44
453.971	93.44
454.192	87.44
454.412	95.44
454.633	95.44
454.853	85.44
455.073	99.44
455.294	83.44
455.514	91.44
455.734	78.44
455.955	80.44
456.175	81.44
456.395	84.44
456.616	75.44
456.836	80.44
457.056	73.44
457.276	81.44
457.497	89.44
457.717	91.44
457.937	101.44
458.157	121.44
458.377	118.44
458.598	119.44
458.818	118.44
459.038	96.44
459.258	95.44
459.478	70.44
459.698	80.44
459.918	80.44
460.138	90.44
460.358	86.44
460.578	109.44
460.798	138.44
461.018	157.44
461.238	96.44
461.458	92.44
461.678	79.44
461.898	83.44
462.118	94.44
462.338	68.44
462.558	81.44
462.777	89.44
462.997	88.44
463.217	77.44
463.437	81.44
463.657	80.44
463.876	82.44
464.096	91.44
464.316	84.44
464.536	83.44
464.755	95.44
464.975	81.44
465.195	90.44
465.414	80.44
465.634	97.44
465.854	76.44
466.073	72.44
466.293	80.44
466.512	89.44
466.732	90.44
466.951	84.44
467.171	89.44
467.391	75.44
467.61	83.44
467.829	83.44
468.049	79.44
468.268	91.44
468.488	95.44
468.707	98.44
468.927	97.44
469.146	92.44
469.365	93.44
469.585	85.44
469.804	80.44
470.023	88.44
470.243	91.44
470.462	85.44
470.681	88.44
470.901	76.44
471.12	100.44
471.339	90.44
471.558	68.44
471.777	86.44
471.997	75.44
472.216	95.44
472.435	78.44
472.654	99.44
472.873	89.44
473.092	91.44
473.311	94.44
473.53	86.44
473.749	79.44
473.968	77.44
474.187	93.44
474.406	93.44
474.625	79.44
474.844	103.44
475.063	79.44
475.282	87.44
475.501	83.44
475.72	83.44
475.939	95.44
476.158	66.44
476.377	77.44
476.596	81.44
476.814	91.44
477.033	82.44
477.252	93.44
477.471	75.44
477.69	74.44
477.908	76.44
478.127	77.44
478.346	92.44
478.564	102.44
478.783	90.44
479.002	79.44
479.22	73.44
479.439	73.44
479.658	85.44
479.876	83.44
480.095	87.44
480.313	83.44
480.532	94.44
480.751	98.44
480.969	92.44
481.188	97.44
481.406	91.44
481.624	89.44
481.843	77.44
482.061	95.44
482.28	107.44
482.498	95.44
482.717	90.44
482.935	84.44
483.153	76.44
483.372	78.44
483.59	95.44
483.808	94.44
484.027	82.44
484.245	93.44
484.463	92.44
484.681	100.44
484.9	84.44
485.118	98.44
485.336	93.44
485.554	94.44
485.772	92.44
485.99	91.44
486.209	90.44
486.427	101.44
486.645	85.44
486.863	102.44
487.081	79.44
487.299	101.44
487.517	101.44
487.735	102.44
487.953	147.44
488.171	143.44
488.389	96.44
488.607	96.44
488.825	87.44
489.043	91.44
489.261	89.44
489.479	93.44
489.696	88.44
489.914	92.44
490.132	97.44
490.35	95.44
490.568	87.44
490.786	80.44
491.003	92.44
491.221	84.44
491.439	76.44
491.657	89.44
491.874	81.44
492.092	88.44
492.31	84.44
492.527	86.44
492.745	88.44
492.963	97.44
493.18	88.44
493.398	94.44
493.615	89.44
493.833	87.44
494.05	73.44
494.268	101.44
494.485	88.44
494.703	89.44
494.92	104.44
495.138	101.44
495.355	86.44
495.573	80.44
495.79	93.44
496.008	89.44
496.225	90.44
496.442	93.44
496.66	93.44
496.877	99.44
497.094	105.44
497.312	99.44
497.529	75.44
497.746	74.44
497.963	95.44
498.181	97.44
498.398	105.44
498.615	83.44
498.832	90.44
499.049	106.44
499.267	98.44
499.484	90.44
499.701	85.44
499.918	88.44
500.135	93.44
500.352	94.44
500.569	93.44
500.786	101.44
501.003	94.44
501.22	89.44
501.437	76.44
501.654	87.44
501.871	97.44
502.088	96.44
502.305	100.44
502.522	94.44
502.739	97.44
502.956	101.44
503.172	100.44
503.389	103.44
503.606	88.44
503.823	99.44
504.04	103.44
504.256	129.44
504.473	121.44
504.69	106.44
504.907	99.44
505.123	94.44
505.34	96.44
505.557	95.44
505.773	91.44
505.99	83.44
506.207	96.44
506.423	85.44
506.64	94.44
506.856	79.44
507.073	103.44
507.289	87.44
507.506	96.44
507.722	91.44
507.939	97.44
508.155	97.44
508.372	90.44
508.588	86.44
508.805	101.44
509.021	94.44
509.238	102.44
509.454	95.44
509.67	97.44
509.887	86.44
510.103	83.44
510.319	87.44
510.536	84.44
510.752	93.44
510.968	94.44
511.184	92.44
511.401	108.44
511.617	99.44
511.833	95.44
512.049	78.44
512.265	70.44
512.481	89.44
512.698	97.44
512.914	83.44
513.13	95.44
513.346	84.44
513.562	104.44
513.778	88.44
513.994	97.44
514.21	91.44
514.426	86.44
514.642	91.44
514.858	92.44
515.074	98.44
515.29	85.44
515.506	78.44
515.721	73.44
515.937	92.44
516.153	95.44
516.369	95.44
516.585	75.44
516.801	78.44
517.016	92.44
517.232	94.44
517.448	83.44
517.664	91.44
517.879	97.44
