Data from 2145_1_HRD10591_00016.txt Node
Date: Mon Jan 19 14:21:17 EST 2026
User: Yrep
Spectrometer: HR+D1059
Trigger mode: 1
Integration Time (sec): 1.000000E-1
Scans to average: 1
Electric dark correction enabled: true
Nonlinearity correction enabled: false
Boxcar width: 0
XAxis mode: Wavelengths
Number of Pixels in Spectrum: 2048
>>>>>Begin Spectral Data<<<<<
223.165	-2.31
223.4	-2.31
223.635	-2.31
223.869	-27.31
224.104	-17.31
224.338	-6.31
224.573	-28.31
224.808	-0.31
225.042	-18.31
225.277	-9.31
225.511	-0.31
225.746	2.69
225.98	10.69
226.215	20.69
226.449	14.69
226.683	16.69
226.918	18.69
227.152	25.69
227.387	29.69
227.621	29.69
227.856	45.69
228.09	48.69
228.324	46.69
228.559	60.69
228.793	52.69
229.027	45.69
229.262	74.69
229.496	57.69
229.73	62.69
229.964	73.69
230.199	70.69
230.433	70.69
230.667	71.69
230.901	73.69
231.136	81.69
231.37	79.69
231.604	80.69
231.838	79.69
232.072	78.69
232.306	84.69
232.541	86.69
232.775	69.69
233.009	78.69
233.243	65.69
233.477	79.69
233.711	75.69
233.945	67.69
234.179	79.69
234.413	88.69
234.647	74.69
234.881	89.69
235.115	73.69
235.349	69.69
235.583	79.69
235.817	76.69
236.051	61.69
236.285	72.69
236.519	88.69
236.753	65.69
236.987	76.69
237.221	64.69
237.455	73.69
237.689	76.69
237.922	80.69
238.156	75.69
238.39	67.69
238.624	68.69
238.858	80.69
239.091	62.69
239.325	69.69
239.559	67.69
239.793	74.69
240.027	75.69
240.26	68.69
240.494	73.69
240.728	66.69
240.961	80.69
241.195	80.69
241.429	82.69
241.662	81.69
241.896	69.69
242.13	62.69
242.363	74.69
242.597	71.69
242.83	85.69
243.064	74.69
243.298	73.69
243.531	63.69
243.765	70.69
243.998	67.69
244.232	71.69
244.465	76.69
244.699	78.69
244.932	70.69
245.166	69.69
245.399	84.69
245.633	75.69
245.866	78.69
246.099	77.69
246.333	78.69
246.566	77.69
246.8	70.69
247.033	80.69
247.266	68.69
247.5	68.69
247.733	89.69
247.966	83.69
248.2	73.69
248.433	76.69
248.666	76.69
248.899	75.69
249.133	72.69
249.366	82.69
249.599	82.69
249.832	81.69
250.066	77.69
250.299	76.69
250.532	77.69
250.765	68.69
250.998	66.69
251.231	85.69
251.465	85.69
251.698	66.69
251.931	81.69
252.164	72.69
252.397	77.69
252.63	80.69
252.863	79.69
253.096	80.69
253.329	73.69
253.562	68.69
253.795	73.69
254.028	72.69
254.261	73.69
254.494	83.69
254.727	68.69
254.96	80.69
255.193	65.69
255.426	65.69
255.659	92.69
255.892	80.69
256.124	77.69
256.357	78.69
256.59	73.69
256.823	64.69
257.056	70.69
257.289	74.69
257.521	75.69
257.754	70.69
257.987	70.69
258.22	85.69
258.452	84.69
258.685	80.69
258.918	76.69
259.151	78.69
259.383	71.69
259.616	74.69
259.849	75.69
260.081	74.69
260.314	82.69
260.547	69.69
260.779	81.69
261.012	78.69
261.244	80.69
261.477	77.69
261.71	71.69
261.942	81.69
262.175	86.69
262.407	73.69
262.64	81.69
262.872	67.69
263.105	87.69
263.337	75.69
263.57	79.69
263.802	73.69
264.035	78.69
264.267	72.69
264.499	78.69
264.732	80.69
264.964	73.69
265.197	74.69
265.429	69.69
265.661	77.69
265.894	78.69
266.126	81.69
266.358	75.69
266.591	80.69
266.823	92.69
267.055	70.69
267.287	75.69
267.52	86.69
267.752	88.69
267.984	78.69
268.216	72.69
268.448	86.69
268.681	84.69
268.913	87.69
269.145	100.69
269.377	84.69
269.609	85.69
269.841	78.69
270.073	76.69
270.306	80.69
270.538	88.69
270.77	86.69
271.002	67.69
271.234	95.69
271.466	78.69
271.698	78.69
271.93	84.69
272.162	76.69
272.394	74.69
272.626	89.69
272.858	84.69
273.09	76.69
273.322	82.69
273.553	80.69
273.785	74.69
274.017	73.69
274.249	85.69
274.481	77.69
274.713	81.69
274.945	94.69
275.176	86.69
275.408	72.69
275.64	75.69
275.872	92.69
276.104	70.69
276.335	83.69
276.567	65.69
276.799	87.69
277.031	76.69
277.262	93.69
277.494	81.69
277.726	95.69
277.957	90.69
278.189	60.69
278.421	70.69
278.652	78.69
278.884	77.69
279.115	85.69
279.347	78.69
279.579	89.69
279.81	88.69
280.042	86.69
280.273	71.69
280.505	84.69
280.736	67.69
280.968	80.69
281.199	90.69
281.431	84.69
281.662	80.69
281.894	74.69
282.125	75.69
282.356	88.69
282.588	95.69
282.819	79.69
283.051	81.69
283.282	71.69
283.513	78.69
283.745	84.69
283.976	75.69
284.207	73.69
284.439	77.69
284.67	78.69
284.901	83.69
285.132	78.69
285.364	85.69
285.595	96.69
285.826	85.69
286.057	89.69
286.288	74.69
286.52	84.69
286.751	69.69
286.982	81.69
287.213	75.69
287.444	84.69
287.675	83.69
287.906	79.69
288.138	78.69
288.369	76.69
288.6	70.69
288.831	92.69
289.062	90.69
289.293	91.69
289.524	85.69
289.755	74.69
289.986	80.69
290.217	64.69
290.448	68.69
290.679	79.69
290.91	82.69
291.141	80.69
291.371	82.69
291.602	83.69
291.833	61.69
292.064	93.69
292.295	90.69
292.526	84.69
292.757	74.69
292.987	70.69
293.218	76.69
293.449	86.69
293.68	83.69
293.91	82.69
294.141	72.69
294.372	87.69
294.603	89.69
294.833	81.69
295.064	72.69
295.295	78.69
295.525	77.69
295.756	78.69
295.987	73.69
296.217	66.69
296.448	86.69
296.679	80.69
296.909	88.69
297.14	86.69
297.37	73.69
297.601	88.69
297.831	85.69
298.062	83.69
298.292	85.69
298.523	72.69
298.753	80.69
298.984	76.69
299.214	83.69
299.445	73.69
299.675	81.69
299.905	85.69
300.136	82.69
300.366	80.69
300.597	89.69
300.827	90.69
301.057	72.69
301.288	85.69
301.518	84.69
301.748	79.69
301.979	108.69
302.209	85.69
302.439	80.69
302.669	80.69
302.9	75.69
303.13	92.69
303.36	88.69
303.59	77.69
303.82	80.69
304.051	68.69
304.281	80.69
304.511	76.69
304.741	84.69
304.971	78.69
305.201	80.69
305.431	96.69
305.661	65.69
305.891	80.69
306.121	84.69
306.352	78.69
306.582	74.69
306.812	80.69
307.042	83.69
307.272	83.69
307.502	86.69
307.731	93.69
307.961	90.69
308.191	110.69
308.421	89.69
308.651	90.69
308.881	79.69
309.111	90.69
309.341	85.69
309.571	80.69
309.8	80.69
310.03	84.69
310.26	74.69
310.49	80.69
310.72	81.69
310.949	83.69
311.179	68.69
311.409	82.69
311.639	88.69
311.868	72.69
312.098	72.69
312.328	70.69
312.557	81.69
312.787	82.69
313.017	92.69
313.246	84.69
313.476	74.69
313.706	81.69
313.935	72.69
314.165	82.69
314.394	86.69
314.624	85.69
314.853	88.69
315.083	85.69
315.312	76.69
315.542	81.69
315.771	84.69
316.001	84.69
316.23	83.69
316.46	85.69
316.689	80.69
316.919	73.69
317.148	83.69
317.377	91.69
317.607	83.69
317.836	76.69
318.065	78.69
318.295	82.69
318.524	78.69
318.753	88.69
318.983	82.69
319.212	97.69
319.441	74.69
319.67	80.69
319.9	89.69
320.129	78.69
320.358	92.69
320.587	79.69
320.816	84.69
321.046	84.69
321.275	94.69
321.504	80.69
321.733	94.69
321.962	80.69
322.191	79.69
322.42	88.69
322.649	96.69
322.878	87.69
323.108	82.69
323.337	84.69
323.566	86.69
323.795	66.69
324.024	94.69
324.253	84.69
324.482	86.69
324.71	78.69
324.939	89.69
325.168	97.69
325.397	100.69
325.626	80.69
325.855	79.69
326.084	90.69
326.313	70.69
326.542	62.69
326.77	95.69
326.999	77.69
327.228	77.69
327.457	90.69
327.686	85.69
327.914	95.69
328.143	68.69
328.372	78.69
328.6	80.69
328.829	80.69
329.058	70.69
329.287	95.69
329.515	97.69
329.744	86.69
329.972	92.69
330.201	89.69
330.43	86.69
330.658	89.69
330.887	84.69
331.115	92.69
331.344	88.69
331.572	77.69
331.801	72.69
332.03	77.69
332.258	85.69
332.486	93.69
332.715	86.69
332.943	88.69
333.172	62.69
333.4	77.69
333.629	74.69
333.857	85.69
334.085	92.69
334.314	86.69
334.542	81.69
334.771	85.69
334.999	83.69
335.227	78.69
335.455	85.69
335.684	88.69
335.912	90.69
336.14	96.69
336.369	98.69
336.597	89.69
336.825	89.69
337.053	65.69
337.281	75.69
337.51	83.69
337.738	94.69
337.966	82.69
338.194	72.69
338.422	76.69
338.65	88.69
338.878	85.69
339.106	80.69
339.334	81.69
339.562	83.69
339.79	72.69
340.018	89.69
340.246	84.69
340.474	85.69
340.702	110.69
340.93	78.69
341.158	69.69
341.386	62.69
341.614	73.69
341.842	83.69
342.07	84.69
342.298	83.69
342.526	71.69
342.754	85.69
342.981	93.69
343.209	78.69
343.437	75.69
343.665	86.69
343.893	89.69
344.12	82.69
344.348	101.69
344.576	81.69
344.804	86.69
345.031	87.69
345.259	79.69
345.487	74.69
345.714	71.69
345.942	75.69
346.17	84.69
346.397	80.69
346.625	84.69
346.853	79.69
347.08	83.69
347.308	87.69
347.535	81.69
347.763	77.69
347.99	69.69
348.218	84.69
348.445	79.69
348.673	84.69
348.9	93.69
349.128	81.69
349.355	82.69
349.583	78.69
349.81	86.69
350.037	65.69
350.265	76.69
350.492	88.69
350.72	67.69
350.947	90.69
351.174	86.69
351.402	73.69
351.629	96.69
351.856	89.69
352.083	72.69
352.311	80.69
352.538	73.69
352.765	79.69
352.992	93.69
353.22	84.69
353.447	88.69
353.674	87.69
353.901	78.69
354.128	70.69
354.355	81.69
354.583	81.69
354.81	76.69
355.037	89.69
355.264	84.69
355.491	95.69
355.718	96.69
355.945	81.69
356.172	84.69
356.399	68.69
356.626	82.69
356.853	82.69
357.08	84.69
357.307	77.69
357.534	80.69
357.761	85.69
357.988	95.69
358.215	95.69
358.441	76.69
358.668	84.69
358.895	77.69
359.122	72.69
359.349	80.69
359.576	64.69
359.802	84.69
360.029	78.69
360.256	84.69
360.483	77.69
360.709	80.69
360.936	93.69
361.163	90.69
361.39	96.69
361.616	81.69
361.843	76.69
362.07	80.69
362.296	102.69
362.523	96.69
362.749	88.69
362.976	103.69
363.203	135.69
363.429	96.69
363.656	77.69
363.882	99.69
364.109	99.69
364.335	116.69
364.562	121.69
364.788	102.69
365.015	82.69
365.241	95.69
365.468	85.69
365.694	77.69
365.92	82.69
366.147	88.69
366.373	82.69
366.599	92.69
366.826	87.69
367.052	84.69
367.278	98.69
367.505	85.69
367.731	86.69
367.957	71.69
368.184	80.69
368.41	95.69
368.636	77.69
368.862	85.69
369.089	79.69
369.315	89.69
369.541	83.69
369.767	97.69
369.993	87.69
370.219	78.69
370.445	104.69
370.672	86.69
370.898	73.69
371.124	84.69
371.35	84.69
371.576	102.69
371.802	82.69
372.028	90.69
372.254	91.69
372.48	77.69
372.706	90.69
372.932	92.69
373.158	78.69
373.384	90.69
373.61	94.69
373.835	86.69
374.061	90.69
374.287	92.69
374.513	96.69
374.739	88.69
374.965	78.69
375.191	96.69
375.416	90.69
375.642	69.69
375.868	88.69
376.094	88.69
376.319	79.69
376.545	74.69
376.771	94.69
376.997	80.69
377.222	82.69
377.448	67.69
377.674	58.69
377.899	88.69
378.125	91.69
378.35	72.69
378.576	80.69
378.802	88.69
379.027	92.69
379.253	92.69
379.478	79.69
379.704	72.69
379.929	81.69
380.155	84.69
380.38	79.69
380.606	81.69
380.831	85.69
381.057	94.69
381.282	79.69
381.507	72.69
381.733	95.69
381.958	90.69
382.184	86.69
382.409	76.69
382.634	79.69
382.86	84.69
383.085	99.69
383.31	93.69
383.535	72.69
383.761	96.69
383.986	82.69
384.211	81.69
384.436	80.69
384.662	93.69
384.887	81.69
385.112	79.69
385.337	85.69
385.562	94.69
385.787	98.69
386.013	96.69
386.238	83.69
386.463	95.69
386.688	100.69
386.913	89.69
387.138	86.69
387.363	86.69
387.588	109.69
387.813	104.69
388.038	85.69
388.263	106.69
388.488	81.69
388.713	94.69
388.938	84.69
389.163	69.69
389.387	77.69
389.612	87.69
389.837	87.69
390.062	85.69
390.287	89.69
390.512	89.69
390.736	85.69
390.961	89.69
391.186	87.69
391.411	95.69
391.636	79.69
391.86	97.69
392.085	82.69
392.31	84.69
392.534	118.69
392.759	121.69
392.984	146.69
393.208	213.69
393.433	318.69
393.658	249.69
393.882	121.69
394.107	92.69
394.331	96.69
394.556	97.69
394.78	85.69
395.005	86.69
395.229	75.69
395.454	82.69
395.678	86.69
395.903	100.69
396.127	132.69
396.352	148.69
396.576	135.69
396.801	244.69
397.025	264.69
397.249	160.69
397.474	113.69
397.698	92.69
397.922	82.69
398.147	90.69
398.371	75.69
398.595	82.69
398.82	88.69
399.044	66.69
399.268	93.69
399.492	88.69
399.717	84.69
399.941	87.69
400.165	96.69
400.389	86.69
400.613	75.69
400.837	81.69
401.062	74.69
401.286	81.69
401.51	86.69
401.734	92.69
401.958	93.69
402.182	80.69
402.406	90.69
402.63	74.69
402.854	90.69
403.078	73.69
403.302	88.69
403.526	71.69
403.75	82.69
403.974	90.69
404.198	114.69
404.422	116.69
404.645	124.69
404.869	130.69
405.093	85.69
405.317	88.69
405.541	85.69
405.765	87.69
405.988	92.69
406.212	74.69
406.436	80.69
406.66	94.69
406.883	76.69
407.107	90.69
407.331	82.69
407.555	85.69
407.778	101.69
408.002	110.69
408.226	82.69
408.449	85.69
408.673	77.69
408.896	87.69
409.12	89.69
409.344	102.69
409.567	95.69
409.791	100.69
410.014	85.69
410.238	88.69
410.461	84.69
410.685	94.69
410.908	88.69
411.132	78.69
411.355	90.69
411.578	97.69
411.802	88.69
412.025	95.69
412.249	82.69
412.472	93.69
412.695	84.69
412.919	86.69
413.142	91.69
413.365	105.69
413.589	78.69
413.812	86.69
414.035	92.69
414.258	67.69
414.482	93.69
414.705	79.69
414.928	93.69
415.151	63.69
415.374	77.69
415.597	73.69
415.821	87.69
416.044	83.69
416.267	92.69
416.49	85.69
416.713	82.69
416.936	84.69
417.159	93.69
417.382	60.69
417.605	88.69
417.828	87.69
418.051	69.69
418.274	86.69
418.497	88.69
418.72	76.69
418.943	89.69
419.166	88.69
419.389	90.69
419.611	88.69
419.834	89.69
420.057	93.69
420.28	85.69
420.503	102.69
420.726	96.69
420.948	94.69
421.171	96.69
421.394	102.69
421.617	110.69
421.839	124.69
422.062	132.69
422.285	176.69
422.507	310.69
422.73	447.69
422.953	404.69
423.175	221.69
423.398	137.69
423.621	110.69
423.843	109.69
424.066	112.69
424.288	104.69
424.511	85.69
424.733	89.69
424.956	89.69
425.178	102.69
425.401	92.69
425.623	84.69
425.846	75.69
426.068	81.69
426.291	81.69
426.513	83.69
426.735	93.69
426.958	97.69
427.18	73.69
427.402	96.69
427.625	96.69
427.847	85.69
428.069	94.69
428.292	140.69
428.514	150.69
428.736	105.69
428.958	129.69
429.181	129.69
429.403	104.69
429.625	100.69
429.847	119.69
430.069	167.69
430.292	195.69
430.514	174.69
430.736	130.69
430.958	135.69
431.18	112.69
431.402	88.69
431.624	92.69
431.846	112.69
432.068	140.69
432.29	118.69
432.512	108.69
432.734	93.69
432.956	102.69
433.178	101.69
433.4	79.69
433.622	83.69
433.844	76.69
434.066	89.69
434.287	74.69
434.509	81.69
434.731	81.69
434.953	84.69
435.175	92.69
435.397	96.69
435.618	103.69
435.84	95.69
436.062	68.69
436.284	82.69
436.505	62.69
436.727	73.69
436.949	70.69
437.17	77.69
437.392	85.69
437.614	75.69
437.835	97.69
438.057	66.69
438.278	73.69
438.5	89.69
438.721	86.69
438.943	78.69
439.165	88.69
439.386	88.69
439.608	81.69
439.829	91.69
440.05	91.69
440.272	70.69
440.493	94.69
440.715	95.69
440.936	93.69
441.158	81.69
441.379	92.69
441.6	88.69
441.822	74.69
442.043	90.69
442.264	100.69
442.486	128.69
442.707	176.69
442.928	138.69
443.149	112.69
443.371	146.69
443.592	260.69
443.813	220.69
444.034	126.69
444.255	101.69
444.476	96.69
444.698	87.69
444.919	97.69
445.14	200.69
445.361	216.69
445.582	324.69
445.803	269.69
446.024	124.69
446.245	94.69
446.466	82.69
446.687	82.69
446.908	79.69
447.129	82.69
447.35	80.69
447.571	84.69
447.792	84.69
448.013	78.69
448.234	80.69
448.455	99.69
448.675	87.69
448.896	82.69
449.117	88.69
449.338	77.69
449.559	88.69
449.779	74.69
450	82.69
450.221	96.69
450.442	86.69
450.662	82.69
450.883	86.69
451.104	88.69
451.324	85.69
451.545	88.69
451.766	86.69
451.986	83.69
452.207	89.69
452.428	88.69
452.648	88.69
452.869	97.69
453.089	102.69
453.31	98.69
453.53	103.69
453.751	94.69
453.971	74.69
454.192	94.69
454.412	94.69
454.633	84.69
454.853	87.69
455.073	88.69
455.294	87.69
455.514	90.69
455.734	96.69
455.955	72.69
456.175	69.69
456.395	75.69
456.616	91.69
456.836	85.69
457.056	72.69
457.276	73.69
457.497	85.69
457.717	78.69
457.937	92.69
458.157	119.69
458.377	131.69
458.598	124.69
458.818	150.69
459.038	97.69
459.258	84.69
459.478	89.69
459.698	84.69
459.918	70.69
460.138	92.69
460.358	88.69
460.578	117.69
460.798	135.69
461.018	128.69
461.238	91.69
461.458	100.69
461.678	90.69
461.898	81.69
462.118	88.69
462.338	65.69
462.558	76.69
462.777	70.69
462.997	77.69
463.217	72.69
463.437	87.69
463.657	83.69
463.876	81.69
464.096	88.69
464.316	82.69
464.536	88.69
464.755	86.69
464.975	70.69
465.195	78.69
465.414	84.69
465.634	81.69
465.854	80.69
466.073	93.69
466.293	85.69
466.512	86.69
466.732	80.69
466.951	86.69
467.171	85.69
467.391	85.69
467.61	66.69
467.829	79.69
468.049	82.69
468.268	80.69
468.488	65.69
468.707	86.69
468.927	77.69
469.146	89.69
469.365	73.69
469.585	85.69
469.804	80.69
470.023	85.69
470.243	78.69
470.462	84.69
470.681	76.69
470.901	87.69
471.12	84.69
471.339	80.69
471.558	84.69
471.777	86.69
471.997	86.69
472.216	83.69
472.435	78.69
472.654	88.69
472.873	84.69
473.092	86.69
473.311	100.69
473.53	80.69
473.749	89.69
473.968	88.69
474.187	92.69
474.406	92.69
474.625	92.69
474.844	105.69
475.063	86.69
475.282	81.69
475.501	75.69
475.72	92.69
475.939	98.69
476.158	90.69
476.377	92.69
476.596	95.69
476.814	86.69
477.033	93.69
477.252	85.69
477.471	84.69
477.69	80.69
477.908	94.69
478.127	74.69
478.346	68.69
478.564	79.69
478.783	90.69
479.002	74.69
479.22	73.69
479.439	79.69
479.658	94.69
479.876	92.69
480.095	86.69
480.313	82.69
480.532	98.69
480.751	90.69
480.969	79.69
481.188	87.69
481.406	95.69
481.624	90.69
481.843	84.69
482.061	93.69
482.28	96.69
482.498	94.69
482.717	82.69
482.935	102.69
483.153	95.69
483.372	89.69
483.59	90.69
483.808	89.69
484.027	83.69
484.245	96.69
484.463	84.69
484.681	81.69
484.9	95.69
485.118	85.69
485.336	84.69
485.554	94.69
485.772	95.69
485.99	84.69
486.209	96.69
486.427	74.69
486.645	76.69
486.863	97.69
487.081	94.69
487.299	94.69
487.517	86.69
487.735	125.69
487.953	159.69
488.171	153.69
488.389	104.69
488.607	95.69
488.825	82.69
489.043	101.69
489.261	92.69
489.479	82.69
489.696	61.69
489.914	84.69
490.132	80.69
490.35	78.69
490.568	84.69
490.786	86.69
491.003	89.69
491.221	84.69
491.439	96.69
491.657	75.69
491.874	89.69
492.092	86.69
492.31	78.69
492.527	88.69
492.745	87.69
492.963	96.69
493.18	81.69
493.398	74.69
493.615	73.69
493.833	85.69
494.05	95.69
494.268	82.69
494.485	83.69
494.703	99.69
494.92	93.69
495.138	86.69
495.355	95.69
495.573	81.69
495.79	82.69
496.008	103.69
496.225	105.69
496.442	92.69
496.66	84.69
496.877	82.69
497.094	94.69
497.312	89.69
497.529	94.69
497.746	90.69
497.963	78.69
498.181	85.69
498.398	100.69
498.615	91.69
498.832	86.69
499.049	84.69
499.267	88.69
499.484	82.69
499.701	78.69
499.918	97.69
500.135	94.69
500.352	90.69
500.569	95.69
500.786	97.69
501.003	94.69
501.22	82.69
501.437	88.69
501.654	92.69
501.871	88.69
502.088	78.69
502.305	87.69
502.522	101.69
502.739	91.69
502.956	89.69
503.172	85.69
503.389	86.69
503.606	85.69
503.823	94.69
504.04	84.69
504.256	133.69
504.473	136.69
504.69	109.69
504.907	95.69
505.123	82.69
505.34	96.69
505.557	78.69
505.773	84.69
505.99	94.69
506.207	80.69
506.423	100.69
506.64	79.69
506.856	84.69
507.073	92.69
507.289	70.69
507.506	79.69
507.722	89.69
507.939	80.69
508.155	79.69
508.372	101.69
508.588	77.69
508.805	79.69
509.021	92.69
509.238	83.69
509.454	87.69
509.67	89.69
509.887	84.69
510.103	83.69
510.319	78.69
510.536	99.69
510.752	95.69
510.968	83.69
511.184	87.69
511.401	80.69
511.617	89.69
511.833	72.69
512.049	88.69
512.265	73.69
512.481	86.69
512.698	90.69
512.914	78.69
513.13	84.69
513.346	86.69
513.562	101.69
513.778	96.69
513.994	87.69
514.21	97.69
514.426	78.69
514.642	82.69
514.858	96.69
515.074	72.69
515.29	94.69
515.506	84.69
515.721	100.69
515.937	100.69
516.153	87.69
516.369	85.69
516.585	92.69
516.801	75.69
517.016	92.69
517.232	89.69
517.448	93.69
517.664	110.69
517.879	88.69
518.095	82.69
518.311	105.69
518.527	124.69
