Data from 2145_1_HRD10591_00043.txt Node
Date: Mon Jan 19 14:21:30 EST 2026
User: Yrep
Spectrometer: HR+D1059
Trigger mode: 1
Integration Time (sec): 1.000000E-1
Scans to average: 1
Electric dark correction enabled: true
Nonlinearity correction enabled: false
Boxcar width: 0
XAxis mode: Wavelengths
Number of Pixels in Spectrum: 2048
>>>>>Begin Spectral Data<<<<<
223.165	-17.25
223.4	-17.25
223.635	-17.25
223.869	-1.25
224.104	-11.25
224.338	-17.25
224.573	-16.25
224.808	-19.25
225.042	-13.25
225.277	-0.25
225.511	-4.25
225.746	3.75
225.98	12.75
226.215	8.75
226.449	22.75
226.683	6.75
226.918	14.75
227.152	30.75
227.387	17.75
227.621	48.75
227.856	43.75
228.09	43.75
228.324	40.75
228.559	53.75
228.793	59.75
229.027	56.75
229.262	68.75
229.496	75.75
229.73	75.75
229.964	75.75
230.199	71.75
230.433	78.75
230.667	65.75
230.901	82.75
231.136	71.75
231.37	65.75
231.604	73.75
231.838	61.75
232.072	79.75
232.306	87.75
232.541	89.75
232.775	94.75
233.009	88.75
233.243	79.75
233.477	74.75
233.711	65.75
233.945	84.75
234.179	65.75
234.413	75.75
234.647	65.75
234.881	74.75
235.115	83.75
235.349	78.75
235.583	66.75
235.817	84.75
236.051	58.75
236.285	75.75
236.519	79.75
236.753	73.75
236.987	80.75
237.221	73.75
237.455	66.75
237.689	67.75
237.922	68.75
238.156	72.75
238.39	88.75
238.624	66.75
238.858	60.75
239.091	64.75
239.325	73.75
239.559	71.75
239.793	77.75
240.027	66.75
240.26	58.75
240.494	60.75
240.728	89.75
240.961	76.75
241.195	90.75
241.429	72.75
241.662	58.75
241.896	66.75
242.13	65.75
242.363	58.75
242.597	66.75
242.83	85.75
243.064	67.75
243.298	79.75
243.531	80.75
243.765	75.75
243.998	89.75
244.232	81.75
244.465	91.75
244.699	72.75
244.932	67.75
245.166	60.75
245.399	81.75
245.633	82.75
245.866	79.75
246.099	66.75
246.333	72.75
246.566	80.75
246.8	67.75
247.033	67.75
247.266	88.75
247.5	67.75
247.733	76.75
247.966	61.75
248.2	82.75
248.433	73.75
248.666	88.75
248.899	66.75
249.133	69.75
249.366	75.75
249.599	92.75
249.832	86.75
250.066	68.75
250.299	60.75
250.532	63.75
250.765	74.75
250.998	72.75
251.231	64.75
251.465	66.75
251.698	58.75
251.931	87.75
252.164	84.75
252.397	75.75
252.63	81.75
252.863	68.75
253.096	85.75
253.329	71.75
253.562	81.75
253.795	75.75
254.028	63.75
254.261	72.75
254.494	82.75
254.727	70.75
254.96	65.75
255.193	69.75
255.426	69.75
255.659	79.75
255.892	76.75
256.124	78.75
256.357	73.75
256.59	91.75
256.823	85.75
257.056	80.75
257.289	93.75
257.521	77.75
257.754	90.75
257.987	78.75
258.22	70.75
258.452	65.75
258.685	79.75
258.918	76.75
259.151	85.75
259.383	75.75
259.616	78.75
259.849	67.75
260.081	67.75
260.314	75.75
260.547	70.75
260.779	65.75
261.012	82.75
261.244	83.75
261.477	79.75
261.71	86.75
261.942	81.75
262.175	68.75
262.407	85.75
262.64	87.75
262.872	78.75
263.105	83.75
263.337	80.75
263.57	74.75
263.802	91.75
264.035	78.75
264.267	79.75
264.499	81.75
264.732	86.75
264.964	78.75
265.197	77.75
265.429	68.75
265.661	75.75
265.894	77.75
266.126	68.75
266.358	82.75
266.591	75.75
266.823	84.75
267.055	86.75
267.287	73.75
267.52	61.75
267.752	78.75
267.984	74.75
268.216	64.75
268.448	92.75
268.681	85.75
268.913	76.75
269.145	85.75
269.377	81.75
269.609	66.75
269.841	62.75
270.073	93.75
270.306	93.75
270.538	85.75
270.77	84.75
271.002	65.75
271.234	74.75
271.466	89.75
271.698	81.75
271.93	86.75
272.162	81.75
272.394	76.75
272.626	64.75
272.858	81.75
273.09	86.75
273.322	84.75
273.553	81.75
273.785	75.75
274.017	83.75
274.249	73.75
274.481	89.75
274.713	63.75
274.945	74.75
275.176	88.75
275.408	86.75
275.64	89.75
275.872	87.75
276.104	67.75
276.335	72.75
276.567	62.75
276.799	79.75
277.031	79.75
277.262	75.75
277.494	89.75
277.726	85.75
277.957	80.75
278.189	90.75
278.421	92.75
278.652	75.75
278.884	91.75
279.115	78.75
279.347	81.75
279.579	87.75
279.81	75.75
280.042	83.75
280.273	79.75
280.505	70.75
280.736	84.75
280.968	71.75
281.199	95.75
281.431	78.75
281.662	82.75
281.894	66.75
282.125	82.75
282.356	90.75
282.588	82.75
282.819	79.75
283.051	71.75
283.282	82.75
283.513	80.75
283.745	78.75
283.976	62.75
284.207	88.75
284.439	91.75
284.67	89.75
284.901	92.75
285.132	72.75
285.364	89.75
285.595	72.75
285.826	74.75
286.057	81.75
286.288	65.75
286.52	73.75
286.751	65.75
286.982	69.75
287.213	65.75
287.444	83.75
287.675	84.75
287.906	93.75
288.138	83.75
288.369	80.75
288.6	96.75
288.831	79.75
289.062	95.75
289.293	64.75
289.524	65.75
289.755	89.75
289.986	78.75
290.217	87.75
290.448	93.75
290.679	79.75
290.91	88.75
291.141	83.75
291.371	84.75
291.602	82.75
291.833	79.75
292.064	81.75
292.295	78.75
292.526	76.75
292.757	74.75
292.987	93.75
293.218	83.75
293.449	82.75
293.68	75.75
293.91	71.75
294.141	76.75
294.372	81.75
294.603	84.75
294.833	67.75
295.064	77.75
295.295	67.75
295.525	85.75
295.756	79.75
295.987	78.75
296.217	93.75
296.448	98.75
296.679	85.75
296.909	70.75
297.14	92.75
297.37	73.75
297.601	86.75
297.831	83.75
298.062	89.75
298.292	65.75
298.523	80.75
298.753	84.75
298.984	83.75
299.214	72.75
299.445	81.75
299.675	89.75
299.905	84.75
300.136	82.75
300.366	86.75
300.597	93.75
300.827	79.75
301.057	88.75
301.288	83.75
301.518	82.75
301.748	81.75
301.979	96.75
302.209	87.75
302.439	74.75
302.669	90.75
302.9	84.75
303.13	85.75
303.36	86.75
303.59	88.75
303.82	78.75
304.051	74.75
304.281	89.75
304.511	82.75
304.741	85.75
304.971	74.75
305.201	69.75
305.431	73.75
305.661	80.75
305.891	92.75
306.121	81.75
306.352	81.75
306.582	81.75
306.812	71.75
307.042	71.75
307.272	85.75
307.502	79.75
307.731	80.75
307.961	81.75
308.191	77.75
308.421	86.75
308.651	83.75
308.881	73.75
309.111	75.75
309.341	65.75
309.571	81.75
309.8	82.75
310.03	71.75
310.26	78.75
310.49	94.75
310.72	65.75
310.949	77.75
311.179	83.75
311.409	73.75
311.639	81.75
311.868	92.75
312.098	82.75
312.328	89.75
312.557	83.75
312.787	85.75
313.017	89.75
313.246	84.75
313.476	90.75
313.706	73.75
313.935	91.75
314.165	89.75
314.394	71.75
314.624	74.75
314.853	87.75
315.083	74.75
315.312	79.75
315.542	73.75
315.771	83.75
316.001	90.75
316.23	69.75
316.46	89.75
316.689	76.75
316.919	72.75
317.148	77.75
317.377	88.75
317.607	84.75
317.836	71.75
318.065	77.75
318.295	84.75
318.524	90.75
318.753	89.75
318.983	76.75
319.212	81.75
319.441	88.75
319.67	68.75
319.9	71.75
320.129	81.75
320.358	85.75
320.587	83.75
320.816	84.75
321.046	86.75
321.275	82.75
321.504	90.75
321.733	83.75
321.962	87.75
322.191	70.75
322.42	70.75
322.649	88.75
322.878	86.75
323.108	89.75
323.337	89.75
323.566	83.75
323.795	82.75
324.024	76.75
324.253	78.75
324.482	75.75
324.71	88.75
324.939	89.75
325.168	83.75
325.397	76.75
325.626	70.75
325.855	79.75
326.084	74.75
326.313	89.75
326.542	83.75
326.77	87.75
326.999	84.75
327.228	74.75
327.457	86.75
327.686	73.75
327.914	84.75
328.143	89.75
328.372	80.75
328.6	85.75
328.829	73.75
329.058	75.75
329.287	70.75
329.515	78.75
329.744	74.75
329.972	72.75
330.201	101.75
330.43	88.75
330.658	70.75
330.887	90.75
331.115	90.75
331.344	80.75
331.572	81.75
331.801	85.75
332.03	81.75
332.258	82.75
332.486	64.75
332.715	84.75
332.943	78.75
333.172	76.75
333.4	64.75
333.629	88.75
333.857	83.75
334.085	81.75
334.314	67.75
334.542	73.75
334.771	78.75
334.999	84.75
335.227	87.75
335.455	98.75
335.684	96.75
335.912	86.75
336.14	73.75
336.369	91.75
336.597	61.75
336.825	78.75
337.053	79.75
337.281	72.75
337.51	78.75
337.738	81.75
337.966	84.75
338.194	83.75
338.422	74.75
338.65	79.75
338.878	76.75
339.106	73.75
339.334	83.75
339.562	71.75
339.79	80.75
340.018	87.75
340.246	81.75
340.474	90.75
340.702	82.75
340.93	96.75
341.158	78.75
341.386	95.75
341.614	82.75
341.842	78.75
342.07	87.75
342.298	71.75
342.526	78.75
342.754	81.75
342.981	88.75
343.209	88.75
343.437	96.75
343.665	81.75
343.893	83.75
344.12	85.75
344.348	79.75
344.576	97.75
344.804	81.75
345.031	90.75
345.259	83.75
345.487	80.75
345.714	76.75
345.942	83.75
346.17	75.75
346.397	87.75
346.625	81.75
346.853	82.75
347.08	76.75
347.308	85.75
347.535	81.75
347.763	90.75
347.99	74.75
348.218	87.75
348.445	79.75
348.673	71.75
348.9	90.75
349.128	93.75
349.355	95.75
349.583	73.75
349.81	83.75
350.037	79.75
350.265	86.75
350.492	94.75
350.72	77.75
350.947	84.75
351.174	85.75
351.402	76.75
351.629	82.75
351.856	82.75
352.083	75.75
352.311	83.75
352.538	84.75
352.765	87.75
352.992	81.75
353.22	83.75
353.447	75.75
353.674	83.75
353.901	85.75
354.128	81.75
354.355	81.75
354.583	79.75
354.81	86.75
355.037	74.75
355.264	71.75
355.491	83.75
355.718	95.75
355.945	74.75
356.172	81.75
356.399	74.75
356.626	77.75
356.853	69.75
357.08	75.75
357.307	87.75
357.534	73.75
357.761	83.75
357.988	89.75
358.215	77.75
358.441	81.75
358.668	81.75
358.895	73.75
359.122	82.75
359.349	78.75
359.576	82.75
359.802	82.75
360.029	80.75
360.256	87.75
360.483	81.75
360.709	85.75
360.936	82.75
361.163	87.75
361.39	79.75
361.616	86.75
361.843	75.75
362.07	98.75
362.296	90.75
362.523	95.75
362.749	103.75
362.976	83.75
363.203	98.75
363.429	90.75
363.656	86.75
363.882	92.75
364.109	98.75
364.335	102.75
364.562	114.75
364.788	82.75
365.015	90.75
365.241	84.75
365.468	75.75
365.694	77.75
365.92	77.75
366.147	75.75
366.373	89.75
366.599	87.75
366.826	87.75
367.052	87.75
367.278	81.75
367.505	69.75
367.731	73.75
367.957	76.75
368.184	80.75
368.41	75.75
368.636	86.75
368.862	70.75
369.089	89.75
369.315	93.75
369.541	78.75
369.767	85.75
369.993	89.75
370.219	83.75
370.445	82.75
370.672	72.75
370.898	80.75
371.124	91.75
371.35	86.75
371.576	83.75
371.802	67.75
372.028	73.75
372.254	79.75
372.48	90.75
372.706	82.75
372.932	96.75
373.158	74.75
373.384	90.75
373.61	94.75
373.835	86.75
374.061	78.75
374.287	76.75
374.513	84.75
374.739	84.75
374.965	100.75
375.191	86.75
375.416	83.75
375.642	83.75
375.868	76.75
376.094	72.75
376.319	83.75
376.545	87.75
376.771	74.75
376.997	81.75
377.222	72.75
377.448	71.75
377.674	79.75
377.899	90.75
378.125	81.75
378.35	81.75
378.576	72.75
378.802	73.75
379.027	70.75
379.253	80.75
379.478	84.75
379.704	80.75
379.929	82.75
380.155	94.75
380.38	87.75
380.606	82.75
380.831	81.75
381.057	96.75
381.282	84.75
381.507	82.75
381.733	97.75
381.958	72.75
382.184	85.75
382.409	78.75
382.634	83.75
382.86	83.75
383.085	81.75
383.31	86.75
383.535	98.75
383.761	77.75
383.986	76.75
384.211	74.75
384.436	86.75
384.662	80.75
384.887	83.75
385.112	74.75
385.337	82.75
385.562	95.75
385.787	86.75
386.013	99.75
386.238	103.75
386.463	101.75
386.688	97.75
386.913	86.75
387.138	79.75
387.363	80.75
387.588	90.75
387.813	75.75
388.038	79.75
388.263	79.75
388.488	80.75
388.713	90.75
388.938	92.75
389.163	70.75
389.387	70.75
389.612	91.75
389.837	86.75
390.062	76.75
390.287	75.75
390.512	75.75
390.736	86.75
390.961	89.75
391.186	89.75
391.411	83.75
391.636	84.75
391.86	79.75
392.085	86.75
392.31	79.75
392.534	96.75
392.759	98.75
392.984	136.75
393.208	204.75
393.433	269.75
393.658	230.75
393.882	131.75
394.107	100.75
394.331	89.75
394.556	101.75
394.78	102.75
395.005	82.75
395.229	89.75
395.454	96.75
395.678	91.75
395.903	104.75
396.127	112.75
396.352	147.75
396.576	126.75
396.801	209.75
397.025	230.75
397.249	129.75
397.474	106.75
397.698	103.75
397.922	85.75
398.147	71.75
398.371	90.75
398.595	66.75
398.82	78.75
399.044	84.75
399.268	89.75
399.492	85.75
399.717	78.75
399.941	86.75
400.165	85.75
400.389	78.75
400.613	85.75
400.837	78.75
401.062	72.75
401.286	83.75
401.51	76.75
401.734	82.75
401.958	77.75
402.182	75.75
402.406	74.75
402.63	56.75
402.854	68.75
403.078	81.75
403.302	75.75
403.526	73.75
403.75	89.75
403.974	90.75
404.198	121.75
404.422	159.75
404.645	162.75
404.869	124.75
405.093	103.75
405.317	79.75
405.541	85.75
405.765	74.75
405.988	82.75
406.212	69.75
406.436	74.75
406.66	63.75
406.883	79.75
407.107	94.75
407.331	66.75
407.555	89.75
407.778	92.75
408.002	101.75
408.226	88.75
408.449	81.75
408.673	78.75
408.896	71.75
409.12	95.75
409.344	83.75
409.567	86.75
409.791	89.75
410.014	82.75
410.238	97.75
410.461	71.75
410.685	71.75
410.908	85.75
411.132	102.75
411.355	81.75
411.578	100.75
411.802	77.75
412.025	79.75
412.249	81.75
412.472	75.75
412.695	78.75
412.919	69.75
413.142	76.75
413.365	89.75
413.589	87.75
413.812	77.75
414.035	90.75
414.258	74.75
414.482	81.75
414.705	88.75
414.928	76.75
415.151	80.75
415.374	74.75
415.597	79.75
415.821	87.75
416.044	83.75
416.267	74.75
416.49	79.75
416.713	73.75
416.936	79.75
417.159	83.75
417.382	82.75
417.605	84.75
417.828	76.75
418.051	87.75
418.274	72.75
418.497	84.75
418.72	88.75
418.943	75.75
419.166	90.75
419.389	87.75
419.611	67.75
419.834	75.75
420.057	80.75
420.28	63.75
420.503	85.75
420.726	86.75
420.948	79.75
421.171	88.75
421.394	88.75
421.617	102.75
421.839	122.75
422.062	113.75
422.285	153.75
422.507	283.75
422.73	433.75
422.953	361.75
423.175	181.75
423.398	115.75
423.621	96.75
423.843	89.75
424.066	97.75
424.288	83.75
424.511	86.75
424.733	93.75
424.956	79.75
425.178	70.75
425.401	85.75
425.623	88.75
425.846	76.75
426.068	75.75
426.291	83.75
426.513	78.75
426.735	74.75
426.958	85.75
427.18	66.75
427.402	84.75
427.625	89.75
427.847	82.75
428.069	78.75
428.292	118.75
428.514	149.75
428.736	113.75
428.958	126.75
429.181	138.75
429.403	103.75
429.625	86.75
429.847	121.75
430.069	149.75
430.292	177.75
430.514	140.75
430.736	139.75
430.958	125.75
431.18	98.75
431.402	90.75
431.624	88.75
431.846	126.75
432.068	127.75
432.29	90.75
432.512	95.75
432.734	77.75
432.956	75.75
433.178	69.75
433.4	82.75
433.622	85.75
433.844	83.75
434.066	82.75
434.287	84.75
434.509	83.75
434.731	81.75
434.953	73.75
435.175	78.75
435.397	81.75
435.618	82.75
435.84	88.75
436.062	86.75
436.284	97.75
436.505	74.75
436.727	83.75
436.949	72.75
437.17	75.75
437.392	92.75
437.614	86.75
437.835	88.75
438.057	83.75
438.278	73.75
438.5	88.75
438.721	87.75
438.943	71.75
439.165	81.75
439.386	91.75
439.608	83.75
439.829	78.75
440.05	92.75
440.272	75.75
440.493	76.75
440.715	87.75
440.936	94.75
441.158	88.75
441.379	88.75
441.6	86.75
441.822	84.75
442.043	97.75
442.264	85.75
442.486	119.75
442.707	163.75
442.928	119.75
443.149	128.75
443.371	162.75
443.592	240.75
443.813	219.75
444.034	113.75
444.255	79.75
444.476	87.75
444.698	86.75
444.919	97.75
445.14	187.75
445.361	209.75
445.582	290.75
445.803	250.75
446.024	123.75
446.245	98.75
446.466	85.75
446.687	80.75
446.908	81.75
447.129	89.75
447.35	78.75
447.571	76.75
447.792	83.75
448.013	71.75
448.234	90.75
448.455	83.75
448.675	82.75
448.896	77.75
449.117	79.75
449.338	76.75
449.559	80.75
449.779	82.75
450	81.75
450.221	82.75
450.442	78.75
450.662	76.75
450.883	67.75
451.104	90.75
451.324	73.75
451.545	81.75
451.766	78.75
451.986	82.75
452.207	78.75
452.428	94.75
452.648	90.75
452.869	85.75
453.089	84.75
453.31	69.75
453.53	85.75
453.751	88.75
453.971	83.75
454.192	85.75
454.412	80.75
454.633	73.75
454.853	70.75
455.073	77.75
455.294	78.75
455.514	70.75
455.734	72.75
455.955	78.75
456.175	69.75
456.395	73.75
456.616	79.75
456.836	72.75
457.056	95.75
457.276	86.75
457.497	97.75
457.717	80.75
457.937	100.75
458.157	103.75
458.377	109.75
458.598	118.75
458.818	109.75
459.038	86.75
459.258	85.75
459.478	51.75
459.698	80.75
459.918	94.75
460.138	80.75
460.358	66.75
460.578	102.75
460.798	119.75
461.018	106.75
461.238	97.75
461.458	81.75
461.678	80.75
461.898	87.75
462.118	80.75
462.338	83.75
462.558	72.75
462.777	98.75
462.997	75.75
463.217	70.75
463.437	75.75
463.657	78.75
463.876	81.75
464.096	89.75
464.316	76.75
464.536	75.75
464.755	85.75
464.975	81.75
465.195	85.75
465.414	85.75
465.634	81.75
465.854	77.75
466.073	79.75
466.293	71.75
466.512	80.75
466.732	74.75
466.951	81.75
467.171	82.75
467.391	74.75
467.61	89.75
467.829	77.75
468.049	71.75
468.268	90.75
468.488	71.75
468.707	80.75
468.927	80.75
469.146	66.75
469.365	82.75
469.585	84.75
469.804	90.75
470.023	65.75
470.243	93.75
470.462	76.75
470.681	85.75
470.901	71.75
471.12	80.75
471.339	82.75
471.558	72.75
471.777	82.75
471.997	74.75
472.216	76.75
472.435	80.75
472.654	72.75
472.873	75.75
473.092	100.75
473.311	65.75
473.53	74.75
473.749	88.75
473.968	82.75
474.187	87.75
474.406	66.75
474.625	69.75
474.844	83.75
475.063	78.75
475.282	81.75
475.501	84.75
475.72	90.75
475.939	87.75
476.158	87.75
476.377	92.75
476.596	82.75
476.814	84.75
477.033	86.75
477.252	81.75
477.471	74.75
477.69	74.75
477.908	71.75
478.127	86.75
478.346	73.75
478.564	82.75
478.783	69.75
479.002	68.75
479.22	86.75
479.439	90.75
479.658	79.75
479.876	88.75
480.095	75.75
480.313	84.75
480.532	87.75
480.751	96.75
480.969	65.75
481.188	82.75
481.406	87.75
481.624	70.75
481.843	89.75
482.061	75.75
482.28	77.75
482.498	85.75
482.717	89.75
482.935	78.75
483.153	80.75
483.372	76.75
483.59	80.75
483.808	83.75
484.027	87.75
484.245	95.75
484.463	94.75
484.681	83.75
484.9	81.75
485.118	83.75
485.336	83.75
485.554	83.75
485.772	73.75
485.99	73.75
486.209	91.75
486.427	98.75
486.645	89.75
486.863	73.75
487.081	79.75
487.299	79.75
487.517	74.75
487.735	109.75
487.953	116.75
488.171	123.75
488.389	96.75
488.607	85.75
488.825	81.75
489.043	75.75
489.261	105.75
489.479	84.75
489.696	79.75
489.914	76.75
490.132	82.75
490.35	92.75
490.568	86.75
490.786	86.75
491.003	81.75
491.221	81.75
491.439	77.75
491.657	88.75
491.874	82.75
492.092	83.75
492.31	88.75
492.527	89.75
492.745	87.75
492.963	78.75
493.18	83.75
493.398	97.75
493.615	74.75
493.833	86.75
494.05	77.75
494.268	73.75
494.485	83.75
494.703	85.75
494.92	81.75
495.138	86.75
495.355	89.75
495.573	83.75
495.79	92.75
496.008	83.75
496.225	89.75
496.442	82.75
496.66	83.75
496.877	80.75
497.094	85.75
497.312	90.75
497.529	93.75
497.746	75.75
497.963	88.75
498.181	80.75
498.398	101.75
498.615	90.75
498.832	74.75
499.049	80.75
499.267	86.75
499.484	87.75
499.701	86.75
499.918	86.75
500.135	83.75
500.352	79.75
500.569	89.75
500.786	96.75
501.003	97.75
501.22	86.75
501.437	86.75
501.654	85.75
501.871	83.75
502.088	84.75
502.305	79.75
502.522	88.75
502.739	89.75
502.956	86.75
503.172	79.75
503.389	73.75
503.606	97.75
503.823	101.75
504.04	98.75
504.256	102.75
504.473	121.75
504.69	101.75
504.907	83.75
505.123	89.75
505.34	87.75
505.557	70.75
505.773	91.75
505.99	98.75
506.207	75.75
506.423	83.75
506.64	85.75
506.856	75.75
507.073	88.75
507.289	81.75
507.506	80.75
507.722	76.75
507.939	73.75
508.155	84.75
508.372	75.75
508.588	94.75
508.805	93.75
509.021	78.75
509.238	83.75
509.454	84.75
509.67	86.75
509.887	85.75
510.103	91.75
510.319	83.75
510.536	87.75
510.752	78.75
510.968	84.75
511.184	84.75
511.401	90.75
511.617	80.75
511.833	86.75
512.049	83.75
512.265	88.75
512.481	83.75
512.698	77.75
512.914	76.75
513.13	88.75
513.346	83.75
513.562	76.75
513.778	73.75
513.994	79.75
514.21	77.75
514.426	99.75
514.642	89.75
514.858	87.75
515.074	81.75
515.29	80.75
515.506	71.75
515.721	72.75
515.937	90.75
516.153	85.75
516.369	90.75
516.585	73.75
516.801	93.75
517.016	74.75
517.232	93.75
517.448	80.75
517.664	71.75
517.879	67.75
518.095	76.75
518.311	78.75
518.527	84.75
518.742	89.75
518.958	124.75
