Data from 2145_1_HRD10591_00034.txt Node
Date: Mon Jan 19 14:21:26 EST 2026
User: Yrep
Spectrometer: HR+D1059
Trigger mode: 1
Integration Time (sec): 1.000000E-1
Scans to average: 1
Electric dark correction enabled: true
Nonlinearity correction enabled: false
Boxcar width: 0
XAxis mode: Wavelengths
Number of Pixels in Spectrum: 2048
>>>>>Begin Spectral Data<<<<<
223.165	-25.25
223.4	-25.25
223.635	-25.25
223.869	-33.25
224.104	-7.25
224.338	-14.25
224.573	-14.25
224.808	-9.25
225.042	-10.25
225.277	-16.25
225.511	0.75
225.746	5.75
225.98	3.75
226.215	9.75
226.449	29.75
226.683	24.75
226.918	12.75
227.152	42.75
227.387	39.75
227.621	36.75
227.856	36.75
228.09	44.75
228.324	49.75
228.559	53.75
228.793	53.75
229.027	50.75
229.262	63.75
229.496	67.75
229.73	64.75
229.964	77.75
230.199	63.75
230.433	73.75
230.667	73.75
230.901	75.75
231.136	75.75
231.37	77.75
231.604	86.75
231.838	71.75
232.072	95.75
232.306	83.75
232.541	79.75
232.775	77.75
233.009	98.75
233.243	85.75
233.477	82.75
233.711	75.75
233.945	87.75
234.179	78.75
234.413	71.75
234.647	90.75
234.881	73.75
235.115	76.75
235.349	89.75
235.583	92.75
235.817	99.75
236.051	91.75
236.285	77.75
236.519	66.75
236.753	77.75
236.987	78.75
237.221	67.75
237.455	77.75
237.689	71.75
237.922	78.75
238.156	65.75
238.39	57.75
238.624	76.75
238.858	81.75
239.091	77.75
239.325	93.75
239.559	79.75
239.793	86.75
240.027	79.75
240.26	73.75
240.494	71.75
240.728	78.75
240.961	76.75
241.195	78.75
241.429	59.75
241.662	74.75
241.896	76.75
242.13	73.75
242.363	69.75
242.597	79.75
242.83	76.75
243.064	88.75
243.298	82.75
243.531	74.75
243.765	80.75
243.998	75.75
244.232	86.75
244.465	87.75
244.699	64.75
244.932	80.75
245.166	75.75
245.399	70.75
245.633	83.75
245.866	83.75
246.099	69.75
246.333	66.75
246.566	78.75
246.8	83.75
247.033	89.75
247.266	55.75
247.5	71.75
247.733	80.75
247.966	91.75
248.2	77.75
248.433	67.75
248.666	82.75
248.899	77.75
249.133	83.75
249.366	87.75
249.599	86.75
249.832	76.75
250.066	75.75
250.299	93.75
250.532	83.75
250.765	75.75
250.998	80.75
251.231	80.75
251.465	75.75
251.698	67.75
251.931	79.75
252.164	73.75
252.397	84.75
252.63	83.75
252.863	71.75
253.096	67.75
253.329	73.75
253.562	75.75
253.795	77.75
254.028	82.75
254.261	78.75
254.494	89.75
254.727	87.75
254.96	78.75
255.193	91.75
255.426	92.75
255.659	79.75
255.892	64.75
256.124	80.75
256.357	91.75
256.59	85.75
256.823	80.75
257.056	89.75
257.289	72.75
257.521	77.75
257.754	96.75
257.987	77.75
258.22	79.75
258.452	83.75
258.685	93.75
258.918	84.75
259.151	91.75
259.383	69.75
259.616	78.75
259.849	74.75
260.081	74.75
260.314	92.75
260.547	73.75
260.779	79.75
261.012	95.75
261.244	72.75
261.477	72.75
261.71	82.75
261.942	73.75
262.175	102.75
262.407	84.75
262.64	83.75
262.872	71.75
263.105	82.75
263.337	89.75
263.57	93.75
263.802	82.75
264.035	72.75
264.267	80.75
264.499	87.75
264.732	84.75
264.964	76.75
265.197	79.75
265.429	79.75
265.661	80.75
265.894	77.75
266.126	93.75
266.358	94.75
266.591	84.75
266.823	85.75
267.055	83.75
267.287	89.75
267.52	79.75
267.752	78.75
267.984	87.75
268.216	70.75
268.448	86.75
268.681	81.75
268.913	83.75
269.145	82.75
269.377	92.75
269.609	86.75
269.841	83.75
270.073	75.75
270.306	60.75
270.538	86.75
270.77	86.75
271.002	80.75
271.234	75.75
271.466	81.75
271.698	78.75
271.93	83.75
272.162	85.75
272.394	82.75
272.626	79.75
272.858	75.75
273.09	94.75
273.322	83.75
273.553	85.75
273.785	80.75
274.017	87.75
274.249	85.75
274.481	92.75
274.713	83.75
274.945	89.75
275.176	63.75
275.408	98.75
275.64	94.75
275.872	71.75
276.104	79.75
276.335	85.75
276.567	60.75
276.799	79.75
277.031	98.75
277.262	81.75
277.494	102.75
277.726	87.75
277.957	92.75
278.189	78.75
278.421	91.75
278.652	87.75
278.884	79.75
279.115	71.75
279.347	77.75
279.579	90.75
279.81	83.75
280.042	84.75
280.273	74.75
280.505	78.75
280.736	87.75
280.968	87.75
281.199	86.75
281.431	81.75
281.662	81.75
281.894	86.75
282.125	84.75
282.356	80.75
282.588	89.75
282.819	93.75
283.051	90.75
283.282	75.75
283.513	83.75
283.745	79.75
283.976	83.75
284.207	72.75
284.439	66.75
284.67	101.75
284.901	79.75
285.132	101.75
285.364	89.75
285.595	93.75
285.826	87.75
286.057	97.75
286.288	77.75
286.52	85.75
286.751	94.75
286.982	98.75
287.213	89.75
287.444	77.75
287.675	93.75
287.906	89.75
288.138	76.75
288.369	77.75
288.6	86.75
288.831	89.75
289.062	79.75
289.293	90.75
289.524	83.75
289.755	85.75
289.986	85.75
290.217	79.75
290.448	82.75
290.679	87.75
290.91	93.75
291.141	92.75
291.371	79.75
291.602	90.75
291.833	69.75
292.064	86.75
292.295	77.75
292.526	85.75
292.757	84.75
292.987	91.75
293.218	78.75
293.449	84.75
293.68	90.75
293.91	89.75
294.141	78.75
294.372	79.75
294.603	90.75
294.833	77.75
295.064	85.75
295.295	88.75
295.525	80.75
295.756	93.75
295.987	89.75
296.217	82.75
296.448	82.75
296.679	89.75
296.909	83.75
297.14	93.75
297.37	90.75
297.601	93.75
297.831	89.75
298.062	84.75
298.292	72.75
298.523	76.75
298.753	89.75
298.984	81.75
299.214	95.75
299.445	89.75
299.675	82.75
299.905	81.75
300.136	82.75
300.366	92.75
300.597	80.75
300.827	84.75
301.057	102.75
301.288	89.75
301.518	87.75
301.748	80.75
301.979	97.75
302.209	99.75
302.439	85.75
302.669	79.75
302.9	72.75
303.13	73.75
303.36	101.75
303.59	97.75
303.82	83.75
304.051	77.75
304.281	91.75
304.511	94.75
304.741	80.75
304.971	84.75
305.201	85.75
305.431	88.75
305.661	80.75
305.891	69.75
306.121	86.75
306.352	75.75
306.582	75.75
306.812	94.75
307.042	91.75
307.272	85.75
307.502	93.75
307.731	75.75
307.961	80.75
308.191	90.75
308.421	93.75
308.651	89.75
308.881	94.75
309.111	90.75
309.341	91.75
309.571	100.75
309.8	80.75
310.03	87.75
310.26	92.75
310.49	97.75
310.72	83.75
310.949	77.75
311.179	79.75
311.409	76.75
311.639	99.75
311.868	77.75
312.098	85.75
312.328	88.75
312.557	84.75
312.787	76.75
313.017	78.75
313.246	89.75
313.476	88.75
313.706	91.75
313.935	93.75
314.165	84.75
314.394	73.75
314.624	95.75
314.853	93.75
315.083	87.75
315.312	89.75
315.542	89.75
315.771	90.75
316.001	97.75
316.23	80.75
316.46	76.75
316.689	75.75
316.919	96.75
317.148	87.75
317.377	80.75
317.607	91.75
317.836	91.75
318.065	91.75
318.295	93.75
318.524	84.75
318.753	88.75
318.983	80.75
319.212	59.75
319.441	82.75
319.67	77.75
319.9	83.75
320.129	91.75
320.358	94.75
320.587	87.75
320.816	90.75
321.046	82.75
321.275	86.75
321.504	82.75
321.733	86.75
321.962	87.75
322.191	95.75
322.42	86.75
322.649	89.75
322.878	95.75
323.108	84.75
323.337	65.75
323.566	88.75
323.795	78.75
324.024	86.75
324.253	87.75
324.482	97.75
324.71	86.75
324.939	89.75
325.168	77.75
325.397	74.75
325.626	83.75
325.855	81.75
326.084	95.75
326.313	95.75
326.542	91.75
326.77	96.75
326.999	85.75
327.228	101.75
327.457	93.75
327.686	85.75
327.914	84.75
328.143	88.75
328.372	89.75
328.6	82.75
328.829	90.75
329.058	81.75
329.287	94.75
329.515	85.75
329.744	92.75
329.972	81.75
330.201	99.75
330.43	89.75
330.658	89.75
330.887	95.75
331.115	95.75
331.344	84.75
331.572	87.75
331.801	94.75
332.03	75.75
332.258	79.75
332.486	83.75
332.715	75.75
332.943	78.75
333.172	93.75
333.4	77.75
333.629	87.75
333.857	89.75
334.085	101.75
334.314	82.75
334.542	83.75
334.771	85.75
334.999	72.75
335.227	86.75
335.455	97.75
335.684	92.75
335.912	80.75
336.14	95.75
336.369	87.75
336.597	81.75
336.825	82.75
337.053	86.75
337.281	83.75
337.51	94.75
337.738	94.75
337.966	98.75
338.194	90.75
338.422	79.75
338.65	96.75
338.878	81.75
339.106	94.75
339.334	92.75
339.562	74.75
339.79	83.75
340.018	88.75
340.246	79.75
340.474	85.75
340.702	98.75
340.93	78.75
341.158	92.75
341.386	81.75
341.614	100.75
341.842	87.75
342.07	82.75
342.298	71.75
342.526	93.75
342.754	89.75
342.981	91.75
343.209	84.75
343.437	91.75
343.665	89.75
343.893	101.75
344.12	78.75
344.348	87.75
344.576	103.75
344.804	101.75
345.031	87.75
345.259	80.75
345.487	75.75
345.714	98.75
345.942	75.75
346.17	92.75
346.397	62.75
346.625	87.75
346.853	88.75
347.08	87.75
347.308	94.75
347.535	82.75
347.763	89.75
347.99	93.75
348.218	94.75
348.445	89.75
348.673	87.75
348.9	89.75
349.128	74.75
349.355	76.75
349.583	85.75
349.81	88.75
350.037	93.75
350.265	103.75
350.492	84.75
350.72	89.75
350.947	86.75
351.174	93.75
351.402	77.75
351.629	75.75
351.856	89.75
352.083	82.75
352.311	91.75
352.538	76.75
352.765	88.75
352.992	93.75
353.22	85.75
353.447	84.75
353.674	81.75
353.901	95.75
354.128	95.75
354.355	78.75
354.583	80.75
354.81	85.75
355.037	76.75
355.264	95.75
355.491	98.75
355.718	87.75
355.945	77.75
356.172	84.75
356.399	92.75
356.626	90.75
356.853	92.75
357.08	100.75
357.307	85.75
357.534	93.75
357.761	66.75
357.988	83.75
358.215	90.75
358.441	86.75
358.668	90.75
358.895	79.75
359.122	79.75
359.349	86.75
359.576	76.75
359.802	74.75
360.029	82.75
360.256	94.75
360.483	94.75
360.709	79.75
360.936	91.75
361.163	82.75
361.39	86.75
361.616	85.75
361.843	90.75
362.07	98.75
362.296	95.75
362.523	77.75
362.749	99.75
362.976	99.75
363.203	95.75
363.429	85.75
363.656	101.75
363.882	99.75
364.109	89.75
364.335	108.75
364.562	100.75
364.788	95.75
365.015	101.75
365.241	94.75
365.468	84.75
365.694	98.75
365.92	93.75
366.147	78.75
366.373	85.75
366.599	90.75
366.826	85.75
367.052	89.75
367.278	93.75
367.505	92.75
367.731	93.75
367.957	83.75
368.184	77.75
368.41	75.75
368.636	105.75
368.862	86.75
369.089	94.75
369.315	88.75
369.541	80.75
369.767	92.75
369.993	84.75
370.219	89.75
370.445	86.75
370.672	87.75
370.898	82.75
371.124	88.75
371.35	78.75
371.576	84.75
371.802	82.75
372.028	81.75
372.254	95.75
372.48	94.75
372.706	93.75
372.932	81.75
373.158	82.75
373.384	85.75
373.61	85.75
373.835	102.75
374.061	97.75
374.287	77.75
374.513	93.75
374.739	88.75
374.965	94.75
375.191	84.75
375.416	85.75
375.642	91.75
375.868	97.75
376.094	93.75
376.319	85.75
376.545	76.75
376.771	77.75
376.997	83.75
377.222	89.75
377.448	96.75
377.674	90.75
377.899	84.75
378.125	89.75
378.35	89.75
378.576	93.75
378.802	82.75
379.027	82.75
379.253	81.75
379.478	88.75
379.704	75.75
379.929	87.75
380.155	85.75
380.38	83.75
380.606	90.75
380.831	86.75
381.057	93.75
381.282	97.75
381.507	93.75
381.733	93.75
381.958	84.75
382.184	86.75
382.409	92.75
382.634	90.75
382.86	90.75
383.085	88.75
383.31	78.75
383.535	95.75
383.761	98.75
383.986	85.75
384.211	83.75
384.436	81.75
384.662	85.75
384.887	89.75
385.112	77.75
385.337	85.75
385.562	74.75
385.787	85.75
386.013	94.75
386.238	97.75
386.463	88.75
386.688	108.75
386.913	93.75
387.138	92.75
387.363	93.75
387.588	93.75
387.813	105.75
388.038	85.75
388.263	87.75
388.488	92.75
388.713	102.75
388.938	93.75
389.163	94.75
389.387	75.75
389.612	81.75
389.837	92.75
390.062	89.75
390.287	88.75
390.512	82.75
390.736	83.75
390.961	81.75
391.186	85.75
391.411	92.75
391.636	97.75
391.86	89.75
392.085	77.75
392.31	96.75
392.534	88.75
392.759	108.75
392.984	142.75
393.208	197.75
393.433	293.75
393.658	234.75
393.882	113.75
394.107	104.75
394.331	121.75
394.556	93.75
394.78	92.75
395.005	102.75
395.229	96.75
395.454	98.75
395.678	104.75
395.903	115.75
396.127	111.75
396.352	121.75
396.576	147.75
396.801	222.75
397.025	231.75
397.249	140.75
397.474	108.75
397.698	108.75
397.922	92.75
398.147	88.75
398.371	97.75
398.595	102.75
398.82	104.75
399.044	94.75
399.268	86.75
399.492	85.75
399.717	93.75
399.941	76.75
400.165	83.75
400.389	83.75
400.613	90.75
400.837	93.75
401.062	97.75
401.286	65.75
401.51	87.75
401.734	83.75
401.958	87.75
402.182	86.75
402.406	91.75
402.63	71.75
402.854	83.75
403.078	92.75
403.302	93.75
403.526	85.75
403.75	95.75
403.974	95.75
404.198	124.75
404.422	177.75
404.645	193.75
404.869	158.75
405.093	117.75
405.317	88.75
405.541	96.75
405.765	105.75
405.988	82.75
406.212	87.75
406.436	85.75
406.66	89.75
406.883	82.75
407.107	89.75
407.331	91.75
407.555	97.75
407.778	100.75
408.002	107.75
408.226	78.75
408.449	87.75
408.673	87.75
408.896	84.75
409.12	81.75
409.344	91.75
409.567	81.75
409.791	95.75
410.014	93.75
410.238	82.75
410.461	74.75
410.685	87.75
410.908	91.75
411.132	91.75
411.355	80.75
411.578	101.75
411.802	100.75
412.025	90.75
412.249	75.75
412.472	90.75
412.695	93.75
412.919	82.75
413.142	77.75
413.365	87.75
413.589	97.75
413.812	89.75
414.035	91.75
414.258	83.75
414.482	84.75
414.705	91.75
414.928	77.75
415.151	89.75
415.374	95.75
415.597	86.75
415.821	78.75
416.044	89.75
416.267	103.75
416.49	93.75
416.713	76.75
416.936	88.75
417.159	92.75
417.382	89.75
417.605	97.75
417.828	76.75
418.051	89.75
418.274	81.75
418.497	84.75
418.72	86.75
418.943	97.75
419.166	77.75
419.389	73.75
419.611	88.75
419.834	82.75
420.057	88.75
420.28	87.75
420.503	89.75
420.726	93.75
420.948	93.75
421.171	94.75
421.394	96.75
421.617	107.75
421.839	109.75
422.062	123.75
422.285	154.75
422.507	287.75
422.73	429.75
422.953	364.75
423.175	205.75
423.398	124.75
423.621	117.75
423.843	101.75
424.066	87.75
424.288	73.75
424.511	90.75
424.733	97.75
424.956	75.75
425.178	97.75
425.401	105.75
425.623	88.75
425.846	86.75
426.068	91.75
426.291	92.75
426.513	79.75
426.735	76.75
426.958	79.75
427.18	95.75
427.402	73.75
427.625	82.75
427.847	116.75
428.069	119.75
428.292	140.75
428.514	158.75
428.736	107.75
428.958	121.75
429.181	132.75
429.403	98.75
429.625	95.75
429.847	122.75
430.069	166.75
430.292	193.75
430.514	162.75
430.736	126.75
430.958	145.75
431.18	98.75
431.402	100.75
431.624	109.75
431.846	124.75
432.068	133.75
432.29	109.75
432.512	93.75
432.734	82.75
432.956	99.75
433.178	96.75
433.4	66.75
433.622	94.75
433.844	93.75
434.066	91.75
434.287	95.75
434.509	81.75
434.731	71.75
434.953	95.75
435.175	101.75
435.397	95.75
435.618	84.75
435.84	96.75
436.062	86.75
436.284	84.75
436.505	99.75
436.727	81.75
436.949	86.75
437.17	80.75
437.392	91.75
437.614	87.75
437.835	95.75
438.057	85.75
438.278	77.75
438.5	95.75
438.721	87.75
438.943	104.75
439.165	95.75
439.386	87.75
439.608	92.75
439.829	82.75
440.05	93.75
440.272	86.75
440.493	80.75
440.715	87.75
440.936	84.75
441.158	85.75
441.379	77.75
441.6	98.75
441.822	83.75
442.043	103.75
442.264	100.75
442.486	125.75
442.707	151.75
442.928	121.75
443.149	113.75
443.371	157.75
443.592	220.75
443.813	197.75
444.034	117.75
444.255	94.75
444.476	102.75
444.698	99.75
444.919	102.75
445.14	198.75
445.361	213.75
445.582	281.75
445.803	233.75
446.024	119.75
446.245	97.75
446.466	81.75
446.687	91.75
446.908	97.75
447.129	85.75
447.35	85.75
447.571	88.75
447.792	76.75
448.013	68.75
448.234	86.75
448.455	82.75
448.675	82.75
448.896	92.75
449.117	94.75
449.338	77.75
449.559	97.75
449.779	91.75
450	69.75
450.221	77.75
450.442	76.75
450.662	90.75
450.883	92.75
451.104	97.75
451.324	94.75
451.545	77.75
451.766	83.75
451.986	76.75
452.207	85.75
452.428	83.75
452.648	100.75
452.869	94.75
453.089	86.75
453.31	78.75
453.53	90.75
453.751	97.75
453.971	80.75
454.192	93.75
454.412	83.75
454.633	76.75
454.853	92.75
455.073	83.75
455.294	88.75
455.514	88.75
455.734	89.75
455.955	69.75
456.175	100.75
456.395	78.75
456.616	85.75
456.836	77.75
457.056	77.75
457.276	84.75
457.497	102.75
457.717	100.75
457.937	98.75
458.157	100.75
458.377	104.75
458.598	106.75
458.818	116.75
459.038	93.75
459.258	95.75
459.478	85.75
459.698	90.75
459.918	91.75
460.138	86.75
460.358	111.75
460.578	109.75
460.798	120.75
461.018	104.75
461.238	97.75
461.458	76.75
461.678	78.75
461.898	93.75
462.118	85.75
462.338	85.75
462.558	103.75
462.777	92.75
462.997	87.75
463.217	91.75
463.437	89.75
463.657	74.75
463.876	89.75
464.096	85.75
464.316	82.75
464.536	82.75
464.755	77.75
464.975	87.75
465.195	87.75
465.414	78.75
465.634	83.75
465.854	80.75
466.073	91.75
466.293	92.75
466.512	78.75
466.732	93.75
466.951	77.75
467.171	92.75
467.391	86.75
467.61	78.75
467.829	87.75
468.049	89.75
468.268	81.75
468.488	62.75
468.707	97.75
468.927	78.75
469.146	89.75
469.365	86.75
469.585	96.75
469.804	90.75
470.023	79.75
470.243	76.75
470.462	85.75
470.681	78.75
470.901	87.75
471.12	89.75
471.339	77.75
471.558	94.75
471.777	87.75
471.997	77.75
472.216	90.75
472.435	88.75
472.654	80.75
472.873	91.75
473.092	92.75
473.311	80.75
473.53	95.75
473.749	95.75
473.968	95.75
474.187	101.75
474.406	103.75
474.625	99.75
474.844	87.75
475.063	85.75
475.282	85.75
475.501	92.75
475.72	89.75
475.939	76.75
476.158	89.75
476.377	85.75
476.596	87.75
476.814	94.75
477.033	79.75
477.252	83.75
477.471	80.75
477.69	86.75
477.908	71.75
478.127	89.75
478.346	102.75
478.564	102.75
478.783	101.75
479.002	94.75
479.22	95.75
479.439	100.75
479.658	89.75
479.876	85.75
480.095	85.75
480.313	104.75
480.532	83.75
480.751	88.75
480.969	95.75
481.188	77.75
481.406	105.75
481.624	101.75
481.843	91.75
482.061	93.75
482.28	93.75
482.498	99.75
482.717	93.75
482.935	97.75
483.153	85.75
483.372	91.75
483.59	77.75
483.808	91.75
484.027	98.75
484.245	96.75
484.463	97.75
484.681	86.75
484.9	84.75
485.118	90.75
485.336	71.75
485.554	75.75
485.772	85.75
485.99	84.75
486.209	80.75
486.427	86.75
486.645	89.75
486.863	91.75
487.081	79.75
487.299	74.75
487.517	93.75
487.735	97.75
487.953	129.75
488.171	129.75
488.389	107.75
488.607	89.75
488.825	83.75
489.043	98.75
489.261	89.75
489.479	80.75
489.696	97.75
489.914	100.75
490.132	88.75
490.35	102.75
490.568	95.75
490.786	107.75
491.003	94.75
491.221	88.75
491.439	89.75
491.657	97.75
491.874	106.75
492.092	97.75
492.31	91.75
492.527	85.75
492.745	101.75
492.963	91.75
493.18	91.75
493.398	89.75
493.615	90.75
493.833	97.75
494.05	102.75
494.268	89.75
494.485	92.75
494.703	90.75
494.92	102.75
495.138	90.75
495.355	104.75
495.573	96.75
495.79	87.75
496.008	93.75
496.225	99.75
496.442	97.75
496.66	91.75
496.877	85.75
497.094	84.75
497.312	87.75
497.529	90.75
497.746	84.75
497.963	83.75
498.181	98.75
498.398	92.75
498.615	86.75
498.832	95.75
499.049	101.75
499.267	87.75
499.484	93.75
499.701	97.75
499.918	94.75
500.135	82.75
500.352	84.75
500.569	95.75
500.786	77.75
501.003	105.75
501.22	85.75
501.437	87.75
501.654	86.75
501.871	92.75
502.088	94.75
502.305	93.75
502.522	89.75
502.739	83.75
502.956	88.75
503.172	77.75
503.389	105.75
503.606	92.75
503.823	92.75
504.04	95.75
504.256	124.75
504.473	110.75
504.69	78.75
504.907	97.75
505.123	85.75
505.34	99.75
505.557	103.75
505.773	82.75
505.99	99.75
506.207	97.75
506.423	84.75
506.64	91.75
506.856	85.75
507.073	88.75
507.289	77.75
507.506	93.75
507.722	65.75
507.939	89.75
508.155	83.75
508.372	94.75
508.588	81.75
508.805	92.75
509.021	85.75
509.238	78.75
509.454	69.75
509.67	100.75
509.887	75.75
510.103	92.75
510.319	81.75
510.536	118.75
510.752	92.75
510.968	92.75
511.184	90.75
511.401	94.75
511.617	92.75
511.833	79.75
512.049	92.75
512.265	77.75
512.481	85.75
512.698	79.75
512.914	85.75
513.13	98.75
513.346	93.75
513.562	89.75
513.778	95.75
513.994	86.75
514.21	74.75
514.426	73.75
514.642	94.75
514.858	102.75
515.074	93.75
515.29	107.75
515.506	88.75
515.721	88.75
515.937	91.75
516.153	97.75
516.369	85.75
516.585	90.75
516.801	82.75
517.016	91.75
517.232	92.75
517.448	88.75
517.664	102.75
517.879	83.75
518.095	76.75
