Data from 2145_1_HRD10591_00023.txt Node
Date: Mon Jan 19 14:21:20 EST 2026
User: Yrep
Spectrometer: HR+D1059
Trigger mode: 1
Integration Time (sec): 1.000000E-1
Scans to average: 1
Electric dark correction enabled: true
Nonlinearity correction enabled: false
Boxcar width: 0
XAxis mode: Wavelengths
Number of Pixels in Spectrum: 2048
>>>>>Begin Spectral Data<<<<<
223.165	-15.88
223.4	-15.88
223.635	-15.88
223.869	-26.88
224.104	-21.88
224.338	-31.88
224.573	-6.88
224.808	-15.88
225.042	2.12
225.277	-2.88
225.511	-7.88
225.746	6.12
225.98	1.12
226.215	9.12
226.449	15.12
226.683	20.12
226.918	39.12
227.152	37.12
227.387	29.12
227.621	39.12
227.856	53.12
228.09	45.12
228.324	57.12
228.559	58.12
228.793	49.12
229.027	58.12
229.262	73.12
229.496	74.12
229.73	66.12
229.964	74.12
230.199	78.12
230.433	80.12
230.667	84.12
230.901	76.12
231.136	69.12
231.37	83.12
231.604	84.12
231.838	72.12
232.072	79.12
232.306	86.12
232.541	89.12
232.775	68.12
233.009	92.12
233.243	85.12
233.477	80.12
233.711	84.12
233.945	77.12
234.179	78.12
234.413	76.12
234.647	75.12
234.881	89.12
235.115	86.12
235.349	73.12
235.583	82.12
235.817	83.12
236.051	80.12
236.285	90.12
236.519	102.12
236.753	84.12
236.987	70.12
237.221	74.12
237.455	80.12
237.689	68.12
237.922	92.12
238.156	80.12
238.39	78.12
238.624	82.12
238.858	82.12
239.091	74.12
239.325	72.12
239.559	68.12
239.793	68.12
240.027	69.12
240.26	73.12
240.494	83.12
240.728	68.12
240.961	79.12
241.195	90.12
241.429	74.12
241.662	80.12
241.896	76.12
242.13	71.12
242.363	82.12
242.597	68.12
242.83	66.12
243.064	88.12
243.298	74.12
243.531	74.12
243.765	73.12
243.998	85.12
244.232	96.12
244.465	73.12
244.699	68.12
244.932	87.12
245.166	73.12
245.399	73.12
245.633	73.12
245.866	85.12
246.099	96.12
246.333	80.12
246.566	81.12
246.8	76.12
247.033	94.12
247.266	81.12
247.5	79.12
247.733	83.12
247.966	83.12
248.2	74.12
248.433	74.12
248.666	75.12
248.899	82.12
249.133	86.12
249.366	71.12
249.599	91.12
249.832	76.12
250.066	72.12
250.299	80.12
250.532	73.12
250.765	80.12
250.998	74.12
251.231	71.12
251.465	67.12
251.698	75.12
251.931	69.12
252.164	63.12
252.397	79.12
252.63	67.12
252.863	88.12
253.096	94.12
253.329	74.12
253.562	80.12
253.795	78.12
254.028	79.12
254.261	76.12
254.494	86.12
254.727	82.12
254.96	80.12
255.193	84.12
255.426	72.12
255.659	84.12
255.892	98.12
256.124	92.12
256.357	82.12
256.59	78.12
256.823	82.12
257.056	78.12
257.289	82.12
257.521	81.12
257.754	81.12
257.987	84.12
258.22	81.12
258.452	73.12
258.685	73.12
258.918	82.12
259.151	70.12
259.383	79.12
259.616	90.12
259.849	76.12
260.081	73.12
260.314	77.12
260.547	79.12
260.779	66.12
261.012	84.12
261.244	80.12
261.477	99.12
261.71	78.12
261.942	68.12
262.175	83.12
262.407	84.12
262.64	83.12
262.872	74.12
263.105	78.12
263.337	84.12
263.57	86.12
263.802	97.12
264.035	79.12
264.267	84.12
264.499	72.12
264.732	85.12
264.964	78.12
265.197	80.12
265.429	87.12
265.661	94.12
265.894	84.12
266.126	63.12
266.358	75.12
266.591	83.12
266.823	77.12
267.055	85.12
267.287	85.12
267.52	72.12
267.752	93.12
267.984	88.12
268.216	75.12
268.448	71.12
268.681	93.12
268.913	96.12
269.145	77.12
269.377	78.12
269.609	76.12
269.841	79.12
270.073	85.12
270.306	72.12
270.538	69.12
270.77	82.12
271.002	66.12
271.234	74.12
271.466	70.12
271.698	76.12
271.93	80.12
272.162	81.12
272.394	92.12
272.626	88.12
272.858	85.12
273.09	80.12
273.322	79.12
273.553	77.12
273.785	90.12
274.017	85.12
274.249	88.12
274.481	75.12
274.713	86.12
274.945	80.12
275.176	90.12
275.408	89.12
275.64	73.12
275.872	81.12
276.104	89.12
276.335	92.12
276.567	78.12
276.799	93.12
277.031	89.12
277.262	82.12
277.494	89.12
277.726	97.12
277.957	74.12
278.189	83.12
278.421	96.12
278.652	78.12
278.884	99.12
279.115	97.12
279.347	68.12
279.579	95.12
279.81	66.12
280.042	92.12
280.273	75.12
280.505	82.12
280.736	80.12
280.968	84.12
281.199	99.12
281.431	90.12
281.662	73.12
281.894	81.12
282.125	90.12
282.356	86.12
282.588	88.12
282.819	81.12
283.051	82.12
283.282	88.12
283.513	79.12
283.745	77.12
283.976	85.12
284.207	107.12
284.439	79.12
284.67	78.12
284.901	80.12
285.132	82.12
285.364	74.12
285.595	69.12
285.826	74.12
286.057	70.12
286.288	73.12
286.52	83.12
286.751	75.12
286.982	98.12
287.213	78.12
287.444	89.12
287.675	92.12
287.906	89.12
288.138	90.12
288.369	78.12
288.6	83.12
288.831	87.12
289.062	78.12
289.293	92.12
289.524	82.12
289.755	78.12
289.986	87.12
290.217	85.12
290.448	75.12
290.679	91.12
290.91	84.12
291.141	84.12
291.371	89.12
291.602	77.12
291.833	92.12
292.064	85.12
292.295	84.12
292.526	95.12
292.757	83.12
292.987	79.12
293.218	76.12
293.449	69.12
293.68	67.12
293.91	94.12
294.141	89.12
294.372	86.12
294.603	86.12
294.833	75.12
295.064	81.12
295.295	92.12
295.525	73.12
295.756	90.12
295.987	96.12
296.217	91.12
296.448	87.12
296.679	100.12
296.909	72.12
297.14	86.12
297.37	91.12
297.601	87.12
297.831	82.12
298.062	83.12
298.292	73.12
298.523	76.12
298.753	90.12
298.984	91.12
299.214	76.12
299.445	83.12
299.675	81.12
299.905	98.12
300.136	92.12
300.366	84.12
300.597	90.12
300.827	78.12
301.057	84.12
301.288	94.12
301.518	79.12
301.748	72.12
301.979	89.12
302.209	78.12
302.439	62.12
302.669	80.12
302.9	84.12
303.13	89.12
303.36	84.12
303.59	82.12
303.82	77.12
304.051	90.12
304.281	87.12
304.511	92.12
304.741	97.12
304.971	84.12
305.201	90.12
305.431	92.12
305.661	100.12
305.891	79.12
306.121	96.12
306.352	85.12
306.582	90.12
306.812	85.12
307.042	84.12
307.272	74.12
307.502	86.12
307.731	87.12
307.961	95.12
308.191	90.12
308.421	101.12
308.651	101.12
308.881	92.12
309.111	91.12
309.341	84.12
309.571	88.12
309.8	88.12
310.03	101.12
310.26	88.12
310.49	94.12
310.72	88.12
310.949	100.12
311.179	84.12
311.409	70.12
311.639	82.12
311.868	77.12
312.098	86.12
312.328	94.12
312.557	82.12
312.787	79.12
313.017	81.12
313.246	94.12
313.476	73.12
313.706	85.12
313.935	93.12
314.165	90.12
314.394	92.12
314.624	91.12
314.853	78.12
315.083	89.12
315.312	86.12
315.542	73.12
315.771	85.12
316.001	99.12
316.23	88.12
316.46	77.12
316.689	91.12
316.919	74.12
317.148	94.12
317.377	85.12
317.607	90.12
317.836	88.12
318.065	86.12
318.295	104.12
318.524	87.12
318.753	84.12
318.983	78.12
319.212	91.12
319.441	70.12
319.67	86.12
319.9	92.12
320.129	97.12
320.358	94.12
320.587	93.12
320.816	73.12
321.046	88.12
321.275	84.12
321.504	93.12
321.733	88.12
321.962	76.12
322.191	85.12
322.42	74.12
322.649	91.12
322.878	83.12
323.108	96.12
323.337	98.12
323.566	88.12
323.795	81.12
324.024	76.12
324.253	84.12
324.482	90.12
324.71	75.12
324.939	86.12
325.168	79.12
325.397	87.12
325.626	89.12
325.855	90.12
326.084	74.12
326.313	89.12
326.542	70.12
326.77	82.12
326.999	82.12
327.228	73.12
327.457	77.12
327.686	71.12
327.914	85.12
328.143	83.12
328.372	85.12
328.6	92.12
328.829	88.12
329.058	88.12
329.287	96.12
329.515	80.12
329.744	89.12
329.972	91.12
330.201	86.12
330.43	89.12
330.658	89.12
330.887	72.12
331.115	80.12
331.344	95.12
331.572	96.12
331.801	77.12
332.03	102.12
332.258	91.12
332.486	88.12
332.715	82.12
332.943	87.12
333.172	90.12
333.4	86.12
333.629	94.12
333.857	83.12
334.085	94.12
334.314	80.12
334.542	75.12
334.771	71.12
334.999	77.12
335.227	76.12
335.455	92.12
335.684	95.12
335.912	74.12
336.14	88.12
336.369	86.12
336.597	89.12
336.825	90.12
337.053	95.12
337.281	83.12
337.51	76.12
337.738	81.12
337.966	74.12
338.194	75.12
338.422	84.12
338.65	83.12
338.878	85.12
339.106	78.12
339.334	82.12
339.562	77.12
339.79	90.12
340.018	88.12
340.246	85.12
340.474	90.12
340.702	78.12
340.93	78.12
341.158	91.12
341.386	89.12
341.614	90.12
341.842	84.12
342.07	86.12
342.298	94.12
342.526	70.12
342.754	79.12
342.981	74.12
343.209	88.12
343.437	96.12
343.665	96.12
343.893	89.12
344.12	76.12
344.348	105.12
344.576	88.12
344.804	82.12
345.031	74.12
345.259	88.12
345.487	89.12
345.714	97.12
345.942	75.12
346.17	96.12
346.397	92.12
346.625	91.12
346.853	78.12
347.08	79.12
347.308	82.12
347.535	83.12
347.763	82.12
347.99	82.12
348.218	82.12
348.445	76.12
348.673	87.12
348.9	85.12
349.128	93.12
349.355	90.12
349.583	82.12
349.81	72.12
350.037	85.12
350.265	84.12
350.492	78.12
350.72	82.12
350.947	88.12
351.174	77.12
351.402	73.12
351.629	92.12
351.856	94.12
352.083	79.12
352.311	90.12
352.538	75.12
352.765	85.12
352.992	88.12
353.22	89.12
353.447	78.12
353.674	89.12
353.901	81.12
354.128	84.12
354.355	84.12
354.583	82.12
354.81	72.12
355.037	97.12
355.264	87.12
355.491	87.12
355.718	92.12
355.945	91.12
356.172	88.12
356.399	92.12
356.626	100.12
356.853	87.12
357.08	92.12
357.307	82.12
357.534	78.12
357.761	81.12
357.988	92.12
358.215	85.12
358.441	81.12
358.668	79.12
358.895	84.12
359.122	72.12
359.349	90.12
359.576	84.12
359.802	84.12
360.029	83.12
360.256	88.12
360.483	85.12
360.709	84.12
360.936	94.12
361.163	86.12
361.39	77.12
361.616	75.12
361.843	101.12
362.07	81.12
362.296	93.12
362.523	88.12
362.749	102.12
362.976	105.12
363.203	103.12
363.429	89.12
363.656	75.12
363.882	79.12
364.109	114.12
364.335	126.12
364.562	109.12
364.788	93.12
365.015	107.12
365.241	90.12
365.468	82.12
365.694	77.12
365.92	86.12
366.147	89.12
366.373	89.12
366.599	75.12
366.826	100.12
367.052	91.12
367.278	84.12
367.505	78.12
367.731	88.12
367.957	96.12
368.184	80.12
368.41	79.12
368.636	88.12
368.862	91.12
369.089	82.12
369.315	75.12
369.541	89.12
369.767	81.12
369.993	82.12
370.219	81.12
370.445	79.12
370.672	81.12
370.898	90.12
371.124	92.12
371.35	96.12
371.576	97.12
371.802	88.12
372.028	74.12
372.254	95.12
372.48	88.12
372.706	96.12
372.932	95.12
373.158	76.12
373.384	93.12
373.61	106.12
373.835	89.12
374.061	106.12
374.287	83.12
374.513	96.12
374.739	85.12
374.965	85.12
375.191	96.12
375.416	86.12
375.642	87.12
375.868	87.12
376.094	79.12
376.319	97.12
376.545	86.12
376.771	76.12
376.997	100.12
377.222	90.12
377.448	87.12
377.674	81.12
377.899	92.12
378.125	83.12
378.35	87.12
378.576	97.12
378.802	81.12
379.027	80.12
379.253	82.12
379.478	95.12
379.704	88.12
379.929	83.12
380.155	81.12
380.38	85.12
380.606	77.12
380.831	89.12
381.057	86.12
381.282	80.12
381.507	85.12
381.733	77.12
381.958	90.12
382.184	77.12
382.409	96.12
382.634	91.12
382.86	90.12
383.085	98.12
383.31	89.12
383.535	92.12
383.761	76.12
383.986	80.12
384.211	88.12
384.436	90.12
384.662	77.12
384.887	84.12
385.112	81.12
385.337	91.12
385.562	83.12
385.787	89.12
386.013	102.12
386.238	71.12
386.463	82.12
386.688	93.12
386.913	84.12
387.138	85.12
387.363	78.12
387.588	97.12
387.813	84.12
388.038	91.12
388.263	83.12
388.488	78.12
388.713	86.12
388.938	88.12
389.163	78.12
389.387	84.12
389.612	79.12
389.837	78.12
390.062	92.12
390.287	101.12
390.512	95.12
390.736	84.12
390.961	89.12
391.186	71.12
391.411	85.12
391.636	93.12
391.86	102.12
392.085	104.12
392.31	100.12
392.534	98.12
392.759	112.12
392.984	136.12
393.208	195.12
393.433	282.12
393.658	221.12
393.882	111.12
394.107	97.12
394.331	91.12
394.556	119.12
394.78	97.12
395.005	98.12
395.229	97.12
395.454	93.12
395.678	87.12
395.903	106.12
396.127	116.12
396.352	129.12
396.576	134.12
396.801	203.12
397.025	226.12
397.249	129.12
397.474	118.12
397.698	104.12
397.922	85.12
398.147	68.12
398.371	89.12
398.595	88.12
398.82	89.12
399.044	78.12
399.268	82.12
399.492	85.12
399.717	87.12
399.941	82.12
400.165	85.12
400.389	84.12
400.613	85.12
400.837	88.12
401.062	86.12
401.286	95.12
401.51	97.12
401.734	93.12
401.958	79.12
402.182	84.12
402.406	85.12
402.63	87.12
402.854	94.12
403.078	89.12
403.302	73.12
403.526	79.12
403.75	86.12
403.974	90.12
404.198	115.12
404.422	161.12
404.645	159.12
404.869	136.12
405.093	124.12
405.317	96.12
405.541	90.12
405.765	90.12
405.988	96.12
406.212	83.12
406.436	86.12
406.66	77.12
406.883	94.12
407.107	79.12
407.331	100.12
407.555	88.12
407.778	114.12
408.002	95.12
408.226	92.12
408.449	92.12
408.673	85.12
408.896	90.12
409.12	82.12
409.344	90.12
409.567	97.12
409.791	85.12
410.014	99.12
410.238	94.12
410.461	81.12
410.685	86.12
410.908	99.12
411.132	86.12
411.355	84.12
411.578	82.12
411.802	101.12
412.025	103.12
412.249	82.12
412.472	81.12
412.695	77.12
412.919	78.12
413.142	86.12
413.365	79.12
413.589	96.12
413.812	98.12
414.035	90.12
414.258	91.12
414.482	82.12
414.705	78.12
414.928	81.12
415.151	88.12
415.374	88.12
415.597	85.12
415.821	74.12
416.044	93.12
416.267	90.12
416.49	85.12
416.713	104.12
416.936	81.12
417.159	95.12
417.382	84.12
417.605	84.12
417.828	83.12
418.051	85.12
418.274	89.12
418.497	93.12
418.72	84.12
418.943	86.12
419.166	87.12
419.389	85.12
419.611	88.12
419.834	102.12
420.057	95.12
420.28	81.12
420.503	82.12
420.726	86.12
420.948	94.12
421.171	79.12
421.394	92.12
421.617	96.12
421.839	114.12
422.062	123.12
422.285	152.12
422.507	250.12
422.73	398.12
422.953	350.12
423.175	181.12
423.398	118.12
423.621	92.12
423.843	99.12
424.066	92.12
424.288	100.12
424.511	88.12
424.733	98.12
424.956	89.12
425.178	85.12
425.401	95.12
425.623	85.12
425.846	78.12
426.068	105.12
426.291	94.12
426.513	74.12
426.735	93.12
426.958	88.12
427.18	84.12
427.402	98.12
427.625	87.12
427.847	95.12
428.069	88.12
428.292	116.12
428.514	148.12
428.736	112.12
428.958	124.12
429.181	130.12
429.403	106.12
429.625	94.12
429.847	128.12
430.069	181.12
430.292	178.12
430.514	149.12
430.736	130.12
430.958	138.12
431.18	92.12
431.402	78.12
431.624	87.12
431.846	114.12
432.068	137.12
432.29	98.12
432.512	83.12
432.734	97.12
432.956	72.12
433.178	84.12
433.4	84.12
433.622	81.12
433.844	91.12
434.066	72.12
434.287	84.12
434.509	74.12
434.731	98.12
434.953	79.12
435.175	87.12
435.397	83.12
435.618	90.12
435.84	85.12
436.062	79.12
436.284	75.12
436.505	79.12
436.727	96.12
436.949	78.12
437.17	94.12
437.392	90.12
437.614	84.12
437.835	91.12
438.057	85.12
438.278	84.12
438.5	82.12
438.721	75.12
438.943	96.12
439.165	89.12
439.386	90.12
439.608	78.12
439.829	79.12
440.05	89.12
440.272	87.12
440.493	73.12
440.715	93.12
440.936	88.12
441.158	97.12
441.379	98.12
441.6	96.12
441.822	77.12
442.043	86.12
442.264	107.12
442.486	127.12
442.707	158.12
442.928	120.12
443.149	129.12
443.371	148.12
443.592	230.12
443.813	215.12
444.034	122.12
444.255	96.12
444.476	88.12
444.698	79.12
444.919	102.12
445.14	181.12
445.361	190.12
445.582	278.12
445.803	235.12
446.024	120.12
446.245	96.12
446.466	73.12
446.687	96.12
446.908	76.12
447.129	91.12
447.35	73.12
447.571	80.12
447.792	88.12
448.013	77.12
448.234	94.12
448.455	82.12
448.675	81.12
448.896	88.12
449.117	66.12
449.338	86.12
449.559	72.12
449.779	84.12
450	82.12
450.221	89.12
450.442	82.12
450.662	85.12
450.883	83.12
451.104	79.12
451.324	78.12
451.545	76.12
451.766	86.12
451.986	86.12
452.207	85.12
452.428	102.12
452.648	89.12
452.869	84.12
453.089	92.12
453.31	83.12
453.53	89.12
453.751	74.12
453.971	80.12
454.192	81.12
454.412	91.12
454.633	83.12
454.853	74.12
455.073	99.12
455.294	92.12
455.514	82.12
455.734	86.12
455.955	82.12
456.175	85.12
456.395	84.12
456.616	87.12
456.836	91.12
457.056	92.12
457.276	94.12
457.497	80.12
457.717	104.12
457.937	95.12
458.157	90.12
458.377	116.12
458.598	119.12
458.818	115.12
459.038	106.12
459.258	96.12
459.478	102.12
459.698	93.12
459.918	92.12
460.138	88.12
460.358	84.12
460.578	100.12
460.798	138.12
461.018	124.12
461.238	78.12
461.458	76.12
461.678	86.12
461.898	74.12
462.118	82.12
462.338	74.12
462.558	91.12
462.777	78.12
462.997	91.12
463.217	87.12
463.437	84.12
463.657	97.12
463.876	86.12
464.096	88.12
464.316	80.12
464.536	88.12
464.755	88.12
464.975	89.12
465.195	93.12
465.414	109.12
465.634	86.12
465.854	75.12
466.073	87.12
466.293	85.12
466.512	84.12
466.732	79.12
466.951	92.12
467.171	77.12
467.391	86.12
467.61	99.12
467.829	89.12
468.049	78.12
468.268	75.12
468.488	79.12
468.707	80.12
468.927	101.12
469.146	87.12
469.365	79.12
469.585	78.12
469.804	93.12
470.023	91.12
470.243	83.12
470.462	86.12
470.681	73.12
470.901	87.12
471.12	61.12
471.339	91.12
471.558	89.12
471.777	79.12
471.997	82.12
472.216	77.12
472.435	92.12
472.654	94.12
472.873	87.12
473.092	82.12
473.311	86.12
473.53	93.12
473.749	91.12
473.968	75.12
474.187	79.12
474.406	74.12
474.625	94.12
474.844	87.12
475.063	74.12
475.282	87.12
475.501	70.12
475.72	90.12
475.939	65.12
476.158	82.12
476.377	92.12
476.596	93.12
476.814	94.12
477.033	79.12
477.252	85.12
477.471	76.12
477.69	91.12
477.908	82.12
478.127	77.12
478.346	75.12
478.564	93.12
478.783	75.12
479.002	75.12
479.22	87.12
479.439	99.12
479.658	81.12
479.876	77.12
480.095	84.12
480.313	85.12
480.532	77.12
480.751	91.12
480.969	78.12
481.188	91.12
481.406	88.12
481.624	82.12
481.843	89.12
482.061	85.12
482.28	89.12
482.498	78.12
482.717	82.12
482.935	95.12
483.153	97.12
483.372	94.12
483.59	81.12
483.808	77.12
484.027	92.12
484.245	85.12
484.463	80.12
484.681	98.12
484.9	78.12
485.118	88.12
485.336	81.12
485.554	94.12
485.772	75.12
485.99	93.12
486.209	90.12
486.427	95.12
486.645	94.12
486.863	96.12
487.081	80.12
487.299	90.12
487.517	91.12
487.735	101.12
487.953	135.12
488.171	114.12
488.389	99.12
488.607	96.12
488.825	68.12
489.043	89.12
489.261	86.12
489.479	96.12
489.696	74.12
489.914	81.12
490.132	97.12
490.35	85.12
490.568	77.12
490.786	87.12
491.003	95.12
491.221	89.12
491.439	92.12
491.657	96.12
491.874	90.12
492.092	92.12
492.31	88.12
492.527	69.12
492.745	84.12
492.963	99.12
493.18	91.12
493.398	86.12
493.615	95.12
493.833	84.12
494.05	80.12
494.268	91.12
494.485	95.12
494.703	89.12
494.92	92.12
495.138	87.12
495.355	84.12
495.573	100.12
495.79	101.12
496.008	74.12
496.225	90.12
496.442	95.12
496.66	80.12
496.877	83.12
497.094	98.12
497.312	69.12
497.529	93.12
497.746	90.12
497.963	91.12
498.181	81.12
498.398	76.12
498.615	89.12
498.832	84.12
499.049	89.12
499.267	82.12
499.484	100.12
499.701	87.12
499.918	75.12
500.135	98.12
500.352	78.12
500.569	91.12
500.786	90.12
501.003	82.12
501.22	86.12
501.437	78.12
501.654	75.12
501.871	90.12
502.088	99.12
502.305	82.12
502.522	100.12
502.739	88.12
502.956	78.12
503.172	74.12
503.389	72.12
503.606	88.12
503.823	89.12
504.04	97.12
504.256	102.12
504.473	120.12
504.69	103.12
504.907	104.12
505.123	79.12
505.34	89.12
505.557	78.12
505.773	90.12
505.99	88.12
506.207	79.12
506.423	94.12
506.64	96.12
506.856	85.12
507.073	95.12
507.289	97.12
507.506	79.12
507.722	92.12
507.939	78.12
508.155	86.12
508.372	98.12
508.588	86.12
508.805	86.12
509.021	85.12
509.238	89.12
509.454	88.12
509.67	102.12
509.887	93.12
510.103	90.12
510.319	90.12
510.536	94.12
510.752	73.12
510.968	84.12
511.184	86.12
511.401	89.12
511.617	99.12
511.833	86.12
512.049	86.12
512.265	81.12
512.481	94.12
512.698	91.12
512.914	89.12
513.13	86.12
513.346	80.12
513.562	75.12
513.778	83.12
513.994	72.12
514.21	88.12
514.426	91.12
514.642	104.12
514.858	78.12
515.074	90.12
515.29	70.12
515.506	74.12
515.721	83.12
515.937	79.12
516.153	81.12
516.369	73.12
516.585	83.12
516.801	83.12
517.016	74.12
517.232	88.12
517.448	92.12
517.664	91.12
517.879	89.12
518.095	84.12
518.311	82.12
518.527	97.12
