Data from 2145_1_HRD10591_00036.txt Node
Date: Mon Jan 19 14:21:27 EST 2026
User: Yrep
Spectrometer: HR+D1059
Trigger mode: 1
Integration Time (sec): 1.000000E-1
Scans to average: 1
Electric dark correction enabled: true
Nonlinearity correction enabled: false
Boxcar width: 0
XAxis mode: Wavelengths
Number of Pixels in Spectrum: 2048
>>>>>Begin Spectral Data<<<<<
223.165	-20.25
223.4	-20.25
223.635	-20.25
223.869	-16.25
224.104	-15.25
224.338	-9.25
224.573	-13.25
224.808	-4.25
225.042	-6.25
225.277	-6.25
225.511	-4.25
225.746	-0.25
225.98	5.75
226.215	10.75
226.449	19.75
226.683	15.75
226.918	18.75
227.152	24.75
227.387	35.75
227.621	47.75
227.856	48.75
228.09	54.75
228.324	53.75
228.559	43.75
228.793	56.75
229.027	54.75
229.262	73.75
229.496	66.75
229.73	72.75
229.964	76.75
230.199	78.75
230.433	68.75
230.667	58.75
230.901	77.75
231.136	59.75
231.37	71.75
231.604	72.75
231.838	102.75
232.072	79.75
232.306	63.75
232.541	83.75
232.775	64.75
233.009	74.75
233.243	76.75
233.477	79.75
233.711	82.75
233.945	83.75
234.179	62.75
234.413	62.75
234.647	88.75
234.881	77.75
235.115	82.75
235.349	72.75
235.583	82.75
235.817	75.75
236.051	78.75
236.285	65.75
236.519	73.75
236.753	63.75
236.987	59.75
237.221	74.75
237.455	80.75
237.689	74.75
237.922	81.75
238.156	79.75
238.39	74.75
238.624	60.75
238.858	74.75
239.091	83.75
239.325	74.75
239.559	60.75
239.793	67.75
240.027	87.75
240.26	69.75
240.494	79.75
240.728	78.75
240.961	81.75
241.195	70.75
241.429	75.75
241.662	80.75
241.896	64.75
242.13	79.75
242.363	72.75
242.597	75.75
242.83	72.75
243.064	78.75
243.298	64.75
243.531	73.75
243.765	75.75
243.998	66.75
244.232	82.75
244.465	86.75
244.699	89.75
244.932	77.75
245.166	66.75
245.399	70.75
245.633	71.75
245.866	66.75
246.099	79.75
246.333	86.75
246.566	75.75
246.8	73.75
247.033	84.75
247.266	69.75
247.5	70.75
247.733	66.75
247.966	71.75
248.2	87.75
248.433	73.75
248.666	76.75
248.899	75.75
249.133	83.75
249.366	96.75
249.599	76.75
249.832	76.75
250.066	75.75
250.299	74.75
250.532	73.75
250.765	75.75
250.998	57.75
251.231	77.75
251.465	83.75
251.698	72.75
251.931	88.75
252.164	70.75
252.397	82.75
252.63	73.75
252.863	82.75
253.096	76.75
253.329	74.75
253.562	78.75
253.795	77.75
254.028	84.75
254.261	83.75
254.494	83.75
254.727	77.75
254.96	85.75
255.193	73.75
255.426	71.75
255.659	77.75
255.892	68.75
256.124	66.75
256.357	95.75
256.59	68.75
256.823	70.75
257.056	73.75
257.289	60.75
257.521	82.75
257.754	82.75
257.987	84.75
258.22	91.75
258.452	76.75
258.685	64.75
258.918	66.75
259.151	76.75
259.383	60.75
259.616	84.75
259.849	81.75
260.081	69.75
260.314	73.75
260.547	65.75
260.779	71.75
261.012	75.75
261.244	76.75
261.477	82.75
261.71	76.75
261.942	80.75
262.175	75.75
262.407	88.75
262.64	84.75
262.872	76.75
263.105	83.75
263.337	80.75
263.57	86.75
263.802	89.75
264.035	87.75
264.267	74.75
264.499	75.75
264.732	66.75
264.964	75.75
265.197	82.75
265.429	85.75
265.661	90.75
265.894	86.75
266.126	78.75
266.358	75.75
266.591	95.75
266.823	81.75
267.055	86.75
267.287	76.75
267.52	83.75
267.752	79.75
267.984	86.75
268.216	70.75
268.448	86.75
268.681	82.75
268.913	67.75
269.145	78.75
269.377	74.75
269.609	73.75
269.841	80.75
270.073	82.75
270.306	77.75
270.538	82.75
270.77	74.75
271.002	77.75
271.234	74.75
271.466	81.75
271.698	82.75
271.93	107.75
272.162	87.75
272.394	84.75
272.626	68.75
272.858	87.75
273.09	82.75
273.322	83.75
273.553	75.75
273.785	86.75
274.017	85.75
274.249	83.75
274.481	89.75
274.713	82.75
274.945	74.75
275.176	76.75
275.408	98.75
275.64	77.75
275.872	79.75
276.104	93.75
276.335	78.75
276.567	87.75
276.799	83.75
277.031	76.75
277.262	86.75
277.494	87.75
277.726	82.75
277.957	68.75
278.189	70.75
278.421	72.75
278.652	80.75
278.884	76.75
279.115	76.75
279.347	81.75
279.579	78.75
279.81	70.75
280.042	78.75
280.273	79.75
280.505	81.75
280.736	78.75
280.968	77.75
281.199	79.75
281.431	70.75
281.662	71.75
281.894	88.75
282.125	87.75
282.356	84.75
282.588	84.75
282.819	80.75
283.051	88.75
283.282	75.75
283.513	88.75
283.745	85.75
283.976	83.75
284.207	83.75
284.439	73.75
284.67	84.75
284.901	74.75
285.132	73.75
285.364	83.75
285.595	86.75
285.826	77.75
286.057	65.75
286.288	86.75
286.52	87.75
286.751	69.75
286.982	74.75
287.213	80.75
287.444	90.75
287.675	73.75
287.906	88.75
288.138	75.75
288.369	71.75
288.6	75.75
288.831	77.75
289.062	105.75
289.293	89.75
289.524	74.75
289.755	81.75
289.986	80.75
290.217	77.75
290.448	79.75
290.679	82.75
290.91	79.75
291.141	82.75
291.371	91.75
291.602	85.75
291.833	81.75
292.064	94.75
292.295	77.75
292.526	87.75
292.757	77.75
292.987	74.75
293.218	86.75
293.449	75.75
293.68	77.75
293.91	73.75
294.141	81.75
294.372	99.75
294.603	88.75
294.833	80.75
295.064	72.75
295.295	81.75
295.525	83.75
295.756	79.75
295.987	72.75
296.217	80.75
296.448	80.75
296.679	74.75
296.909	78.75
297.14	94.75
297.37	97.75
297.601	77.75
297.831	63.75
298.062	84.75
298.292	72.75
298.523	82.75
298.753	84.75
298.984	75.75
299.214	88.75
299.445	82.75
299.675	87.75
299.905	84.75
300.136	69.75
300.366	82.75
300.597	104.75
300.827	90.75
301.057	95.75
301.288	79.75
301.518	69.75
301.748	68.75
301.979	86.75
302.209	102.75
302.439	100.75
302.669	90.75
302.9	72.75
303.13	78.75
303.36	72.75
303.59	98.75
303.82	83.75
304.051	83.75
304.281	89.75
304.511	81.75
304.741	77.75
304.971	79.75
305.201	73.75
305.431	73.75
305.661	80.75
305.891	84.75
306.121	85.75
306.352	84.75
306.582	77.75
306.812	83.75
307.042	81.75
307.272	70.75
307.502	91.75
307.731	93.75
307.961	88.75
308.191	89.75
308.421	92.75
308.651	81.75
308.881	83.75
309.111	86.75
309.341	83.75
309.571	94.75
309.8	80.75
310.03	76.75
310.26	80.75
310.49	84.75
310.72	87.75
310.949	86.75
311.179	74.75
311.409	73.75
311.639	78.75
311.868	78.75
312.098	90.75
312.328	82.75
312.557	82.75
312.787	85.75
313.017	78.75
313.246	88.75
313.476	86.75
313.706	87.75
313.935	94.75
314.165	82.75
314.394	100.75
314.624	87.75
314.853	85.75
315.083	94.75
315.312	77.75
315.542	63.75
315.771	80.75
316.001	86.75
316.23	91.75
316.46	93.75
316.689	72.75
316.919	80.75
317.148	82.75
317.377	86.75
317.607	84.75
317.836	73.75
318.065	78.75
318.295	88.75
318.524	74.75
318.753	82.75
318.983	87.75
319.212	84.75
319.441	84.75
319.67	86.75
319.9	83.75
320.129	80.75
320.358	79.75
320.587	84.75
320.816	85.75
321.046	84.75
321.275	87.75
321.504	74.75
321.733	86.75
321.962	82.75
322.191	79.75
322.42	74.75
322.649	90.75
322.878	79.75
323.108	83.75
323.337	71.75
323.566	76.75
323.795	75.75
324.024	89.75
324.253	74.75
324.482	88.75
324.71	82.75
324.939	86.75
325.168	77.75
325.397	81.75
325.626	72.75
325.855	74.75
326.084	87.75
326.313	96.75
326.542	82.75
326.77	93.75
326.999	86.75
327.228	73.75
327.457	86.75
327.686	74.75
327.914	76.75
328.143	86.75
328.372	80.75
328.6	88.75
328.829	99.75
329.058	75.75
329.287	87.75
329.515	75.75
329.744	101.75
329.972	95.75
330.201	83.75
330.43	88.75
330.658	76.75
330.887	82.75
331.115	81.75
331.344	96.75
331.572	83.75
331.801	82.75
332.03	84.75
332.258	77.75
332.486	80.75
332.715	89.75
332.943	88.75
333.172	73.75
333.4	82.75
333.629	75.75
333.857	77.75
334.085	88.75
334.314	82.75
334.542	74.75
334.771	96.75
334.999	98.75
335.227	77.75
335.455	81.75
335.684	89.75
335.912	81.75
336.14	94.75
336.369	81.75
336.597	78.75
336.825	84.75
337.053	86.75
337.281	78.75
337.51	83.75
337.738	82.75
337.966	85.75
338.194	82.75
338.422	88.75
338.65	95.75
338.878	71.75
339.106	78.75
339.334	88.75
339.562	76.75
339.79	86.75
340.018	77.75
340.246	76.75
340.474	80.75
340.702	80.75
340.93	89.75
341.158	88.75
341.386	92.75
341.614	95.75
341.842	88.75
342.07	79.75
342.298	84.75
342.526	88.75
342.754	64.75
342.981	94.75
343.209	79.75
343.437	97.75
343.665	77.75
343.893	77.75
344.12	89.75
344.348	85.75
344.576	98.75
344.804	100.75
345.031	81.75
345.259	81.75
345.487	93.75
345.714	80.75
345.942	76.75
346.17	90.75
346.397	86.75
346.625	82.75
346.853	80.75
347.08	77.75
347.308	87.75
347.535	81.75
347.763	88.75
347.99	77.75
348.218	84.75
348.445	84.75
348.673	81.75
348.9	90.75
349.128	72.75
349.355	91.75
349.583	77.75
349.81	89.75
350.037	92.75
350.265	80.75
350.492	87.75
350.72	82.75
350.947	84.75
351.174	83.75
351.402	65.75
351.629	82.75
351.856	75.75
352.083	78.75
352.311	81.75
352.538	73.75
352.765	89.75
352.992	88.75
353.22	83.75
353.447	91.75
353.674	90.75
353.901	99.75
354.128	86.75
354.355	90.75
354.583	94.75
354.81	84.75
355.037	79.75
355.264	89.75
355.491	74.75
355.718	75.75
355.945	80.75
356.172	82.75
356.399	73.75
356.626	83.75
356.853	82.75
357.08	84.75
357.307	88.75
357.534	83.75
357.761	78.75
357.988	90.75
358.215	92.75
358.441	103.75
358.668	84.75
358.895	81.75
359.122	76.75
359.349	94.75
359.576	72.75
359.802	90.75
360.029	71.75
360.256	75.75
360.483	80.75
360.709	78.75
360.936	89.75
361.163	80.75
361.39	85.75
361.616	84.75
361.843	85.75
362.07	96.75
362.296	87.75
362.523	75.75
362.749	86.75
362.976	82.75
363.203	92.75
363.429	82.75
363.656	82.75
363.882	86.75
364.109	88.75
364.335	98.75
364.562	84.75
364.788	79.75
365.015	67.75
365.241	90.75
365.468	70.75
365.694	88.75
365.92	96.75
366.147	71.75
366.373	83.75
366.599	79.75
366.826	82.75
367.052	82.75
367.278	98.75
367.505	95.75
367.731	92.75
367.957	78.75
368.184	91.75
368.41	86.75
368.636	88.75
368.862	74.75
369.089	86.75
369.315	79.75
369.541	90.75
369.767	87.75
369.993	83.75
370.219	77.75
370.445	75.75
370.672	87.75
370.898	90.75
371.124	63.75
371.35	83.75
371.576	77.75
371.802	87.75
372.028	75.75
372.254	85.75
372.48	80.75
372.706	75.75
372.932	62.75
373.158	82.75
373.384	77.75
373.61	91.75
373.835	86.75
374.061	84.75
374.287	80.75
374.513	86.75
374.739	84.75
374.965	82.75
375.191	76.75
375.416	87.75
375.642	85.75
375.868	91.75
376.094	86.75
376.319	85.75
376.545	85.75
376.771	75.75
376.997	88.75
377.222	79.75
377.448	90.75
377.674	86.75
377.899	78.75
378.125	90.75
378.35	80.75
378.576	73.75
378.802	79.75
379.027	82.75
379.253	83.75
379.478	78.75
379.704	79.75
379.929	83.75
380.155	83.75
380.38	82.75
380.606	87.75
380.831	76.75
381.057	85.75
381.282	83.75
381.507	74.75
381.733	74.75
381.958	59.75
382.184	82.75
382.409	91.75
382.634	83.75
382.86	77.75
383.085	73.75
383.31	80.75
383.535	96.75
383.761	84.75
383.986	78.75
384.211	90.75
384.436	65.75
384.662	61.75
384.887	79.75
385.112	70.75
385.337	87.75
385.562	91.75
385.787	70.75
386.013	105.75
386.238	82.75
386.463	72.75
386.688	98.75
386.913	81.75
387.138	92.75
387.363	81.75
387.588	79.75
387.813	79.75
388.038	83.75
388.263	82.75
388.488	84.75
388.713	90.75
388.938	97.75
389.163	94.75
389.387	69.75
389.612	87.75
389.837	78.75
390.062	72.75
390.287	84.75
390.512	82.75
390.736	82.75
390.961	82.75
391.186	84.75
391.411	77.75
391.636	81.75
391.86	76.75
392.085	96.75
392.31	94.75
392.534	99.75
392.759	90.75
392.984	116.75
393.208	152.75
393.433	191.75
393.658	162.75
393.882	90.75
394.107	77.75
394.331	98.75
394.556	94.75
394.78	96.75
395.005	91.75
395.229	80.75
395.454	103.75
395.678	96.75
395.903	91.75
396.127	99.75
396.352	108.75
396.576	112.75
396.801	152.75
397.025	164.75
397.249	114.75
397.474	86.75
397.698	81.75
397.922	73.75
398.147	72.75
398.371	85.75
398.595	71.75
398.82	82.75
399.044	82.75
399.268	82.75
399.492	88.75
399.717	83.75
399.941	84.75
400.165	87.75
400.389	75.75
400.613	74.75
400.837	81.75
401.062	76.75
401.286	70.75
401.51	80.75
401.734	92.75
401.958	88.75
402.182	87.75
402.406	68.75
402.63	89.75
402.854	84.75
403.078	90.75
403.302	67.75
403.526	86.75
403.75	99.75
403.974	95.75
404.198	105.75
404.422	149.75
404.645	169.75
404.869	136.75
405.093	100.75
405.317	90.75
405.541	84.75
405.765	95.75
405.988	72.75
406.212	86.75
406.436	72.75
406.66	84.75
406.883	85.75
407.107	81.75
407.331	87.75
407.555	100.75
407.778	86.75
408.002	82.75
408.226	87.75
408.449	90.75
408.673	72.75
408.896	76.75
409.12	95.75
409.344	98.75
409.567	88.75
409.791	82.75
410.014	75.75
410.238	76.75
410.461	103.75
410.685	98.75
410.908	80.75
411.132	87.75
411.355	77.75
411.578	76.75
411.802	82.75
412.025	68.75
412.249	92.75
412.472	86.75
412.695	83.75
412.919	80.75
413.142	98.75
413.365	92.75
413.589	82.75
413.812	81.75
414.035	92.75
414.258	82.75
414.482	86.75
414.705	79.75
414.928	89.75
415.151	81.75
415.374	86.75
415.597	73.75
415.821	72.75
416.044	89.75
416.267	98.75
416.49	72.75
416.713	76.75
416.936	69.75
417.159	77.75
417.382	76.75
417.605	80.75
417.828	85.75
418.051	83.75
418.274	90.75
418.497	80.75
418.72	78.75
418.943	82.75
419.166	81.75
419.389	76.75
419.611	70.75
419.834	92.75
420.057	88.75
420.28	70.75
420.503	85.75
420.726	82.75
420.948	89.75
421.171	89.75
421.394	102.75
421.617	96.75
421.839	98.75
422.062	103.75
422.285	139.75
422.507	217.75
422.73	320.75
422.953	289.75
423.175	161.75
423.398	105.75
423.621	86.75
423.843	83.75
424.066	81.75
424.288	81.75
424.511	97.75
424.733	95.75
424.956	94.75
425.178	80.75
425.401	75.75
425.623	77.75
425.846	79.75
426.068	87.75
426.291	75.75
426.513	77.75
426.735	89.75
426.958	84.75
427.18	78.75
427.402	80.75
427.625	81.75
427.847	90.75
428.069	88.75
428.292	96.75
428.514	112.75
428.736	100.75
428.958	108.75
429.181	111.75
429.403	85.75
429.625	96.75
429.847	104.75
430.069	131.75
430.292	151.75
430.514	130.75
430.736	116.75
430.958	107.75
431.18	87.75
431.402	82.75
431.624	100.75
431.846	100.75
432.068	113.75
432.29	84.75
432.512	91.75
432.734	82.75
432.956	69.75
433.178	80.75
433.4	76.75
433.622	98.75
433.844	81.75
434.066	90.75
434.287	81.75
434.509	84.75
434.731	100.75
434.953	80.75
435.175	78.75
435.397	84.75
435.618	78.75
435.84	84.75
436.062	80.75
436.284	77.75
436.505	81.75
436.727	84.75
436.949	91.75
437.17	79.75
437.392	80.75
437.614	65.75
437.835	79.75
438.057	89.75
438.278	76.75
438.5	91.75
438.721	82.75
438.943	84.75
439.165	72.75
439.386	84.75
439.608	91.75
439.829	91.75
440.05	73.75
440.272	82.75
440.493	87.75
440.715	70.75
440.936	74.75
441.158	82.75
441.379	94.75
441.6	74.75
441.822	84.75
442.043	79.75
442.264	106.75
442.486	106.75
442.707	128.75
442.928	113.75
443.149	87.75
443.371	134.75
443.592	174.75
443.813	170.75
444.034	102.75
444.255	89.75
444.476	84.75
444.698	86.75
444.919	91.75
445.14	182.75
445.361	179.75
445.582	216.75
445.803	194.75
446.024	123.75
446.245	81.75
446.466	79.75
446.687	72.75
446.908	78.75
447.129	82.75
447.35	78.75
447.571	89.75
447.792	88.75
448.013	77.75
448.234	94.75
448.455	71.75
448.675	76.75
448.896	82.75
449.117	90.75
449.338	83.75
449.559	94.75
449.779	87.75
450	90.75
450.221	93.75
450.442	95.75
450.662	71.75
450.883	80.75
451.104	94.75
451.324	91.75
451.545	66.75
451.766	64.75
451.986	77.75
452.207	100.75
452.428	76.75
452.648	75.75
452.869	77.75
453.089	89.75
453.31	87.75
453.53	103.75
453.751	89.75
453.971	72.75
454.192	62.75
454.412	84.75
454.633	81.75
454.853	79.75
455.073	76.75
455.294	76.75
455.514	87.75
455.734	84.75
455.955	85.75
456.175	80.75
456.395	90.75
456.616	88.75
456.836	80.75
457.056	87.75
457.276	68.75
457.497	91.75
457.717	82.75
457.937	89.75
458.157	77.75
458.377	94.75
458.598	97.75
458.818	98.75
459.038	87.75
459.258	81.75
459.478	81.75
459.698	80.75
459.918	86.75
460.138	71.75
460.358	90.75
460.578	94.75
460.798	106.75
461.018	112.75
461.238	88.75
461.458	79.75
461.678	76.75
461.898	74.75
462.118	76.75
462.338	92.75
462.558	75.75
462.777	85.75
462.997	81.75
463.217	69.75
463.437	77.75
463.657	75.75
463.876	82.75
464.096	84.75
464.316	79.75
464.536	84.75
464.755	76.75
464.975	64.75
465.195	84.75
465.414	91.75
465.634	89.75
465.854	92.75
466.073	97.75
466.293	83.75
466.512	74.75
466.732	79.75
466.951	91.75
467.171	95.75
467.391	73.75
467.61	92.75
467.829	72.75
468.049	84.75
468.268	89.75
468.488	81.75
468.707	84.75
468.927	84.75
469.146	75.75
469.365	83.75
469.585	80.75
469.804	79.75
470.023	84.75
470.243	87.75
470.462	91.75
470.681	89.75
470.901	91.75
471.12	81.75
471.339	85.75
471.558	90.75
471.777	85.75
471.997	82.75
472.216	66.75
472.435	74.75
472.654	72.75
472.873	78.75
473.092	82.75
473.311	75.75
473.53	99.75
473.749	72.75
473.968	90.75
474.187	82.75
474.406	85.75
474.625	77.75
474.844	91.75
475.063	64.75
475.282	89.75
475.501	76.75
475.72	80.75
475.939	73.75
476.158	92.75
476.377	88.75
476.596	68.75
476.814	85.75
477.033	89.75
477.252	84.75
477.471	85.75
477.69	85.75
477.908	76.75
478.127	86.75
478.346	71.75
478.564	79.75
478.783	94.75
479.002	83.75
479.22	74.75
479.439	74.75
479.658	86.75
479.876	91.75
480.095	94.75
480.313	75.75
480.532	88.75
480.751	84.75
480.969	79.75
481.188	75.75
481.406	76.75
481.624	86.75
481.843	89.75
482.061	78.75
482.28	74.75
482.498	91.75
482.717	82.75
482.935	85.75
483.153	95.75
483.372	86.75
483.59	83.75
483.808	76.75
484.027	88.75
484.245	76.75
484.463	91.75
484.681	76.75
484.9	96.75
485.118	90.75
485.336	84.75
485.554	73.75
485.772	79.75
485.99	80.75
486.209	90.75
486.427	87.75
486.645	81.75
486.863	84.75
487.081	81.75
487.299	85.75
487.517	77.75
487.735	99.75
487.953	101.75
488.171	114.75
488.389	90.75
488.607	90.75
488.825	85.75
489.043	88.75
489.261	94.75
489.479	82.75
489.696	89.75
489.914	74.75
490.132	84.75
490.35	91.75
490.568	84.75
490.786	91.75
491.003	86.75
491.221	79.75
491.439	77.75
491.657	77.75
491.874	85.75
492.092	85.75
492.31	88.75
492.527	99.75
492.745	82.75
492.963	96.75
493.18	76.75
493.398	80.75
493.615	92.75
493.833	84.75
494.05	86.75
494.268	85.75
494.485	80.75
494.703	82.75
494.92	92.75
495.138	88.75
495.355	87.75
495.573	89.75
495.79	71.75
496.008	91.75
496.225	81.75
496.442	85.75
496.66	84.75
496.877	93.75
497.094	82.75
497.312	90.75
497.529	89.75
497.746	82.75
497.963	90.75
498.181	69.75
498.398	82.75
498.615	79.75
498.832	83.75
499.049	81.75
499.267	75.75
499.484	71.75
499.701	90.75
499.918	80.75
500.135	77.75
500.352	72.75
500.569	76.75
500.786	69.75
501.003	69.75
501.22	78.75
501.437	96.75
501.654	83.75
501.871	81.75
502.088	76.75
502.305	76.75
502.522	89.75
502.739	93.75
502.956	102.75
503.172	82.75
503.389	86.75
503.606	78.75
503.823	97.75
504.04	97.75
504.256	105.75
504.473	107.75
504.69	92.75
504.907	88.75
505.123	88.75
505.34	81.75
505.557	71.75
505.773	89.75
505.99	94.75
506.207	80.75
506.423	82.75
506.64	79.75
506.856	84.75
507.073	79.75
507.289	81.75
507.506	86.75
507.722	77.75
507.939	77.75
508.155	86.75
508.372	87.75
508.588	76.75
508.805	90.75
509.021	87.75
509.238	78.75
509.454	91.75
509.67	82.75
509.887	82.75
510.103	81.75
510.319	84.75
510.536	104.75
510.752	95.75
510.968	76.75
511.184	84.75
511.401	88.75
511.617	89.75
511.833	80.75
512.049	94.75
512.265	88.75
512.481	94.75
512.698	66.75
512.914	86.75
513.13	87.75
513.346	81.75
513.562	92.75
513.778	91.75
513.994	77.75
514.21	97.75
514.426	87.75
514.642	97.75
514.858	90.75
515.074	80.75
515.29	75.75
515.506	73.75
515.721	84.75
515.937	84.75
516.153	94.75
516.369	90.75
516.585	80.75
516.801	94.75
517.016	85.75
517.232	85.75
517.448	86.75
517.664	93.75
517.879	87.75
518.095	81.75
518.311	91.75
518.527	93.75
518.742	87.75
518.958	90.75
519.173	106.75
