Data from 2145_1_HRD10591_00019.txt Node
Date: Mon Jan 19 14:21:18 EST 2026
User: Yrep
Spectrometer: HR+D1059
Trigger mode: 1
Integration Time (sec): 1.000000E-1
Scans to average: 1
Electric dark correction enabled: true
Nonlinearity correction enabled: false
Boxcar width: 0
XAxis mode: Wavelengths
Number of Pixels in Spectrum: 2048
>>>>>Begin Spectral Data<<<<<
223.165	-27.25
223.4	-27.25
223.635	-27.25
223.869	-12.25
224.104	-22.25
224.338	-4.25
224.573	-11.25
224.808	-14.25
225.042	-8.25
225.277	-5.25
225.511	2.75
225.746	19.75
225.98	1.75
226.215	-3.25
226.449	18.75
226.683	16.75
226.918	21.75
227.152	26.75
227.387	33.75
227.621	40.75
227.856	53.75
228.09	41.75
228.324	49.75
228.559	57.75
228.793	58.75
229.027	63.75
229.262	58.75
229.496	68.75
229.73	68.75
229.964	69.75
230.199	68.75
230.433	92.75
230.667	62.75
230.901	74.75
231.136	66.75
231.37	69.75
231.604	73.75
231.838	77.75
232.072	75.75
232.306	70.75
232.541	77.75
232.775	79.75
233.009	84.75
233.243	87.75
233.477	86.75
233.711	89.75
233.945	69.75
234.179	74.75
234.413	64.75
234.647	81.75
234.881	86.75
235.115	70.75
235.349	80.75
235.583	75.75
235.817	75.75
236.051	77.75
236.285	73.75
236.519	79.75
236.753	63.75
236.987	73.75
237.221	90.75
237.455	84.75
237.689	81.75
237.922	59.75
238.156	74.75
238.39	86.75
238.624	79.75
238.858	75.75
239.091	60.75
239.325	82.75
239.559	74.75
239.793	75.75
240.027	91.75
240.26	67.75
240.494	86.75
240.728	78.75
240.961	68.75
241.195	72.75
241.429	84.75
241.662	79.75
241.896	76.75
242.13	64.75
242.363	75.75
242.597	71.75
242.83	85.75
243.064	74.75
243.298	57.75
243.531	88.75
243.765	75.75
243.998	66.75
244.232	86.75
244.465	80.75
244.699	81.75
244.932	75.75
245.166	63.75
245.399	64.75
245.633	75.75
245.866	70.75
246.099	80.75
246.333	85.75
246.566	80.75
246.8	83.75
247.033	86.75
247.266	67.75
247.5	78.75
247.733	91.75
247.966	84.75
248.2	63.75
248.433	83.75
248.666	84.75
248.899	84.75
249.133	83.75
249.366	70.75
249.599	76.75
249.832	74.75
250.066	67.75
250.299	68.75
250.532	85.75
250.765	73.75
250.998	61.75
251.231	69.75
251.465	91.75
251.698	80.75
251.931	79.75
252.164	94.75
252.397	77.75
252.63	83.75
252.863	78.75
253.096	77.75
253.329	79.75
253.562	73.75
253.795	88.75
254.028	76.75
254.261	81.75
254.494	80.75
254.727	73.75
254.96	82.75
255.193	78.75
255.426	72.75
255.659	71.75
255.892	82.75
256.124	79.75
256.357	82.75
256.59	70.75
256.823	67.75
257.056	72.75
257.289	72.75
257.521	87.75
257.754	86.75
257.987	89.75
258.22	85.75
258.452	78.75
258.685	98.75
258.918	80.75
259.151	73.75
259.383	89.75
259.616	82.75
259.849	69.75
260.081	80.75
260.314	88.75
260.547	82.75
260.779	84.75
261.012	79.75
261.244	78.75
261.477	86.75
261.71	86.75
261.942	85.75
262.175	70.75
262.407	78.75
262.64	71.75
262.872	84.75
263.105	70.75
263.337	86.75
263.57	79.75
263.802	62.75
264.035	76.75
264.267	70.75
264.499	89.75
264.732	67.75
264.964	80.75
265.197	74.75
265.429	77.75
265.661	72.75
265.894	86.75
266.126	77.75
266.358	84.75
266.591	83.75
266.823	86.75
267.055	83.75
267.287	77.75
267.52	74.75
267.752	79.75
267.984	68.75
268.216	78.75
268.448	101.75
268.681	73.75
268.913	82.75
269.145	75.75
269.377	84.75
269.609	90.75
269.841	82.75
270.073	78.75
270.306	79.75
270.538	76.75
270.77	82.75
271.002	98.75
271.234	81.75
271.466	80.75
271.698	83.75
271.93	70.75
272.162	75.75
272.394	80.75
272.626	75.75
272.858	84.75
273.09	64.75
273.322	75.75
273.553	71.75
273.785	70.75
274.017	86.75
274.249	80.75
274.481	99.75
274.713	83.75
274.945	87.75
275.176	85.75
275.408	84.75
275.64	66.75
275.872	62.75
276.104	74.75
276.335	77.75
276.567	62.75
276.799	70.75
277.031	75.75
277.262	91.75
277.494	86.75
277.726	92.75
277.957	81.75
278.189	73.75
278.421	83.75
278.652	80.75
278.884	86.75
279.115	93.75
279.347	82.75
279.579	86.75
279.81	83.75
280.042	80.75
280.273	63.75
280.505	74.75
280.736	73.75
280.968	88.75
281.199	76.75
281.431	96.75
281.662	72.75
281.894	99.75
282.125	91.75
282.356	91.75
282.588	90.75
282.819	86.75
283.051	69.75
283.282	92.75
283.513	82.75
283.745	101.75
283.976	96.75
284.207	82.75
284.439	84.75
284.67	87.75
284.901	80.75
285.132	87.75
285.364	89.75
285.595	92.75
285.826	85.75
286.057	81.75
286.288	69.75
286.52	81.75
286.751	72.75
286.982	92.75
287.213	83.75
287.444	86.75
287.675	87.75
287.906	85.75
288.138	78.75
288.369	66.75
288.6	89.75
288.831	78.75
289.062	74.75
289.293	76.75
289.524	87.75
289.755	87.75
289.986	80.75
290.217	79.75
290.448	75.75
290.679	90.75
290.91	88.75
291.141	77.75
291.371	71.75
291.602	74.75
291.833	70.75
292.064	86.75
292.295	84.75
292.526	83.75
292.757	79.75
292.987	80.75
293.218	87.75
293.449	84.75
293.68	91.75
293.91	82.75
294.141	75.75
294.372	68.75
294.603	98.75
294.833	91.75
295.064	83.75
295.295	87.75
295.525	77.75
295.756	86.75
295.987	80.75
296.217	81.75
296.448	70.75
296.679	84.75
296.909	97.75
297.14	82.75
297.37	85.75
297.601	83.75
297.831	97.75
298.062	99.75
298.292	84.75
298.523	88.75
298.753	83.75
298.984	76.75
299.214	69.75
299.445	68.75
299.675	89.75
299.905	95.75
300.136	105.75
300.366	76.75
300.597	85.75
300.827	94.75
301.057	97.75
301.288	78.75
301.518	85.75
301.748	88.75
301.979	99.75
302.209	101.75
302.439	80.75
302.669	98.75
302.9	88.75
303.13	84.75
303.36	74.75
303.59	81.75
303.82	77.75
304.051	83.75
304.281	92.75
304.511	88.75
304.741	75.75
304.971	70.75
305.201	82.75
305.431	77.75
305.661	87.75
305.891	77.75
306.121	105.75
306.352	83.75
306.582	95.75
306.812	89.75
307.042	80.75
307.272	58.75
307.502	87.75
307.731	101.75
307.961	94.75
308.191	98.75
308.421	96.75
308.651	91.75
308.881	76.75
309.111	99.75
309.341	98.75
309.571	94.75
309.8	74.75
310.03	87.75
310.26	88.75
310.49	90.75
310.72	92.75
310.949	93.75
311.179	89.75
311.409	91.75
311.639	81.75
311.868	99.75
312.098	89.75
312.328	84.75
312.557	89.75
312.787	76.75
313.017	83.75
313.246	88.75
313.476	88.75
313.706	74.75
313.935	79.75
314.165	81.75
314.394	74.75
314.624	94.75
314.853	78.75
315.083	90.75
315.312	81.75
315.542	84.75
315.771	86.75
316.001	88.75
316.23	80.75
316.46	84.75
316.689	92.75
316.919	83.75
317.148	87.75
317.377	89.75
317.607	78.75
317.836	101.75
318.065	92.75
318.295	70.75
318.524	87.75
318.753	93.75
318.983	89.75
319.212	80.75
319.441	83.75
319.67	82.75
319.9	85.75
320.129	99.75
320.358	84.75
320.587	94.75
320.816	86.75
321.046	111.75
321.275	80.75
321.504	113.75
321.733	98.75
321.962	103.75
322.191	76.75
322.42	76.75
322.649	98.75
322.878	87.75
323.108	99.75
323.337	98.75
323.566	98.75
323.795	88.75
324.024	94.75
324.253	72.75
324.482	95.75
324.71	90.75
324.939	104.75
325.168	74.75
325.397	97.75
325.626	102.75
325.855	87.75
326.084	87.75
326.313	70.75
326.542	88.75
326.77	74.75
326.999	88.75
327.228	97.75
327.457	96.75
327.686	108.75
327.914	87.75
328.143	86.75
328.372	87.75
328.6	88.75
328.829	92.75
329.058	71.75
329.287	78.75
329.515	94.75
329.744	91.75
329.972	104.75
330.201	94.75
330.43	80.75
330.658	77.75
330.887	85.75
331.115	91.75
331.344	74.75
331.572	89.75
331.801	92.75
332.03	78.75
332.258	79.75
332.486	74.75
332.715	81.75
332.943	74.75
333.172	96.75
333.4	85.75
333.629	95.75
333.857	112.75
334.085	105.75
334.314	84.75
334.542	101.75
334.771	96.75
334.999	99.75
335.227	100.75
335.455	90.75
335.684	106.75
335.912	92.75
336.14	114.75
336.369	90.75
336.597	103.75
336.825	89.75
337.053	90.75
337.281	87.75
337.51	86.75
337.738	84.75
337.966	96.75
338.194	93.75
338.422	97.75
338.65	96.75
338.878	73.75
339.106	76.75
339.334	84.75
339.562	89.75
339.79	90.75
340.018	90.75
340.246	87.75
340.474	88.75
340.702	87.75
340.93	97.75
341.158	82.75
341.386	84.75
341.614	88.75
341.842	97.75
342.07	88.75
342.298	97.75
342.526	92.75
342.754	88.75
342.981	77.75
343.209	90.75
343.437	95.75
343.665	78.75
343.893	93.75
344.12	97.75
344.348	95.75
344.576	91.75
344.804	103.75
345.031	94.75
345.259	98.75
345.487	73.75
345.714	80.75
345.942	80.75
346.17	74.75
346.397	77.75
346.625	86.75
346.853	77.75
347.08	83.75
347.308	104.75
347.535	101.75
347.763	88.75
347.99	95.75
348.218	89.75
348.445	79.75
348.673	84.75
348.9	93.75
349.128	100.75
349.355	80.75
349.583	83.75
349.81	85.75
350.037	89.75
350.265	102.75
350.492	93.75
350.72	88.75
350.947	91.75
351.174	92.75
351.402	82.75
351.629	84.75
351.856	82.75
352.083	91.75
352.311	89.75
352.538	73.75
352.765	90.75
352.992	86.75
353.22	82.75
353.447	82.75
353.674	84.75
353.901	72.75
354.128	61.75
354.355	96.75
354.583	75.75
354.81	82.75
355.037	95.75
355.264	84.75
355.491	97.75
355.718	87.75
355.945	87.75
356.172	88.75
356.399	80.75
356.626	91.75
356.853	90.75
357.08	84.75
357.307	105.75
357.534	68.75
357.761	94.75
357.988	82.75
358.215	94.75
358.441	82.75
358.668	78.75
358.895	82.75
359.122	98.75
359.349	91.75
359.576	82.75
359.802	86.75
360.029	84.75
360.256	88.75
360.483	95.75
360.709	107.75
360.936	91.75
361.163	94.75
361.39	84.75
361.616	92.75
361.843	106.75
362.07	106.75
362.296	111.75
362.523	118.75
362.749	132.75
362.976	143.75
363.203	143.75
363.429	125.75
363.656	118.75
363.882	102.75
364.109	138.75
364.335	176.75
364.562	184.75
364.788	116.75
365.015	118.75
365.241	89.75
365.468	96.75
365.694	82.75
365.92	83.75
366.147	95.75
366.373	90.75
366.599	91.75
366.826	94.75
367.052	94.75
367.278	88.75
367.505	77.75
367.731	90.75
367.957	90.75
368.184	83.75
368.41	81.75
368.636	87.75
368.862	73.75
369.089	97.75
369.315	78.75
369.541	70.75
369.767	82.75
369.993	84.75
370.219	101.75
370.445	86.75
370.672	81.75
370.898	78.75
371.124	86.75
371.35	85.75
371.576	90.75
371.802	87.75
372.028	96.75
372.254	92.75
372.48	74.75
372.706	97.75
372.932	87.75
373.158	90.75
373.384	112.75
373.61	93.75
373.835	114.75
374.061	86.75
374.287	102.75
374.513	88.75
374.739	108.75
374.965	92.75
375.191	92.75
375.416	82.75
375.642	84.75
375.868	89.75
376.094	89.75
376.319	72.75
376.545	87.75
376.771	78.75
376.997	86.75
377.222	91.75
377.448	97.75
377.674	94.75
377.899	96.75
378.125	106.75
378.35	94.75
378.576	84.75
378.802	102.75
379.027	98.75
379.253	94.75
379.478	107.75
379.704	82.75
379.929	74.75
380.155	89.75
380.38	68.75
380.606	89.75
380.831	81.75
381.057	87.75
381.282	98.75
381.507	96.75
381.733	104.75
381.958	98.75
382.184	93.75
382.409	97.75
382.634	88.75
382.86	94.75
383.085	88.75
383.31	86.75
383.535	92.75
383.761	99.75
383.986	90.75
384.211	101.75
384.436	105.75
384.662	83.75
384.887	96.75
385.112	96.75
385.337	94.75
385.562	107.75
385.787	102.75
386.013	89.75
386.238	88.75
386.463	99.75
386.688	110.75
386.913	99.75
387.138	91.75
387.363	95.75
387.588	96.75
387.813	98.75
388.038	95.75
388.263	105.75
388.488	102.75
388.713	90.75
388.938	99.75
389.163	83.75
389.387	82.75
389.612	98.75
389.837	88.75
390.062	105.75
390.287	101.75
390.512	80.75
390.736	80.75
390.961	87.75
391.186	97.75
391.411	102.75
391.636	98.75
391.86	95.75
392.085	87.75
392.31	105.75
392.534	116.75
392.759	146.75
392.984	198.75
393.208	322.75
393.433	458.75
393.658	347.75
393.882	163.75
394.107	124.75
394.331	118.75
394.556	126.75
394.78	109.75
395.005	95.75
395.229	121.75
395.454	122.75
395.678	123.75
395.903	155.75
396.127	160.75
396.352	168.75
396.576	220.75
396.801	310.75
397.025	386.75
397.249	202.75
397.474	166.75
397.698	129.75
397.922	92.75
398.147	98.75
398.371	91.75
398.595	94.75
398.82	86.75
399.044	97.75
399.268	93.75
399.492	99.75
399.717	91.75
399.941	96.75
400.165	99.75
400.389	104.75
400.613	97.75
400.837	90.75
401.062	91.75
401.286	99.75
401.51	106.75
401.734	86.75
401.958	98.75
402.182	85.75
402.406	83.75
402.63	82.75
402.854	88.75
403.078	94.75
403.302	89.75
403.526	98.75
403.75	98.75
403.974	88.75
404.198	129.75
404.422	175.75
404.645	210.75
404.869	157.75
405.093	120.75
405.317	98.75
405.541	91.75
405.765	83.75
405.988	94.75
406.212	91.75
406.436	111.75
406.66	110.75
406.883	90.75
407.107	91.75
407.331	78.75
407.555	101.75
407.778	122.75
408.002	122.75
408.226	106.75
408.449	88.75
408.673	91.75
408.896	96.75
409.12	83.75
409.344	98.75
409.567	102.75
409.791	124.75
410.014	107.75
410.238	107.75
410.461	98.75
410.685	106.75
410.908	98.75
411.132	100.75
411.355	100.75
411.578	104.75
411.802	104.75
412.025	97.75
412.249	96.75
412.472	87.75
412.695	96.75
412.919	96.75
413.142	89.75
413.365	76.75
413.589	78.75
413.812	80.75
414.035	88.75
414.258	85.75
414.482	81.75
414.705	90.75
414.928	93.75
415.151	81.75
415.374	98.75
415.597	94.75
415.821	87.75
416.044	73.75
416.267	78.75
416.49	102.75
416.713	82.75
416.936	94.75
417.159	89.75
417.382	92.75
417.605	91.75
417.828	102.75
418.051	74.75
418.274	94.75
418.497	83.75
418.72	92.75
418.943	96.75
419.166	90.75
419.389	84.75
419.611	103.75
419.834	100.75
420.057	104.75
420.28	89.75
420.503	99.75
420.726	102.75
420.948	114.75
421.171	122.75
421.394	130.75
421.617	168.75
421.839	177.75
422.062	202.75
422.285	320.75
422.507	574.75
422.73	814.75
422.953	734.75
423.175	425.75
423.398	240.75
423.621	178.75
423.843	132.75
424.066	126.75
424.288	135.75
424.511	115.75
424.733	103.75
424.956	95.75
425.178	96.75
425.401	102.75
425.623	83.75
425.846	98.75
426.068	99.75
426.291	94.75
426.513	100.75
426.735	82.75
426.958	103.75
427.18	96.75
427.402	111.75
427.625	100.75
427.847	98.75
428.069	113.75
428.292	175.75
428.514	208.75
428.736	156.75
428.958	185.75
429.181	208.75
429.403	120.75
429.625	124.75
429.847	187.75
430.069	270.75
430.292	326.75
430.514	300.75
430.736	228.75
430.958	225.75
431.18	126.75
431.402	115.75
431.624	128.75
431.846	161.75
432.068	215.75
432.29	122.75
432.512	84.75
432.734	96.75
432.956	84.75
433.178	84.75
433.4	91.75
433.622	86.75
433.844	76.75
434.066	87.75
434.287	93.75
434.509	100.75
434.731	89.75
434.953	85.75
435.175	90.75
435.397	92.75
435.618	101.75
435.84	90.75
436.062	95.75
436.284	91.75
436.505	80.75
436.727	83.75
436.949	67.75
437.17	77.75
437.392	86.75
437.614	87.75
437.835	94.75
438.057	80.75
438.278	82.75
438.5	87.75
438.721	94.75
438.943	89.75
439.165	86.75
439.386	89.75
439.608	101.75
439.829	90.75
440.05	84.75
440.272	91.75
440.493	87.75
440.715	98.75
440.936	88.75
441.158	80.75
441.379	96.75
441.6	100.75
441.822	91.75
442.043	101.75
442.264	121.75
442.486	222.75
442.707	296.75
442.928	177.75
443.149	170.75
443.371	284.75
443.592	483.75
443.813	395.75
444.034	161.75
444.255	129.75
444.476	98.75
444.698	111.75
444.919	136.75
445.14	264.75
445.361	367.75
445.582	575.75
445.803	487.75
446.024	210.75
446.245	134.75
446.466	102.75
446.687	104.75
446.908	75.75
447.129	82.75
447.35	80.75
447.571	90.75
447.792	81.75
448.013	78.75
448.234	73.75
448.455	82.75
448.675	88.75
448.896	68.75
449.117	74.75
449.338	87.75
449.559	85.75
449.779	76.75
450	85.75
450.221	80.75
450.442	97.75
450.662	90.75
450.883	79.75
451.104	94.75
451.324	75.75
451.545	92.75
451.766	88.75
451.986	88.75
452.207	88.75
452.428	83.75
452.648	100.75
452.869	114.75
453.089	104.75
453.31	90.75
453.53	111.75
453.751	94.75
453.971	89.75
454.192	94.75
454.412	86.75
454.633	77.75
454.853	83.75
455.073	80.75
455.294	81.75
455.514	99.75
455.734	88.75
455.955	84.75
456.175	78.75
456.395	91.75
456.616	80.75
456.836	87.75
457.056	96.75
457.276	93.75
457.497	94.75
457.717	92.75
457.937	135.75
458.157	181.75
458.377	184.75
458.598	183.75
458.818	169.75
459.038	128.75
459.258	100.75
459.478	82.75
459.698	96.75
459.918	104.75
460.138	95.75
460.358	105.75
460.578	102.75
460.798	156.75
461.018	164.75
461.238	114.75
461.458	82.75
461.678	87.75
461.898	85.75
462.118	87.75
462.338	94.75
462.558	101.75
462.777	85.75
462.997	85.75
463.217	82.75
463.437	81.75
463.657	74.75
463.876	86.75
464.096	62.75
464.316	67.75
464.536	85.75
464.755	88.75
464.975	92.75
465.195	87.75
465.414	101.75
465.634	96.75
465.854	89.75
466.073	80.75
466.293	78.75
466.512	74.75
466.732	84.75
466.951	94.75
467.171	80.75
467.391	94.75
467.61	93.75
467.829	97.75
468.049	80.75
468.268	97.75
468.488	83.75
468.707	89.75
468.927	73.75
469.146	91.75
469.365	85.75
469.585	87.75
469.804	88.75
470.023	65.75
470.243	88.75
470.462	90.75
470.681	90.75
470.901	96.75
471.12	84.75
471.339	83.75
471.558	96.75
471.777	86.75
471.997	84.75
472.216	96.75
472.435	82.75
472.654	91.75
472.873	87.75
473.092	92.75
473.311	100.75
473.53	90.75
473.749	96.75
473.968	85.75
474.187	89.75
474.406	96.75
474.625	88.75
474.844	102.75
475.063	87.75
475.282	97.75
475.501	101.75
475.72	92.75
475.939	84.75
476.158	75.75
476.377	86.75
476.596	86.75
476.814	88.75
477.033	73.75
477.252	95.75
477.471	82.75
477.69	95.75
477.908	91.75
478.127	71.75
478.346	78.75
478.564	101.75
478.783	87.75
479.002	90.75
479.22	96.75
479.439	86.75
479.658	82.75
479.876	91.75
480.095	99.75
480.313	92.75
480.532	90.75
480.751	89.75
480.969	81.75
481.188	94.75
481.406	96.75
481.624	92.75
481.843	79.75
482.061	99.75
482.28	78.75
482.498	87.75
482.717	79.75
482.935	100.75
483.153	103.75
483.372	100.75
483.59	76.75
483.808	82.75
484.027	103.75
484.245	103.75
484.463	97.75
484.681	95.75
484.9	99.75
485.118	86.75
485.336	92.75
485.554	104.75
485.772	72.75
485.99	89.75
486.209	71.75
486.427	79.75
486.645	94.75
486.863	89.75
487.081	101.75
487.299	114.75
487.517	120.75
487.735	150.75
487.953	265.75
488.171	230.75
488.389	120.75
488.607	102.75
488.825	93.75
489.043	100.75
489.261	101.75
489.479	84.75
489.696	88.75
489.914	88.75
490.132	95.75
490.35	79.75
490.568	82.75
490.786	96.75
491.003	91.75
491.221	108.75
491.439	85.75
491.657	92.75
491.874	90.75
492.092	107.75
492.31	105.75
492.527	96.75
492.745	80.75
492.963	96.75
493.18	89.75
493.398	101.75
493.615	77.75
493.833	89.75
494.05	89.75
494.268	98.75
494.485	78.75
494.703	90.75
494.92	82.75
495.138	88.75
495.355	84.75
495.573	88.75
495.79	74.75
496.008	94.75
496.225	96.75
496.442	98.75
496.66	101.75
496.877	101.75
497.094	95.75
497.312	94.75
497.529	96.75
497.746	94.75
497.963	88.75
498.181	91.75
498.398	100.75
498.615	90.75
498.832	100.75
499.049	88.75
499.267	100.75
499.484	69.75
499.701	80.75
499.918	87.75
500.135	92.75
500.352	93.75
500.569	81.75
500.786	101.75
501.003	89.75
501.22	96.75
501.437	90.75
501.654	99.75
501.871	95.75
502.088	85.75
502.305	105.75
502.522	103.75
502.739	102.75
502.956	88.75
503.172	82.75
503.389	103.75
503.606	88.75
503.823	99.75
504.04	124.75
504.256	176.75
504.473	187.75
504.69	118.75
504.907	116.75
505.123	95.75
505.34	89.75
505.557	97.75
505.773	96.75
505.99	98.75
506.207	98.75
506.423	92.75
506.64	81.75
506.856	86.75
507.073	96.75
507.289	82.75
507.506	95.75
507.722	89.75
507.939	86.75
508.155	79.75
508.372	84.75
508.588	87.75
508.805	89.75
509.021	93.75
509.238	87.75
509.454	87.75
509.67	88.75
509.887	85.75
510.103	103.75
510.319	94.75
510.536	89.75
510.752	80.75
510.968	94.75
511.184	91.75
511.401	80.75
511.617	97.75
511.833	101.75
512.049	95.75
512.265	91.75
512.481	95.75
512.698	86.75
512.914	80.75
513.13	88.75
513.346	88.75
513.562	91.75
513.778	83.75
513.994	81.75
514.21	89.75
514.426	89.75
514.642	90.75
514.858	84.75
515.074	84.75
515.29	102.75
515.506	92.75
515.721	83.75
515.937	81.75
516.153	91.75
516.369	87.75
516.585	101.75
516.801	90.75
