Data from 2145_1_HRD10591_00046.txt Node
Date: Mon Jan 19 14:21:32 EST 2026
User: Yrep
Spectrometer: HR+D1059
Trigger mode: 1
Integration Time (sec): 1.000000E-1
Scans to average: 1
Electric dark correction enabled: true
Nonlinearity correction enabled: false
Boxcar width: 0
XAxis mode: Wavelengths
Number of Pixels in Spectrum: 2048
>>>>>Begin Spectral Data<<<<<
223.165	-16.81
223.4	-16.81
223.635	-16.81
223.869	-22.81
224.104	-36.81
224.338	-16.81
224.573	-9.81
224.808	-20.81
225.042	-12.81
225.277	-6.81
225.511	-4.81
225.746	1.19
225.98	10.19
226.215	15.19
226.449	17.19
226.683	34.19
226.918	39.19
227.152	31.19
227.387	45.19
227.621	44.19
227.856	55.19
228.09	54.19
228.324	47.19
228.559	57.19
228.793	49.19
229.027	56.19
229.262	48.19
229.496	65.19
229.73	57.19
229.964	66.19
230.199	75.19
230.433	70.19
230.667	70.19
230.901	65.19
231.136	71.19
231.37	73.19
231.604	62.19
231.838	68.19
232.072	72.19
232.306	85.19
232.541	65.19
232.775	68.19
233.009	89.19
233.243	74.19
233.477	82.19
233.711	69.19
233.945	85.19
234.179	85.19
234.413	86.19
234.647	87.19
234.881	74.19
235.115	85.19
235.349	70.19
235.583	68.19
235.817	85.19
236.051	77.19
236.285	72.19
236.519	66.19
236.753	53.19
236.987	73.19
237.221	74.19
237.455	61.19
237.689	80.19
237.922	71.19
238.156	63.19
238.39	70.19
238.624	88.19
238.858	83.19
239.091	76.19
239.325	79.19
239.559	76.19
239.793	81.19
240.027	82.19
240.26	58.19
240.494	84.19
240.728	84.19
240.961	80.19
241.195	84.19
241.429	101.19
241.662	80.19
241.896	92.19
242.13	72.19
242.363	72.19
242.597	75.19
242.83	76.19
243.064	82.19
243.298	77.19
243.531	80.19
243.765	67.19
243.998	66.19
244.232	73.19
244.465	75.19
244.699	84.19
244.932	66.19
245.166	71.19
245.399	73.19
245.633	81.19
245.866	68.19
246.099	73.19
246.333	81.19
246.566	82.19
246.8	72.19
247.033	77.19
247.266	84.19
247.5	77.19
247.733	70.19
247.966	84.19
248.2	87.19
248.433	99.19
248.666	85.19
248.899	76.19
249.133	65.19
249.366	86.19
249.599	67.19
249.832	71.19
250.066	57.19
250.299	69.19
250.532	79.19
250.765	73.19
250.998	95.19
251.231	81.19
251.465	75.19
251.698	68.19
251.931	82.19
252.164	87.19
252.397	93.19
252.63	72.19
252.863	75.19
253.096	78.19
253.329	81.19
253.562	89.19
253.795	83.19
254.028	80.19
254.261	82.19
254.494	75.19
254.727	74.19
254.96	74.19
255.193	74.19
255.426	70.19
255.659	91.19
255.892	77.19
256.124	84.19
256.357	81.19
256.59	75.19
256.823	82.19
257.056	71.19
257.289	79.19
257.521	85.19
257.754	91.19
257.987	81.19
258.22	81.19
258.452	83.19
258.685	86.19
258.918	85.19
259.151	71.19
259.383	86.19
259.616	87.19
259.849	75.19
260.081	72.19
260.314	69.19
260.547	86.19
260.779	72.19
261.012	81.19
261.244	71.19
261.477	72.19
261.71	74.19
261.942	77.19
262.175	70.19
262.407	85.19
262.64	74.19
262.872	75.19
263.105	81.19
263.337	74.19
263.57	79.19
263.802	79.19
264.035	78.19
264.267	87.19
264.499	63.19
264.732	91.19
264.964	87.19
265.197	92.19
265.429	80.19
265.661	65.19
265.894	68.19
266.126	93.19
266.358	77.19
266.591	75.19
266.823	78.19
267.055	78.19
267.287	93.19
267.52	93.19
267.752	86.19
267.984	83.19
268.216	78.19
268.448	86.19
268.681	89.19
268.913	79.19
269.145	77.19
269.377	81.19
269.609	86.19
269.841	91.19
270.073	82.19
270.306	77.19
270.538	76.19
270.77	71.19
271.002	81.19
271.234	69.19
271.466	75.19
271.698	93.19
271.93	61.19
272.162	70.19
272.394	67.19
272.626	71.19
272.858	71.19
273.09	75.19
273.322	86.19
273.553	89.19
273.785	83.19
274.017	86.19
274.249	89.19
274.481	85.19
274.713	82.19
274.945	89.19
275.176	79.19
275.408	71.19
275.64	81.19
275.872	72.19
276.104	77.19
276.335	79.19
276.567	75.19
276.799	74.19
277.031	80.19
277.262	86.19
277.494	86.19
277.726	79.19
277.957	95.19
278.189	69.19
278.421	74.19
278.652	81.19
278.884	86.19
279.115	90.19
279.347	75.19
279.579	80.19
279.81	99.19
280.042	97.19
280.273	77.19
280.505	85.19
280.736	94.19
280.968	81.19
281.199	83.19
281.431	86.19
281.662	90.19
281.894	70.19
282.125	86.19
282.356	89.19
282.588	83.19
282.819	81.19
283.051	74.19
283.282	76.19
283.513	68.19
283.745	74.19
283.976	82.19
284.207	94.19
284.439	69.19
284.67	85.19
284.901	88.19
285.132	78.19
285.364	85.19
285.595	80.19
285.826	82.19
286.057	65.19
286.288	80.19
286.52	81.19
286.751	85.19
286.982	92.19
287.213	89.19
287.444	79.19
287.675	81.19
287.906	94.19
288.138	88.19
288.369	82.19
288.6	81.19
288.831	74.19
289.062	80.19
289.293	85.19
289.524	76.19
289.755	79.19
289.986	73.19
290.217	87.19
290.448	86.19
290.679	70.19
290.91	76.19
291.141	91.19
291.371	90.19
291.602	75.19
291.833	78.19
292.064	81.19
292.295	82.19
292.526	65.19
292.757	83.19
292.987	76.19
293.218	83.19
293.449	65.19
293.68	81.19
293.91	86.19
294.141	89.19
294.372	87.19
294.603	93.19
294.833	96.19
295.064	88.19
295.295	76.19
295.525	87.19
295.756	81.19
295.987	86.19
296.217	77.19
296.448	67.19
296.679	96.19
296.909	75.19
297.14	77.19
297.37	81.19
297.601	80.19
297.831	83.19
298.062	93.19
298.292	95.19
298.523	82.19
298.753	81.19
298.984	91.19
299.214	89.19
299.445	86.19
299.675	88.19
299.905	84.19
300.136	87.19
300.366	68.19
300.597	76.19
300.827	70.19
301.057	74.19
301.288	93.19
301.518	69.19
301.748	72.19
301.979	89.19
302.209	73.19
302.439	86.19
302.669	85.19
302.9	89.19
303.13	76.19
303.36	86.19
303.59	90.19
303.82	87.19
304.051	76.19
304.281	83.19
304.511	83.19
304.741	86.19
304.971	86.19
305.201	78.19
305.431	87.19
305.661	87.19
305.891	74.19
306.121	89.19
306.352	70.19
306.582	81.19
306.812	71.19
307.042	97.19
307.272	92.19
307.502	79.19
307.731	82.19
307.961	79.19
308.191	97.19
308.421	86.19
308.651	76.19
308.881	80.19
309.111	87.19
309.341	87.19
309.571	90.19
309.8	90.19
310.03	76.19
310.26	66.19
310.49	79.19
310.72	96.19
310.949	84.19
311.179	74.19
311.409	86.19
311.639	86.19
311.868	86.19
312.098	96.19
312.328	65.19
312.557	92.19
312.787	87.19
313.017	99.19
313.246	90.19
313.476	84.19
313.706	85.19
313.935	87.19
314.165	82.19
314.394	92.19
314.624	85.19
314.853	87.19
315.083	72.19
315.312	84.19
315.542	90.19
315.771	95.19
316.001	86.19
316.23	67.19
316.46	83.19
316.689	96.19
316.919	80.19
317.148	86.19
317.377	89.19
317.607	75.19
317.836	87.19
318.065	75.19
318.295	81.19
318.524	74.19
318.753	91.19
318.983	88.19
319.212	91.19
319.441	75.19
319.67	85.19
319.9	61.19
320.129	76.19
320.358	100.19
320.587	72.19
320.816	89.19
321.046	97.19
321.275	81.19
321.504	82.19
321.733	89.19
321.962	79.19
322.191	82.19
322.42	73.19
322.649	81.19
322.878	74.19
323.108	89.19
323.337	91.19
323.566	78.19
323.795	63.19
324.024	73.19
324.253	82.19
324.482	93.19
324.71	81.19
324.939	82.19
325.168	87.19
325.397	81.19
325.626	65.19
325.855	86.19
326.084	94.19
326.313	86.19
326.542	83.19
326.77	90.19
326.999	81.19
327.228	93.19
327.457	83.19
327.686	89.19
327.914	82.19
328.143	82.19
328.372	81.19
328.6	78.19
328.829	73.19
329.058	72.19
329.287	70.19
329.515	78.19
329.744	81.19
329.972	74.19
330.201	85.19
330.43	93.19
330.658	95.19
330.887	79.19
331.115	98.19
331.344	90.19
331.572	85.19
331.801	80.19
332.03	74.19
332.258	82.19
332.486	73.19
332.715	93.19
332.943	83.19
333.172	88.19
333.4	80.19
333.629	85.19
333.857	79.19
334.085	81.19
334.314	81.19
334.542	73.19
334.771	88.19
334.999	93.19
335.227	93.19
335.455	79.19
335.684	73.19
335.912	89.19
336.14	91.19
336.369	84.19
336.597	67.19
336.825	77.19
337.053	85.19
337.281	68.19
337.51	87.19
337.738	87.19
337.966	84.19
338.194	71.19
338.422	74.19
338.65	59.19
338.878	87.19
339.106	84.19
339.334	79.19
339.562	81.19
339.79	81.19
340.018	83.19
340.246	81.19
340.474	90.19
340.702	79.19
340.93	93.19
341.158	71.19
341.386	87.19
341.614	84.19
341.842	84.19
342.07	87.19
342.298	83.19
342.526	94.19
342.754	82.19
342.981	82.19
343.209	80.19
343.437	94.19
343.665	81.19
343.893	81.19
344.12	76.19
344.348	90.19
344.576	85.19
344.804	81.19
345.031	79.19
345.259	82.19
345.487	70.19
345.714	73.19
345.942	83.19
346.17	75.19
346.397	83.19
346.625	64.19
346.853	89.19
347.08	94.19
347.308	73.19
347.535	81.19
347.763	90.19
347.99	72.19
348.218	88.19
348.445	82.19
348.673	85.19
348.9	94.19
349.128	77.19
349.355	83.19
349.583	90.19
349.81	90.19
350.037	75.19
350.265	83.19
350.492	89.19
350.72	78.19
350.947	84.19
351.174	74.19
351.402	85.19
351.629	87.19
351.856	102.19
352.083	75.19
352.311	75.19
352.538	65.19
352.765	69.19
352.992	81.19
353.22	79.19
353.447	83.19
353.674	79.19
353.901	94.19
354.128	88.19
354.355	78.19
354.583	71.19
354.81	78.19
355.037	82.19
355.264	81.19
355.491	74.19
355.718	86.19
355.945	91.19
356.172	70.19
356.399	93.19
356.626	85.19
356.853	79.19
357.08	73.19
357.307	74.19
357.534	79.19
357.761	87.19
357.988	74.19
358.215	81.19
358.441	95.19
358.668	91.19
358.895	63.19
359.122	99.19
359.349	81.19
359.576	80.19
359.802	88.19
360.029	85.19
360.256	82.19
360.483	77.19
360.709	89.19
360.936	73.19
361.163	87.19
361.39	75.19
361.616	95.19
361.843	78.19
362.07	83.19
362.296	93.19
362.523	86.19
362.749	86.19
362.976	82.19
363.203	87.19
363.429	90.19
363.656	94.19
363.882	95.19
364.109	77.19
364.335	87.19
364.562	95.19
364.788	96.19
365.015	82.19
365.241	87.19
365.468	99.19
365.694	83.19
365.92	70.19
366.147	81.19
366.373	75.19
366.599	94.19
366.826	71.19
367.052	99.19
367.278	86.19
367.505	73.19
367.731	80.19
367.957	87.19
368.184	66.19
368.41	85.19
368.636	84.19
368.862	82.19
369.089	72.19
369.315	87.19
369.541	65.19
369.767	79.19
369.993	73.19
370.219	85.19
370.445	67.19
370.672	86.19
370.898	90.19
371.124	80.19
371.35	88.19
371.576	82.19
371.802	86.19
372.028	85.19
372.254	81.19
372.48	83.19
372.706	93.19
372.932	78.19
373.158	90.19
373.384	90.19
373.61	81.19
373.835	80.19
374.061	78.19
374.287	82.19
374.513	85.19
374.739	82.19
374.965	90.19
375.191	82.19
375.416	79.19
375.642	78.19
375.868	79.19
376.094	85.19
376.319	82.19
376.545	85.19
376.771	83.19
376.997	73.19
377.222	73.19
377.448	82.19
377.674	69.19
377.899	69.19
378.125	80.19
378.35	79.19
378.576	80.19
378.802	88.19
379.027	76.19
379.253	89.19
379.478	77.19
379.704	70.19
379.929	75.19
380.155	81.19
380.38	76.19
380.606	88.19
380.831	74.19
381.057	70.19
381.282	75.19
381.507	82.19
381.733	63.19
381.958	77.19
382.184	85.19
382.409	78.19
382.634	86.19
382.86	89.19
383.085	85.19
383.31	84.19
383.535	68.19
383.761	86.19
383.986	96.19
384.211	95.19
384.436	69.19
384.662	93.19
384.887	77.19
385.112	93.19
385.337	81.19
385.562	83.19
385.787	75.19
386.013	67.19
386.238	90.19
386.463	78.19
386.688	86.19
386.913	80.19
387.138	81.19
387.363	74.19
387.588	91.19
387.813	88.19
388.038	83.19
388.263	91.19
388.488	81.19
388.713	92.19
388.938	87.19
389.163	75.19
389.387	90.19
389.612	84.19
389.837	77.19
390.062	77.19
390.287	82.19
390.512	82.19
390.736	72.19
390.961	81.19
391.186	75.19
391.411	90.19
391.636	89.19
391.86	82.19
392.085	89.19
392.31	81.19
392.534	79.19
392.759	81.19
392.984	95.19
393.208	153.19
393.433	211.19
393.658	173.19
393.882	101.19
394.107	89.19
394.331	72.19
394.556	93.19
394.78	95.19
395.005	75.19
395.229	80.19
395.454	87.19
395.678	94.19
395.903	88.19
396.127	85.19
396.352	105.19
396.576	109.19
396.801	168.19
397.025	171.19
397.249	123.19
397.474	90.19
397.698	73.19
397.922	79.19
398.147	79.19
398.371	81.19
398.595	72.19
398.82	75.19
399.044	65.19
399.268	76.19
399.492	72.19
399.717	102.19
399.941	87.19
400.165	86.19
400.389	83.19
400.613	81.19
400.837	73.19
401.062	67.19
401.286	85.19
401.51	82.19
401.734	90.19
401.958	86.19
402.182	75.19
402.406	81.19
402.63	68.19
402.854	81.19
403.078	85.19
403.302	77.19
403.526	84.19
403.75	89.19
403.974	86.19
404.198	101.19
404.422	111.19
404.645	111.19
404.869	120.19
405.093	95.19
405.317	86.19
405.541	98.19
405.765	89.19
405.988	72.19
406.212	69.19
406.436	82.19
406.66	79.19
406.883	81.19
407.107	69.19
407.331	80.19
407.555	87.19
407.778	86.19
408.002	86.19
408.226	68.19
408.449	82.19
408.673	71.19
408.896	72.19
409.12	90.19
409.344	94.19
409.567	87.19
409.791	81.19
410.014	79.19
410.238	91.19
410.461	75.19
410.685	92.19
410.908	75.19
411.132	81.19
411.355	97.19
411.578	85.19
411.802	82.19
412.025	69.19
412.249	74.19
412.472	83.19
412.695	75.19
412.919	76.19
413.142	83.19
413.365	91.19
413.589	81.19
413.812	78.19
414.035	87.19
414.258	77.19
414.482	83.19
414.705	84.19
414.928	66.19
415.151	77.19
415.374	76.19
415.597	72.19
415.821	82.19
416.044	86.19
416.267	75.19
416.49	76.19
416.713	81.19
416.936	87.19
417.159	91.19
417.382	94.19
417.605	75.19
417.828	73.19
418.051	72.19
418.274	82.19
418.497	73.19
418.72	94.19
418.943	76.19
419.166	85.19
419.389	72.19
419.611	81.19
419.834	74.19
420.057	84.19
420.28	74.19
420.503	91.19
420.726	72.19
420.948	69.19
421.171	80.19
421.394	97.19
421.617	78.19
421.839	88.19
422.062	87.19
422.285	127.19
422.507	169.19
422.73	269.19
422.953	217.19
423.175	120.19
423.398	97.19
423.621	87.19
423.843	79.19
424.066	80.19
424.288	88.19
424.511	73.19
424.733	90.19
424.956	90.19
425.178	83.19
425.401	62.19
425.623	97.19
425.846	77.19
426.068	71.19
426.291	87.19
426.513	74.19
426.735	81.19
426.958	85.19
427.18	76.19
427.402	77.19
427.625	86.19
427.847	78.19
428.069	77.19
428.292	102.19
428.514	113.19
428.736	95.19
428.958	107.19
429.181	100.19
429.403	79.19
429.625	87.19
429.847	95.19
430.069	114.19
430.292	134.19
430.514	119.19
430.736	91.19
430.958	99.19
431.18	105.19
431.402	85.19
431.624	86.19
431.846	88.19
432.068	101.19
432.29	85.19
432.512	94.19
432.734	83.19
432.956	83.19
433.178	86.19
433.4	86.19
433.622	78.19
433.844	81.19
434.066	93.19
434.287	93.19
434.509	88.19
434.731	64.19
434.953	71.19
435.175	76.19
435.397	89.19
435.618	70.19
435.84	74.19
436.062	74.19
436.284	75.19
436.505	72.19
436.727	65.19
436.949	66.19
437.17	70.19
437.392	77.19
437.614	78.19
437.835	80.19
438.057	89.19
438.278	78.19
438.5	89.19
438.721	89.19
438.943	80.19
439.165	74.19
439.386	70.19
439.608	87.19
439.829	94.19
440.05	86.19
440.272	80.19
440.493	74.19
440.715	79.19
440.936	87.19
441.158	74.19
441.379	81.19
441.6	85.19
441.822	82.19
442.043	93.19
442.264	92.19
442.486	98.19
442.707	119.19
442.928	89.19
443.149	79.19
443.371	120.19
443.592	153.19
443.813	135.19
444.034	87.19
444.255	89.19
444.476	66.19
444.698	84.19
444.919	93.19
445.14	174.19
445.361	176.19
445.582	157.19
445.803	147.19
446.024	87.19
446.245	76.19
446.466	88.19
446.687	80.19
446.908	85.19
447.129	74.19
447.35	77.19
447.571	73.19
447.792	79.19
448.013	96.19
448.234	73.19
448.455	83.19
448.675	80.19
448.896	94.19
449.117	86.19
449.338	80.19
449.559	82.19
449.779	81.19
450	86.19
450.221	91.19
450.442	73.19
450.662	81.19
450.883	91.19
451.104	90.19
451.324	90.19
451.545	94.19
451.766	68.19
451.986	90.19
452.207	81.19
452.428	76.19
452.648	69.19
452.869	85.19
453.089	70.19
453.31	86.19
453.53	71.19
453.751	78.19
453.971	76.19
454.192	67.19
454.412	83.19
454.633	81.19
454.853	72.19
455.073	83.19
455.294	71.19
455.514	87.19
455.734	78.19
455.955	80.19
456.175	79.19
456.395	79.19
456.616	89.19
456.836	90.19
457.056	87.19
457.276	78.19
457.497	84.19
457.717	81.19
457.937	90.19
458.157	97.19
458.377	95.19
458.598	99.19
458.818	103.19
459.038	76.19
459.258	80.19
459.478	96.19
459.698	79.19
459.918	87.19
460.138	77.19
460.358	80.19
460.578	98.19
460.798	101.19
461.018	97.19
461.238	71.19
461.458	86.19
461.678	74.19
461.898	88.19
462.118	102.19
462.338	86.19
462.558	85.19
462.777	81.19
462.997	82.19
463.217	82.19
463.437	75.19
463.657	79.19
463.876	88.19
464.096	94.19
464.316	82.19
464.536	85.19
464.755	76.19
464.975	76.19
465.195	87.19
465.414	91.19
465.634	83.19
465.854	82.19
466.073	91.19
466.293	88.19
466.512	84.19
466.732	73.19
466.951	79.19
467.171	73.19
467.391	72.19
467.61	81.19
467.829	91.19
468.049	87.19
468.268	78.19
468.488	75.19
468.707	96.19
468.927	83.19
469.146	86.19
469.365	91.19
469.585	68.19
469.804	94.19
470.023	81.19
470.243	74.19
470.462	70.19
470.681	84.19
470.901	77.19
471.12	82.19
471.339	82.19
471.558	86.19
471.777	94.19
471.997	86.19
472.216	80.19
472.435	89.19
472.654	74.19
472.873	83.19
473.092	90.19
473.311	82.19
473.53	81.19
473.749	78.19
473.968	93.19
474.187	82.19
474.406	74.19
474.625	82.19
474.844	87.19
475.063	85.19
475.282	81.19
475.501	89.19
475.72	93.19
475.939	84.19
476.158	83.19
476.377	91.19
476.596	80.19
476.814	77.19
477.033	84.19
477.252	77.19
477.471	85.19
477.69	73.19
477.908	77.19
478.127	83.19
478.346	74.19
478.564	99.19
478.783	82.19
479.002	80.19
479.22	82.19
479.439	89.19
479.658	75.19
479.876	80.19
480.095	87.19
480.313	88.19
480.532	92.19
480.751	85.19
480.969	77.19
481.188	86.19
481.406	85.19
481.624	89.19
481.843	95.19
482.061	87.19
482.28	88.19
482.498	85.19
482.717	80.19
482.935	87.19
483.153	95.19
483.372	88.19
483.59	92.19
483.808	83.19
484.027	75.19
484.245	80.19
484.463	74.19
484.681	93.19
484.9	82.19
485.118	90.19
485.336	89.19
485.554	91.19
485.772	67.19
485.99	78.19
486.209	86.19
486.427	79.19
486.645	83.19
486.863	91.19
487.081	83.19
487.299	81.19
487.517	86.19
487.735	89.19
487.953	106.19
488.171	98.19
488.389	98.19
488.607	74.19
488.825	78.19
489.043	91.19
489.261	80.19
489.479	85.19
489.696	76.19
489.914	73.19
490.132	76.19
490.35	82.19
490.568	89.19
490.786	85.19
491.003	83.19
491.221	73.19
491.439	75.19
491.657	66.19
491.874	93.19
492.092	85.19
492.31	90.19
492.527	77.19
492.745	83.19
492.963	79.19
493.18	99.19
493.398	93.19
493.615	84.19
493.833	81.19
494.05	87.19
494.268	74.19
494.485	96.19
494.703	81.19
494.92	98.19
495.138	67.19
495.355	81.19
495.573	81.19
495.79	73.19
496.008	83.19
496.225	63.19
496.442	88.19
496.66	75.19
496.877	75.19
497.094	86.19
497.312	105.19
497.529	100.19
497.746	82.19
497.963	83.19
498.181	98.19
498.398	85.19
498.615	93.19
498.832	88.19
499.049	74.19
499.267	82.19
499.484	76.19
499.701	91.19
499.918	82.19
500.135	80.19
500.352	79.19
500.569	85.19
500.786	98.19
501.003	83.19
501.22	72.19
501.437	81.19
501.654	80.19
501.871	90.19
502.088	75.19
502.305	85.19
502.522	84.19
502.739	89.19
502.956	91.19
503.172	86.19
503.389	81.19
503.606	87.19
503.823	106.19
504.04	83.19
504.256	88.19
504.473	91.19
504.69	73.19
504.907	85.19
505.123	89.19
505.34	85.19
505.557	93.19
505.773	85.19
505.99	79.19
506.207	84.19
506.423	91.19
506.64	91.19
506.856	97.19
507.073	89.19
507.289	84.19
507.506	77.19
507.722	70.19
507.939	93.19
508.155	72.19
508.372	78.19
508.588	83.19
508.805	99.19
509.021	86.19
509.238	83.19
509.454	91.19
509.67	88.19
509.887	82.19
510.103	85.19
510.319	88.19
510.536	88.19
510.752	89.19
510.968	91.19
511.184	90.19
511.401	78.19
511.617	79.19
511.833	85.19
512.049	92.19
512.265	94.19
512.481	90.19
512.698	82.19
512.914	76.19
513.13	84.19
513.346	79.19
513.562	99.19
513.778	83.19
513.994	103.19
514.21	87.19
514.426	81.19
514.642	75.19
514.858	81.19
515.074	81.19
515.29	86.19
515.506	84.19
515.721	77.19
515.937	79.19
516.153	80.19
516.369	101.19
516.585	84.19
516.801	88.19
517.016	89.19
517.232	87.19
517.448	82.19
517.664	94.19
517.879	78.19
518.095	87.19
518.311	96.19
518.527	95.19
518.742	91.19
518.958	87.19
519.173	100.19
519.389	102.19
519.605	76.19
