Data from 2145_1_HRD10591_00047.txt Node
Date: Mon Jan 19 14:21:32 EST 2026
User: Yrep
Spectrometer: HR+D1059
Trigger mode: 1
Integration Time (sec): 1.000000E-1
Scans to average: 1
Electric dark correction enabled: true
Nonlinearity correction enabled: false
Boxcar width: 0
XAxis mode: Wavelengths
Number of Pixels in Spectrum: 2048
>>>>>Begin Spectral Data<<<<<
223.165	-9.5
223.4	-9.5
223.635	-9.5
223.869	-20.5
224.104	-21.5
224.338	-15.5
224.573	-15.5
224.808	-14.5
225.042	-6.5
225.277	-19.5
225.511	-0.5
225.746	15.5
225.98	12.5
226.215	13.5
226.449	14.5
226.683	11.5
226.918	28.5
227.152	27.5
227.387	35.5
227.621	35.5
227.856	40.5
228.09	49.5
228.324	56.5
228.559	52.5
228.793	58.5
229.027	60.5
229.262	57.5
229.496	58.5
229.73	62.5
229.964	57.5
230.199	74.5
230.433	80.5
230.667	83.5
230.901	69.5
231.136	80.5
231.37	94.5
231.604	81.5
231.838	84.5
232.072	82.5
232.306	85.5
232.541	77.5
232.775	82.5
233.009	84.5
233.243	66.5
233.477	86.5
233.711	81.5
233.945	83.5
234.179	80.5
234.413	82.5
234.647	70.5
234.881	88.5
235.115	79.5
235.349	74.5
235.583	67.5
235.817	84.5
236.051	76.5
236.285	74.5
236.519	74.5
236.753	82.5
236.987	83.5
237.221	72.5
237.455	75.5
237.689	65.5
237.922	73.5
238.156	81.5
238.39	79.5
238.624	83.5
238.858	89.5
239.091	61.5
239.325	73.5
239.559	84.5
239.793	77.5
240.027	89.5
240.26	67.5
240.494	68.5
240.728	64.5
240.961	72.5
241.195	71.5
241.429	74.5
241.662	72.5
241.896	75.5
242.13	62.5
242.363	81.5
242.597	73.5
242.83	85.5
243.064	76.5
243.298	70.5
243.531	72.5
243.765	79.5
243.998	66.5
244.232	76.5
244.465	67.5
244.699	72.5
244.932	61.5
245.166	83.5
245.399	71.5
245.633	76.5
245.866	82.5
246.099	80.5
246.333	94.5
246.566	76.5
246.8	77.5
247.033	72.5
247.266	75.5
247.5	97.5
247.733	84.5
247.966	84.5
248.2	93.5
248.433	69.5
248.666	68.5
248.899	66.5
249.133	80.5
249.366	79.5
249.599	83.5
249.832	77.5
250.066	74.5
250.299	73.5
250.532	67.5
250.765	78.5
250.998	84.5
251.231	85.5
251.465	75.5
251.698	77.5
251.931	88.5
252.164	64.5
252.397	83.5
252.63	72.5
252.863	76.5
253.096	64.5
253.329	67.5
253.562	72.5
253.795	71.5
254.028	75.5
254.261	82.5
254.494	88.5
254.727	96.5
254.96	84.5
255.193	68.5
255.426	91.5
255.659	81.5
255.892	85.5
256.124	87.5
256.357	76.5
256.59	88.5
256.823	70.5
257.056	58.5
257.289	69.5
257.521	77.5
257.754	84.5
257.987	67.5
258.22	84.5
258.452	82.5
258.685	75.5
258.918	97.5
259.151	73.5
259.383	68.5
259.616	77.5
259.849	87.5
260.081	83.5
260.314	75.5
260.547	69.5
260.779	66.5
261.012	83.5
261.244	88.5
261.477	88.5
261.71	90.5
261.942	78.5
262.175	78.5
262.407	100.5
262.64	71.5
262.872	88.5
263.105	81.5
263.337	81.5
263.57	81.5
263.802	69.5
264.035	68.5
264.267	68.5
264.499	75.5
264.732	92.5
264.964	77.5
265.197	70.5
265.429	73.5
265.661	72.5
265.894	70.5
266.126	82.5
266.358	84.5
266.591	83.5
266.823	83.5
267.055	79.5
267.287	85.5
267.52	84.5
267.752	75.5
267.984	70.5
268.216	76.5
268.448	77.5
268.681	85.5
268.913	86.5
269.145	80.5
269.377	84.5
269.609	82.5
269.841	78.5
270.073	84.5
270.306	87.5
270.538	83.5
270.77	66.5
271.002	68.5
271.234	79.5
271.466	77.5
271.698	77.5
271.93	78.5
272.162	57.5
272.394	83.5
272.626	97.5
272.858	75.5
273.09	88.5
273.322	81.5
273.553	81.5
273.785	85.5
274.017	77.5
274.249	73.5
274.481	79.5
274.713	85.5
274.945	81.5
275.176	81.5
275.408	78.5
275.64	84.5
275.872	64.5
276.104	79.5
276.335	83.5
276.567	74.5
276.799	77.5
277.031	80.5
277.262	80.5
277.494	85.5
277.726	88.5
277.957	77.5
278.189	82.5
278.421	84.5
278.652	88.5
278.884	75.5
279.115	90.5
279.347	93.5
279.579	86.5
279.81	93.5
280.042	91.5
280.273	83.5
280.505	81.5
280.736	78.5
280.968	77.5
281.199	85.5
281.431	86.5
281.662	91.5
281.894	85.5
282.125	74.5
282.356	86.5
282.588	77.5
282.819	82.5
283.051	78.5
283.282	78.5
283.513	81.5
283.745	84.5
283.976	89.5
284.207	74.5
284.439	89.5
284.67	84.5
284.901	97.5
285.132	86.5
285.364	82.5
285.595	95.5
285.826	95.5
286.057	73.5
286.288	88.5
286.52	88.5
286.751	88.5
286.982	86.5
287.213	78.5
287.444	67.5
287.675	85.5
287.906	71.5
288.138	88.5
288.369	91.5
288.6	74.5
288.831	86.5
289.062	83.5
289.293	98.5
289.524	86.5
289.755	75.5
289.986	82.5
290.217	88.5
290.448	73.5
290.679	81.5
290.91	100.5
291.141	91.5
291.371	72.5
291.602	80.5
291.833	86.5
292.064	83.5
292.295	75.5
292.526	81.5
292.757	83.5
292.987	83.5
293.218	82.5
293.449	86.5
293.68	71.5
293.91	79.5
294.141	105.5
294.372	96.5
294.603	90.5
294.833	88.5
295.064	83.5
295.295	82.5
295.525	92.5
295.756	82.5
295.987	77.5
296.217	103.5
296.448	86.5
296.679	84.5
296.909	90.5
297.14	101.5
297.37	104.5
297.601	100.5
297.831	85.5
298.062	84.5
298.292	81.5
298.523	86.5
298.753	79.5
298.984	75.5
299.214	96.5
299.445	78.5
299.675	70.5
299.905	79.5
300.136	80.5
300.366	88.5
300.597	78.5
300.827	83.5
301.057	88.5
301.288	93.5
301.518	87.5
301.748	89.5
301.979	87.5
302.209	90.5
302.439	77.5
302.669	93.5
302.9	76.5
303.13	88.5
303.36	84.5
303.59	79.5
303.82	87.5
304.051	89.5
304.281	79.5
304.511	104.5
304.741	88.5
304.971	79.5
305.201	71.5
305.431	81.5
305.661	82.5
305.891	86.5
306.121	76.5
306.352	74.5
306.582	72.5
306.812	92.5
307.042	77.5
307.272	75.5
307.502	85.5
307.731	84.5
307.961	77.5
308.191	82.5
308.421	66.5
308.651	92.5
308.881	96.5
309.111	78.5
309.341	85.5
309.571	75.5
309.8	98.5
310.03	81.5
310.26	74.5
310.49	79.5
310.72	91.5
310.949	70.5
311.179	77.5
311.409	91.5
311.639	78.5
311.868	92.5
312.098	90.5
312.328	91.5
312.557	89.5
312.787	79.5
313.017	76.5
313.246	70.5
313.476	74.5
313.706	90.5
313.935	93.5
314.165	96.5
314.394	87.5
314.624	72.5
314.853	72.5
315.083	82.5
315.312	89.5
315.542	85.5
315.771	95.5
316.001	91.5
316.23	92.5
316.46	101.5
316.689	84.5
316.919	75.5
317.148	76.5
317.377	90.5
317.607	87.5
317.836	94.5
318.065	80.5
318.295	97.5
318.524	93.5
318.753	81.5
318.983	84.5
319.212	104.5
319.441	92.5
319.67	73.5
319.9	92.5
320.129	86.5
320.358	90.5
320.587	78.5
320.816	81.5
321.046	82.5
321.275	93.5
321.504	62.5
321.733	86.5
321.962	85.5
322.191	88.5
322.42	79.5
322.649	84.5
322.878	86.5
323.108	78.5
323.337	74.5
323.566	83.5
323.795	74.5
324.024	90.5
324.253	82.5
324.482	89.5
324.71	94.5
324.939	89.5
325.168	86.5
325.397	86.5
325.626	86.5
325.855	84.5
326.084	85.5
326.313	94.5
326.542	76.5
326.77	73.5
326.999	81.5
327.228	80.5
327.457	87.5
327.686	93.5
327.914	88.5
328.143	88.5
328.372	85.5
328.6	90.5
328.829	93.5
329.058	89.5
329.287	80.5
329.515	86.5
329.744	94.5
329.972	93.5
330.201	92.5
330.43	86.5
330.658	91.5
330.887	97.5
331.115	92.5
331.344	88.5
331.572	75.5
331.801	86.5
332.03	78.5
332.258	75.5
332.486	86.5
332.715	87.5
332.943	87.5
333.172	108.5
333.4	73.5
333.629	84.5
333.857	64.5
334.085	101.5
334.314	107.5
334.542	88.5
334.771	81.5
334.999	76.5
335.227	82.5
335.455	88.5
335.684	75.5
335.912	92.5
336.14	92.5
336.369	88.5
336.597	86.5
336.825	90.5
337.053	87.5
337.281	75.5
337.51	90.5
337.738	84.5
337.966	73.5
338.194	87.5
338.422	79.5
338.65	79.5
338.878	91.5
339.106	73.5
339.334	87.5
339.562	84.5
339.79	90.5
340.018	80.5
340.246	73.5
340.474	81.5
340.702	82.5
340.93	94.5
341.158	85.5
341.386	82.5
341.614	87.5
341.842	77.5
342.07	94.5
342.298	74.5
342.526	82.5
342.754	83.5
342.981	84.5
343.209	88.5
343.437	102.5
343.665	73.5
343.893	94.5
344.12	90.5
344.348	82.5
344.576	79.5
344.804	90.5
345.031	92.5
345.259	82.5
345.487	89.5
345.714	102.5
345.942	92.5
346.17	85.5
346.397	87.5
346.625	83.5
346.853	83.5
347.08	70.5
347.308	89.5
347.535	84.5
347.763	73.5
347.99	71.5
348.218	76.5
348.445	80.5
348.673	83.5
348.9	93.5
349.128	89.5
349.355	99.5
349.583	86.5
349.81	95.5
350.037	90.5
350.265	77.5
350.492	73.5
350.72	98.5
350.947	90.5
351.174	77.5
351.402	68.5
351.629	79.5
351.856	83.5
352.083	81.5
352.311	87.5
352.538	90.5
352.765	83.5
352.992	89.5
353.22	86.5
353.447	72.5
353.674	84.5
353.901	84.5
354.128	84.5
354.355	76.5
354.583	91.5
354.81	103.5
355.037	73.5
355.264	90.5
355.491	85.5
355.718	93.5
355.945	99.5
356.172	77.5
356.399	86.5
356.626	94.5
356.853	83.5
357.08	85.5
357.307	77.5
357.534	80.5
357.761	84.5
357.988	93.5
358.215	71.5
358.441	90.5
358.668	73.5
358.895	82.5
359.122	92.5
359.349	86.5
359.576	76.5
359.802	84.5
360.029	92.5
360.256	93.5
360.483	101.5
360.709	88.5
360.936	82.5
361.163	84.5
361.39	79.5
361.616	86.5
361.843	96.5
362.07	93.5
362.296	97.5
362.523	95.5
362.749	88.5
362.976	91.5
363.203	93.5
363.429	93.5
363.656	86.5
363.882	93.5
364.109	94.5
364.335	99.5
364.562	91.5
364.788	100.5
365.015	92.5
365.241	100.5
365.468	85.5
365.694	89.5
365.92	88.5
366.147	85.5
366.373	85.5
366.599	74.5
366.826	77.5
367.052	93.5
367.278	86.5
367.505	89.5
367.731	80.5
367.957	88.5
368.184	96.5
368.41	99.5
368.636	72.5
368.862	98.5
369.089	81.5
369.315	82.5
369.541	91.5
369.767	87.5
369.993	73.5
370.219	71.5
370.445	98.5
370.672	90.5
370.898	74.5
371.124	73.5
371.35	83.5
371.576	86.5
371.802	74.5
372.028	97.5
372.254	79.5
372.48	87.5
372.706	80.5
372.932	84.5
373.158	78.5
373.384	76.5
373.61	103.5
373.835	94.5
374.061	74.5
374.287	88.5
374.513	93.5
374.739	78.5
374.965	76.5
375.191	84.5
375.416	81.5
375.642	87.5
375.868	81.5
376.094	98.5
376.319	85.5
376.545	81.5
376.771	71.5
376.997	81.5
377.222	87.5
377.448	75.5
377.674	87.5
377.899	72.5
378.125	88.5
378.35	93.5
378.576	82.5
378.802	87.5
379.027	92.5
379.253	80.5
379.478	82.5
379.704	83.5
379.929	82.5
380.155	92.5
380.38	76.5
380.606	78.5
380.831	78.5
381.057	90.5
381.282	92.5
381.507	91.5
381.733	79.5
381.958	82.5
382.184	77.5
382.409	88.5
382.634	78.5
382.86	96.5
383.085	84.5
383.31	90.5
383.535	75.5
383.761	83.5
383.986	86.5
384.211	97.5
384.436	89.5
384.662	73.5
384.887	97.5
385.112	75.5
385.337	76.5
385.562	81.5
385.787	102.5
386.013	100.5
386.238	105.5
386.463	91.5
386.688	96.5
386.913	96.5
387.138	89.5
387.363	93.5
387.588	93.5
387.813	87.5
388.038	85.5
388.263	90.5
388.488	84.5
388.713	96.5
388.938	79.5
389.163	89.5
389.387	80.5
389.612	76.5
389.837	81.5
390.062	101.5
390.287	101.5
390.512	92.5
390.736	84.5
390.961	97.5
391.186	77.5
391.411	84.5
391.636	90.5
391.86	80.5
392.085	91.5
392.31	101.5
392.534	92.5
392.759	90.5
392.984	128.5
393.208	181.5
393.433	252.5
393.658	184.5
393.882	120.5
394.107	93.5
394.331	85.5
394.556	92.5
394.78	96.5
395.005	109.5
395.229	76.5
395.454	84.5
395.678	94.5
395.903	106.5
396.127	122.5
396.352	130.5
396.576	127.5
396.801	192.5
397.025	201.5
397.249	120.5
397.474	93.5
397.698	89.5
397.922	103.5
398.147	85.5
398.371	89.5
398.595	77.5
398.82	83.5
399.044	83.5
399.268	78.5
399.492	80.5
399.717	82.5
399.941	92.5
400.165	88.5
400.389	86.5
400.613	92.5
400.837	95.5
401.062	89.5
401.286	70.5
401.51	85.5
401.734	85.5
401.958	83.5
402.182	89.5
402.406	82.5
402.63	78.5
402.854	94.5
403.078	91.5
403.302	76.5
403.526	79.5
403.75	100.5
403.974	104.5
404.198	103.5
404.422	134.5
404.645	160.5
404.869	129.5
405.093	101.5
405.317	82.5
405.541	86.5
405.765	97.5
405.988	92.5
406.212	85.5
406.436	85.5
406.66	83.5
406.883	85.5
407.107	74.5
407.331	104.5
407.555	89.5
407.778	110.5
408.002	85.5
408.226	80.5
408.449	92.5
408.673	92.5
408.896	73.5
409.12	72.5
409.344	89.5
409.567	90.5
409.791	78.5
410.014	97.5
410.238	86.5
410.461	74.5
410.685	68.5
410.908	85.5
411.132	93.5
411.355	85.5
411.578	80.5
411.802	90.5
412.025	75.5
412.249	93.5
412.472	96.5
412.695	91.5
412.919	88.5
413.142	76.5
413.365	67.5
413.589	82.5
413.812	82.5
414.035	83.5
414.258	78.5
414.482	88.5
414.705	84.5
414.928	92.5
415.151	78.5
415.374	90.5
415.597	92.5
415.821	84.5
416.044	89.5
416.267	91.5
416.49	79.5
416.713	78.5
416.936	84.5
417.159	72.5
417.382	82.5
417.605	88.5
417.828	80.5
418.051	76.5
418.274	88.5
418.497	78.5
418.72	85.5
418.943	84.5
419.166	85.5
419.389	84.5
419.611	88.5
419.834	67.5
420.057	88.5
420.28	76.5
420.503	78.5
420.726	74.5
420.948	71.5
421.171	84.5
421.394	106.5
421.617	95.5
421.839	103.5
422.062	106.5
422.285	146.5
422.507	222.5
422.73	334.5
422.953	306.5
423.175	152.5
423.398	112.5
423.621	91.5
423.843	92.5
424.066	69.5
424.288	76.5
424.511	98.5
424.733	84.5
424.956	94.5
425.178	93.5
425.401	93.5
425.623	77.5
425.846	79.5
426.068	82.5
426.291	86.5
426.513	88.5
426.735	75.5
426.958	85.5
427.18	88.5
427.402	82.5
427.625	81.5
427.847	75.5
428.069	110.5
428.292	120.5
428.514	122.5
428.736	114.5
428.958	129.5
429.181	116.5
429.403	91.5
429.625	92.5
429.847	106.5
430.069	152.5
430.292	146.5
430.514	157.5
430.736	130.5
430.958	128.5
431.18	92.5
431.402	104.5
431.624	90.5
431.846	108.5
432.068	130.5
432.29	93.5
432.512	75.5
432.734	82.5
432.956	88.5
433.178	88.5
433.4	99.5
433.622	79.5
433.844	82.5
434.066	85.5
434.287	73.5
434.509	71.5
434.731	86.5
434.953	85.5
435.175	90.5
435.397	84.5
435.618	87.5
435.84	82.5
436.062	83.5
436.284	86.5
436.505	80.5
436.727	74.5
436.949	88.5
437.17	87.5
437.392	90.5
437.614	88.5
437.835	86.5
438.057	81.5
438.278	65.5
438.5	89.5
438.721	87.5
438.943	90.5
439.165	82.5
439.386	86.5
439.608	86.5
439.829	79.5
440.05	73.5
440.272	87.5
440.493	84.5
440.715	85.5
440.936	98.5
441.158	90.5
441.379	77.5
441.6	76.5
441.822	88.5
442.043	88.5
442.264	96.5
442.486	106.5
442.707	133.5
442.928	103.5
443.149	88.5
443.371	136.5
443.592	181.5
443.813	178.5
444.034	90.5
444.255	91.5
444.476	86.5
444.698	77.5
444.919	86.5
445.14	205.5
445.361	192.5
445.582	236.5
445.803	179.5
446.024	104.5
446.245	98.5
446.466	86.5
446.687	88.5
446.908	84.5
447.129	98.5
447.35	83.5
447.571	77.5
447.792	78.5
448.013	76.5
448.234	78.5
448.455	89.5
448.675	104.5
448.896	81.5
449.117	70.5
449.338	77.5
449.559	78.5
449.779	81.5
450	78.5
450.221	66.5
450.442	72.5
450.662	91.5
450.883	85.5
451.104	90.5
451.324	80.5
451.545	84.5
451.766	86.5
451.986	87.5
452.207	94.5
452.428	76.5
452.648	74.5
452.869	83.5
453.089	92.5
453.31	87.5
453.53	82.5
453.751	89.5
453.971	86.5
454.192	68.5
454.412	94.5
454.633	71.5
454.853	95.5
455.073	94.5
455.294	84.5
455.514	84.5
455.734	84.5
455.955	98.5
456.175	81.5
456.395	94.5
456.616	83.5
456.836	90.5
457.056	76.5
457.276	76.5
457.497	81.5
457.717	101.5
457.937	90.5
458.157	83.5
458.377	77.5
458.598	89.5
458.818	107.5
459.038	102.5
459.258	85.5
459.478	76.5
459.698	78.5
459.918	75.5
460.138	77.5
460.358	87.5
460.578	100.5
460.798	112.5
461.018	109.5
461.238	90.5
461.458	86.5
461.678	99.5
461.898	84.5
462.118	85.5
462.338	83.5
462.558	81.5
462.777	75.5
462.997	82.5
463.217	88.5
463.437	89.5
463.657	90.5
463.876	82.5
464.096	90.5
464.316	87.5
464.536	75.5
464.755	74.5
464.975	85.5
465.195	80.5
465.414	82.5
465.634	91.5
465.854	94.5
466.073	88.5
466.293	77.5
466.512	90.5
466.732	93.5
466.951	82.5
467.171	74.5
467.391	77.5
467.61	98.5
467.829	76.5
468.049	90.5
468.268	81.5
468.488	74.5
468.707	97.5
468.927	86.5
469.146	85.5
469.365	87.5
469.585	88.5
469.804	91.5
470.023	82.5
470.243	90.5
470.462	80.5
470.681	99.5
470.901	97.5
471.12	91.5
471.339	84.5
471.558	89.5
471.777	84.5
471.997	77.5
472.216	83.5
472.435	86.5
472.654	77.5
472.873	91.5
473.092	82.5
473.311	78.5
473.53	91.5
473.749	92.5
473.968	85.5
474.187	86.5
474.406	77.5
474.625	85.5
474.844	89.5
475.063	74.5
475.282	87.5
475.501	88.5
475.72	85.5
475.939	68.5
476.158	73.5
476.377	66.5
476.596	79.5
476.814	70.5
477.033	98.5
477.252	90.5
477.471	89.5
477.69	84.5
477.908	68.5
478.127	78.5
478.346	86.5
478.564	88.5
478.783	103.5
479.002	90.5
479.22	89.5
479.439	79.5
479.658	88.5
479.876	109.5
480.095	74.5
480.313	72.5
480.532	82.5
480.751	86.5
480.969	81.5
481.188	80.5
481.406	98.5
481.624	78.5
481.843	74.5
482.061	74.5
482.28	86.5
482.498	92.5
482.717	96.5
482.935	90.5
483.153	99.5
483.372	110.5
483.59	96.5
483.808	101.5
484.027	97.5
484.245	82.5
484.463	87.5
484.681	88.5
484.9	84.5
485.118	97.5
485.336	80.5
485.554	78.5
485.772	96.5
485.99	95.5
486.209	90.5
486.427	99.5
486.645	82.5
486.863	90.5
487.081	96.5
487.299	82.5
487.517	89.5
487.735	112.5
487.953	129.5
488.171	110.5
488.389	93.5
488.607	91.5
488.825	90.5
489.043	86.5
489.261	64.5
489.479	82.5
489.696	84.5
489.914	86.5
490.132	91.5
490.35	93.5
490.568	87.5
490.786	75.5
491.003	90.5
491.221	91.5
491.439	97.5
491.657	88.5
491.874	74.5
492.092	98.5
492.31	87.5
492.527	97.5
492.745	90.5
492.963	102.5
493.18	88.5
493.398	89.5
493.615	94.5
493.833	87.5
494.05	90.5
494.268	100.5
494.485	84.5
494.703	93.5
494.92	95.5
495.138	91.5
495.355	90.5
495.573	99.5
495.79	77.5
496.008	79.5
496.225	92.5
496.442	58.5
496.66	80.5
496.877	88.5
497.094	94.5
497.312	89.5
497.529	79.5
497.746	90.5
497.963	78.5
498.181	88.5
498.398	86.5
498.615	80.5
498.832	84.5
499.049	74.5
499.267	93.5
499.484	87.5
499.701	98.5
499.918	86.5
500.135	92.5
500.352	102.5
500.569	86.5
500.786	104.5
501.003	89.5
501.22	84.5
501.437	86.5
501.654	76.5
501.871	86.5
502.088	90.5
502.305	83.5
502.522	88.5
502.739	84.5
502.956	76.5
503.172	87.5
503.389	98.5
503.606	93.5
503.823	92.5
504.04	85.5
504.256	98.5
504.473	113.5
504.69	96.5
504.907	109.5
505.123	86.5
505.34	90.5
505.557	76.5
505.773	84.5
505.99	98.5
506.207	81.5
506.423	82.5
506.64	90.5
506.856	90.5
507.073	75.5
507.289	93.5
507.506	82.5
507.722	98.5
507.939	82.5
508.155	74.5
508.372	77.5
508.588	82.5
508.805	86.5
509.021	86.5
509.238	90.5
509.454	81.5
509.67	82.5
509.887	74.5
510.103	84.5
510.319	84.5
510.536	85.5
510.752	84.5
510.968	90.5
511.184	72.5
511.401	93.5
511.617	108.5
511.833	89.5
512.049	84.5
512.265	87.5
512.481	96.5
512.698	83.5
512.914	112.5
513.13	81.5
513.346	76.5
513.562	102.5
513.778	83.5
513.994	84.5
514.21	83.5
514.426	89.5
514.642	92.5
514.858	94.5
515.074	89.5
515.29	90.5
515.506	82.5
515.721	76.5
515.937	90.5
516.153	85.5
516.369	95.5
516.585	75.5
516.801	92.5
517.016	88.5
517.232	98.5
517.448	99.5
517.664	90.5
517.879	95.5
518.095	92.5
518.311	96.5
518.527	102.5
518.742	83.5
518.958	112.5
519.173	98.5
519.389	94.5
519.605	80.5
519.82	85.5
520.036	97.5
520.251	68.5
520.467	84.5
520.682	90.5
520.898	75.5
521.113	83.5
521.329	76.5
521.544	76.5
521.76	89.5
521.975	87.5
522.19	93.5
522.406	82.5
522.621	90.5
522.836	92.5
523.052	90.5
523.267	86.5
523.482	86.5
523.698	86.5
523.913	91.5
524.128	68.5
524.343	82.5
524.559	85.5
524.774	101.5
524.989	86.5
525.204	90.5
525.419	90.5
525.634	95.5
525.849	90.5
526.064	95.5
526.28	154.5
526.495	186.5
526.71	212.5
526.925	139.5
527.14	204.5
527.355	200.5
527.57	105.5
527.785	96.5
527.999	92.5
528.214	92.5
528.429	89.5
528.644	79.5
528.859	88.5
529.074	90.5
529.289	79.5
529.503	84.5
529.718	93.5
529.933	88.5
530.148	88.5
530.363	92.5
530.577	84.5
530.792	91.5
531.007	88.5
531.221	78.5
531.436	72.5
531.651	98.5
531.865	81.5
532.08	90.5
532.295	91.5
532.509	92.5
532.724	88.5
532.938	111.5
533.153	88.5
533.367	76.5
533.582	85.5
533.796	91.5
534.011	76.5
534.225	93.5
534.44	92.5
534.654	99.5
534.868	102.5
535.083	140.5
535.297	124.5
535.511	98.5
535.726	77.5
535.94	88.5
536.154	108.5
536.369	98.5
536.583	99.5
536.797	100.5
537.011	89.5
537.225	89.5
537.44	103.5
537.654	85.5
537.868	80.5
538.082	81.5
538.296	75.5
538.51	109.5
538.724	98.5
