Data from 2145_1_HRD10591_00039.txt Node
Date: Mon Jan 19 14:21:28 EST 2026
User: Yrep
Spectrometer: HR+D1059
Trigger mode: 1
Integration Time (sec): 1.000000E-1
Scans to average: 1
Electric dark correction enabled: true
Nonlinearity correction enabled: false
Boxcar width: 0
XAxis mode: Wavelengths
Number of Pixels in Spectrum: 2048
>>>>>Begin Spectral Data<<<<<
223.165	-15.88
223.4	-15.88
223.635	-15.88
223.869	-30.88
224.104	-38.88
224.338	-8.88
224.573	-1.88
224.808	-5.88
225.042	-12.88
225.277	-10.88
225.511	-0.88
225.746	5.12
225.98	7.12
226.215	13.12
226.449	6.12
226.683	43.12
226.918	27.12
227.152	25.12
227.387	31.12
227.621	36.12
227.856	32.12
228.09	31.12
228.324	43.12
228.559	43.12
228.793	53.12
229.027	53.12
229.262	61.12
229.496	68.12
229.73	56.12
229.964	71.12
230.199	66.12
230.433	71.12
230.667	67.12
230.901	53.12
231.136	63.12
231.37	79.12
231.604	72.12
231.838	72.12
232.072	72.12
232.306	86.12
232.541	79.12
232.775	82.12
233.009	70.12
233.243	70.12
233.477	72.12
233.711	67.12
233.945	79.12
234.179	68.12
234.413	77.12
234.647	70.12
234.881	77.12
235.115	69.12
235.349	67.12
235.583	68.12
235.817	81.12
236.051	78.12
236.285	82.12
236.519	84.12
236.753	85.12
236.987	67.12
237.221	70.12
237.455	84.12
237.689	84.12
237.922	73.12
238.156	70.12
238.39	70.12
238.624	66.12
238.858	88.12
239.091	76.12
239.325	81.12
239.559	80.12
239.793	76.12
240.027	83.12
240.26	78.12
240.494	72.12
240.728	72.12
240.961	88.12
241.195	76.12
241.429	69.12
241.662	59.12
241.896	73.12
242.13	72.12
242.363	79.12
242.597	75.12
242.83	83.12
243.064	84.12
243.298	64.12
243.531	74.12
243.765	80.12
243.998	89.12
244.232	61.12
244.465	87.12
244.699	79.12
244.932	71.12
245.166	70.12
245.399	64.12
245.633	80.12
245.866	78.12
246.099	79.12
246.333	77.12
246.566	83.12
246.8	73.12
247.033	65.12
247.266	71.12
247.5	68.12
247.733	81.12
247.966	79.12
248.2	55.12
248.433	72.12
248.666	53.12
248.899	70.12
249.133	89.12
249.366	74.12
249.599	71.12
249.832	79.12
250.066	69.12
250.299	78.12
250.532	79.12
250.765	64.12
250.998	65.12
251.231	72.12
251.465	87.12
251.698	72.12
251.931	95.12
252.164	94.12
252.397	74.12
252.63	62.12
252.863	66.12
253.096	81.12
253.329	73.12
253.562	77.12
253.795	93.12
254.028	71.12
254.261	78.12
254.494	77.12
254.727	80.12
254.96	95.12
255.193	81.12
255.426	83.12
255.659	91.12
255.892	83.12
256.124	82.12
256.357	78.12
256.59	79.12
256.823	80.12
257.056	66.12
257.289	79.12
257.521	65.12
257.754	75.12
257.987	79.12
258.22	76.12
258.452	72.12
258.685	80.12
258.918	61.12
259.151	80.12
259.383	80.12
259.616	93.12
259.849	87.12
260.081	71.12
260.314	74.12
260.547	78.12
260.779	91.12
261.012	96.12
261.244	61.12
261.477	84.12
261.71	71.12
261.942	66.12
262.175	76.12
262.407	83.12
262.64	74.12
262.872	77.12
263.105	86.12
263.337	78.12
263.57	84.12
263.802	72.12
264.035	81.12
264.267	71.12
264.499	83.12
264.732	83.12
264.964	90.12
265.197	67.12
265.429	75.12
265.661	74.12
265.894	69.12
266.126	77.12
266.358	86.12
266.591	92.12
266.823	92.12
267.055	63.12
267.287	87.12
267.52	75.12
267.752	65.12
267.984	85.12
268.216	78.12
268.448	86.12
268.681	85.12
268.913	76.12
269.145	75.12
269.377	71.12
269.609	88.12
269.841	72.12
270.073	71.12
270.306	79.12
270.538	84.12
270.77	70.12
271.002	87.12
271.234	76.12
271.466	94.12
271.698	84.12
271.93	81.12
272.162	86.12
272.394	76.12
272.626	69.12
272.858	76.12
273.09	75.12
273.322	69.12
273.553	87.12
273.785	79.12
274.017	82.12
274.249	77.12
274.481	72.12
274.713	76.12
274.945	65.12
275.176	79.12
275.408	82.12
275.64	79.12
275.872	81.12
276.104	87.12
276.335	62.12
276.567	87.12
276.799	91.12
277.031	79.12
277.262	78.12
277.494	88.12
277.726	87.12
277.957	79.12
278.189	76.12
278.421	77.12
278.652	73.12
278.884	79.12
279.115	59.12
279.347	75.12
279.579	85.12
279.81	90.12
280.042	81.12
280.273	67.12
280.505	89.12
280.736	79.12
280.968	85.12
281.199	79.12
281.431	86.12
281.662	73.12
281.894	74.12
282.125	74.12
282.356	77.12
282.588	76.12
282.819	67.12
283.051	75.12
283.282	83.12
283.513	83.12
283.745	88.12
283.976	82.12
284.207	63.12
284.439	76.12
284.67	67.12
284.901	72.12
285.132	91.12
285.364	79.12
285.595	68.12
285.826	77.12
286.057	75.12
286.288	76.12
286.52	87.12
286.751	74.12
286.982	67.12
287.213	100.12
287.444	78.12
287.675	77.12
287.906	83.12
288.138	74.12
288.369	98.12
288.6	73.12
288.831	80.12
289.062	85.12
289.293	69.12
289.524	86.12
289.755	83.12
289.986	76.12
290.217	70.12
290.448	77.12
290.679	79.12
290.91	84.12
291.141	64.12
291.371	89.12
291.602	91.12
291.833	84.12
292.064	75.12
292.295	87.12
292.526	95.12
292.757	82.12
292.987	84.12
293.218	93.12
293.449	74.12
293.68	90.12
293.91	69.12
294.141	74.12
294.372	73.12
294.603	88.12
294.833	81.12
295.064	85.12
295.295	81.12
295.525	92.12
295.756	71.12
295.987	62.12
296.217	88.12
296.448	81.12
296.679	77.12
296.909	92.12
297.14	64.12
297.37	87.12
297.601	89.12
297.831	87.12
298.062	93.12
298.292	79.12
298.523	73.12
298.753	75.12
298.984	88.12
299.214	86.12
299.445	74.12
299.675	80.12
299.905	91.12
300.136	78.12
300.366	73.12
300.597	91.12
300.827	94.12
301.057	89.12
301.288	79.12
301.518	77.12
301.748	80.12
301.979	82.12
302.209	69.12
302.439	82.12
302.669	72.12
302.9	80.12
303.13	80.12
303.36	87.12
303.59	88.12
303.82	89.12
304.051	78.12
304.281	86.12
304.511	92.12
304.741	77.12
304.971	69.12
305.201	79.12
305.431	75.12
305.661	80.12
305.891	63.12
306.121	87.12
306.352	86.12
306.582	83.12
306.812	64.12
307.042	77.12
307.272	79.12
307.502	75.12
307.731	88.12
307.961	71.12
308.191	85.12
308.421	91.12
308.651	83.12
308.881	92.12
309.111	72.12
309.341	79.12
309.571	81.12
309.8	76.12
310.03	75.12
310.26	78.12
310.49	73.12
310.72	79.12
310.949	80.12
311.179	80.12
311.409	77.12
311.639	81.12
311.868	85.12
312.098	64.12
312.328	79.12
312.557	76.12
312.787	82.12
313.017	78.12
313.246	89.12
313.476	82.12
313.706	81.12
313.935	88.12
314.165	76.12
314.394	91.12
314.624	82.12
314.853	82.12
315.083	73.12
315.312	78.12
315.542	81.12
315.771	87.12
316.001	90.12
316.23	79.12
316.46	89.12
316.689	83.12
316.919	76.12
317.148	80.12
317.377	90.12
317.607	79.12
317.836	92.12
318.065	87.12
318.295	69.12
318.524	83.12
318.753	89.12
318.983	67.12
319.212	80.12
319.441	81.12
319.67	88.12
319.9	84.12
320.129	87.12
320.358	81.12
320.587	82.12
320.816	71.12
321.046	87.12
321.275	78.12
321.504	87.12
321.733	85.12
321.962	87.12
322.191	78.12
322.42	89.12
322.649	91.12
322.878	74.12
323.108	72.12
323.337	80.12
323.566	87.12
323.795	91.12
324.024	89.12
324.253	86.12
324.482	70.12
324.71	95.12
324.939	99.12
325.168	80.12
325.397	89.12
325.626	81.12
325.855	80.12
326.084	88.12
326.313	74.12
326.542	67.12
326.77	75.12
326.999	82.12
327.228	86.12
327.457	72.12
327.686	84.12
327.914	84.12
328.143	84.12
328.372	79.12
328.6	63.12
328.829	80.12
329.058	82.12
329.287	71.12
329.515	82.12
329.744	81.12
329.972	76.12
330.201	104.12
330.43	85.12
330.658	71.12
330.887	82.12
331.115	86.12
331.344	89.12
331.572	100.12
331.801	80.12
332.03	71.12
332.258	87.12
332.486	72.12
332.715	70.12
332.943	77.12
333.172	87.12
333.4	79.12
333.629	83.12
333.857	87.12
334.085	77.12
334.314	74.12
334.542	83.12
334.771	84.12
334.999	73.12
335.227	89.12
335.455	92.12
335.684	79.12
335.912	91.12
336.14	79.12
336.369	80.12
336.597	82.12
336.825	91.12
337.053	81.12
337.281	81.12
337.51	87.12
337.738	78.12
337.966	68.12
338.194	91.12
338.422	66.12
338.65	65.12
338.878	87.12
339.106	81.12
339.334	78.12
339.562	81.12
339.79	82.12
340.018	86.12
340.246	92.12
340.474	83.12
340.702	87.12
340.93	81.12
341.158	94.12
341.386	88.12
341.614	67.12
341.842	90.12
342.07	81.12
342.298	81.12
342.526	86.12
342.754	91.12
342.981	80.12
343.209	73.12
343.437	87.12
343.665	84.12
343.893	85.12
344.12	70.12
344.348	82.12
344.576	76.12
344.804	94.12
345.031	90.12
345.259	85.12
345.487	84.12
345.714	80.12
345.942	71.12
346.17	71.12
346.397	82.12
346.625	69.12
346.853	71.12
347.08	81.12
347.308	82.12
347.535	68.12
347.763	92.12
347.99	85.12
348.218	90.12
348.445	73.12
348.673	78.12
348.9	85.12
349.128	79.12
349.355	71.12
349.583	79.12
349.81	89.12
350.037	80.12
350.265	80.12
350.492	74.12
350.72	91.12
350.947	80.12
351.174	90.12
351.402	72.12
351.629	73.12
351.856	96.12
352.083	72.12
352.311	87.12
352.538	81.12
352.765	80.12
352.992	74.12
353.22	77.12
353.447	79.12
353.674	75.12
353.901	82.12
354.128	74.12
354.355	77.12
354.583	83.12
354.81	82.12
355.037	84.12
355.264	74.12
355.491	76.12
355.718	79.12
355.945	71.12
356.172	84.12
356.399	87.12
356.626	86.12
356.853	77.12
357.08	81.12
357.307	79.12
357.534	80.12
357.761	70.12
357.988	77.12
358.215	94.12
358.441	79.12
358.668	82.12
358.895	83.12
359.122	73.12
359.349	71.12
359.576	71.12
359.802	68.12
360.029	99.12
360.256	90.12
360.483	90.12
360.709	79.12
360.936	74.12
361.163	86.12
361.39	67.12
361.616	76.12
361.843	76.12
362.07	86.12
362.296	70.12
362.523	81.12
362.749	87.12
362.976	87.12
363.203	107.12
363.429	81.12
363.656	71.12
363.882	97.12
364.109	96.12
364.335	103.12
364.562	106.12
364.788	83.12
365.015	96.12
365.241	73.12
365.468	77.12
365.694	85.12
365.92	72.12
366.147	99.12
366.373	79.12
366.599	72.12
366.826	71.12
367.052	83.12
367.278	92.12
367.505	83.12
367.731	90.12
367.957	76.12
368.184	86.12
368.41	90.12
368.636	81.12
368.862	90.12
369.089	99.12
369.315	74.12
369.541	87.12
369.767	95.12
369.993	73.12
370.219	81.12
370.445	73.12
370.672	91.12
370.898	92.12
371.124	75.12
371.35	70.12
371.576	92.12
371.802	68.12
372.028	80.12
372.254	76.12
372.48	73.12
372.706	84.12
372.932	60.12
373.158	70.12
373.384	85.12
373.61	87.12
373.835	88.12
374.061	94.12
374.287	80.12
374.513	79.12
374.739	82.12
374.965	86.12
375.191	76.12
375.416	84.12
375.642	87.12
375.868	75.12
376.094	79.12
376.319	75.12
376.545	72.12
376.771	68.12
376.997	79.12
377.222	83.12
377.448	81.12
377.674	79.12
377.899	64.12
378.125	73.12
378.35	79.12
378.576	83.12
378.802	90.12
379.027	72.12
379.253	88.12
379.478	85.12
379.704	81.12
379.929	79.12
380.155	71.12
380.38	71.12
380.606	73.12
380.831	81.12
381.057	83.12
381.282	69.12
381.507	86.12
381.733	85.12
381.958	79.12
382.184	83.12
382.409	85.12
382.634	93.12
382.86	76.12
383.085	77.12
383.31	84.12
383.535	90.12
383.761	83.12
383.986	71.12
384.211	83.12
384.436	83.12
384.662	61.12
384.887	93.12
385.112	79.12
385.337	72.12
385.562	76.12
385.787	85.12
386.013	79.12
386.238	78.12
386.463	85.12
386.688	75.12
386.913	81.12
387.138	84.12
387.363	79.12
387.588	83.12
387.813	79.12
388.038	67.12
388.263	85.12
388.488	87.12
388.713	87.12
388.938	82.12
389.163	87.12
389.387	75.12
389.612	80.12
389.837	94.12
390.062	79.12
390.287	85.12
390.512	72.12
390.736	85.12
390.961	75.12
391.186	78.12
391.411	83.12
391.636	74.12
391.86	81.12
392.085	79.12
392.31	88.12
392.534	93.12
392.759	96.12
392.984	121.12
393.208	198.12
393.433	276.12
393.658	223.12
393.882	110.12
394.107	115.12
394.331	93.12
394.556	81.12
394.78	91.12
395.005	89.12
395.229	92.12
395.454	88.12
395.678	91.12
395.903	97.12
396.127	97.12
396.352	112.12
396.576	136.12
396.801	208.12
397.025	201.12
397.249	132.12
397.474	113.12
397.698	96.12
397.922	81.12
398.147	81.12
398.371	89.12
398.595	81.12
398.82	72.12
399.044	67.12
399.268	71.12
399.492	81.12
399.717	85.12
399.941	76.12
400.165	77.12
400.389	84.12
400.613	88.12
400.837	80.12
401.062	88.12
401.286	80.12
401.51	77.12
401.734	80.12
401.958	87.12
402.182	82.12
402.406	86.12
402.63	84.12
402.854	70.12
403.078	86.12
403.302	81.12
403.526	76.12
403.75	76.12
403.974	83.12
404.198	96.12
404.422	145.12
404.645	175.12
404.869	144.12
405.093	91.12
405.317	81.12
405.541	77.12
405.765	87.12
405.988	81.12
406.212	77.12
406.436	80.12
406.66	84.12
406.883	80.12
407.107	87.12
407.331	89.12
407.555	95.12
407.778	103.12
408.002	95.12
408.226	94.12
408.449	73.12
408.673	101.12
408.896	79.12
409.12	74.12
409.344	80.12
409.567	84.12
409.791	65.12
410.014	100.12
410.238	88.12
410.461	105.12
410.685	93.12
410.908	91.12
411.132	74.12
411.355	80.12
411.578	83.12
411.802	70.12
412.025	76.12
412.249	67.12
412.472	73.12
412.695	77.12
412.919	70.12
413.142	63.12
413.365	92.12
413.589	75.12
413.812	75.12
414.035	89.12
414.258	82.12
414.482	71.12
414.705	84.12
414.928	79.12
415.151	77.12
415.374	72.12
415.597	85.12
415.821	77.12
416.044	86.12
416.267	84.12
416.49	82.12
416.713	83.12
416.936	75.12
417.159	79.12
417.382	81.12
417.605	68.12
417.828	81.12
418.051	91.12
418.274	91.12
418.497	78.12
418.72	68.12
418.943	83.12
419.166	91.12
419.389	81.12
419.611	96.12
419.834	91.12
420.057	83.12
420.28	92.12
420.503	83.12
420.726	75.12
420.948	92.12
421.171	74.12
421.394	82.12
421.617	86.12
421.839	100.12
422.062	105.12
422.285	132.12
422.507	259.12
422.73	415.12
422.953	365.12
423.175	169.12
423.398	113.12
423.621	99.12
423.843	83.12
424.066	83.12
424.288	81.12
424.511	76.12
424.733	86.12
424.956	86.12
425.178	84.12
425.401	81.12
425.623	80.12
425.846	78.12
426.068	79.12
426.291	76.12
426.513	79.12
426.735	91.12
426.958	89.12
427.18	97.12
427.402	78.12
427.625	79.12
427.847	85.12
428.069	95.12
428.292	115.12
428.514	129.12
428.736	111.12
428.958	109.12
429.181	125.12
429.403	95.12
429.625	103.12
429.847	121.12
430.069	139.12
430.292	167.12
430.514	164.12
430.736	124.12
430.958	128.12
431.18	103.12
431.402	99.12
431.624	86.12
431.846	94.12
432.068	141.12
432.29	98.12
432.512	95.12
432.734	88.12
432.956	88.12
433.178	82.12
433.4	88.12
433.622	80.12
433.844	83.12
434.066	74.12
434.287	71.12
434.509	75.12
434.731	79.12
434.953	89.12
435.175	91.12
435.397	79.12
435.618	79.12
435.84	76.12
436.062	86.12
436.284	61.12
436.505	75.12
436.727	86.12
436.949	68.12
437.17	86.12
437.392	80.12
437.614	83.12
437.835	85.12
438.057	81.12
438.278	79.12
438.5	74.12
438.721	82.12
438.943	86.12
439.165	93.12
439.386	79.12
439.608	99.12
439.829	83.12
440.05	77.12
440.272	95.12
440.493	81.12
440.715	76.12
440.936	76.12
441.158	86.12
441.379	72.12
441.6	73.12
441.822	88.12
442.043	95.12
442.264	84.12
442.486	107.12
442.707	139.12
442.928	110.12
443.149	99.12
443.371	134.12
443.592	232.12
443.813	175.12
444.034	96.12
444.255	100.12
444.476	76.12
444.698	96.12
444.919	96.12
445.14	195.12
445.361	178.12
445.582	269.12
445.803	206.12
446.024	99.12
446.245	93.12
446.466	83.12
446.687	79.12
446.908	78.12
447.129	84.12
447.35	83.12
447.571	73.12
447.792	78.12
448.013	87.12
448.234	80.12
448.455	68.12
448.675	81.12
448.896	88.12
449.117	79.12
449.338	102.12
449.559	82.12
449.779	81.12
450	75.12
450.221	71.12
450.442	89.12
450.662	69.12
450.883	81.12
451.104	86.12
451.324	78.12
451.545	88.12
451.766	84.12
451.986	76.12
452.207	68.12
452.428	89.12
452.648	89.12
452.869	98.12
453.089	74.12
453.31	81.12
453.53	80.12
453.751	81.12
453.971	76.12
454.192	68.12
454.412	80.12
454.633	74.12
454.853	78.12
455.073	82.12
455.294	77.12
455.514	83.12
455.734	75.12
455.955	75.12
456.175	84.12
456.395	73.12
456.616	87.12
456.836	83.12
457.056	84.12
457.276	94.12
457.497	71.12
457.717	87.12
457.937	85.12
458.157	92.12
458.377	111.12
458.598	100.12
458.818	103.12
459.038	80.12
459.258	91.12
459.478	64.12
459.698	78.12
459.918	78.12
460.138	80.12
460.358	76.12
460.578	82.12
460.798	127.12
461.018	95.12
461.238	86.12
461.458	79.12
461.678	87.12
461.898	87.12
462.118	79.12
462.338	77.12
462.558	82.12
462.777	79.12
462.997	81.12
463.217	86.12
463.437	91.12
463.657	72.12
463.876	99.12
464.096	72.12
464.316	77.12
464.536	88.12
464.755	73.12
464.975	74.12
465.195	79.12
465.414	72.12
465.634	81.12
465.854	76.12
466.073	66.12
466.293	75.12
466.512	94.12
466.732	95.12
466.951	85.12
467.171	93.12
467.391	83.12
467.61	80.12
467.829	71.12
468.049	82.12
468.268	79.12
468.488	79.12
468.707	75.12
468.927	76.12
469.146	91.12
469.365	73.12
469.585	83.12
469.804	79.12
470.023	72.12
470.243	71.12
470.462	79.12
470.681	72.12
470.901	82.12
471.12	83.12
471.339	85.12
471.558	85.12
471.777	84.12
471.997	85.12
472.216	78.12
472.435	84.12
472.654	63.12
472.873	101.12
473.092	85.12
473.311	83.12
473.53	87.12
473.749	81.12
473.968	92.12
474.187	92.12
474.406	83.12
474.625	93.12
474.844	88.12
475.063	71.12
475.282	77.12
475.501	72.12
475.72	75.12
475.939	78.12
476.158	65.12
476.377	63.12
476.596	76.12
476.814	82.12
477.033	97.12
477.252	90.12
477.471	74.12
477.69	82.12
477.908	83.12
478.127	74.12
478.346	71.12
478.564	85.12
478.783	77.12
479.002	87.12
479.22	85.12
479.439	88.12
479.658	91.12
479.876	70.12
480.095	85.12
480.313	80.12
480.532	92.12
480.751	72.12
480.969	83.12
481.188	79.12
481.406	87.12
481.624	75.12
481.843	68.12
482.061	81.12
482.28	77.12
482.498	89.12
482.717	88.12
482.935	84.12
483.153	76.12
483.372	87.12
483.59	71.12
483.808	81.12
484.027	89.12
484.245	72.12
484.463	76.12
484.681	86.12
484.9	81.12
485.118	74.12
485.336	89.12
485.554	73.12
485.772	88.12
485.99	88.12
486.209	80.12
486.427	85.12
486.645	88.12
486.863	95.12
487.081	71.12
487.299	87.12
487.517	86.12
487.735	87.12
487.953	115.12
488.171	108.12
488.389	84.12
488.607	80.12
488.825	70.12
489.043	81.12
489.261	85.12
489.479	90.12
489.696	85.12
489.914	80.12
490.132	87.12
490.35	79.12
490.568	92.12
490.786	89.12
491.003	74.12
491.221	79.12
491.439	74.12
491.657	91.12
491.874	87.12
492.092	77.12
492.31	74.12
492.527	79.12
492.745	79.12
492.963	71.12
493.18	94.12
493.398	70.12
493.615	67.12
493.833	78.12
494.05	84.12
494.268	72.12
494.485	96.12
494.703	81.12
494.92	81.12
495.138	80.12
495.355	78.12
495.573	77.12
495.79	83.12
496.008	82.12
496.225	73.12
496.442	87.12
496.66	81.12
496.877	92.12
497.094	85.12
497.312	80.12
497.529	69.12
497.746	79.12
497.963	84.12
498.181	85.12
498.398	69.12
498.615	83.12
498.832	70.12
499.049	87.12
499.267	83.12
499.484	82.12
499.701	92.12
499.918	93.12
500.135	83.12
500.352	74.12
500.569	85.12
500.786	85.12
501.003	72.12
501.22	85.12
501.437	88.12
501.654	84.12
501.871	73.12
502.088	78.12
502.305	85.12
502.522	81.12
502.739	87.12
502.956	93.12
503.172	103.12
503.389	88.12
503.606	77.12
503.823	83.12
504.04	87.12
504.256	95.12
504.473	95.12
504.69	94.12
504.907	81.12
505.123	86.12
505.34	81.12
505.557	84.12
505.773	85.12
505.99	90.12
506.207	65.12
506.423	79.12
506.64	90.12
506.856	69.12
507.073	70.12
507.289	76.12
507.506	89.12
507.722	77.12
507.939	74.12
508.155	82.12
508.372	90.12
508.588	87.12
508.805	84.12
509.021	73.12
509.238	73.12
509.454	93.12
509.67	78.12
509.887	80.12
510.103	100.12
510.319	80.12
510.536	83.12
510.752	79.12
510.968	86.12
511.184	81.12
511.401	83.12
511.617	80.12
511.833	95.12
512.049	84.12
512.265	77.12
512.481	75.12
512.698	69.12
512.914	83.12
513.13	76.12
513.346	82.12
513.562	92.12
513.778	79.12
513.994	75.12
514.21	66.12
514.426	72.12
514.642	88.12
514.858	72.12
515.074	79.12
515.29	81.12
515.506	90.12
515.721	79.12
515.937	80.12
516.153	83.12
516.369	77.12
516.585	71.12
516.801	79.12
517.016	91.12
517.232	88.12
517.448	80.12
517.664	85.12
517.879	67.12
518.095	72.12
518.311	81.12
518.527	80.12
518.742	101.12
518.958	119.12
519.173	110.12
519.389	88.12
