Data from 2145_1_HRD10591_00011.txt Node
Date: Mon Jan 19 14:21:14 EST 2026
User: Yrep
Spectrometer: HR+D1059
Trigger mode: 1
Integration Time (sec): 1.000000E-1
Scans to average: 1
Electric dark correction enabled: true
Nonlinearity correction enabled: false
Boxcar width: 0
XAxis mode: Wavelengths
Number of Pixels in Spectrum: 2048
>>>>>Begin Spectral Data<<<<<
223.165	-2.5
223.4	-2.5
223.635	-2.5
223.869	-23.5
224.104	-21.5
224.338	-16.5
224.573	-13.5
224.808	-11.5
225.042	-13.5
225.277	3.5
225.511	3.5
225.746	-2.5
225.98	13.5
226.215	1.5
226.449	3.5
226.683	22.5
226.918	29.5
227.152	27.5
227.387	41.5
227.621	44.5
227.856	37.5
228.09	37.5
228.324	48.5
228.559	68.5
228.793	78.5
229.027	65.5
229.262	59.5
229.496	59.5
229.73	64.5
229.964	72.5
230.199	69.5
230.433	69.5
230.667	73.5
230.901	59.5
231.136	66.5
231.37	77.5
231.604	78.5
231.838	77.5
232.072	80.5
232.306	80.5
232.541	72.5
232.775	82.5
233.009	88.5
233.243	79.5
233.477	84.5
233.711	85.5
233.945	82.5
234.179	81.5
234.413	74.5
234.647	80.5
234.881	89.5
235.115	82.5
235.349	73.5
235.583	76.5
235.817	70.5
236.051	86.5
236.285	85.5
236.519	80.5
236.753	78.5
236.987	82.5
237.221	72.5
237.455	64.5
237.689	84.5
237.922	74.5
238.156	68.5
238.39	67.5
238.624	65.5
238.858	79.5
239.091	68.5
239.325	70.5
239.559	79.5
239.793	62.5
240.027	80.5
240.26	72.5
240.494	71.5
240.728	83.5
240.961	68.5
241.195	80.5
241.429	68.5
241.662	57.5
241.896	71.5
242.13	59.5
242.363	87.5
242.597	74.5
242.83	71.5
243.064	76.5
243.298	79.5
243.531	76.5
243.765	60.5
243.998	85.5
244.232	88.5
244.465	70.5
244.699	78.5
244.932	81.5
245.166	69.5
245.399	82.5
245.633	72.5
245.866	50.5
246.099	69.5
246.333	82.5
246.566	77.5
246.8	86.5
247.033	86.5
247.266	73.5
247.5	79.5
247.733	77.5
247.966	84.5
248.2	71.5
248.433	85.5
248.666	76.5
248.899	74.5
249.133	82.5
249.366	87.5
249.599	62.5
249.832	65.5
250.066	71.5
250.299	81.5
250.532	73.5
250.765	69.5
250.998	68.5
251.231	75.5
251.465	78.5
251.698	72.5
251.931	73.5
252.164	77.5
252.397	72.5
252.63	57.5
252.863	87.5
253.096	75.5
253.329	77.5
253.562	72.5
253.795	80.5
254.028	86.5
254.261	74.5
254.494	88.5
254.727	87.5
254.96	71.5
255.193	90.5
255.426	84.5
255.659	62.5
255.892	78.5
256.124	74.5
256.357	81.5
256.59	62.5
256.823	63.5
257.056	70.5
257.289	78.5
257.521	87.5
257.754	73.5
257.987	92.5
258.22	82.5
258.452	88.5
258.685	83.5
258.918	89.5
259.151	77.5
259.383	68.5
259.616	88.5
259.849	91.5
260.081	94.5
260.314	67.5
260.547	80.5
260.779	70.5
261.012	75.5
261.244	84.5
261.477	84.5
261.71	77.5
261.942	74.5
262.175	88.5
262.407	70.5
262.64	76.5
262.872	68.5
263.105	89.5
263.337	72.5
263.57	65.5
263.802	78.5
264.035	70.5
264.267	81.5
264.499	78.5
264.732	83.5
264.964	73.5
265.197	69.5
265.429	74.5
265.661	80.5
265.894	97.5
266.126	85.5
266.358	76.5
266.591	80.5
266.823	88.5
267.055	68.5
267.287	81.5
267.52	78.5
267.752	73.5
267.984	77.5
268.216	72.5
268.448	85.5
268.681	93.5
268.913	76.5
269.145	78.5
269.377	84.5
269.609	73.5
269.841	78.5
270.073	78.5
270.306	91.5
270.538	76.5
270.77	85.5
271.002	81.5
271.234	81.5
271.466	80.5
271.698	72.5
271.93	87.5
272.162	98.5
272.394	81.5
272.626	94.5
272.858	67.5
273.09	81.5
273.322	70.5
273.553	86.5
273.785	78.5
274.017	77.5
274.249	77.5
274.481	86.5
274.713	66.5
274.945	82.5
275.176	64.5
275.408	77.5
275.64	71.5
275.872	78.5
276.104	93.5
276.335	77.5
276.567	92.5
276.799	89.5
277.031	88.5
277.262	85.5
277.494	80.5
277.726	87.5
277.957	86.5
278.189	86.5
278.421	81.5
278.652	81.5
278.884	79.5
279.115	85.5
279.347	90.5
279.579	75.5
279.81	81.5
280.042	84.5
280.273	82.5
280.505	72.5
280.736	62.5
280.968	67.5
281.199	85.5
281.431	84.5
281.662	77.5
281.894	79.5
282.125	93.5
282.356	83.5
282.588	82.5
282.819	74.5
283.051	82.5
283.282	77.5
283.513	80.5
283.745	87.5
283.976	72.5
284.207	86.5
284.439	52.5
284.67	88.5
284.901	79.5
285.132	82.5
285.364	85.5
285.595	78.5
285.826	73.5
286.057	78.5
286.288	72.5
286.52	84.5
286.751	72.5
286.982	86.5
287.213	73.5
287.444	80.5
287.675	73.5
287.906	86.5
288.138	81.5
288.369	95.5
288.6	84.5
288.831	78.5
289.062	71.5
289.293	87.5
289.524	84.5
289.755	86.5
289.986	80.5
290.217	80.5
290.448	80.5
290.679	83.5
290.91	86.5
291.141	90.5
291.371	70.5
291.602	104.5
291.833	69.5
292.064	84.5
292.295	89.5
292.526	80.5
292.757	87.5
292.987	75.5
293.218	79.5
293.449	78.5
293.68	73.5
293.91	81.5
294.141	82.5
294.372	97.5
294.603	95.5
294.833	101.5
295.064	82.5
295.295	76.5
295.525	81.5
295.756	87.5
295.987	64.5
296.217	74.5
296.448	81.5
296.679	82.5
296.909	89.5
297.14	83.5
297.37	73.5
297.601	90.5
297.831	95.5
298.062	86.5
298.292	90.5
298.523	72.5
298.753	70.5
298.984	69.5
299.214	90.5
299.445	75.5
299.675	80.5
299.905	97.5
300.136	98.5
300.366	81.5
300.597	78.5
300.827	84.5
301.057	80.5
301.288	93.5
301.518	77.5
301.748	91.5
301.979	83.5
302.209	90.5
302.439	89.5
302.669	93.5
302.9	95.5
303.13	81.5
303.36	80.5
303.59	90.5
303.82	84.5
304.051	72.5
304.281	84.5
304.511	80.5
304.741	82.5
304.971	74.5
305.201	80.5
305.431	80.5
305.661	77.5
305.891	84.5
306.121	92.5
306.352	96.5
306.582	85.5
306.812	87.5
307.042	83.5
307.272	83.5
307.502	71.5
307.731	86.5
307.961	99.5
308.191	95.5
308.421	93.5
308.651	101.5
308.881	102.5
309.111	100.5
309.341	98.5
309.571	100.5
309.8	86.5
310.03	87.5
310.26	64.5
310.49	80.5
310.72	77.5
310.949	79.5
311.179	79.5
311.409	75.5
311.639	75.5
311.868	65.5
312.098	80.5
312.328	81.5
312.557	77.5
312.787	94.5
313.017	96.5
313.246	88.5
313.476	103.5
313.706	94.5
313.935	81.5
314.165	73.5
314.394	97.5
314.624	88.5
314.853	77.5
315.083	88.5
315.312	100.5
315.542	71.5
315.771	85.5
316.001	80.5
316.23	80.5
316.46	84.5
316.689	79.5
316.919	88.5
317.148	79.5
317.377	101.5
317.607	96.5
317.836	92.5
318.065	80.5
318.295	81.5
318.524	82.5
318.753	81.5
318.983	80.5
319.212	89.5
319.441	76.5
319.67	95.5
319.9	86.5
320.129	78.5
320.358	89.5
320.587	91.5
320.816	84.5
321.046	82.5
321.275	80.5
321.504	87.5
321.733	75.5
321.962	87.5
322.191	72.5
322.42	82.5
322.649	84.5
322.878	99.5
323.108	88.5
323.337	88.5
323.566	88.5
323.795	83.5
324.024	82.5
324.253	87.5
324.482	72.5
324.71	97.5
324.939	95.5
325.168	81.5
325.397	82.5
325.626	78.5
325.855	86.5
326.084	73.5
326.313	98.5
326.542	78.5
326.77	86.5
326.999	73.5
327.228	80.5
327.457	83.5
327.686	99.5
327.914	87.5
328.143	92.5
328.372	86.5
328.6	78.5
328.829	79.5
329.058	73.5
329.287	77.5
329.515	85.5
329.744	64.5
329.972	86.5
330.201	92.5
330.43	91.5
330.658	80.5
330.887	89.5
331.115	93.5
331.344	90.5
331.572	90.5
331.801	77.5
332.03	82.5
332.258	78.5
332.486	82.5
332.715	85.5
332.943	78.5
333.172	84.5
333.4	86.5
333.629	90.5
333.857	96.5
334.085	87.5
334.314	85.5
334.542	97.5
334.771	79.5
334.999	92.5
335.227	94.5
335.455	83.5
335.684	95.5
335.912	116.5
336.14	112.5
336.369	86.5
336.597	86.5
336.825	83.5
337.053	83.5
337.281	75.5
337.51	92.5
337.738	95.5
337.966	79.5
338.194	84.5
338.422	79.5
338.65	81.5
338.878	86.5
339.106	72.5
339.334	70.5
339.562	78.5
339.79	80.5
340.018	87.5
340.246	77.5
340.474	82.5
340.702	77.5
340.93	89.5
341.158	65.5
341.386	83.5
341.614	84.5
341.842	85.5
342.07	89.5
342.298	75.5
342.526	84.5
342.754	97.5
342.981	84.5
343.209	72.5
343.437	90.5
343.665	85.5
343.893	103.5
344.12	103.5
344.348	100.5
344.576	91.5
344.804	86.5
345.031	83.5
345.259	88.5
345.487	68.5
345.714	72.5
345.942	91.5
346.17	90.5
346.397	85.5
346.625	92.5
346.853	91.5
347.08	73.5
347.308	79.5
347.535	79.5
347.763	81.5
347.99	81.5
348.218	93.5
348.445	88.5
348.673	88.5
348.9	93.5
349.128	76.5
349.355	89.5
349.583	88.5
349.81	85.5
350.037	91.5
350.265	82.5
350.492	93.5
350.72	80.5
350.947	73.5
351.174	79.5
351.402	75.5
351.629	80.5
351.856	79.5
352.083	87.5
352.311	84.5
352.538	83.5
352.765	93.5
352.992	102.5
353.22	90.5
353.447	76.5
353.674	78.5
353.901	94.5
354.128	75.5
354.355	82.5
354.583	96.5
354.81	83.5
355.037	94.5
355.264	90.5
355.491	88.5
355.718	88.5
355.945	85.5
356.172	90.5
356.399	78.5
356.626	88.5
356.853	83.5
357.08	90.5
357.307	101.5
357.534	86.5
357.761	93.5
357.988	86.5
358.215	104.5
358.441	85.5
358.668	89.5
358.895	87.5
359.122	98.5
359.349	104.5
359.576	80.5
359.802	81.5
360.029	89.5
360.256	88.5
360.483	84.5
360.709	84.5
360.936	94.5
361.163	85.5
361.39	89.5
361.616	92.5
361.843	96.5
362.07	85.5
362.296	96.5
362.523	90.5
362.749	111.5
362.976	118.5
363.203	121.5
363.429	103.5
363.656	84.5
363.882	100.5
364.109	128.5
364.335	140.5
364.562	158.5
364.788	115.5
365.015	82.5
365.241	97.5
365.468	93.5
365.694	70.5
365.92	69.5
366.147	81.5
366.373	94.5
366.599	73.5
366.826	81.5
367.052	94.5
367.278	80.5
367.505	92.5
367.731	86.5
367.957	80.5
368.184	80.5
368.41	87.5
368.636	89.5
368.862	71.5
369.089	85.5
369.315	99.5
369.541	80.5
369.767	80.5
369.993	89.5
370.219	70.5
370.445	102.5
370.672	95.5
370.898	82.5
371.124	85.5
371.35	93.5
371.576	90.5
371.802	85.5
372.028	79.5
372.254	97.5
372.48	82.5
372.706	85.5
372.932	73.5
373.158	96.5
373.384	100.5
373.61	85.5
373.835	94.5
374.061	100.5
374.287	78.5
374.513	112.5
374.739	90.5
374.965	112.5
375.191	95.5
375.416	94.5
375.642	84.5
375.868	104.5
376.094	75.5
376.319	103.5
376.545	84.5
376.771	79.5
376.997	84.5
377.222	94.5
377.448	84.5
377.674	77.5
377.899	88.5
378.125	94.5
378.35	91.5
378.576	82.5
378.802	92.5
379.027	95.5
379.253	92.5
379.478	81.5
379.704	82.5
379.929	80.5
380.155	79.5
380.38	85.5
380.606	86.5
380.831	86.5
381.057	85.5
381.282	93.5
381.507	93.5
381.733	95.5
381.958	106.5
382.184	101.5
382.409	82.5
382.634	81.5
382.86	86.5
383.085	89.5
383.31	106.5
383.535	98.5
383.761	84.5
383.986	89.5
384.211	112.5
384.436	94.5
384.662	79.5
384.887	84.5
385.112	87.5
385.337	86.5
385.562	82.5
385.787	80.5
386.013	100.5
386.238	90.5
386.463	89.5
386.688	98.5
386.913	78.5
387.138	103.5
387.363	94.5
387.588	86.5
387.813	109.5
388.038	97.5
388.263	113.5
388.488	100.5
388.713	90.5
388.938	80.5
389.163	82.5
389.387	85.5
389.612	96.5
389.837	68.5
390.062	93.5
390.287	74.5
390.512	95.5
390.736	84.5
390.961	94.5
391.186	87.5
391.411	81.5
391.636	89.5
391.86	94.5
392.085	95.5
392.31	98.5
392.534	89.5
392.759	119.5
392.984	140.5
393.208	222.5
393.433	304.5
393.658	242.5
393.882	138.5
394.107	109.5
394.331	111.5
394.556	127.5
394.78	98.5
395.005	84.5
395.229	84.5
395.454	93.5
395.678	89.5
395.903	111.5
396.127	143.5
396.352	147.5
396.576	140.5
396.801	233.5
397.025	257.5
397.249	158.5
397.474	108.5
397.698	98.5
397.922	95.5
398.147	88.5
398.371	88.5
398.595	84.5
398.82	86.5
399.044	91.5
399.268	102.5
399.492	96.5
399.717	88.5
399.941	84.5
400.165	92.5
400.389	78.5
400.613	89.5
400.837	88.5
401.062	91.5
401.286	82.5
401.51	74.5
401.734	81.5
401.958	76.5
402.182	98.5
402.406	76.5
402.63	80.5
402.854	98.5
403.078	91.5
403.302	92.5
403.526	83.5
403.75	98.5
403.974	91.5
404.198	87.5
404.422	93.5
404.645	120.5
404.869	99.5
405.093	71.5
405.317	92.5
405.541	86.5
405.765	85.5
405.988	81.5
406.212	101.5
406.436	92.5
406.66	95.5
406.883	83.5
407.107	92.5
407.331	84.5
407.555	95.5
407.778	102.5
408.002	119.5
408.226	100.5
408.449	95.5
408.673	91.5
408.896	73.5
409.12	78.5
409.344	84.5
409.567	94.5
409.791	112.5
410.014	98.5
410.238	100.5
410.461	86.5
410.685	88.5
410.908	84.5
411.132	87.5
411.355	92.5
411.578	94.5
411.802	86.5
412.025	106.5
412.249	80.5
412.472	74.5
412.695	78.5
412.919	80.5
413.142	93.5
413.365	89.5
413.589	94.5
413.812	75.5
414.035	98.5
414.258	86.5
414.482	81.5
414.705	97.5
414.928	75.5
415.151	88.5
415.374	95.5
415.597	86.5
415.821	73.5
416.044	88.5
416.267	84.5
416.49	77.5
416.713	95.5
416.936	79.5
417.159	89.5
417.382	80.5
417.605	92.5
417.828	77.5
418.051	81.5
418.274	83.5
418.497	66.5
418.72	92.5
418.943	88.5
419.166	91.5
419.389	85.5
419.611	88.5
419.834	90.5
420.057	90.5
420.28	86.5
420.503	90.5
420.726	87.5
420.948	83.5
421.171	82.5
421.394	108.5
421.617	124.5
421.839	124.5
422.062	145.5
422.285	183.5
422.507	297.5
422.73	416.5
422.953	359.5
423.175	217.5
423.398	147.5
423.621	110.5
423.843	116.5
424.066	109.5
424.288	90.5
424.511	96.5
424.733	84.5
424.956	86.5
425.178	89.5
425.401	74.5
425.623	86.5
425.846	94.5
426.068	85.5
426.291	79.5
426.513	89.5
426.735	75.5
426.958	81.5
427.18	85.5
427.402	80.5
427.625	84.5
427.847	96.5
428.069	86.5
428.292	113.5
428.514	146.5
428.736	113.5
428.958	128.5
429.181	133.5
429.403	98.5
429.625	100.5
429.847	128.5
430.069	167.5
430.292	197.5
430.514	174.5
430.736	148.5
430.958	152.5
431.18	101.5
431.402	92.5
431.624	97.5
431.846	127.5
432.068	120.5
432.29	93.5
432.512	92.5
432.734	87.5
432.956	90.5
433.178	90.5
433.4	86.5
433.622	87.5
433.844	91.5
434.066	93.5
434.287	86.5
434.509	83.5
434.731	88.5
434.953	76.5
435.175	92.5
435.397	74.5
435.618	76.5
435.84	88.5
436.062	89.5
436.284	87.5
436.505	81.5
436.727	93.5
436.949	75.5
437.17	91.5
437.392	91.5
437.614	80.5
437.835	88.5
438.057	80.5
438.278	64.5
438.5	86.5
438.721	98.5
438.943	94.5
439.165	85.5
439.386	69.5
439.608	78.5
439.829	89.5
440.05	80.5
440.272	103.5
440.493	82.5
440.715	81.5
440.936	86.5
441.158	88.5
441.379	93.5
441.6	97.5
441.822	85.5
442.043	75.5
442.264	92.5
442.486	136.5
442.707	184.5
442.928	129.5
443.149	117.5
443.371	164.5
443.592	268.5
443.813	227.5
444.034	110.5
444.255	103.5
444.476	72.5
444.698	98.5
444.919	91.5
445.14	216.5
445.361	225.5
445.582	310.5
445.803	278.5
446.024	128.5
446.245	94.5
446.466	99.5
446.687	89.5
446.908	82.5
447.129	85.5
447.35	86.5
447.571	86.5
447.792	81.5
448.013	93.5
448.234	90.5
448.455	74.5
448.675	84.5
448.896	83.5
449.117	73.5
449.338	82.5
449.559	76.5
449.779	81.5
450	66.5
450.221	89.5
450.442	82.5
450.662	86.5
450.883	81.5
451.104	88.5
451.324	80.5
451.545	89.5
451.766	88.5
451.986	87.5
452.207	95.5
452.428	74.5
452.648	84.5
452.869	114.5
453.089	108.5
453.31	93.5
453.53	85.5
453.751	100.5
453.971	83.5
454.192	63.5
454.412	85.5
454.633	87.5
454.853	93.5
455.073	84.5
455.294	90.5
455.514	86.5
455.734	83.5
455.955	78.5
456.175	94.5
456.395	84.5
456.616	75.5
456.836	75.5
457.056	78.5
457.276	78.5
457.497	89.5
457.717	93.5
457.937	102.5
458.157	130.5
458.377	126.5
458.598	125.5
458.818	145.5
459.038	96.5
459.258	84.5
459.478	98.5
459.698	64.5
459.918	89.5
460.138	76.5
460.358	89.5
460.578	86.5
460.798	119.5
461.018	122.5
461.238	84.5
461.458	87.5
461.678	81.5
461.898	82.5
462.118	83.5
462.338	86.5
462.558	81.5
462.777	95.5
462.997	84.5
463.217	100.5
463.437	87.5
463.657	87.5
463.876	72.5
464.096	91.5
464.316	70.5
464.536	72.5
464.755	80.5
464.975	82.5
465.195	88.5
465.414	93.5
465.634	98.5
465.854	92.5
466.073	74.5
466.293	84.5
466.512	81.5
466.732	80.5
466.951	88.5
467.171	85.5
467.391	75.5
467.61	90.5
467.829	80.5
468.049	75.5
468.268	93.5
468.488	93.5
468.707	91.5
468.927	94.5
469.146	78.5
469.365	80.5
469.585	85.5
469.804	72.5
470.023	80.5
470.243	75.5
470.462	75.5
470.681	76.5
470.901	82.5
471.12	86.5
471.339	85.5
471.558	93.5
471.777	98.5
471.997	87.5
472.216	69.5
472.435	83.5
472.654	97.5
472.873	100.5
473.092	86.5
473.311	99.5
473.53	76.5
473.749	91.5
473.968	92.5
474.187	87.5
474.406	73.5
474.625	81.5
474.844	84.5
475.063	79.5
475.282	80.5
475.501	76.5
475.72	81.5
475.939	78.5
476.158	66.5
476.377	84.5
476.596	87.5
476.814	76.5
477.033	96.5
477.252	84.5
477.471	85.5
477.69	84.5
477.908	83.5
478.127	76.5
478.346	95.5
478.564	74.5
478.783	72.5
479.002	82.5
479.22	102.5
479.439	95.5
479.658	80.5
479.876	76.5
480.095	82.5
480.313	84.5
480.532	75.5
480.751	66.5
480.969	75.5
481.188	79.5
481.406	87.5
481.624	74.5
481.843	93.5
482.061	80.5
482.28	72.5
482.498	85.5
482.717	84.5
482.935	88.5
483.153	74.5
483.372	101.5
483.59	94.5
483.808	102.5
484.027	85.5
484.245	95.5
484.463	83.5
484.681	98.5
484.9	93.5
485.118	84.5
485.336	75.5
485.554	86.5
485.772	88.5
485.99	78.5
486.209	74.5
486.427	83.5
486.645	86.5
486.863	110.5
487.081	90.5
487.299	98.5
487.517	101.5
487.735	102.5
487.953	186.5
488.171	172.5
488.389	108.5
488.607	103.5
488.825	92.5
489.043	99.5
489.261	84.5
489.479	85.5
489.696	86.5
489.914	84.5
490.132	89.5
490.35	92.5
490.568	88.5
490.786	89.5
491.003	100.5
491.221	86.5
491.439	82.5
491.657	82.5
491.874	74.5
492.092	84.5
492.31	77.5
492.527	93.5
492.745	96.5
492.963	82.5
493.18	87.5
493.398	83.5
493.615	86.5
493.833	68.5
494.05	91.5
494.268	86.5
494.485	72.5
494.703	80.5
494.92	84.5
495.138	89.5
495.355	83.5
495.573	94.5
495.79	92.5
496.008	96.5
496.225	90.5
496.442	97.5
496.66	96.5
496.877	98.5
497.094	86.5
497.312	98.5
497.529	110.5
497.746	71.5
497.963	93.5
498.181	104.5
498.398	108.5
498.615	96.5
498.832	79.5
499.049	86.5
499.267	101.5
499.484	83.5
499.701	95.5
499.918	90.5
500.135	96.5
500.352	84.5
500.569	86.5
500.786	106.5
501.003	96.5
501.22	90.5
501.437	86.5
501.654	83.5
501.871	94.5
502.088	82.5
502.305	87.5
502.522	91.5
502.739	90.5
502.956	88.5
503.172	89.5
503.389	65.5
503.606	95.5
503.823	99.5
504.04	105.5
504.256	139.5
504.473	157.5
504.69	112.5
504.907	96.5
505.123	83.5
505.34	90.5
505.557	81.5
505.773	82.5
505.99	85.5
506.207	69.5
506.423	73.5
506.64	85.5
506.856	81.5
507.073	102.5
507.289	89.5
507.506	84.5
507.722	86.5
507.939	76.5
508.155	90.5
508.372	82.5
508.588	77.5
508.805	95.5
509.021	105.5
509.238	72.5
509.454	78.5
509.67	79.5
509.887	82.5
510.103	78.5
510.319	82.5
510.536	93.5
510.752	78.5
510.968	88.5
511.184	78.5
511.401	89.5
511.617	93.5
511.833	91.5
512.049	87.5
512.265	83.5
512.481	85.5
512.698	82.5
512.914	83.5
513.13	96.5
513.346	86.5
513.562	87.5
513.778	88.5
513.994	81.5
514.21	80.5
514.426	93.5
514.642	81.5
514.858	97.5
515.074	98.5
515.29	83.5
515.506	90.5
515.721	93.5
515.937	85.5
516.153	78.5
516.369	86.5
516.585	85.5
516.801	105.5
517.016	109.5
517.232	97.5
517.448	81.5
517.664	63.5
517.879	84.5
518.095	78.5
518.311	92.5
518.527	112.5
518.742	120.5
518.958	165.5
519.173	190.5
519.389	128.5
519.605	108.5
519.82	98.5
520.036	86.5
520.251	99.5
520.467	80.5
520.682	78.5
520.898	89.5
521.113	95.5
521.329	97.5
521.544	89.5
521.76	100.5
521.975	92.5
522.19	90.5
522.406	84.5
522.621	91.5
522.836	92.5
523.052	77.5
523.267	83.5
523.482	90.5
523.698	80.5
523.913	90.5
524.128	84.5
524.343	89.5
524.559	103.5
524.774	92.5
524.989	93.5
525.204	83.5
525.419	104.5
525.634	98.5
525.849	108.5
526.064	134.5
526.28	245.5
526.495	350.5
526.71	392.5
526.925	240.5
527.14	307.5
527.355	273.5
527.57	118.5
527.785	91.5
527.999	102.5
528.214	85.5
528.429	83.5
528.644	105.5
528.859	98.5
529.074	82.5
529.289	89.5
529.503	97.5
529.718	88.5
529.933	103.5
530.148	102.5
530.363	100.5
530.577	90.5
530.792	90.5
531.007	94.5
531.221	86.5
531.436	95.5
531.651	82.5
531.865	87.5
532.08	88.5
532.295	101.5
532.509	88.5
532.724	90.5
532.938	85.5
533.153	96.5
533.367	98.5
533.582	101.5
533.796	73.5
534.011	101.5
534.225	85.5
534.44	94.5
534.654	96.5
534.868	114.5
535.083	179.5
535.297	166.5
535.511	100.5
535.726	95.5
535.94	95.5
536.154	96.5
536.369	97.5
536.583	87.5
536.797	96.5
537.011	100.5
537.225	105.5
537.44	95.5
537.654	110.5
537.868	98.5
538.082	102.5
