Data from 2145_1_HRD10591_00008.txt Node
Date: Mon Jan 19 14:21:13 EST 2026
User: Yrep
Spectrometer: HR+D1059
Trigger mode: 1
Integration Time (sec): 1.000000E-1
Scans to average: 1
Electric dark correction enabled: true
Nonlinearity correction enabled: false
Boxcar width: 0
XAxis mode: Wavelengths
Number of Pixels in Spectrum: 2048
>>>>>Begin Spectral Data<<<<<
223.165	-23.38
223.4	-23.38
223.635	-23.38
223.869	-13.38
224.104	-23.38
224.338	-9.38
224.573	-2.38
224.808	-5.38
225.042	-1.38
225.277	-10.38
225.511	-23.38
225.746	3.62
225.98	13.62
226.215	5.62
226.449	24.62
226.683	21.62
226.918	26.62
227.152	16.62
227.387	47.62
227.621	25.62
227.856	25.62
228.09	49.62
228.324	58.62
228.559	56.62
228.793	59.62
229.027	67.62
229.262	64.62
229.496	69.62
229.73	69.62
229.964	68.62
230.199	61.62
230.433	73.62
230.667	91.62
230.901	86.62
231.136	75.62
231.37	78.62
231.604	90.62
231.838	84.62
232.072	97.62
232.306	77.62
232.541	69.62
232.775	87.62
233.009	84.62
233.243	74.62
233.477	73.62
233.711	78.62
233.945	78.62
234.179	80.62
234.413	77.62
234.647	91.62
234.881	87.62
235.115	89.62
235.349	92.62
235.583	73.62
235.817	78.62
236.051	83.62
236.285	78.62
236.519	73.62
236.753	64.62
236.987	86.62
237.221	63.62
237.455	81.62
237.689	83.62
237.922	71.62
238.156	85.62
238.39	73.62
238.624	66.62
238.858	75.62
239.091	86.62
239.325	79.62
239.559	83.62
239.793	98.62
240.027	85.62
240.26	73.62
240.494	80.62
240.728	79.62
240.961	75.62
241.195	76.62
241.429	71.62
241.662	78.62
241.896	58.62
242.13	65.62
242.363	75.62
242.597	86.62
242.83	83.62
243.064	83.62
243.298	88.62
243.531	74.62
243.765	86.62
243.998	83.62
244.232	83.62
244.465	74.62
244.699	75.62
244.932	86.62
245.166	85.62
245.399	86.62
245.633	96.62
245.866	89.62
246.099	86.62
246.333	83.62
246.566	85.62
246.8	83.62
247.033	74.62
247.266	86.62
247.5	85.62
247.733	72.62
247.966	73.62
248.2	86.62
248.433	77.62
248.666	81.62
248.899	79.62
249.133	88.62
249.366	79.62
249.599	69.62
249.832	85.62
250.066	76.62
250.299	78.62
250.532	86.62
250.765	85.62
250.998	83.62
251.231	78.62
251.465	81.62
251.698	85.62
251.931	88.62
252.164	72.62
252.397	92.62
252.63	82.62
252.863	85.62
253.096	70.62
253.329	77.62
253.562	85.62
253.795	77.62
254.028	85.62
254.261	86.62
254.494	82.62
254.727	81.62
254.96	73.62
255.193	73.62
255.426	85.62
255.659	73.62
255.892	85.62
256.124	78.62
256.357	88.62
256.59	80.62
256.823	83.62
257.056	78.62
257.289	70.62
257.521	86.62
257.754	82.62
257.987	80.62
258.22	93.62
258.452	83.62
258.685	74.62
258.918	89.62
259.151	84.62
259.383	77.62
259.616	81.62
259.849	66.62
260.081	95.62
260.314	85.62
260.547	85.62
260.779	91.62
261.012	93.62
261.244	92.62
261.477	82.62
261.71	77.62
261.942	87.62
262.175	75.62
262.407	89.62
262.64	79.62
262.872	68.62
263.105	75.62
263.337	76.62
263.57	76.62
263.802	77.62
264.035	85.62
264.267	91.62
264.499	89.62
264.732	73.62
264.964	83.62
265.197	82.62
265.429	84.62
265.661	90.62
265.894	74.62
266.126	103.62
266.358	85.62
266.591	91.62
266.823	91.62
267.055	81.62
267.287	83.62
267.52	68.62
267.752	82.62
267.984	108.62
268.216	79.62
268.448	90.62
268.681	81.62
268.913	77.62
269.145	81.62
269.377	90.62
269.609	83.62
269.841	77.62
270.073	79.62
270.306	87.62
270.538	77.62
270.77	82.62
271.002	96.62
271.234	97.62
271.466	85.62
271.698	68.62
271.93	85.62
272.162	81.62
272.394	94.62
272.626	95.62
272.858	90.62
273.09	90.62
273.322	84.62
273.553	88.62
273.785	105.62
274.017	74.62
274.249	76.62
274.481	87.62
274.713	80.62
274.945	90.62
275.176	75.62
275.408	72.62
275.64	77.62
275.872	81.62
276.104	96.62
276.335	84.62
276.567	90.62
276.799	67.62
277.031	74.62
277.262	84.62
277.494	83.62
277.726	79.62
277.957	83.62
278.189	73.62
278.421	89.62
278.652	79.62
278.884	101.62
279.115	93.62
279.347	90.62
279.579	86.62
279.81	82.62
280.042	90.62
280.273	80.62
280.505	68.62
280.736	84.62
280.968	75.62
281.199	93.62
281.431	81.62
281.662	86.62
281.894	88.62
282.125	99.62
282.356	82.62
282.588	83.62
282.819	85.62
283.051	84.62
283.282	82.62
283.513	87.62
283.745	86.62
283.976	85.62
284.207	94.62
284.439	89.62
284.67	90.62
284.901	85.62
285.132	90.62
285.364	87.62
285.595	89.62
285.826	77.62
286.057	100.62
286.288	86.62
286.52	88.62
286.751	86.62
286.982	83.62
287.213	97.62
287.444	93.62
287.675	90.62
287.906	87.62
288.138	83.62
288.369	83.62
288.6	84.62
288.831	87.62
289.062	97.62
289.293	86.62
289.524	94.62
289.755	99.62
289.986	89.62
290.217	88.62
290.448	93.62
290.679	90.62
290.91	94.62
291.141	75.62
291.371	81.62
291.602	84.62
291.833	82.62
292.064	89.62
292.295	88.62
292.526	88.62
292.757	79.62
292.987	82.62
293.218	78.62
293.449	91.62
293.68	96.62
293.91	78.62
294.141	80.62
294.372	89.62
294.603	98.62
294.833	85.62
295.064	88.62
295.295	78.62
295.525	79.62
295.756	75.62
295.987	90.62
296.217	92.62
296.448	71.62
296.679	81.62
296.909	88.62
297.14	79.62
297.37	86.62
297.601	80.62
297.831	84.62
298.062	98.62
298.292	90.62
298.523	85.62
298.753	85.62
298.984	83.62
299.214	95.62
299.445	90.62
299.675	91.62
299.905	106.62
300.136	73.62
300.366	93.62
300.597	93.62
300.827	86.62
301.057	93.62
301.288	83.62
301.518	83.62
301.748	81.62
301.979	87.62
302.209	78.62
302.439	96.62
302.669	81.62
302.9	84.62
303.13	92.62
303.36	79.62
303.59	78.62
303.82	101.62
304.051	97.62
304.281	93.62
304.511	85.62
304.741	83.62
304.971	101.62
305.201	100.62
305.431	91.62
305.661	98.62
305.891	95.62
306.121	99.62
306.352	93.62
306.582	87.62
306.812	77.62
307.042	90.62
307.272	83.62
307.502	83.62
307.731	104.62
307.961	95.62
308.191	99.62
308.421	98.62
308.651	88.62
308.881	96.62
309.111	94.62
309.341	89.62
309.571	91.62
309.8	85.62
310.03	78.62
310.26	95.62
310.49	96.62
310.72	100.62
310.949	92.62
311.179	86.62
311.409	85.62
311.639	92.62
311.868	93.62
312.098	92.62
312.328	95.62
312.557	77.62
312.787	69.62
313.017	90.62
313.246	87.62
313.476	85.62
313.706	85.62
313.935	94.62
314.165	92.62
314.394	94.62
314.624	84.62
314.853	99.62
315.083	78.62
315.312	94.62
315.542	98.62
315.771	85.62
316.001	73.62
316.23	85.62
316.46	89.62
316.689	69.62
316.919	85.62
317.148	76.62
317.377	101.62
317.607	80.62
317.836	87.62
318.065	87.62
318.295	90.62
318.524	95.62
318.753	89.62
318.983	89.62
319.212	96.62
319.441	79.62
319.67	87.62
319.9	88.62
320.129	93.62
320.358	121.62
320.587	92.62
320.816	76.62
321.046	81.62
321.275	85.62
321.504	90.62
321.733	87.62
321.962	93.62
322.191	97.62
322.42	97.62
322.649	102.62
322.878	91.62
323.108	84.62
323.337	93.62
323.566	85.62
323.795	102.62
324.024	85.62
324.253	83.62
324.482	92.62
324.71	97.62
324.939	91.62
325.168	87.62
325.397	93.62
325.626	84.62
325.855	81.62
326.084	87.62
326.313	101.62
326.542	92.62
326.77	87.62
326.999	88.62
327.228	90.62
327.457	90.62
327.686	84.62
327.914	81.62
328.143	88.62
328.372	95.62
328.6	85.62
328.829	73.62
329.058	80.62
329.287	96.62
329.515	86.62
329.744	87.62
329.972	76.62
330.201	96.62
330.43	93.62
330.658	85.62
330.887	86.62
331.115	85.62
331.344	95.62
331.572	95.62
331.801	79.62
332.03	79.62
332.258	87.62
332.486	87.62
332.715	98.62
332.943	76.62
333.172	88.62
333.4	83.62
333.629	81.62
333.857	100.62
334.085	88.62
334.314	106.62
334.542	87.62
334.771	97.62
334.999	102.62
335.227	103.62
335.455	87.62
335.684	94.62
335.912	111.62
336.14	118.62
336.369	115.62
336.597	86.62
336.825	82.62
337.053	83.62
337.281	95.62
337.51	101.62
337.738	74.62
337.966	90.62
338.194	94.62
338.422	81.62
338.65	85.62
338.878	105.62
339.106	77.62
339.334	91.62
339.562	74.62
339.79	74.62
340.018	88.62
340.246	80.62
340.474	97.62
340.702	94.62
340.93	84.62
341.158	76.62
341.386	91.62
341.614	79.62
341.842	87.62
342.07	90.62
342.298	93.62
342.526	77.62
342.754	73.62
342.981	91.62
343.209	87.62
343.437	93.62
343.665	85.62
343.893	83.62
344.12	100.62
344.348	96.62
344.576	86.62
344.804	85.62
345.031	83.62
345.259	83.62
345.487	90.62
345.714	85.62
345.942	91.62
346.17	86.62
346.397	90.62
346.625	95.62
346.853	88.62
347.08	98.62
347.308	92.62
347.535	95.62
347.763	93.62
347.99	84.62
348.218	91.62
348.445	86.62
348.673	90.62
348.9	89.62
349.128	103.62
349.355	87.62
349.583	94.62
349.81	90.62
350.037	90.62
350.265	90.62
350.492	86.62
350.72	85.62
350.947	77.62
351.174	87.62
351.402	91.62
351.629	79.62
351.856	91.62
352.083	88.62
352.311	100.62
352.538	89.62
352.765	89.62
352.992	103.62
353.22	78.62
353.447	85.62
353.674	85.62
353.901	101.62
354.128	89.62
354.355	93.62
354.583	81.62
354.81	94.62
355.037	84.62
355.264	89.62
355.491	80.62
355.718	84.62
355.945	91.62
356.172	69.62
356.399	84.62
356.626	93.62
356.853	101.62
357.08	91.62
357.307	89.62
357.534	83.62
357.761	97.62
357.988	107.62
358.215	105.62
358.441	97.62
358.668	98.62
358.895	85.62
359.122	86.62
359.349	76.62
359.576	76.62
359.802	84.62
360.029	88.62
360.256	80.62
360.483	92.62
360.709	100.62
360.936	115.62
361.163	105.62
361.39	87.62
361.616	92.62
361.843	83.62
362.07	95.62
362.296	100.62
362.523	111.62
362.749	110.62
362.976	137.62
363.203	148.62
363.429	115.62
363.656	99.62
363.882	103.62
364.109	112.62
364.335	140.62
364.562	149.62
364.788	119.62
365.015	106.62
365.241	90.62
365.468	93.62
365.694	92.62
365.92	106.62
366.147	89.62
366.373	69.62
366.599	85.62
366.826	95.62
367.052	97.62
367.278	87.62
367.505	80.62
367.731	95.62
367.957	92.62
368.184	92.62
368.41	82.62
368.636	76.62
368.862	76.62
369.089	83.62
369.315	100.62
369.541	81.62
369.767	89.62
369.993	80.62
370.219	90.62
370.445	91.62
370.672	90.62
370.898	85.62
371.124	102.62
371.35	95.62
371.576	79.62
371.802	93.62
372.028	100.62
372.254	84.62
372.48	85.62
372.706	101.62
372.932	80.62
373.158	100.62
373.384	105.62
373.61	113.62
373.835	113.62
374.061	99.62
374.287	99.62
374.513	96.62
374.739	102.62
374.965	86.62
375.191	104.62
375.416	103.62
375.642	108.62
375.868	107.62
376.094	102.62
376.319	95.62
376.545	99.62
376.771	91.62
376.997	94.62
377.222	87.62
377.448	103.62
377.674	93.62
377.899	97.62
378.125	89.62
378.35	91.62
378.576	88.62
378.802	83.62
379.027	83.62
379.253	103.62
379.478	98.62
379.704	88.62
379.929	97.62
380.155	86.62
380.38	90.62
380.606	104.62
380.831	85.62
381.057	91.62
381.282	80.62
381.507	98.62
381.733	99.62
381.958	105.62
382.184	102.62
382.409	105.62
382.634	117.62
382.86	97.62
383.085	91.62
383.31	103.62
383.535	103.62
383.761	92.62
383.986	107.62
384.211	91.62
384.436	93.62
384.662	97.62
384.887	95.62
385.112	94.62
385.337	99.62
385.562	86.62
385.787	99.62
386.013	105.62
386.238	99.62
386.463	91.62
386.688	104.62
386.913	79.62
387.138	85.62
387.363	114.62
387.588	83.62
387.813	105.62
388.038	96.62
388.263	87.62
388.488	94.62
388.713	94.62
388.938	85.62
389.163	93.62
389.387	83.62
389.612	97.62
389.837	88.62
390.062	84.62
390.287	101.62
390.512	91.62
390.736	101.62
390.961	99.62
391.186	97.62
391.411	93.62
391.636	100.62
391.86	94.62
392.085	104.62
392.31	100.62
392.534	109.62
392.759	125.62
392.984	142.62
393.208	246.62
393.433	363.62
393.658	265.62
393.882	129.62
394.107	121.62
394.331	122.62
394.556	141.62
394.78	128.62
395.005	105.62
395.229	111.62
395.454	101.62
395.678	114.62
395.903	117.62
396.127	154.62
396.352	177.62
396.576	169.62
396.801	247.62
397.025	297.62
397.249	198.62
397.474	134.62
397.698	115.62
397.922	101.62
398.147	83.62
398.371	87.62
398.595	101.62
398.82	97.62
399.044	96.62
399.268	86.62
399.492	88.62
399.717	88.62
399.941	97.62
400.165	99.62
400.389	90.62
400.613	84.62
400.837	87.62
401.062	82.62
401.286	89.62
401.51	97.62
401.734	84.62
401.958	106.62
402.182	91.62
402.406	86.62
402.63	106.62
402.854	77.62
403.078	90.62
403.302	95.62
403.526	85.62
403.75	88.62
403.974	83.62
404.198	97.62
404.422	110.62
404.645	114.62
404.869	98.62
405.093	99.62
405.317	82.62
405.541	97.62
405.765	94.62
405.988	89.62
406.212	97.62
406.436	98.62
406.66	86.62
406.883	83.62
407.107	90.62
407.331	100.62
407.555	106.62
407.778	117.62
408.002	117.62
408.226	98.62
408.449	87.62
408.673	91.62
408.896	93.62
409.12	101.62
409.344	105.62
409.567	110.62
409.791	110.62
410.014	113.62
410.238	92.62
410.461	105.62
410.685	99.62
410.908	97.62
411.132	110.62
411.355	80.62
411.578	86.62
411.802	75.62
412.025	87.62
412.249	94.62
412.472	100.62
412.695	85.62
412.919	90.62
413.142	87.62
413.365	95.62
413.589	97.62
413.812	89.62
414.035	100.62
414.258	91.62
414.482	90.62
414.705	99.62
414.928	90.62
415.151	80.62
415.374	95.62
415.597	79.62
415.821	70.62
416.044	93.62
416.267	99.62
416.49	93.62
416.713	86.62
416.936	86.62
417.159	86.62
417.382	93.62
417.605	87.62
417.828	89.62
418.051	86.62
418.274	94.62
418.497	84.62
418.72	82.62
418.943	101.62
419.166	90.62
419.389	92.62
419.611	97.62
419.834	96.62
420.057	96.62
420.28	93.62
420.503	83.62
420.726	86.62
420.948	113.62
421.171	107.62
421.394	122.62
421.617	138.62
421.839	154.62
422.062	147.62
422.285	191.62
422.507	319.62
422.73	464.62
422.953	426.62
423.175	262.62
423.398	155.62
423.621	117.62
423.843	108.62
424.066	111.62
424.288	94.62
424.511	103.62
424.733	100.62
424.956	102.62
425.178	106.62
425.401	92.62
425.623	93.62
425.846	86.62
426.068	89.62
426.291	100.62
426.513	95.62
426.735	83.62
426.958	94.62
427.18	110.62
427.402	99.62
427.625	95.62
427.847	95.62
428.069	113.62
428.292	144.62
428.514	148.62
428.736	130.62
428.958	142.62
429.181	154.62
429.403	106.62
429.625	105.62
429.847	122.62
430.069	189.62
430.292	203.62
430.514	201.62
430.736	142.62
430.958	158.62
431.18	105.62
431.402	96.62
431.624	102.62
431.846	130.62
432.068	146.62
432.29	90.62
432.512	93.62
432.734	89.62
432.956	89.62
433.178	82.62
433.4	96.62
433.622	90.62
433.844	93.62
434.066	91.62
434.287	88.62
434.509	84.62
434.731	76.62
434.953	69.62
435.175	73.62
435.397	101.62
435.618	102.62
435.84	115.62
436.062	105.62
436.284	86.62
436.505	93.62
436.727	85.62
436.949	92.62
437.17	99.62
437.392	99.62
437.614	90.62
437.835	95.62
438.057	89.62
438.278	88.62
438.5	87.62
438.721	79.62
438.943	90.62
439.165	95.62
439.386	94.62
439.608	93.62
439.829	83.62
440.05	99.62
440.272	76.62
440.493	105.62
440.715	113.62
440.936	88.62
441.158	85.62
441.379	83.62
441.6	93.62
441.822	80.62
442.043	97.62
442.264	118.62
442.486	140.62
442.707	213.62
442.928	143.62
443.149	130.62
443.371	178.62
443.592	280.62
443.813	251.62
444.034	125.62
444.255	94.62
444.476	107.62
444.698	111.62
444.919	105.62
445.14	198.62
445.361	237.62
445.582	332.62
445.803	302.62
446.024	137.62
446.245	108.62
446.466	90.62
446.687	85.62
446.908	92.62
447.129	94.62
447.35	102.62
447.571	89.62
447.792	90.62
448.013	91.62
448.234	80.62
448.455	98.62
448.675	77.62
448.896	79.62
449.117	81.62
449.338	102.62
449.559	97.62
449.779	75.62
450	74.62
450.221	88.62
450.442	75.62
450.662	87.62
450.883	77.62
451.104	77.62
451.324	111.62
451.545	90.62
451.766	86.62
451.986	90.62
452.207	87.62
452.428	87.62
452.648	103.62
452.869	113.62
453.089	99.62
453.31	103.62
453.53	102.62
453.751	109.62
453.971	91.62
454.192	90.62
454.412	86.62
454.633	86.62
454.853	89.62
455.073	96.62
455.294	90.62
455.514	102.62
455.734	85.62
455.955	98.62
456.175	97.62
456.395	82.62
456.616	90.62
456.836	83.62
457.056	87.62
457.276	94.62
457.497	94.62
457.717	103.62
457.937	123.62
458.157	133.62
458.377	145.62
458.598	125.62
458.818	157.62
459.038	109.62
459.258	109.62
459.478	101.62
459.698	78.62
459.918	105.62
460.138	98.62
460.358	95.62
460.578	99.62
460.798	146.62
461.018	150.62
461.238	98.62
461.458	91.62
461.678	101.62
461.898	100.62
462.118	89.62
462.338	85.62
462.558	83.62
462.777	85.62
462.997	86.62
463.217	83.62
463.437	88.62
463.657	78.62
463.876	86.62
464.096	89.62
464.316	91.62
464.536	82.62
464.755	83.62
464.975	95.62
465.195	93.62
465.414	77.62
465.634	89.62
465.854	80.62
466.073	92.62
466.293	92.62
466.512	86.62
466.732	75.62
466.951	91.62
467.171	78.62
467.391	77.62
467.61	98.62
467.829	82.62
468.049	99.62
468.268	94.62
468.488	104.62
468.707	77.62
468.927	98.62
469.146	100.62
469.365	102.62
469.585	110.62
469.804	97.62
470.023	94.62
470.243	83.62
470.462	89.62
470.681	92.62
470.901	93.62
471.12	77.62
471.339	93.62
471.558	90.62
471.777	86.62
471.997	78.62
472.216	106.62
472.435	89.62
472.654	99.62
472.873	87.62
473.092	98.62
473.311	83.62
473.53	89.62
473.749	89.62
473.968	99.62
474.187	98.62
474.406	96.62
474.625	81.62
474.844	101.62
475.063	94.62
475.282	91.62
475.501	83.62
475.72	88.62
475.939	87.62
476.158	91.62
476.377	97.62
476.596	82.62
476.814	100.62
477.033	79.62
477.252	87.62
477.471	100.62
477.69	105.62
477.908	87.62
478.127	88.62
478.346	92.62
478.564	96.62
478.783	81.62
479.002	85.62
479.22	89.62
479.439	92.62
479.658	71.62
479.876	85.62
480.095	85.62
480.313	86.62
480.532	82.62
480.751	95.62
480.969	97.62
481.188	89.62
481.406	93.62
481.624	89.62
481.843	100.62
482.061	85.62
482.28	89.62
482.498	92.62
482.717	89.62
482.935	86.62
483.153	86.62
483.372	96.62
483.59	98.62
483.808	102.62
484.027	96.62
484.245	92.62
484.463	78.62
484.681	115.62
484.9	106.62
485.118	105.62
485.336	102.62
485.554	89.62
485.772	101.62
485.99	85.62
486.209	86.62
486.427	94.62
486.645	111.62
486.863	97.62
487.081	85.62
487.299	102.62
487.517	110.62
487.735	147.62
487.953	238.62
488.171	174.62
488.389	93.62
488.607	78.62
488.825	83.62
489.043	96.62
489.261	99.62
489.479	97.62
489.696	86.62
489.914	98.62
490.132	95.62
490.35	99.62
490.568	105.62
490.786	109.62
491.003	92.62
491.221	95.62
491.439	93.62
491.657	86.62
491.874	100.62
492.092	104.62
492.31	101.62
492.527	86.62
492.745	87.62
492.963	91.62
493.18	105.62
493.398	101.62
493.615	87.62
493.833	84.62
494.05	100.62
494.268	95.62
494.485	83.62
494.703	92.62
494.92	105.62
495.138	91.62
495.355	112.62
495.573	88.62
495.79	103.62
496.008	93.62
496.225	109.62
496.442	124.62
496.66	105.62
496.877	93.62
497.094	102.62
497.312	95.62
497.529	90.62
497.746	107.62
497.963	98.62
498.181	123.62
498.398	123.62
498.615	96.62
498.832	109.62
499.049	106.62
499.267	108.62
499.484	102.62
499.701	102.62
499.918	106.62
500.135	104.62
500.352	93.62
500.569	104.62
500.786	96.62
501.003	113.62
501.22	101.62
501.437	95.62
501.654	99.62
501.871	110.62
502.088	96.62
502.305	98.62
502.522	92.62
502.739	94.62
502.956	97.62
503.172	99.62
503.389	91.62
503.606	99.62
503.823	95.62
504.04	110.62
504.256	167.62
504.473	178.62
504.69	99.62
504.907	101.62
505.123	101.62
505.34	79.62
505.557	83.62
505.773	89.62
505.99	87.62
506.207	106.62
506.423	98.62
506.64	100.62
506.856	88.62
507.073	86.62
507.289	91.62
507.506	95.62
507.722	91.62
507.939	93.62
508.155	98.62
508.372	93.62
508.588	115.62
508.805	82.62
509.021	79.62
509.238	83.62
509.454	93.62
509.67	105.62
509.887	92.62
510.103	95.62
510.319	91.62
510.536	121.62
510.752	95.62
510.968	103.62
511.184	103.62
511.401	82.62
511.617	101.62
511.833	104.62
512.049	87.62
512.265	86.62
512.481	92.62
512.698	98.62
512.914	96.62
513.13	87.62
513.346	95.62
513.562	100.62
513.778	95.62
513.994	91.62
514.21	85.62
514.426	87.62
514.642	99.62
514.858	94.62
515.074	100.62
515.29	106.62
515.506	96.62
515.721	85.62
515.937	91.62
516.153	81.62
516.369	100.62
