Data from 2145_1_HRD10591_00031.txt Node
Date: Mon Jan 19 14:21:24 EST 2026
User: Yrep
Spectrometer: HR+D1059
Trigger mode: 1
Integration Time (sec): 1.000000E-1
Scans to average: 1
Electric dark correction enabled: true
Nonlinearity correction enabled: false
Boxcar width: 0
XAxis mode: Wavelengths
Number of Pixels in Spectrum: 2048
>>>>>Begin Spectral Data<<<<<
223.165	-36.06
223.4	-36.06
223.635	-36.06
223.869	-10.06
224.104	-14.06
224.338	-26.06
224.573	-13.06
224.808	-10.06
225.042	-4.06
225.277	1.94
225.511	3.94
225.746	20.94
225.98	-2.06
226.215	15.94
226.449	13.94
226.683	1.94
226.918	19.94
227.152	36.94
227.387	38.94
227.621	50.94
227.856	58.94
228.09	36.94
228.324	53.94
228.559	58.94
228.793	53.94
229.027	67.94
229.262	60.94
229.496	84.94
229.73	75.94
229.964	67.94
230.199	67.94
230.433	77.94
230.667	68.94
230.901	77.94
231.136	61.94
231.37	89.94
231.604	79.94
231.838	77.94
232.072	80.94
232.306	85.94
232.541	73.94
232.775	91.94
233.009	78.94
233.243	71.94
233.477	81.94
233.711	83.94
233.945	81.94
234.179	70.94
234.413	82.94
234.647	100.94
234.881	81.94
235.115	81.94
235.349	84.94
235.583	83.94
235.817	92.94
236.051	71.94
236.285	73.94
236.519	83.94
236.753	82.94
236.987	72.94
237.221	69.94
237.455	91.94
237.689	89.94
237.922	75.94
238.156	77.94
238.39	65.94
238.624	69.94
238.858	85.94
239.091	69.94
239.325	67.94
239.559	70.94
239.793	77.94
240.027	69.94
240.26	73.94
240.494	84.94
240.728	76.94
240.961	80.94
241.195	77.94
241.429	76.94
241.662	78.94
241.896	83.94
242.13	87.94
242.363	81.94
242.597	61.94
242.83	81.94
243.064	71.94
243.298	76.94
243.531	76.94
243.765	84.94
243.998	77.94
244.232	89.94
244.465	81.94
244.699	76.94
244.932	84.94
245.166	80.94
245.399	64.94
245.633	91.94
245.866	69.94
246.099	98.94
246.333	77.94
246.566	69.94
246.8	69.94
247.033	60.94
247.266	77.94
247.5	77.94
247.733	82.94
247.966	75.94
248.2	76.94
248.433	83.94
248.666	80.94
248.899	71.94
249.133	73.94
249.366	73.94
249.599	82.94
249.832	75.94
250.066	86.94
250.299	70.94
250.532	80.94
250.765	76.94
250.998	68.94
251.231	84.94
251.465	67.94
251.698	79.94
251.931	77.94
252.164	73.94
252.397	84.94
252.63	74.94
252.863	73.94
253.096	71.94
253.329	74.94
253.562	82.94
253.795	71.94
254.028	86.94
254.261	75.94
254.494	89.94
254.727	79.94
254.96	88.94
255.193	81.94
255.426	75.94
255.659	79.94
255.892	72.94
256.124	81.94
256.357	81.94
256.59	77.94
256.823	90.94
257.056	77.94
257.289	82.94
257.521	85.94
257.754	69.94
257.987	85.94
258.22	88.94
258.452	68.94
258.685	74.94
258.918	87.94
259.151	83.94
259.383	77.94
259.616	88.94
259.849	72.94
260.081	85.94
260.314	83.94
260.547	85.94
260.779	75.94
261.012	89.94
261.244	83.94
261.477	95.94
261.71	75.94
261.942	91.94
262.175	85.94
262.407	84.94
262.64	75.94
262.872	90.94
263.105	69.94
263.337	86.94
263.57	74.94
263.802	96.94
264.035	81.94
264.267	70.94
264.499	91.94
264.732	74.94
264.964	89.94
265.197	87.94
265.429	86.94
265.661	92.94
265.894	79.94
266.126	95.94
266.358	66.94
266.591	77.94
266.823	69.94
267.055	94.94
267.287	77.94
267.52	83.94
267.752	71.94
267.984	79.94
268.216	90.94
268.448	83.94
268.681	85.94
268.913	87.94
269.145	74.94
269.377	80.94
269.609	95.94
269.841	90.94
270.073	87.94
270.306	88.94
270.538	75.94
270.77	87.94
271.002	84.94
271.234	93.94
271.466	70.94
271.698	79.94
271.93	84.94
272.162	88.94
272.394	89.94
272.626	64.94
272.858	74.94
273.09	89.94
273.322	89.94
273.553	74.94
273.785	80.94
274.017	83.94
274.249	79.94
274.481	80.94
274.713	83.94
274.945	83.94
275.176	75.94
275.408	88.94
275.64	88.94
275.872	76.94
276.104	83.94
276.335	63.94
276.567	76.94
276.799	76.94
277.031	63.94
277.262	77.94
277.494	81.94
277.726	85.94
277.957	90.94
278.189	87.94
278.421	89.94
278.652	79.94
278.884	85.94
279.115	95.94
279.347	79.94
279.579	75.94
279.81	84.94
280.042	89.94
280.273	88.94
280.505	81.94
280.736	94.94
280.968	84.94
281.199	90.94
281.431	92.94
281.662	80.94
281.894	77.94
282.125	74.94
282.356	85.94
282.588	95.94
282.819	75.94
283.051	78.94
283.282	79.94
283.513	83.94
283.745	89.94
283.976	85.94
284.207	92.94
284.439	80.94
284.67	88.94
284.901	95.94
285.132	79.94
285.364	84.94
285.595	89.94
285.826	80.94
286.057	83.94
286.288	87.94
286.52	81.94
286.751	75.94
286.982	97.94
287.213	86.94
287.444	84.94
287.675	89.94
287.906	82.94
288.138	84.94
288.369	82.94
288.6	88.94
288.831	81.94
289.062	88.94
289.293	81.94
289.524	88.94
289.755	89.94
289.986	96.94
290.217	80.94
290.448	84.94
290.679	89.94
290.91	88.94
291.141	84.94
291.371	77.94
291.602	85.94
291.833	73.94
292.064	90.94
292.295	84.94
292.526	90.94
292.757	96.94
292.987	77.94
293.218	75.94
293.449	91.94
293.68	84.94
293.91	77.94
294.141	85.94
294.372	83.94
294.603	89.94
294.833	79.94
295.064	78.94
295.295	85.94
295.525	89.94
295.756	87.94
295.987	80.94
296.217	77.94
296.448	86.94
296.679	78.94
296.909	92.94
297.14	77.94
297.37	87.94
297.601	83.94
297.831	84.94
298.062	74.94
298.292	85.94
298.523	77.94
298.753	84.94
298.984	85.94
299.214	89.94
299.445	77.94
299.675	92.94
299.905	98.94
300.136	89.94
300.366	84.94
300.597	90.94
300.827	81.94
301.057	74.94
301.288	78.94
301.518	95.94
301.748	93.94
301.979	78.94
302.209	82.94
302.439	72.94
302.669	72.94
302.9	79.94
303.13	83.94
303.36	82.94
303.59	91.94
303.82	83.94
304.051	98.94
304.281	90.94
304.511	85.94
304.741	97.94
304.971	85.94
305.201	90.94
305.431	101.94
305.661	87.94
305.891	81.94
306.121	79.94
306.352	68.94
306.582	85.94
306.812	83.94
307.042	92.94
307.272	81.94
307.502	81.94
307.731	91.94
307.961	83.94
308.191	91.94
308.421	84.94
308.651	89.94
308.881	69.94
309.111	90.94
309.341	103.94
309.571	87.94
309.8	88.94
310.03	83.94
310.26	92.94
310.49	85.94
310.72	96.94
310.949	86.94
311.179	75.94
311.409	85.94
311.639	74.94
311.868	87.94
312.098	71.94
312.328	77.94
312.557	89.94
312.787	85.94
313.017	69.94
313.246	77.94
313.476	86.94
313.706	96.94
313.935	81.94
314.165	80.94
314.394	90.94
314.624	98.94
314.853	77.94
315.083	79.94
315.312	92.94
315.542	95.94
315.771	74.94
316.001	78.94
316.23	88.94
316.46	98.94
316.689	87.94
316.919	84.94
317.148	97.94
317.377	100.94
317.607	85.94
317.836	70.94
318.065	89.94
318.295	89.94
318.524	63.94
318.753	83.94
318.983	76.94
319.212	79.94
319.441	75.94
319.67	95.94
319.9	73.94
320.129	95.94
320.358	102.94
320.587	96.94
320.816	91.94
321.046	87.94
321.275	87.94
321.504	89.94
321.733	88.94
321.962	87.94
322.191	100.94
322.42	91.94
322.649	91.94
322.878	83.94
323.108	89.94
323.337	96.94
323.566	86.94
323.795	75.94
324.024	84.94
324.253	78.94
324.482	97.94
324.71	95.94
324.939	89.94
325.168	86.94
325.397	83.94
325.626	77.94
325.855	82.94
326.084	75.94
326.313	93.94
326.542	81.94
326.77	89.94
326.999	88.94
327.228	93.94
327.457	77.94
327.686	91.94
327.914	86.94
328.143	89.94
328.372	69.94
328.6	87.94
328.829	87.94
329.058	83.94
329.287	65.94
329.515	83.94
329.744	99.94
329.972	78.94
330.201	85.94
330.43	91.94
330.658	88.94
330.887	83.94
331.115	77.94
331.344	91.94
331.572	77.94
331.801	75.94
332.03	69.94
332.258	65.94
332.486	81.94
332.715	91.94
332.943	88.94
333.172	77.94
333.4	88.94
333.629	100.94
333.857	88.94
334.085	85.94
334.314	95.94
334.542	87.94
334.771	82.94
334.999	88.94
335.227	84.94
335.455	83.94
335.684	92.94
335.912	101.94
336.14	83.94
336.369	100.94
336.597	76.94
336.825	84.94
337.053	93.94
337.281	61.94
337.51	82.94
337.738	89.94
337.966	77.94
338.194	78.94
338.422	86.94
338.65	99.94
338.878	87.94
339.106	83.94
339.334	84.94
339.562	86.94
339.79	81.94
340.018	81.94
340.246	92.94
340.474	96.94
340.702	81.94
340.93	89.94
341.158	73.94
341.386	84.94
341.614	89.94
341.842	83.94
342.07	83.94
342.298	82.94
342.526	77.94
342.754	86.94
342.981	81.94
343.209	83.94
343.437	89.94
343.665	75.94
343.893	89.94
344.12	94.94
344.348	94.94
344.576	85.94
344.804	91.94
345.031	93.94
345.259	83.94
345.487	86.94
345.714	80.94
345.942	87.94
346.17	79.94
346.397	91.94
346.625	99.94
346.853	85.94
347.08	83.94
347.308	91.94
347.535	92.94
347.763	83.94
347.99	93.94
348.218	86.94
348.445	85.94
348.673	68.94
348.9	97.94
349.128	83.94
349.355	92.94
349.583	93.94
349.81	79.94
350.037	83.94
350.265	74.94
350.492	72.94
350.72	86.94
350.947	75.94
351.174	83.94
351.402	95.94
351.629	87.94
351.856	88.94
352.083	85.94
352.311	77.94
352.538	73.94
352.765	73.94
352.992	77.94
353.22	82.94
353.447	84.94
353.674	76.94
353.901	83.94
354.128	90.94
354.355	73.94
354.583	87.94
354.81	94.94
355.037	78.94
355.264	76.94
355.491	78.94
355.718	75.94
355.945	87.94
356.172	83.94
356.399	81.94
356.626	94.94
356.853	99.94
357.08	90.94
357.307	93.94
357.534	94.94
357.761	82.94
357.988	89.94
358.215	92.94
358.441	81.94
358.668	81.94
358.895	82.94
359.122	92.94
359.349	77.94
359.576	87.94
359.802	87.94
360.029	90.94
360.256	87.94
360.483	89.94
360.709	80.94
360.936	87.94
361.163	89.94
361.39	104.94
361.616	87.94
361.843	89.94
362.07	89.94
362.296	99.94
362.523	94.94
362.749	88.94
362.976	73.94
363.203	88.94
363.429	91.94
363.656	81.94
363.882	94.94
364.109	98.94
364.335	97.94
364.562	95.94
364.788	101.94
365.015	95.94
365.241	100.94
365.468	89.94
365.694	79.94
365.92	83.94
366.147	87.94
366.373	96.94
366.599	92.94
366.826	72.94
367.052	85.94
367.278	76.94
367.505	82.94
367.731	81.94
367.957	91.94
368.184	77.94
368.41	83.94
368.636	81.94
368.862	88.94
369.089	83.94
369.315	89.94
369.541	94.94
369.767	81.94
369.993	80.94
370.219	73.94
370.445	77.94
370.672	81.94
370.898	69.94
371.124	80.94
371.35	76.94
371.576	81.94
371.802	89.94
372.028	92.94
372.254	96.94
372.48	79.94
372.706	92.94
372.932	78.94
373.158	86.94
373.384	80.94
373.61	95.94
373.835	81.94
374.061	74.94
374.287	91.94
374.513	91.94
374.739	76.94
374.965	106.94
375.191	86.94
375.416	81.94
375.642	75.94
375.868	75.94
376.094	75.94
376.319	90.94
376.545	73.94
376.771	88.94
376.997	83.94
377.222	85.94
377.448	79.94
377.674	78.94
377.899	97.94
378.125	84.94
378.35	88.94
378.576	87.94
378.802	77.94
379.027	93.94
379.253	88.94
379.478	69.94
379.704	84.94
379.929	75.94
380.155	84.94
380.38	82.94
380.606	85.94
380.831	74.94
381.057	85.94
381.282	86.94
381.507	84.94
381.733	81.94
381.958	72.94
382.184	82.94
382.409	81.94
382.634	83.94
382.86	95.94
383.085	100.94
383.31	93.94
383.535	86.94
383.761	79.94
383.986	79.94
384.211	82.94
384.436	94.94
384.662	90.94
384.887	86.94
385.112	78.94
385.337	97.94
385.562	95.94
385.787	88.94
386.013	78.94
386.238	93.94
386.463	93.94
386.688	96.94
386.913	86.94
387.138	85.94
387.363	77.94
387.588	88.94
387.813	99.94
388.038	72.94
388.263	102.94
388.488	93.94
388.713	81.94
388.938	72.94
389.163	76.94
389.387	86.94
389.612	94.94
389.837	75.94
390.062	77.94
390.287	91.94
390.512	91.94
390.736	84.94
390.961	81.94
391.186	95.94
391.411	78.94
391.636	75.94
391.86	79.94
392.085	63.94
392.31	71.94
392.534	91.94
392.759	105.94
392.984	113.94
393.208	160.94
393.433	209.94
393.658	175.94
393.882	115.94
394.107	76.94
394.331	107.94
394.556	97.94
394.78	97.94
395.005	97.94
395.229	87.94
395.454	87.94
395.678	79.94
395.903	95.94
396.127	97.94
396.352	113.94
396.576	111.94
396.801	149.94
397.025	177.94
397.249	119.94
397.474	100.94
397.698	89.94
397.922	83.94
398.147	75.94
398.371	98.94
398.595	90.94
398.82	69.94
399.044	87.94
399.268	74.94
399.492	85.94
399.717	90.94
399.941	76.94
400.165	85.94
400.389	88.94
400.613	78.94
400.837	78.94
401.062	94.94
401.286	96.94
401.51	85.94
401.734	77.94
401.958	85.94
402.182	82.94
402.406	88.94
402.63	66.94
402.854	95.94
403.078	97.94
403.302	85.94
403.526	80.94
403.75	102.94
403.974	112.94
404.198	109.94
404.422	168.94
404.645	203.94
404.869	156.94
405.093	139.94
405.317	105.94
405.541	93.94
405.765	81.94
405.988	83.94
406.212	83.94
406.436	79.94
406.66	81.94
406.883	87.94
407.107	86.94
407.331	92.94
407.555	87.94
407.778	87.94
408.002	89.94
408.226	86.94
408.449	84.94
408.673	79.94
408.896	97.94
409.12	92.94
409.344	98.94
409.567	83.94
409.791	86.94
410.014	89.94
410.238	95.94
410.461	75.94
410.685	91.94
410.908	86.94
411.132	93.94
411.355	80.94
411.578	97.94
411.802	97.94
412.025	90.94
412.249	95.94
412.472	88.94
412.695	77.94
412.919	94.94
413.142	95.94
413.365	94.94
413.589	87.94
413.812	83.94
414.035	88.94
414.258	77.94
414.482	77.94
414.705	68.94
414.928	88.94
415.151	83.94
415.374	97.94
415.597	78.94
415.821	87.94
416.044	82.94
416.267	81.94
416.49	87.94
416.713	77.94
416.936	76.94
417.159	81.94
417.382	71.94
417.605	81.94
417.828	85.94
418.051	91.94
418.274	91.94
418.497	80.94
418.72	89.94
418.943	69.94
419.166	89.94
419.389	95.94
419.611	77.94
419.834	83.94
420.057	95.94
420.28	89.94
420.503	91.94
420.726	77.94
420.948	100.94
421.171	85.94
421.394	84.94
421.617	104.94
421.839	97.94
422.062	113.94
422.285	141.94
422.507	229.94
422.73	331.94
422.953	291.94
423.175	175.94
423.398	123.94
423.621	101.94
423.843	97.94
424.066	82.94
424.288	75.94
424.511	78.94
424.733	71.94
424.956	91.94
425.178	80.94
425.401	104.94
425.623	87.94
425.846	80.94
426.068	57.94
426.291	90.94
426.513	83.94
426.735	78.94
426.958	83.94
427.18	80.94
427.402	76.94
427.625	93.94
427.847	103.94
428.069	98.94
428.292	119.94
428.514	119.94
428.736	103.94
428.958	121.94
429.181	122.94
429.403	97.94
429.625	93.94
429.847	120.94
430.069	137.94
430.292	155.94
430.514	159.94
430.736	105.94
430.958	129.94
431.18	99.94
431.402	91.94
431.624	93.94
431.846	108.94
432.068	114.94
432.29	90.94
432.512	91.94
432.734	91.94
432.956	79.94
433.178	82.94
433.4	92.94
433.622	91.94
433.844	89.94
434.066	77.94
434.287	84.94
434.509	81.94
434.731	86.94
434.953	84.94
435.175	90.94
435.397	83.94
435.618	76.94
435.84	88.94
436.062	85.94
436.284	86.94
436.505	79.94
436.727	97.94
436.949	96.94
437.17	83.94
437.392	91.94
437.614	83.94
437.835	63.94
438.057	87.94
438.278	84.94
438.5	79.94
438.721	81.94
438.943	92.94
439.165	74.94
439.386	76.94
439.608	90.94
439.829	90.94
440.05	87.94
440.272	97.94
440.493	91.94
440.715	79.94
440.936	89.94
441.158	88.94
441.379	81.94
441.6	87.94
441.822	88.94
442.043	89.94
442.264	107.94
442.486	93.94
442.707	116.94
442.928	116.94
443.149	112.94
443.371	133.94
443.592	204.94
443.813	162.94
444.034	108.94
444.255	95.94
444.476	92.94
444.698	70.94
444.919	85.94
445.14	183.94
445.361	190.94
445.582	245.94
445.803	176.94
446.024	117.94
446.245	99.94
446.466	85.94
446.687	77.94
446.908	72.94
447.129	69.94
447.35	83.94
447.571	91.94
447.792	75.94
448.013	85.94
448.234	76.94
448.455	73.94
448.675	88.94
448.896	90.94
449.117	92.94
449.338	85.94
449.559	76.94
449.779	87.94
450	73.94
450.221	90.94
450.442	77.94
450.662	90.94
450.883	90.94
451.104	74.94
451.324	90.94
451.545	97.94
451.766	81.94
451.986	88.94
452.207	86.94
452.428	75.94
452.648	81.94
452.869	78.94
453.089	89.94
453.31	83.94
453.53	95.94
453.751	88.94
453.971	97.94
454.192	81.94
454.412	83.94
454.633	87.94
454.853	89.94
455.073	85.94
455.294	69.94
455.514	72.94
455.734	73.94
455.955	68.94
456.175	92.94
456.395	71.94
456.616	87.94
456.836	89.94
457.056	86.94
457.276	78.94
457.497	81.94
457.717	71.94
457.937	95.94
458.157	96.94
458.377	99.94
458.598	98.94
458.818	97.94
459.038	80.94
459.258	85.94
459.478	83.94
459.698	72.94
459.918	92.94
460.138	78.94
460.358	91.94
460.578	92.94
460.798	123.94
461.018	108.94
461.238	87.94
461.458	85.94
461.678	84.94
461.898	87.94
462.118	83.94
462.338	88.94
462.558	86.94
462.777	81.94
462.997	74.94
463.217	71.94
463.437	82.94
463.657	91.94
463.876	81.94
464.096	90.94
464.316	89.94
464.536	91.94
464.755	77.94
464.975	93.94
465.195	88.94
465.414	105.94
465.634	81.94
465.854	88.94
466.073	85.94
466.293	81.94
466.512	85.94
466.732	80.94
466.951	86.94
467.171	87.94
467.391	91.94
467.61	86.94
467.829	77.94
468.049	82.94
468.268	78.94
468.488	101.94
468.707	86.94
468.927	81.94
469.146	70.94
469.365	88.94
469.585	70.94
469.804	84.94
470.023	83.94
470.243	65.94
470.462	83.94
470.681	99.94
470.901	86.94
471.12	106.94
471.339	84.94
471.558	86.94
471.777	88.94
471.997	99.94
472.216	92.94
472.435	99.94
472.654	80.94
472.873	90.94
473.092	83.94
473.311	70.94
473.53	75.94
473.749	80.94
473.968	99.94
474.187	81.94
474.406	85.94
474.625	88.94
474.844	72.94
475.063	90.94
475.282	80.94
475.501	81.94
475.72	89.94
475.939	82.94
476.158	87.94
476.377	94.94
476.596	85.94
476.814	95.94
477.033	89.94
477.252	76.94
477.471	89.94
477.69	81.94
477.908	80.94
478.127	91.94
478.346	94.94
478.564	90.94
478.783	69.94
479.002	79.94
479.22	86.94
479.439	91.94
479.658	70.94
479.876	95.94
480.095	70.94
480.313	80.94
480.532	76.94
480.751	73.94
480.969	92.94
481.188	81.94
481.406	85.94
481.624	96.94
481.843	77.94
482.061	83.94
482.28	93.94
482.498	87.94
482.717	83.94
482.935	89.94
483.153	83.94
483.372	95.94
483.59	90.94
483.808	97.94
484.027	98.94
484.245	94.94
484.463	89.94
484.681	98.94
484.9	77.94
485.118	83.94
485.336	90.94
485.554	78.94
485.772	93.94
485.99	93.94
486.209	86.94
486.427	95.94
486.645	92.94
486.863	89.94
487.081	78.94
487.299	94.94
487.517	83.94
487.735	99.94
487.953	127.94
488.171	120.94
488.389	85.94
488.607	102.94
488.825	90.94
489.043	80.94
489.261	82.94
489.479	89.94
489.696	95.94
489.914	99.94
490.132	84.94
490.35	69.94
490.568	90.94
490.786	73.94
491.003	74.94
491.221	93.94
491.439	88.94
491.657	97.94
491.874	94.94
492.092	98.94
492.31	84.94
492.527	105.94
492.745	87.94
492.963	85.94
493.18	85.94
493.398	96.94
493.615	94.94
493.833	87.94
494.05	86.94
494.268	103.94
494.485	79.94
494.703	75.94
494.92	84.94
495.138	69.94
495.355	87.94
495.573	72.94
495.79	73.94
496.008	84.94
496.225	91.94
496.442	90.94
496.66	79.94
496.877	111.94
497.094	89.94
497.312	92.94
497.529	92.94
497.746	99.94
497.963	81.94
498.181	85.94
498.398	94.94
498.615	97.94
498.832	83.94
499.049	91.94
499.267	97.94
499.484	97.94
499.701	77.94
499.918	91.94
500.135	87.94
500.352	88.94
500.569	81.94
500.786	82.94
501.003	80.94
501.22	92.94
501.437	91.94
501.654	95.94
501.871	73.94
502.088	75.94
502.305	81.94
502.522	69.94
502.739	71.94
502.956	86.94
503.172	89.94
503.389	78.94
503.606	95.94
503.823	98.94
504.04	91.94
504.256	111.94
504.473	108.94
504.69	109.94
504.907	98.94
505.123	91.94
505.34	97.94
505.557	85.94
505.773	90.94
505.99	77.94
506.207	78.94
506.423	85.94
506.64	78.94
506.856	84.94
507.073	79.94
507.289	85.94
507.506	84.94
507.722	97.94
507.939	88.94
508.155	93.94
508.372	67.94
508.588	91.94
508.805	76.94
509.021	96.94
509.238	85.94
509.454	97.94
509.67	100.94
509.887	98.94
510.103	100.94
510.319	97.94
510.536	84.94
510.752	92.94
510.968	82.94
511.184	83.94
511.401	85.94
511.617	89.94
511.833	89.94
512.049	87.94
512.265	85.94
512.481	87.94
512.698	100.94
512.914	84.94
513.13	82.94
513.346	77.94
513.562	85.94
513.778	78.94
513.994	89.94
514.21	103.94
514.426	88.94
514.642	77.94
514.858	92.94
515.074	89.94
515.29	85.94
515.506	91.94
515.721	88.94
515.937	76.94
516.153	87.94
516.369	87.94
516.585	84.94
516.801	84.94
517.016	94.94
517.232	107.94
517.448	91.94
517.664	93.94
517.879	92.94
518.095	96.94
518.311	99.94
518.527	86.94
518.742	86.94
518.958	114.94
