Data from 2145_1_HRD10591_00010.txt Node
Date: Mon Jan 19 14:21:14 EST 2026
User: Yrep
Spectrometer: HR+D1059
Trigger mode: 1
Integration Time (sec): 1.000000E-1
Scans to average: 1
Electric dark correction enabled: true
Nonlinearity correction enabled: false
Boxcar width: 0
XAxis mode: Wavelengths
Number of Pixels in Spectrum: 2048
>>>>>Begin Spectral Data<<<<<
223.165	-16.69
223.4	-16.69
223.635	-16.69
223.869	-11.69
224.104	-17.69
224.338	-15.69
224.573	-18.69
224.808	-18.69
225.042	-6.69
225.277	-12.69
225.511	6.31
225.746	1.31
225.98	3.31
226.215	9.31
226.449	9.31
226.683	18.31
226.918	31.31
227.152	39.31
227.387	40.31
227.621	33.31
227.856	37.31
228.09	51.31
228.324	42.31
228.559	60.31
228.793	51.31
229.027	71.31
229.262	65.31
229.496	70.31
229.73	64.31
229.964	64.31
230.199	71.31
230.433	77.31
230.667	72.31
230.901	66.31
231.136	70.31
231.37	78.31
231.604	73.31
231.838	73.31
232.072	71.31
232.306	78.31
232.541	80.31
232.775	75.31
233.009	70.31
233.243	75.31
233.477	90.31
233.711	85.31
233.945	78.31
234.179	54.31
234.413	86.31
234.647	72.31
234.881	84.31
235.115	69.31
235.349	76.31
235.583	77.31
235.817	63.31
236.051	62.31
236.285	77.31
236.519	75.31
236.753	91.31
236.987	68.31
237.221	62.31
237.455	66.31
237.689	81.31
237.922	74.31
238.156	86.31
238.39	91.31
238.624	55.31
238.858	66.31
239.091	80.31
239.325	78.31
239.559	67.31
239.793	74.31
240.027	75.31
240.26	76.31
240.494	68.31
240.728	80.31
240.961	77.31
241.195	78.31
241.429	67.31
241.662	70.31
241.896	71.31
242.13	66.31
242.363	65.31
242.597	67.31
242.83	64.31
243.064	74.31
243.298	85.31
243.531	58.31
243.765	83.31
243.998	72.31
244.232	68.31
244.465	84.31
244.699	93.31
244.932	60.31
245.166	80.31
245.399	65.31
245.633	86.31
245.866	68.31
246.099	50.31
246.333	73.31
246.566	86.31
246.8	78.31
247.033	87.31
247.266	73.31
247.5	70.31
247.733	65.31
247.966	74.31
248.2	77.31
248.433	73.31
248.666	83.31
248.899	75.31
249.133	69.31
249.366	88.31
249.599	64.31
249.832	75.31
250.066	74.31
250.299	76.31
250.532	68.31
250.765	72.31
250.998	72.31
251.231	83.31
251.465	72.31
251.698	71.31
251.931	73.31
252.164	82.31
252.397	82.31
252.63	65.31
252.863	77.31
253.096	63.31
253.329	76.31
253.562	82.31
253.795	74.31
254.028	75.31
254.261	81.31
254.494	72.31
254.727	74.31
254.96	80.31
255.193	70.31
255.426	75.31
255.659	77.31
255.892	82.31
256.124	90.31
256.357	70.31
256.59	80.31
256.823	61.31
257.056	70.31
257.289	81.31
257.521	70.31
257.754	76.31
257.987	81.31
258.22	80.31
258.452	78.31
258.685	76.31
258.918	63.31
259.151	80.31
259.383	82.31
259.616	79.31
259.849	78.31
260.081	81.31
260.314	79.31
260.547	84.31
260.779	72.31
261.012	76.31
261.244	57.31
261.477	88.31
261.71	74.31
261.942	81.31
262.175	90.31
262.407	72.31
262.64	82.31
262.872	62.31
263.105	83.31
263.337	88.31
263.57	83.31
263.802	77.31
264.035	79.31
264.267	80.31
264.499	70.31
264.732	82.31
264.964	74.31
265.197	64.31
265.429	66.31
265.661	79.31
265.894	72.31
266.126	82.31
266.358	81.31
266.591	87.31
266.823	87.31
267.055	74.31
267.287	68.31
267.52	76.31
267.752	79.31
267.984	71.31
268.216	87.31
268.448	75.31
268.681	74.31
268.913	79.31
269.145	67.31
269.377	75.31
269.609	83.31
269.841	84.31
270.073	78.31
270.306	79.31
270.538	69.31
270.77	94.31
271.002	86.31
271.234	66.31
271.466	85.31
271.698	86.31
271.93	98.31
272.162	80.31
272.394	101.31
272.626	84.31
272.858	67.31
273.09	74.31
273.322	77.31
273.553	84.31
273.785	72.31
274.017	78.31
274.249	95.31
274.481	81.31
274.713	64.31
274.945	82.31
275.176	70.31
275.408	83.31
275.64	84.31
275.872	81.31
276.104	88.31
276.335	84.31
276.567	76.31
276.799	87.31
277.031	78.31
277.262	85.31
277.494	80.31
277.726	75.31
277.957	76.31
278.189	69.31
278.421	70.31
278.652	77.31
278.884	85.31
279.115	89.31
279.347	74.31
279.579	70.31
279.81	75.31
280.042	77.31
280.273	74.31
280.505	86.31
280.736	95.31
280.968	74.31
281.199	81.31
281.431	95.31
281.662	71.31
281.894	73.31
282.125	85.31
282.356	68.31
282.588	68.31
282.819	67.31
283.051	81.31
283.282	79.31
283.513	77.31
283.745	82.31
283.976	79.31
284.207	72.31
284.439	82.31
284.67	83.31
284.901	96.31
285.132	92.31
285.364	104.31
285.595	75.31
285.826	86.31
286.057	95.31
286.288	78.31
286.52	92.31
286.751	72.31
286.982	79.31
287.213	68.31
287.444	70.31
287.675	62.31
287.906	89.31
288.138	81.31
288.369	75.31
288.6	86.31
288.831	81.31
289.062	75.31
289.293	81.31
289.524	65.31
289.755	75.31
289.986	74.31
290.217	71.31
290.448	80.31
290.679	82.31
290.91	107.31
291.141	78.31
291.371	68.31
291.602	76.31
291.833	73.31
292.064	70.31
292.295	78.31
292.526	80.31
292.757	91.31
292.987	88.31
293.218	71.31
293.449	81.31
293.68	79.31
293.91	87.31
294.141	88.31
294.372	84.31
294.603	86.31
294.833	77.31
295.064	88.31
295.295	89.31
295.525	84.31
295.756	90.31
295.987	70.31
296.217	89.31
296.448	81.31
296.679	83.31
296.909	84.31
297.14	74.31
297.37	88.31
297.601	71.31
297.831	97.31
298.062	71.31
298.292	82.31
298.523	100.31
298.753	88.31
298.984	72.31
299.214	78.31
299.445	87.31
299.675	87.31
299.905	95.31
300.136	98.31
300.366	89.31
300.597	94.31
300.827	64.31
301.057	84.31
301.288	82.31
301.518	80.31
301.748	75.31
301.979	92.31
302.209	82.31
302.439	92.31
302.669	90.31
302.9	80.31
303.13	92.31
303.36	61.31
303.59	80.31
303.82	92.31
304.051	72.31
304.281	79.31
304.511	93.31
304.741	83.31
304.971	59.31
305.201	73.31
305.431	77.31
305.661	93.31
305.891	90.31
306.121	84.31
306.352	83.31
306.582	85.31
306.812	89.31
307.042	91.31
307.272	94.31
307.502	83.31
307.731	69.31
307.961	82.31
308.191	108.31
308.421	92.31
308.651	79.31
308.881	81.31
309.111	78.31
309.341	103.31
309.571	92.31
309.8	96.31
310.03	79.31
310.26	80.31
310.49	82.31
310.72	71.31
310.949	75.31
311.179	83.31
311.409	88.31
311.639	78.31
311.868	81.31
312.098	70.31
312.328	79.31
312.557	90.31
312.787	70.31
313.017	78.31
313.246	85.31
313.476	87.31
313.706	77.31
313.935	84.31
314.165	96.31
314.394	77.31
314.624	69.31
314.853	78.31
315.083	81.31
315.312	85.31
315.542	86.31
315.771	86.31
316.001	78.31
316.23	83.31
316.46	92.31
316.689	82.31
316.919	87.31
317.148	84.31
317.377	83.31
317.607	83.31
317.836	81.31
318.065	89.31
318.295	78.31
318.524	97.31
318.753	96.31
318.983	85.31
319.212	90.31
319.441	73.31
319.67	92.31
319.9	78.31
320.129	88.31
320.358	88.31
320.587	80.31
320.816	86.31
321.046	78.31
321.275	87.31
321.504	94.31
321.733	90.31
321.962	85.31
322.191	95.31
322.42	76.31
322.649	85.31
322.878	102.31
323.108	102.31
323.337	85.31
323.566	79.31
323.795	90.31
324.024	65.31
324.253	68.31
324.482	86.31
324.71	89.31
324.939	84.31
325.168	83.31
325.397	73.31
325.626	74.31
325.855	85.31
326.084	87.31
326.313	64.31
326.542	81.31
326.77	81.31
326.999	74.31
327.228	89.31
327.457	83.31
327.686	84.31
327.914	82.31
328.143	85.31
328.372	77.31
328.6	85.31
328.829	84.31
329.058	80.31
329.287	82.31
329.515	76.31
329.744	89.31
329.972	82.31
330.201	96.31
330.43	92.31
330.658	80.31
330.887	66.31
331.115	82.31
331.344	78.31
331.572	73.31
331.801	89.31
332.03	86.31
332.258	78.31
332.486	82.31
332.715	78.31
332.943	76.31
333.172	85.31
333.4	96.31
333.629	92.31
333.857	93.31
334.085	90.31
334.314	100.31
334.542	87.31
334.771	95.31
334.999	92.31
335.227	99.31
335.455	94.31
335.684	91.31
335.912	88.31
336.14	111.31
336.369	86.31
336.597	84.31
336.825	82.31
337.053	89.31
337.281	84.31
337.51	90.31
337.738	88.31
337.966	74.31
338.194	83.31
338.422	87.31
338.65	73.31
338.878	83.31
339.106	82.31
339.334	71.31
339.562	78.31
339.79	68.31
340.018	89.31
340.246	86.31
340.474	80.31
340.702	98.31
340.93	82.31
341.158	86.31
341.386	74.31
341.614	86.31
341.842	78.31
342.07	78.31
342.298	66.31
342.526	67.31
342.754	80.31
342.981	91.31
343.209	73.31
343.437	88.31
343.665	83.31
343.893	74.31
344.12	84.31
344.348	89.31
344.576	81.31
344.804	78.31
345.031	85.31
345.259	84.31
345.487	88.31
345.714	88.31
345.942	71.31
346.17	93.31
346.397	68.31
346.625	90.31
346.853	86.31
347.08	86.31
347.308	90.31
347.535	87.31
347.763	93.31
347.99	89.31
348.218	76.31
348.445	82.31
348.673	78.31
348.9	81.31
349.128	84.31
349.355	88.31
349.583	84.31
349.81	87.31
350.037	69.31
350.265	81.31
350.492	84.31
350.72	80.31
350.947	82.31
351.174	87.31
351.402	82.31
351.629	89.31
351.856	78.31
352.083	90.31
352.311	92.31
352.538	74.31
352.765	91.31
352.992	88.31
353.22	91.31
353.447	91.31
353.674	85.31
353.901	97.31
354.128	89.31
354.355	88.31
354.583	78.31
354.81	79.31
355.037	70.31
355.264	71.31
355.491	80.31
355.718	78.31
355.945	80.31
356.172	72.31
356.399	84.31
356.626	84.31
356.853	85.31
357.08	93.31
357.307	88.31
357.534	83.31
357.761	93.31
357.988	96.31
358.215	99.31
358.441	93.31
358.668	87.31
358.895	85.31
359.122	72.31
359.349	80.31
359.576	80.31
359.802	88.31
360.029	95.31
360.256	93.31
360.483	84.31
360.709	73.31
360.936	76.31
361.163	88.31
361.39	87.31
361.616	95.31
361.843	90.31
362.07	92.31
362.296	111.31
362.523	116.31
362.749	121.31
362.976	137.31
363.203	149.31
363.429	106.31
363.656	97.31
363.882	96.31
364.109	115.31
364.335	139.31
364.562	161.31
364.788	130.31
365.015	104.31
365.241	76.31
365.468	90.31
365.694	82.31
365.92	101.31
366.147	74.31
366.373	85.31
366.599	83.31
366.826	80.31
367.052	82.31
367.278	82.31
367.505	94.31
367.731	89.31
367.957	93.31
368.184	74.31
368.41	93.31
368.636	83.31
368.862	83.31
369.089	89.31
369.315	67.31
369.541	88.31
369.767	80.31
369.993	91.31
370.219	78.31
370.445	80.31
370.672	78.31
370.898	101.31
371.124	101.31
371.35	89.31
371.576	81.31
371.802	87.31
372.028	88.31
372.254	87.31
372.48	92.31
372.706	88.31
372.932	82.31
373.158	88.31
373.384	85.31
373.61	101.31
373.835	101.31
374.061	80.31
374.287	89.31
374.513	98.31
374.739	97.31
374.965	111.31
375.191	102.31
375.416	98.31
375.642	85.31
375.868	89.31
376.094	93.31
376.319	88.31
376.545	92.31
376.771	95.31
376.997	87.31
377.222	80.31
377.448	92.31
377.674	82.31
377.899	76.31
378.125	85.31
378.35	80.31
378.576	85.31
378.802	86.31
379.027	97.31
379.253	90.31
379.478	94.31
379.704	81.31
379.929	78.31
380.155	87.31
380.38	78.31
380.606	81.31
380.831	78.31
381.057	82.31
381.282	89.31
381.507	90.31
381.733	111.31
381.958	87.31
382.184	95.31
382.409	92.31
382.634	94.31
382.86	101.31
383.085	103.31
383.31	100.31
383.535	108.31
383.761	106.31
383.986	99.31
384.211	108.31
384.436	93.31
384.662	80.31
384.887	75.31
385.112	84.31
385.337	87.31
385.562	98.31
385.787	105.31
386.013	94.31
386.238	85.31
386.463	88.31
386.688	87.31
386.913	93.31
387.138	94.31
387.363	81.31
387.588	76.31
387.813	103.31
388.038	100.31
388.263	98.31
388.488	87.31
388.713	84.31
388.938	80.31
389.163	96.31
389.387	96.31
389.612	93.31
389.837	95.31
390.062	77.31
390.287	99.31
390.512	80.31
390.736	96.31
390.961	71.31
391.186	86.31
391.411	84.31
391.636	95.31
391.86	95.31
392.085	87.31
392.31	88.31
392.534	102.31
392.759	124.31
392.984	169.31
393.208	269.31
393.433	374.31
393.658	288.31
393.882	157.31
394.107	116.31
394.331	124.31
394.556	148.31
394.78	103.31
395.005	82.31
395.229	97.31
395.454	92.31
395.678	109.31
395.903	144.31
396.127	162.31
396.352	164.31
396.576	176.31
396.801	274.31
397.025	330.31
397.249	184.31
397.474	146.31
397.698	118.31
397.922	96.31
398.147	92.31
398.371	99.31
398.595	80.31
398.82	89.31
399.044	88.31
399.268	91.31
399.492	79.31
399.717	80.31
399.941	92.31
400.165	85.31
400.389	75.31
400.613	75.31
400.837	76.31
401.062	89.31
401.286	75.31
401.51	81.31
401.734	86.31
401.958	86.31
402.182	68.31
402.406	88.31
402.63	89.31
402.854	82.31
403.078	86.31
403.302	97.31
403.526	92.31
403.75	85.31
403.974	92.31
404.198	96.31
404.422	101.31
404.645	108.31
404.869	93.31
405.093	82.31
405.317	86.31
405.541	82.31
405.765	89.31
405.988	86.31
406.212	76.31
406.436	84.31
406.66	100.31
406.883	69.31
407.107	90.31
407.331	87.31
407.555	89.31
407.778	132.31
408.002	122.31
408.226	94.31
408.449	84.31
408.673	82.31
408.896	89.31
409.12	84.31
409.344	109.31
409.567	116.31
409.791	115.31
410.014	119.31
410.238	93.31
410.461	96.31
410.685	98.31
410.908	85.31
411.132	85.31
411.355	81.31
411.578	90.31
411.802	94.31
412.025	81.31
412.249	79.31
412.472	75.31
412.695	84.31
412.919	81.31
413.142	84.31
413.365	87.31
413.589	71.31
413.812	73.31
414.035	77.31
414.258	87.31
414.482	90.31
414.705	81.31
414.928	79.31
415.151	81.31
415.374	86.31
415.597	89.31
415.821	72.31
416.044	79.31
416.267	89.31
416.49	84.31
416.713	78.31
416.936	72.31
417.159	88.31
417.382	79.31
417.605	88.31
417.828	80.31
418.051	89.31
418.274	88.31
418.497	74.31
418.72	83.31
418.943	85.31
419.166	87.31
419.389	81.31
419.611	81.31
419.834	92.31
420.057	70.31
420.28	94.31
420.503	74.31
420.726	102.31
420.948	101.31
421.171	111.31
421.394	108.31
421.617	140.31
421.839	135.31
422.062	158.31
422.285	210.31
422.507	361.31
422.73	521.31
422.953	465.31
423.175	292.31
423.398	176.31
423.621	121.31
423.843	106.31
424.066	108.31
424.288	104.31
424.511	96.31
424.733	104.31
424.956	86.31
425.178	89.31
425.401	89.31
425.623	83.31
425.846	100.31
426.068	85.31
426.291	98.31
426.513	87.31
426.735	75.31
426.958	90.31
427.18	94.31
427.402	91.31
427.625	87.31
427.847	86.31
428.069	101.31
428.292	127.31
428.514	168.31
428.736	112.31
428.958	143.31
429.181	148.31
429.403	110.31
429.625	112.31
429.847	144.31
430.069	185.31
430.292	228.31
430.514	209.31
430.736	153.31
430.958	164.31
431.18	108.31
431.402	100.31
431.624	106.31
431.846	139.31
432.068	163.31
432.29	117.31
432.512	90.31
432.734	89.31
432.956	84.31
433.178	86.31
433.4	90.31
433.622	92.31
433.844	88.31
434.066	85.31
434.287	76.31
434.509	97.31
434.731	92.31
434.953	78.31
435.175	96.31
435.397	86.31
435.618	91.31
435.84	105.31
436.062	99.31
436.284	86.31
436.505	93.31
436.727	98.31
436.949	81.31
437.17	74.31
437.392	72.31
437.614	81.31
437.835	106.31
438.057	71.31
438.278	82.31
438.5	78.31
438.721	92.31
438.943	81.31
439.165	84.31
439.386	77.31
439.608	82.31
439.829	93.31
440.05	94.31
440.272	83.31
440.493	87.31
440.715	81.31
440.936	82.31
441.158	104.31
441.379	85.31
441.6	84.31
441.822	70.31
442.043	101.31
442.264	116.31
442.486	142.31
442.707	219.31
442.928	153.31
443.149	128.31
443.371	176.31
443.592	345.31
443.813	273.31
444.034	128.31
444.255	113.31
444.476	99.31
444.698	81.31
444.919	116.31
445.14	214.31
445.361	249.31
445.582	403.31
445.803	349.31
446.024	153.31
446.245	108.31
446.466	90.31
446.687	82.31
446.908	97.31
447.129	80.31
447.35	67.31
447.571	83.31
447.792	98.31
448.013	82.31
448.234	90.31
448.455	77.31
448.675	76.31
448.896	85.31
449.117	100.31
449.338	88.31
449.559	80.31
449.779	79.31
450	79.31
450.221	88.31
450.442	77.31
450.662	78.31
450.883	101.31
451.104	80.31
451.324	79.31
451.545	80.31
451.766	81.31
451.986	80.31
452.207	82.31
452.428	112.31
452.648	96.31
452.869	102.31
453.089	108.31
453.31	92.31
453.53	96.31
453.751	93.31
453.971	78.31
454.192	82.31
454.412	73.31
454.633	84.31
454.853	94.31
455.073	87.31
455.294	78.31
455.514	76.31
455.734	85.31
455.955	83.31
456.175	83.31
456.395	82.31
456.616	72.31
456.836	82.31
457.056	87.31
457.276	76.31
457.497	79.31
457.717	95.31
457.937	137.31
458.157	146.31
458.377	163.31
458.598	140.31
458.818	162.31
459.038	120.31
459.258	89.31
459.478	98.31
459.698	80.31
459.918	85.31
460.138	82.31
460.358	87.31
460.578	100.31
460.798	152.31
461.018	128.31
461.238	96.31
461.458	78.31
461.678	78.31
461.898	101.31
462.118	81.31
462.338	81.31
462.558	76.31
462.777	83.31
462.997	92.31
463.217	82.31
463.437	99.31
463.657	78.31
463.876	78.31
464.096	68.31
464.316	90.31
464.536	82.31
464.755	96.31
464.975	79.31
465.195	85.31
465.414	86.31
465.634	70.31
465.854	86.31
466.073	100.31
466.293	80.31
466.512	82.31
466.732	91.31
466.951	84.31
467.171	81.31
467.391	93.31
467.61	87.31
467.829	80.31
468.049	103.31
468.268	95.31
468.488	95.31
468.707	86.31
468.927	90.31
469.146	92.31
469.365	84.31
469.585	93.31
469.804	86.31
470.023	84.31
470.243	74.31
470.462	84.31
470.681	78.31
470.901	81.31
471.12	82.31
471.339	77.31
471.558	84.31
471.777	82.31
471.997	90.31
472.216	90.31
472.435	94.31
472.654	87.31
472.873	94.31
473.092	84.31
473.311	81.31
473.53	78.31
473.749	86.31
473.968	79.31
474.187	94.31
474.406	92.31
474.625	98.31
474.844	74.31
475.063	69.31
475.282	92.31
475.501	74.31
475.72	80.31
475.939	102.31
476.158	83.31
476.377	79.31
476.596	88.31
476.814	85.31
477.033	86.31
477.252	66.31
477.471	70.31
477.69	97.31
477.908	83.31
478.127	86.31
478.346	82.31
478.564	82.31
478.783	81.31
479.002	90.31
479.22	93.31
479.439	78.31
479.658	93.31
479.876	103.31
480.095	85.31
480.313	96.31
480.532	94.31
480.751	84.31
480.969	84.31
481.188	84.31
481.406	119.31
481.624	101.31
481.843	72.31
482.061	88.31
482.28	85.31
482.498	80.31
482.717	73.31
482.935	82.31
483.153	88.31
483.372	92.31
483.59	98.31
483.808	90.31
484.027	88.31
484.245	85.31
484.463	88.31
484.681	97.31
484.9	109.31
485.118	100.31
485.336	104.31
485.554	88.31
485.772	86.31
485.99	95.31
486.209	93.31
486.427	84.31
486.645	93.31
486.863	85.31
487.081	98.31
487.299	96.31
487.517	111.31
487.735	145.31
487.953	243.31
488.171	212.31
488.389	102.31
488.607	98.31
488.825	99.31
489.043	92.31
489.261	99.31
489.479	99.31
489.696	85.31
489.914	86.31
490.132	87.31
490.35	96.31
490.568	74.31
490.786	103.31
491.003	80.31
491.221	91.31
491.439	89.31
491.657	75.31
491.874	75.31
492.092	67.31
492.31	97.31
492.527	86.31
492.745	64.31
492.963	97.31
493.18	80.31
493.398	85.31
493.615	98.31
493.833	78.31
494.05	87.31
494.268	92.31
494.485	79.31
494.703	83.31
494.92	97.31
495.138	88.31
495.355	96.31
495.573	90.31
495.79	85.31
496.008	104.31
496.225	85.31
496.442	100.31
496.66	86.31
496.877	92.31
497.094	87.31
497.312	108.31
497.529	80.31
497.746	90.31
497.963	104.31
498.181	101.31
498.398	117.31
498.615	104.31
498.832	92.31
499.049	103.31
499.267	119.31
499.484	104.31
499.701	93.31
499.918	97.31
500.135	100.31
500.352	98.31
500.569	89.31
500.786	102.31
501.003	91.31
501.22	85.31
501.437	96.31
501.654	108.31
501.871	92.31
502.088	87.31
502.305	90.31
502.522	101.31
502.739	74.31
502.956	82.31
503.172	96.31
503.389	72.31
503.606	108.31
503.823	89.31
504.04	121.31
504.256	174.31
504.473	184.31
504.69	103.31
504.907	106.31
505.123	99.31
505.34	80.31
505.557	95.31
505.773	95.31
505.99	79.31
506.207	78.31
506.423	74.31
506.64	84.31
506.856	85.31
507.073	77.31
507.289	74.31
507.506	92.31
507.722	88.31
507.939	92.31
508.155	87.31
508.372	69.31
508.588	97.31
508.805	77.31
509.021	85.31
509.238	82.31
509.454	97.31
509.67	82.31
509.887	76.31
510.103	72.31
510.319	81.31
510.536	99.31
510.752	104.31
510.968	79.31
511.184	76.31
511.401	84.31
511.617	90.31
511.833	84.31
512.049	89.31
512.265	86.31
512.481	93.31
512.698	90.31
512.914	81.31
513.13	103.31
513.346	82.31
513.562	75.31
513.778	84.31
513.994	88.31
514.21	90.31
514.426	93.31
514.642	96.31
514.858	98.31
515.074	84.31
515.29	86.31
515.506	93.31
515.721	85.31
515.937	99.31
516.153	86.31
516.369	76.31
516.585	93.31
516.801	86.31
517.016	92.31
517.232	90.31
517.448	100.31
517.664	82.31
