Data from 2145_1_HRD10591_00030.txt Node
Date: Mon Jan 19 14:21:24 EST 2026
User: Yrep
Spectrometer: HR+D1059
Trigger mode: 1
Integration Time (sec): 1.000000E-1
Scans to average: 1
Electric dark correction enabled: true
Nonlinearity correction enabled: false
Boxcar width: 0
XAxis mode: Wavelengths
Number of Pixels in Spectrum: 2048
>>>>>Begin Spectral Data<<<<<
223.165	-13.19
223.4	-13.19
223.635	-13.19
223.869	-17.19
224.104	-25.19
224.338	-8.19
224.573	-11.19
224.808	-18.19
225.042	3.81
225.277	3.81
225.511	-12.19
225.746	4.81
225.98	-2.19
226.215	8.81
226.449	21.81
226.683	15.81
226.918	28.81
227.152	19.81
227.387	25.81
227.621	30.81
227.856	50.81
228.09	50.81
228.324	40.81
228.559	50.81
228.793	60.81
229.027	56.81
229.262	57.81
229.496	34.81
229.73	78.81
229.964	66.81
230.199	67.81
230.433	71.81
230.667	81.81
230.901	62.81
231.136	66.81
231.37	65.81
231.604	72.81
231.838	74.81
232.072	77.81
232.306	92.81
232.541	70.81
232.775	71.81
233.009	53.81
233.243	83.81
233.477	85.81
233.711	74.81
233.945	79.81
234.179	67.81
234.413	85.81
234.647	82.81
234.881	87.81
235.115	68.81
235.349	84.81
235.583	73.81
235.817	66.81
236.051	69.81
236.285	72.81
236.519	84.81
236.753	90.81
236.987	75.81
237.221	75.81
237.455	83.81
237.689	74.81
237.922	85.81
238.156	72.81
238.39	57.81
238.624	68.81
238.858	65.81
239.091	76.81
239.325	70.81
239.559	69.81
239.793	76.81
240.027	78.81
240.26	66.81
240.494	82.81
240.728	82.81
240.961	73.81
241.195	72.81
241.429	74.81
241.662	79.81
241.896	75.81
242.13	82.81
242.363	73.81
242.597	68.81
242.83	73.81
243.064	74.81
243.298	74.81
243.531	57.81
243.765	74.81
243.998	76.81
244.232	78.81
244.465	69.81
244.699	73.81
244.932	61.81
245.166	82.81
245.399	59.81
245.633	81.81
245.866	64.81
246.099	73.81
246.333	83.81
246.566	75.81
246.8	81.81
247.033	86.81
247.266	85.81
247.5	68.81
247.733	70.81
247.966	88.81
248.2	75.81
248.433	65.81
248.666	70.81
248.899	63.81
249.133	64.81
249.366	97.81
249.599	56.81
249.832	84.81
250.066	74.81
250.299	77.81
250.532	70.81
250.765	79.81
250.998	80.81
251.231	78.81
251.465	79.81
251.698	75.81
251.931	66.81
252.164	90.81
252.397	83.81
252.63	83.81
252.863	68.81
253.096	80.81
253.329	78.81
253.562	77.81
253.795	88.81
254.028	78.81
254.261	82.81
254.494	87.81
254.727	79.81
254.96	82.81
255.193	89.81
255.426	80.81
255.659	86.81
255.892	75.81
256.124	70.81
256.357	72.81
256.59	76.81
256.823	74.81
257.056	79.81
257.289	86.81
257.521	74.81
257.754	77.81
257.987	74.81
258.22	71.81
258.452	75.81
258.685	81.81
258.918	84.81
259.151	69.81
259.383	83.81
259.616	75.81
259.849	91.81
260.081	85.81
260.314	74.81
260.547	64.81
260.779	82.81
261.012	78.81
261.244	76.81
261.477	81.81
261.71	94.81
261.942	85.81
262.175	72.81
262.407	88.81
262.64	68.81
262.872	72.81
263.105	67.81
263.337	76.81
263.57	78.81
263.802	82.81
264.035	64.81
264.267	68.81
264.499	72.81
264.732	82.81
264.964	94.81
265.197	78.81
265.429	77.81
265.661	65.81
265.894	93.81
266.126	75.81
266.358	82.81
266.591	84.81
266.823	82.81
267.055	89.81
267.287	81.81
267.52	71.81
267.752	81.81
267.984	96.81
268.216	80.81
268.448	74.81
268.681	86.81
268.913	83.81
269.145	72.81
269.377	78.81
269.609	72.81
269.841	73.81
270.073	87.81
270.306	77.81
270.538	87.81
270.77	76.81
271.002	87.81
271.234	88.81
271.466	76.81
271.698	90.81
271.93	86.81
272.162	73.81
272.394	84.81
272.626	77.81
272.858	88.81
273.09	90.81
273.322	68.81
273.553	76.81
273.785	67.81
274.017	66.81
274.249	71.81
274.481	74.81
274.713	76.81
274.945	86.81
275.176	66.81
275.408	71.81
275.64	71.81
275.872	77.81
276.104	80.81
276.335	74.81
276.567	68.81
276.799	82.81
277.031	80.81
277.262	76.81
277.494	70.81
277.726	84.81
277.957	80.81
278.189	73.81
278.421	82.81
278.652	68.81
278.884	79.81
279.115	86.81
279.347	84.81
279.579	84.81
279.81	70.81
280.042	77.81
280.273	95.81
280.505	73.81
280.736	69.81
280.968	72.81
281.199	79.81
281.431	83.81
281.662	63.81
281.894	73.81
282.125	74.81
282.356	85.81
282.588	75.81
282.819	89.81
283.051	70.81
283.282	86.81
283.513	92.81
283.745	90.81
283.976	79.81
284.207	61.81
284.439	72.81
284.67	95.81
284.901	88.81
285.132	71.81
285.364	81.81
285.595	88.81
285.826	76.81
286.057	84.81
286.288	97.81
286.52	74.81
286.751	89.81
286.982	83.81
287.213	78.81
287.444	74.81
287.675	90.81
287.906	81.81
288.138	95.81
288.369	89.81
288.6	81.81
288.831	86.81
289.062	74.81
289.293	88.81
289.524	81.81
289.755	72.81
289.986	69.81
290.217	76.81
290.448	83.81
290.679	89.81
290.91	83.81
291.141	89.81
291.371	77.81
291.602	81.81
291.833	89.81
292.064	78.81
292.295	85.81
292.526	81.81
292.757	86.81
292.987	88.81
293.218	75.81
293.449	77.81
293.68	83.81
293.91	85.81
294.141	85.81
294.372	80.81
294.603	78.81
294.833	75.81
295.064	70.81
295.295	74.81
295.525	82.81
295.756	83.81
295.987	88.81
296.217	84.81
296.448	86.81
296.679	94.81
296.909	89.81
297.14	87.81
297.37	89.81
297.601	66.81
297.831	76.81
298.062	74.81
298.292	85.81
298.523	76.81
298.753	83.81
298.984	95.81
299.214	88.81
299.445	94.81
299.675	83.81
299.905	86.81
300.136	75.81
300.366	85.81
300.597	95.81
300.827	86.81
301.057	80.81
301.288	66.81
301.518	66.81
301.748	82.81
301.979	95.81
302.209	75.81
302.439	73.81
302.669	76.81
302.9	66.81
303.13	71.81
303.36	88.81
303.59	88.81
303.82	88.81
304.051	95.81
304.281	75.81
304.511	95.81
304.741	82.81
304.971	93.81
305.201	91.81
305.431	88.81
305.661	83.81
305.891	72.81
306.121	91.81
306.352	71.81
306.582	92.81
306.812	87.81
307.042	73.81
307.272	88.81
307.502	71.81
307.731	78.81
307.961	70.81
308.191	89.81
308.421	80.81
308.651	83.81
308.881	67.81
309.111	74.81
309.341	76.81
309.571	91.81
309.8	86.81
310.03	81.81
310.26	86.81
310.49	84.81
310.72	98.81
310.949	83.81
311.179	82.81
311.409	74.81
311.639	89.81
311.868	84.81
312.098	87.81
312.328	83.81
312.557	81.81
312.787	72.81
313.017	89.81
313.246	70.81
313.476	88.81
313.706	81.81
313.935	82.81
314.165	91.81
314.394	85.81
314.624	74.81
314.853	80.81
315.083	87.81
315.312	75.81
315.542	89.81
315.771	90.81
316.001	80.81
316.23	90.81
316.46	83.81
316.689	88.81
316.919	86.81
317.148	77.81
317.377	81.81
317.607	83.81
317.836	80.81
318.065	85.81
318.295	85.81
318.524	86.81
318.753	68.81
318.983	80.81
319.212	87.81
319.441	83.81
319.67	96.81
319.9	87.81
320.129	90.81
320.358	85.81
320.587	81.81
320.816	84.81
321.046	80.81
321.275	85.81
321.504	83.81
321.733	86.81
321.962	84.81
322.191	87.81
322.42	77.81
322.649	85.81
322.878	81.81
323.108	94.81
323.337	81.81
323.566	76.81
323.795	73.81
324.024	90.81
324.253	84.81
324.482	87.81
324.71	83.81
324.939	93.81
325.168	86.81
325.397	92.81
325.626	86.81
325.855	74.81
326.084	70.81
326.313	72.81
326.542	88.81
326.77	80.81
326.999	94.81
327.228	81.81
327.457	82.81
327.686	74.81
327.914	95.81
328.143	84.81
328.372	75.81
328.6	72.81
328.829	84.81
329.058	81.81
329.287	77.81
329.515	86.81
329.744	81.81
329.972	94.81
330.201	86.81
330.43	95.81
330.658	82.81
330.887	74.81
331.115	92.81
331.344	86.81
331.572	73.81
331.801	80.81
332.03	70.81
332.258	76.81
332.486	91.81
332.715	99.81
332.943	86.81
333.172	83.81
333.4	86.81
333.629	79.81
333.857	74.81
334.085	82.81
334.314	67.81
334.542	81.81
334.771	90.81
334.999	75.81
335.227	92.81
335.455	90.81
335.684	83.81
335.912	71.81
336.14	90.81
336.369	96.81
336.597	90.81
336.825	100.81
337.053	84.81
337.281	94.81
337.51	86.81
337.738	96.81
337.966	103.81
338.194	77.81
338.422	73.81
338.65	94.81
338.878	80.81
339.106	79.81
339.334	81.81
339.562	97.81
339.79	85.81
340.018	86.81
340.246	74.81
340.474	76.81
340.702	75.81
340.93	64.81
341.158	82.81
341.386	77.81
341.614	87.81
341.842	86.81
342.07	90.81
342.298	92.81
342.526	82.81
342.754	107.81
342.981	91.81
343.209	71.81
343.437	104.81
343.665	79.81
343.893	90.81
344.12	100.81
344.348	91.81
344.576	84.81
344.804	100.81
345.031	88.81
345.259	79.81
345.487	86.81
345.714	89.81
345.942	80.81
346.17	85.81
346.397	77.81
346.625	75.81
346.853	72.81
347.08	69.81
347.308	74.81
347.535	85.81
347.763	76.81
347.99	80.81
348.218	74.81
348.445	81.81
348.673	68.81
348.9	81.81
349.128	82.81
349.355	79.81
349.583	80.81
349.81	87.81
350.037	87.81
350.265	85.81
350.492	90.81
350.72	89.81
350.947	76.81
351.174	92.81
351.402	70.81
351.629	89.81
351.856	67.81
352.083	78.81
352.311	78.81
352.538	88.81
352.765	71.81
352.992	84.81
353.22	72.81
353.447	87.81
353.674	83.81
353.901	79.81
354.128	83.81
354.355	85.81
354.583	74.81
354.81	88.81
355.037	82.81
355.264	81.81
355.491	84.81
355.718	80.81
355.945	89.81
356.172	94.81
356.399	79.81
356.626	90.81
356.853	89.81
357.08	86.81
357.307	84.81
357.534	71.81
357.761	95.81
357.988	102.81
358.215	85.81
358.441	86.81
358.668	88.81
358.895	84.81
359.122	83.81
359.349	86.81
359.576	72.81
359.802	91.81
360.029	79.81
360.256	89.81
360.483	74.81
360.709	91.81
360.936	95.81
361.163	84.81
361.39	86.81
361.616	81.81
361.843	88.81
362.07	103.81
362.296	85.81
362.523	98.81
362.749	84.81
362.976	91.81
363.203	96.81
363.429	78.81
363.656	89.81
363.882	77.81
364.109	102.81
364.335	98.81
364.562	103.81
364.788	84.81
365.015	91.81
365.241	79.81
365.468	86.81
365.694	74.81
365.92	77.81
366.147	100.81
366.373	84.81
366.599	91.81
366.826	78.81
367.052	80.81
367.278	87.81
367.505	79.81
367.731	91.81
367.957	89.81
368.184	83.81
368.41	84.81
368.636	88.81
368.862	98.81
369.089	82.81
369.315	79.81
369.541	73.81
369.767	85.81
369.993	86.81
370.219	80.81
370.445	81.81
370.672	82.81
370.898	82.81
371.124	79.81
371.35	82.81
371.576	88.81
371.802	81.81
372.028	72.81
372.254	88.81
372.48	76.81
372.706	71.81
372.932	84.81
373.158	73.81
373.384	92.81
373.61	76.81
373.835	80.81
374.061	75.81
374.287	84.81
374.513	90.81
374.739	82.81
374.965	78.81
375.191	63.81
375.416	90.81
375.642	78.81
375.868	92.81
376.094	81.81
376.319	94.81
376.545	85.81
376.771	75.81
376.997	71.81
377.222	81.81
377.448	83.81
377.674	84.81
377.899	78.81
378.125	88.81
378.35	83.81
378.576	71.81
378.802	72.81
379.027	80.81
379.253	79.81
379.478	87.81
379.704	82.81
379.929	72.81
380.155	100.81
380.38	79.81
380.606	81.81
380.831	85.81
381.057	96.81
381.282	90.81
381.507	79.81
381.733	77.81
381.958	76.81
382.184	82.81
382.409	75.81
382.634	90.81
382.86	75.81
383.085	84.81
383.31	95.81
383.535	82.81
383.761	76.81
383.986	72.81
384.211	84.81
384.436	86.81
384.662	84.81
384.887	84.81
385.112	90.81
385.337	94.81
385.562	71.81
385.787	72.81
386.013	94.81
386.238	76.81
386.463	73.81
386.688	97.81
386.913	86.81
387.138	90.81
387.363	82.81
387.588	90.81
387.813	83.81
388.038	90.81
388.263	75.81
388.488	67.81
388.713	91.81
388.938	90.81
389.163	91.81
389.387	96.81
389.612	88.81
389.837	84.81
390.062	93.81
390.287	82.81
390.512	68.81
390.736	87.81
390.961	87.81
391.186	83.81
391.411	76.81
391.636	84.81
391.86	91.81
392.085	87.81
392.31	75.81
392.534	84.81
392.759	91.81
392.984	106.81
393.208	165.81
393.433	198.81
393.658	162.81
393.882	93.81
394.107	83.81
394.331	84.81
394.556	106.81
394.78	99.81
395.005	90.81
395.229	102.81
395.454	87.81
395.678	77.81
395.903	108.81
396.127	100.81
396.352	112.81
396.576	126.81
396.801	158.81
397.025	191.81
397.249	110.81
397.474	92.81
397.698	98.81
397.922	83.81
398.147	92.81
398.371	78.81
398.595	85.81
398.82	77.81
399.044	83.81
399.268	83.81
399.492	79.81
399.717	93.81
399.941	94.81
400.165	75.81
400.389	88.81
400.613	77.81
400.837	88.81
401.062	68.81
401.286	84.81
401.51	77.81
401.734	73.81
401.958	76.81
402.182	85.81
402.406	76.81
402.63	84.81
402.854	75.81
403.078	85.81
403.302	94.81
403.526	90.81
403.75	95.81
403.974	104.81
404.198	115.81
404.422	167.81
404.645	216.81
404.869	185.81
405.093	128.81
405.317	98.81
405.541	78.81
405.765	74.81
405.988	99.81
406.212	94.81
406.436	87.81
406.66	92.81
406.883	78.81
407.107	68.81
407.331	90.81
407.555	89.81
407.778	91.81
408.002	85.81
408.226	84.81
408.449	89.81
408.673	89.81
408.896	93.81
409.12	93.81
409.344	86.81
409.567	87.81
409.791	85.81
410.014	98.81
410.238	92.81
410.461	77.81
410.685	75.81
410.908	90.81
411.132	94.81
411.355	70.81
411.578	74.81
411.802	97.81
412.025	91.81
412.249	86.81
412.472	86.81
412.695	89.81
412.919	76.81
413.142	86.81
413.365	84.81
413.589	81.81
413.812	77.81
414.035	89.81
414.258	81.81
414.482	86.81
414.705	87.81
414.928	106.81
415.151	94.81
415.374	72.81
415.597	80.81
415.821	82.81
416.044	79.81
416.267	74.81
416.49	92.81
416.713	90.81
416.936	78.81
417.159	88.81
417.382	82.81
417.605	74.81
417.828	87.81
418.051	81.81
418.274	86.81
418.497	74.81
418.72	77.81
418.943	88.81
419.166	75.81
419.389	82.81
419.611	77.81
419.834	80.81
420.057	95.81
420.28	86.81
420.503	96.81
420.726	84.81
420.948	96.81
421.171	81.81
421.394	91.81
421.617	87.81
421.839	114.81
422.062	120.81
422.285	172.81
422.507	258.81
422.73	406.81
422.953	361.81
423.175	190.81
423.398	111.81
423.621	105.81
423.843	110.81
424.066	84.81
424.288	90.81
424.511	81.81
424.733	80.81
424.956	77.81
425.178	91.81
425.401	82.81
425.623	66.81
425.846	79.81
426.068	70.81
426.291	72.81
426.513	80.81
426.735	86.81
426.958	90.81
427.18	95.81
427.402	81.81
427.625	82.81
427.847	90.81
428.069	101.81
428.292	119.81
428.514	120.81
428.736	113.81
428.958	125.81
429.181	121.81
429.403	95.81
429.625	91.81
429.847	90.81
430.069	134.81
430.292	177.81
430.514	153.81
430.736	123.81
430.958	128.81
431.18	97.81
431.402	82.81
431.624	94.81
431.846	112.81
432.068	129.81
432.29	90.81
432.512	76.81
432.734	86.81
432.956	88.81
433.178	82.81
433.4	104.81
433.622	82.81
433.844	77.81
434.066	96.81
434.287	84.81
434.509	75.81
434.731	91.81
434.953	77.81
435.175	81.81
435.397	98.81
435.618	75.81
435.84	80.81
436.062	88.81
436.284	68.81
436.505	88.81
436.727	80.81
436.949	84.81
437.17	86.81
437.392	76.81
437.614	81.81
437.835	91.81
438.057	85.81
438.278	84.81
438.5	103.81
438.721	86.81
438.943	95.81
439.165	80.81
439.386	80.81
439.608	91.81
439.829	73.81
440.05	83.81
440.272	74.81
440.493	85.81
440.715	78.81
440.936	78.81
441.158	94.81
441.379	72.81
441.6	96.81
441.822	98.81
442.043	86.81
442.264	92.81
442.486	124.81
442.707	152.81
442.928	118.81
443.149	96.81
443.371	143.81
443.592	218.81
443.813	177.81
444.034	100.81
444.255	98.81
444.476	95.81
444.698	92.81
444.919	96.81
445.14	182.81
445.361	176.81
445.582	272.81
445.803	230.81
446.024	129.81
446.245	88.81
446.466	107.81
446.687	89.81
446.908	88.81
447.129	85.81
447.35	89.81
447.571	101.81
447.792	84.81
448.013	63.81
448.234	88.81
448.455	81.81
448.675	92.81
448.896	71.81
449.117	63.81
449.338	67.81
449.559	67.81
449.779	88.81
450	86.81
450.221	85.81
450.442	84.81
450.662	71.81
450.883	82.81
451.104	74.81
451.324	83.81
451.545	86.81
451.766	70.81
451.986	89.81
452.207	91.81
452.428	83.81
452.648	86.81
452.869	88.81
453.089	83.81
453.31	84.81
453.53	72.81
453.751	84.81
453.971	88.81
454.192	77.81
454.412	90.81
454.633	75.81
454.853	91.81
455.073	81.81
455.294	95.81
455.514	89.81
455.734	70.81
455.955	79.81
456.175	66.81
456.395	76.81
456.616	74.81
456.836	90.81
457.056	91.81
457.276	85.81
457.497	89.81
457.717	80.81
457.937	84.81
458.157	102.81
458.377	97.81
458.598	88.81
458.818	92.81
459.038	80.81
459.258	91.81
459.478	82.81
459.698	72.81
459.918	93.81
460.138	94.81
460.358	75.81
460.578	102.81
460.798	126.81
461.018	117.81
461.238	82.81
461.458	88.81
461.678	89.81
461.898	98.81
462.118	89.81
462.338	72.81
462.558	91.81
462.777	86.81
462.997	79.81
463.217	87.81
463.437	72.81
463.657	83.81
463.876	86.81
464.096	70.81
464.316	68.81
464.536	79.81
464.755	85.81
464.975	86.81
465.195	86.81
465.414	82.81
465.634	81.81
465.854	67.81
466.073	70.81
466.293	98.81
466.512	82.81
466.732	79.81
466.951	95.81
467.171	92.81
467.391	94.81
467.61	74.81
467.829	82.81
468.049	79.81
468.268	79.81
468.488	86.81
468.707	85.81
468.927	76.81
469.146	73.81
469.365	89.81
469.585	80.81
469.804	87.81
470.023	80.81
470.243	86.81
470.462	85.81
470.681	91.81
470.901	83.81
471.12	93.81
471.339	77.81
471.558	69.81
471.777	80.81
471.997	82.81
472.216	87.81
472.435	96.81
472.654	96.81
472.873	93.81
473.092	84.81
473.311	90.81
473.53	86.81
473.749	90.81
473.968	76.81
474.187	87.81
474.406	86.81
474.625	74.81
474.844	81.81
475.063	79.81
475.282	85.81
475.501	85.81
475.72	80.81
475.939	87.81
476.158	90.81
476.377	75.81
476.596	90.81
476.814	89.81
477.033	84.81
477.252	83.81
477.471	73.81
477.69	81.81
477.908	79.81
478.127	79.81
478.346	95.81
478.564	81.81
478.783	78.81
479.002	70.81
479.22	77.81
479.439	88.81
479.658	82.81
479.876	89.81
480.095	76.81
480.313	92.81
480.532	84.81
480.751	79.81
480.969	77.81
481.188	86.81
481.406	89.81
481.624	93.81
481.843	89.81
482.061	67.81
482.28	107.81
482.498	90.81
482.717	82.81
482.935	89.81
483.153	80.81
483.372	82.81
483.59	86.81
483.808	82.81
484.027	86.81
484.245	90.81
484.463	96.81
484.681	99.81
484.9	88.81
485.118	64.81
485.336	87.81
485.554	99.81
485.772	79.81
485.99	91.81
486.209	83.81
486.427	87.81
486.645	107.81
486.863	86.81
487.081	88.81
487.299	89.81
487.517	99.81
487.735	91.81
487.953	126.81
488.171	119.81
488.389	103.81
488.607	89.81
488.825	89.81
489.043	87.81
489.261	79.81
489.479	84.81
489.696	89.81
489.914	95.81
490.132	85.81
490.35	87.81
490.568	75.81
490.786	87.81
491.003	98.81
491.221	81.81
491.439	76.81
491.657	102.81
491.874	106.81
492.092	83.81
492.31	95.81
492.527	112.81
492.745	92.81
492.963	103.81
493.18	90.81
493.398	90.81
493.615	88.81
493.833	95.81
494.05	88.81
494.268	86.81
494.485	95.81
494.703	82.81
494.92	93.81
495.138	89.81
495.355	79.81
495.573	82.81
495.79	92.81
496.008	101.81
496.225	81.81
496.442	89.81
496.66	92.81
496.877	84.81
497.094	93.81
497.312	81.81
497.529	93.81
497.746	89.81
497.963	94.81
498.181	94.81
498.398	91.81
498.615	93.81
498.832	90.81
499.049	86.81
499.267	89.81
499.484	85.81
499.701	85.81
499.918	77.81
500.135	89.81
500.352	79.81
500.569	86.81
500.786	100.81
501.003	88.81
501.22	85.81
501.437	72.81
501.654	73.81
501.871	81.81
502.088	91.81
502.305	84.81
502.522	93.81
502.739	88.81
502.956	83.81
503.172	90.81
503.389	76.81
503.606	104.81
503.823	87.81
504.04	99.81
504.256	105.81
504.473	106.81
504.69	96.81
504.907	90.81
505.123	86.81
505.34	93.81
505.557	94.81
505.773	88.81
505.99	83.81
506.207	92.81
506.423	96.81
506.64	75.81
506.856	88.81
507.073	80.81
507.289	85.81
507.506	92.81
507.722	80.81
507.939	92.81
508.155	104.81
508.372	95.81
508.588	91.81
508.805	70.81
509.021	87.81
509.238	67.81
509.454	89.81
509.67	80.81
509.887	85.81
510.103	102.81
510.319	88.81
510.536	82.81
510.752	82.81
510.968	83.81
511.184	73.81
511.401	94.81
511.617	100.81
511.833	82.81
512.049	71.81
512.265	88.81
512.481	92.81
512.698	79.81
512.914	76.81
513.13	94.81
513.346	74.81
513.562	87.81
513.778	95.81
513.994	89.81
514.21	84.81
514.426	84.81
514.642	95.81
514.858	89.81
515.074	94.81
515.29	93.81
515.506	77.81
515.721	81.81
515.937	87.81
516.153	95.81
516.369	94.81
516.585	87.81
516.801	91.81
517.016	77.81
517.232	92.81
517.448	94.81
517.664	79.81
517.879	81.81
518.095	77.81
518.311	91.81
518.527	93.81
518.742	92.81
518.958	98.81
