Data from 2145_1_HRD10591_00024.txt Node
Date: Mon Jan 19 14:21:21 EST 2026
User: Yrep
Spectrometer: HR+D1059
Trigger mode: 1
Integration Time (sec): 1.000000E-1
Scans to average: 1
Electric dark correction enabled: true
Nonlinearity correction enabled: false
Boxcar width: 0
XAxis mode: Wavelengths
Number of Pixels in Spectrum: 2048
>>>>>Begin Spectral Data<<<<<
223.165	-27.12
223.4	-27.12
223.635	-27.12
223.869	-20.12
224.104	-8.12
224.338	-27.12
224.573	-15.12
224.808	-8.12
225.042	-8.12
225.277	-15.12
225.511	5.88
225.746	0.88
225.98	-3.12
226.215	3.88
226.449	16.88
226.683	35.88
226.918	34.88
227.152	33.88
227.387	30.88
227.621	47.88
227.856	43.88
228.09	38.88
228.324	51.88
228.559	38.88
228.793	49.88
229.027	55.88
229.262	70.88
229.496	77.88
229.73	57.88
229.964	71.88
230.199	61.88
230.433	77.88
230.667	63.88
230.901	68.88
231.136	73.88
231.37	71.88
231.604	73.88
231.838	77.88
232.072	78.88
232.306	84.88
232.541	78.88
232.775	72.88
233.009	79.88
233.243	71.88
233.477	70.88
233.711	80.88
233.945	94.88
234.179	70.88
234.413	89.88
234.647	89.88
234.881	73.88
235.115	78.88
235.349	74.88
235.583	78.88
235.817	73.88
236.051	77.88
236.285	62.88
236.519	74.88
236.753	91.88
236.987	67.88
237.221	61.88
237.455	70.88
237.689	69.88
237.922	63.88
238.156	77.88
238.39	83.88
238.624	78.88
238.858	67.88
239.091	72.88
239.325	77.88
239.559	83.88
239.793	65.88
240.027	77.88
240.26	70.88
240.494	59.88
240.728	72.88
240.961	71.88
241.195	73.88
241.429	73.88
241.662	61.88
241.896	76.88
242.13	63.88
242.363	85.88
242.597	65.88
242.83	59.88
243.064	61.88
243.298	73.88
243.531	74.88
243.765	84.88
243.998	63.88
244.232	79.88
244.465	75.88
244.699	80.88
244.932	67.88
245.166	75.88
245.399	74.88
245.633	68.88
245.866	72.88
246.099	72.88
246.333	56.88
246.566	64.88
246.8	65.88
247.033	69.88
247.266	77.88
247.5	63.88
247.733	63.88
247.966	72.88
248.2	80.88
248.433	82.88
248.666	71.88
248.899	69.88
249.133	94.88
249.366	66.88
249.599	81.88
249.832	68.88
250.066	79.88
250.299	62.88
250.532	83.88
250.765	87.88
250.998	75.88
251.231	79.88
251.465	77.88
251.698	82.88
251.931	83.88
252.164	95.88
252.397	67.88
252.63	62.88
252.863	83.88
253.096	65.88
253.329	83.88
253.562	80.88
253.795	72.88
254.028	89.88
254.261	94.88
254.494	67.88
254.727	92.88
254.96	72.88
255.193	63.88
255.426	80.88
255.659	88.88
255.892	69.88
256.124	82.88
256.357	75.88
256.59	79.88
256.823	80.88
257.056	64.88
257.289	82.88
257.521	73.88
257.754	81.88
257.987	80.88
258.22	86.88
258.452	65.88
258.685	75.88
258.918	78.88
259.151	70.88
259.383	69.88
259.616	67.88
259.849	65.88
260.081	76.88
260.314	83.88
260.547	69.88
260.779	67.88
261.012	87.88
261.244	90.88
261.477	87.88
261.71	61.88
261.942	79.88
262.175	80.88
262.407	59.88
262.64	73.88
262.872	82.88
263.105	74.88
263.337	79.88
263.57	73.88
263.802	87.88
264.035	73.88
264.267	71.88
264.499	93.88
264.732	82.88
264.964	63.88
265.197	69.88
265.429	70.88
265.661	79.88
265.894	72.88
266.126	87.88
266.358	89.88
266.591	73.88
266.823	69.88
267.055	76.88
267.287	75.88
267.52	90.88
267.752	75.88
267.984	82.88
268.216	77.88
268.448	77.88
268.681	70.88
268.913	74.88
269.145	79.88
269.377	81.88
269.609	82.88
269.841	65.88
270.073	87.88
270.306	64.88
270.538	71.88
270.77	74.88
271.002	70.88
271.234	83.88
271.466	79.88
271.698	91.88
271.93	92.88
272.162	74.88
272.394	71.88
272.626	77.88
272.858	72.88
273.09	80.88
273.322	79.88
273.553	74.88
273.785	72.88
274.017	80.88
274.249	85.88
274.481	80.88
274.713	83.88
274.945	77.88
275.176	77.88
275.408	84.88
275.64	74.88
275.872	78.88
276.104	87.88
276.335	73.88
276.567	78.88
276.799	77.88
277.031	64.88
277.262	69.88
277.494	79.88
277.726	59.88
277.957	92.88
278.189	89.88
278.421	59.88
278.652	70.88
278.884	81.88
279.115	73.88
279.347	78.88
279.579	73.88
279.81	75.88
280.042	62.88
280.273	88.88
280.505	78.88
280.736	73.88
280.968	87.88
281.199	86.88
281.431	73.88
281.662	83.88
281.894	92.88
282.125	87.88
282.356	74.88
282.588	77.88
282.819	84.88
283.051	69.88
283.282	83.88
283.513	62.88
283.745	85.88
283.976	81.88
284.207	77.88
284.439	80.88
284.67	75.88
284.901	63.88
285.132	76.88
285.364	91.88
285.595	64.88
285.826	79.88
286.057	93.88
286.288	79.88
286.52	91.88
286.751	82.88
286.982	64.88
287.213	80.88
287.444	85.88
287.675	71.88
287.906	86.88
288.138	87.88
288.369	78.88
288.6	85.88
288.831	77.88
289.062	80.88
289.293	86.88
289.524	93.88
289.755	82.88
289.986	84.88
290.217	76.88
290.448	70.88
290.679	80.88
290.91	83.88
291.141	79.88
291.371	96.88
291.602	86.88
291.833	84.88
292.064	81.88
292.295	82.88
292.526	83.88
292.757	84.88
292.987	78.88
293.218	89.88
293.449	85.88
293.68	84.88
293.91	82.88
294.141	84.88
294.372	81.88
294.603	87.88
294.833	82.88
295.064	80.88
295.295	77.88
295.525	84.88
295.756	86.88
295.987	81.88
296.217	84.88
296.448	85.88
296.679	72.88
296.909	92.88
297.14	83.88
297.37	81.88
297.601	78.88
297.831	82.88
298.062	84.88
298.292	80.88
298.523	82.88
298.753	86.88
298.984	91.88
299.214	83.88
299.445	77.88
299.675	81.88
299.905	88.88
300.136	85.88
300.366	68.88
300.597	93.88
300.827	85.88
301.057	88.88
301.288	93.88
301.518	86.88
301.748	89.88
301.979	81.88
302.209	86.88
302.439	73.88
302.669	79.88
302.9	90.88
303.13	92.88
303.36	78.88
303.59	88.88
303.82	79.88
304.051	79.88
304.281	86.88
304.511	75.88
304.741	73.88
304.971	73.88
305.201	81.88
305.431	86.88
305.661	71.88
305.891	68.88
306.121	64.88
306.352	81.88
306.582	90.88
306.812	73.88
307.042	74.88
307.272	73.88
307.502	81.88
307.731	79.88
307.961	95.88
308.191	88.88
308.421	82.88
308.651	65.88
308.881	66.88
309.111	91.88
309.341	90.88
309.571	86.88
309.8	79.88
310.03	78.88
310.26	94.88
310.49	73.88
310.72	71.88
310.949	77.88
311.179	90.88
311.409	98.88
311.639	71.88
311.868	77.88
312.098	79.88
312.328	87.88
312.557	78.88
312.787	97.88
313.017	80.88
313.246	89.88
313.476	75.88
313.706	83.88
313.935	66.88
314.165	84.88
314.394	72.88
314.624	74.88
314.853	68.88
315.083	87.88
315.312	73.88
315.542	84.88
315.771	87.88
316.001	77.88
316.23	85.88
316.46	85.88
316.689	88.88
316.919	68.88
317.148	91.88
317.377	93.88
317.607	73.88
317.836	81.88
318.065	81.88
318.295	77.88
318.524	72.88
318.753	77.88
318.983	93.88
319.212	88.88
319.441	81.88
319.67	75.88
319.9	91.88
320.129	88.88
320.358	79.88
320.587	83.88
320.816	93.88
321.046	79.88
321.275	82.88
321.504	74.88
321.733	91.88
321.962	88.88
322.191	83.88
322.42	87.88
322.649	94.88
322.878	87.88
323.108	77.88
323.337	90.88
323.566	90.88
323.795	83.88
324.024	84.88
324.253	90.88
324.482	81.88
324.71	68.88
324.939	83.88
325.168	83.88
325.397	89.88
325.626	75.88
325.855	84.88
326.084	87.88
326.313	86.88
326.542	72.88
326.77	91.88
326.999	83.88
327.228	75.88
327.457	81.88
327.686	83.88
327.914	92.88
328.143	84.88
328.372	76.88
328.6	78.88
328.829	79.88
329.058	92.88
329.287	73.88
329.515	81.88
329.744	89.88
329.972	77.88
330.201	89.88
330.43	91.88
330.658	63.88
330.887	91.88
331.115	82.88
331.344	67.88
331.572	79.88
331.801	76.88
332.03	79.88
332.258	77.88
332.486	90.88
332.715	87.88
332.943	77.88
333.172	83.88
333.4	72.88
333.629	84.88
333.857	83.88
334.085	79.88
334.314	92.88
334.542	80.88
334.771	91.88
334.999	83.88
335.227	82.88
335.455	86.88
335.684	101.88
335.912	87.88
336.14	92.88
336.369	87.88
336.597	69.88
336.825	86.88
337.053	88.88
337.281	93.88
337.51	67.88
337.738	90.88
337.966	77.88
338.194	74.88
338.422	80.88
338.65	80.88
338.878	93.88
339.106	84.88
339.334	87.88
339.562	79.88
339.79	78.88
340.018	67.88
340.246	82.88
340.474	77.88
340.702	83.88
340.93	80.88
341.158	84.88
341.386	78.88
341.614	80.88
341.842	84.88
342.07	91.88
342.298	77.88
342.526	73.88
342.754	81.88
342.981	80.88
343.209	83.88
343.437	85.88
343.665	86.88
343.893	71.88
344.12	87.88
344.348	71.88
344.576	81.88
344.804	88.88
345.031	87.88
345.259	80.88
345.487	77.88
345.714	88.88
345.942	79.88
346.17	81.88
346.397	91.88
346.625	76.88
346.853	87.88
347.08	75.88
347.308	65.88
347.535	85.88
347.763	81.88
347.99	78.88
348.218	75.88
348.445	80.88
348.673	89.88
348.9	96.88
349.128	89.88
349.355	80.88
349.583	84.88
349.81	91.88
350.037	91.88
350.265	67.88
350.492	77.88
350.72	81.88
350.947	88.88
351.174	73.88
351.402	84.88
351.629	70.88
351.856	73.88
352.083	95.88
352.311	81.88
352.538	82.88
352.765	78.88
352.992	87.88
353.22	78.88
353.447	77.88
353.674	92.88
353.901	82.88
354.128	99.88
354.355	81.88
354.583	90.88
354.81	85.88
355.037	81.88
355.264	88.88
355.491	88.88
355.718	89.88
355.945	80.88
356.172	82.88
356.399	75.88
356.626	77.88
356.853	81.88
357.08	80.88
357.307	96.88
357.534	81.88
357.761	90.88
357.988	88.88
358.215	89.88
358.441	84.88
358.668	71.88
358.895	80.88
359.122	97.88
359.349	85.88
359.576	93.88
359.802	81.88
360.029	74.88
360.256	86.88
360.483	80.88
360.709	80.88
360.936	80.88
361.163	74.88
361.39	80.88
361.616	93.88
361.843	82.88
362.07	95.88
362.296	91.88
362.523	87.88
362.749	100.88
362.976	96.88
363.203	96.88
363.429	84.88
363.656	88.88
363.882	91.88
364.109	96.88
364.335	104.88
364.562	108.88
364.788	88.88
365.015	79.88
365.241	91.88
365.468	98.88
365.694	88.88
365.92	85.88
366.147	84.88
366.373	73.88
366.599	73.88
366.826	80.88
367.052	83.88
367.278	86.88
367.505	81.88
367.731	76.88
367.957	95.88
368.184	85.88
368.41	85.88
368.636	80.88
368.862	90.88
369.089	88.88
369.315	77.88
369.541	102.88
369.767	89.88
369.993	92.88
370.219	92.88
370.445	100.88
370.672	74.88
370.898	80.88
371.124	73.88
371.35	83.88
371.576	74.88
371.802	84.88
372.028	92.88
372.254	91.88
372.48	92.88
372.706	91.88
372.932	88.88
373.158	86.88
373.384	84.88
373.61	94.88
373.835	68.88
374.061	79.88
374.287	83.88
374.513	74.88
374.739	86.88
374.965	77.88
375.191	85.88
375.416	82.88
375.642	64.88
375.868	71.88
376.094	85.88
376.319	79.88
376.545	80.88
376.771	73.88
376.997	89.88
377.222	92.88
377.448	76.88
377.674	74.88
377.899	88.88
378.125	84.88
378.35	80.88
378.576	72.88
378.802	85.88
379.027	91.88
379.253	89.88
379.478	87.88
379.704	76.88
379.929	91.88
380.155	83.88
380.38	79.88
380.606	91.88
380.831	100.88
381.057	75.88
381.282	79.88
381.507	95.88
381.733	84.88
381.958	81.88
382.184	79.88
382.409	85.88
382.634	82.88
382.86	79.88
383.085	84.88
383.31	81.88
383.535	78.88
383.761	69.88
383.986	88.88
384.211	76.88
384.436	88.88
384.662	100.88
384.887	86.88
385.112	99.88
385.337	84.88
385.562	84.88
385.787	88.88
386.013	81.88
386.238	72.88
386.463	79.88
386.688	93.88
386.913	93.88
387.138	86.88
387.363	82.88
387.588	92.88
387.813	72.88
388.038	88.88
388.263	87.88
388.488	91.88
388.713	85.88
388.938	80.88
389.163	95.88
389.387	85.88
389.612	87.88
389.837	86.88
390.062	90.88
390.287	81.88
390.512	68.88
390.736	74.88
390.961	74.88
391.186	95.88
391.411	87.88
391.636	87.88
391.86	89.88
392.085	96.88
392.31	92.88
392.534	86.88
392.759	111.88
392.984	121.88
393.208	173.88
393.433	260.88
393.658	215.88
393.882	112.88
394.107	88.88
394.331	111.88
394.556	111.88
394.78	103.88
395.005	113.88
395.229	84.88
395.454	99.88
395.678	101.88
395.903	100.88
396.127	120.88
396.352	111.88
396.576	137.88
396.801	192.88
397.025	214.88
397.249	128.88
397.474	101.88
397.698	100.88
397.922	89.88
398.147	80.88
398.371	72.88
398.595	86.88
398.82	80.88
399.044	92.88
399.268	87.88
399.492	79.88
399.717	86.88
399.941	100.88
400.165	87.88
400.389	68.88
400.613	88.88
400.837	92.88
401.062	86.88
401.286	72.88
401.51	66.88
401.734	80.88
401.958	83.88
402.182	69.88
402.406	91.88
402.63	96.88
402.854	84.88
403.078	69.88
403.302	92.88
403.526	87.88
403.75	83.88
403.974	83.88
404.198	121.88
404.422	152.88
404.645	161.88
404.869	150.88
405.093	127.88
405.317	84.88
405.541	81.88
405.765	83.88
405.988	91.88
406.212	80.88
406.436	89.88
406.66	87.88
406.883	83.88
407.107	72.88
407.331	79.88
407.555	93.88
407.778	83.88
408.002	88.88
408.226	87.88
408.449	77.88
408.673	86.88
408.896	85.88
409.12	105.88
409.344	92.88
409.567	93.88
409.791	91.88
410.014	88.88
410.238	109.88
410.461	79.88
410.685	74.88
410.908	86.88
411.132	83.88
411.355	77.88
411.578	78.88
411.802	83.88
412.025	70.88
412.249	89.88
412.472	77.88
412.695	80.88
412.919	69.88
413.142	91.88
413.365	89.88
413.589	90.88
413.812	71.88
414.035	71.88
414.258	83.88
414.482	88.88
414.705	90.88
414.928	86.88
415.151	86.88
415.374	74.88
415.597	66.88
415.821	67.88
416.044	83.88
416.267	76.88
416.49	89.88
416.713	83.88
416.936	93.88
417.159	95.88
417.382	88.88
417.605	71.88
417.828	72.88
418.051	64.88
418.274	89.88
418.497	81.88
418.72	76.88
418.943	73.88
419.166	95.88
419.389	75.88
419.611	77.88
419.834	101.88
420.057	88.88
420.28	76.88
420.503	72.88
420.726	84.88
420.948	98.88
421.171	88.88
421.394	95.88
421.617	101.88
421.839	117.88
422.062	134.88
422.285	161.88
422.507	282.88
422.73	415.88
422.953	365.88
423.175	211.88
423.398	124.88
423.621	93.88
423.843	103.88
424.066	94.88
424.288	85.88
424.511	86.88
424.733	85.88
424.956	94.88
425.178	86.88
425.401	73.88
425.623	90.88
425.846	83.88
426.068	90.88
426.291	84.88
426.513	77.88
426.735	85.88
426.958	87.88
427.18	94.88
427.402	76.88
427.625	100.88
427.847	87.88
428.069	87.88
428.292	137.88
428.514	144.88
428.736	94.88
428.958	117.88
429.181	134.88
429.403	89.88
429.625	105.88
429.847	114.88
430.069	163.88
430.292	201.88
430.514	183.88
430.736	141.88
430.958	136.88
431.18	100.88
431.402	95.88
431.624	94.88
431.846	134.88
432.068	130.88
432.29	85.88
432.512	81.88
432.734	78.88
432.956	82.88
433.178	97.88
433.4	91.88
433.622	76.88
433.844	75.88
434.066	84.88
434.287	71.88
434.509	82.88
434.731	75.88
434.953	69.88
435.175	71.88
435.397	83.88
435.618	88.88
435.84	86.88
436.062	87.88
436.284	69.88
436.505	76.88
436.727	88.88
436.949	77.88
437.17	83.88
437.392	73.88
437.614	79.88
437.835	83.88
438.057	70.88
438.278	81.88
438.5	84.88
438.721	89.88
438.943	98.88
439.165	62.88
439.386	67.88
439.608	68.88
439.829	67.88
440.05	84.88
440.272	87.88
440.493	74.88
440.715	77.88
440.936	80.88
441.158	80.88
441.379	74.88
441.6	92.88
441.822	77.88
442.043	84.88
442.264	98.88
442.486	129.88
442.707	176.88
442.928	119.88
443.149	109.88
443.371	167.88
443.592	258.88
443.813	232.88
444.034	123.88
444.255	93.88
444.476	79.88
444.698	94.88
444.919	97.88
445.14	199.88
445.361	222.88
445.582	298.88
445.803	246.88
446.024	135.88
446.245	109.88
446.466	91.88
446.687	83.88
446.908	69.88
447.129	74.88
447.35	86.88
447.571	73.88
447.792	79.88
448.013	76.88
448.234	69.88
448.455	77.88
448.675	93.88
448.896	74.88
449.117	87.88
449.338	87.88
449.559	78.88
449.779	76.88
450	75.88
450.221	77.88
450.442	97.88
450.662	83.88
450.883	79.88
451.104	79.88
451.324	83.88
451.545	65.88
451.766	78.88
451.986	102.88
452.207	80.88
452.428	94.88
452.648	83.88
452.869	83.88
453.089	90.88
453.31	93.88
453.53	81.88
453.751	76.88
453.971	89.88
454.192	74.88
454.412	87.88
454.633	94.88
454.853	81.88
455.073	83.88
455.294	73.88
455.514	92.88
455.734	89.88
455.955	74.88
456.175	86.88
456.395	71.88
456.616	77.88
456.836	88.88
457.056	92.88
457.276	83.88
457.497	95.88
457.717	76.88
457.937	106.88
458.157	99.88
458.377	105.88
458.598	119.88
458.818	108.88
459.038	99.88
459.258	83.88
459.478	88.88
459.698	64.88
459.918	82.88
460.138	79.88
460.358	75.88
460.578	89.88
460.798	120.88
461.018	109.88
461.238	94.88
461.458	79.88
461.678	63.88
461.898	92.88
462.118	82.88
462.338	72.88
462.558	75.88
462.777	73.88
462.997	91.88
463.217	75.88
463.437	77.88
463.657	84.88
463.876	71.88
464.096	79.88
464.316	67.88
464.536	92.88
464.755	82.88
464.975	85.88
465.195	87.88
465.414	74.88
465.634	63.88
465.854	81.88
466.073	83.88
466.293	72.88
466.512	75.88
466.732	73.88
466.951	74.88
467.171	85.88
467.391	65.88
467.61	79.88
467.829	77.88
468.049	94.88
468.268	74.88
468.488	78.88
468.707	91.88
468.927	75.88
469.146	80.88
469.365	69.88
469.585	85.88
469.804	97.88
470.023	77.88
470.243	93.88
470.462	95.88
470.681	77.88
470.901	69.88
471.12	73.88
471.339	89.88
471.558	109.88
471.777	84.88
471.997	87.88
472.216	93.88
472.435	86.88
472.654	72.88
472.873	86.88
473.092	81.88
473.311	77.88
473.53	80.88
473.749	97.88
473.968	87.88
474.187	89.88
474.406	88.88
474.625	80.88
474.844	79.88
475.063	71.88
475.282	77.88
475.501	94.88
475.72	71.88
475.939	81.88
476.158	83.88
476.377	91.88
476.596	72.88
476.814	82.88
477.033	85.88
477.252	76.88
477.471	71.88
477.69	85.88
477.908	81.88
478.127	89.88
478.346	84.88
478.564	74.88
478.783	83.88
479.002	78.88
479.22	73.88
479.439	79.88
479.658	87.88
479.876	76.88
480.095	79.88
480.313	81.88
480.532	86.88
480.751	76.88
480.969	77.88
481.188	74.88
481.406	96.88
481.624	81.88
481.843	84.88
482.061	77.88
482.28	67.88
482.498	78.88
482.717	88.88
482.935	82.88
483.153	76.88
483.372	75.88
483.59	78.88
483.808	72.88
484.027	81.88
484.245	87.88
484.463	79.88
484.681	85.88
484.9	88.88
485.118	85.88
485.336	82.88
485.554	89.88
485.772	85.88
485.99	74.88
486.209	95.88
486.427	83.88
486.645	81.88
486.863	85.88
487.081	76.88
487.299	92.88
487.517	88.88
487.735	109.88
487.953	143.88
488.171	141.88
488.389	88.88
488.607	88.88
488.825	68.88
489.043	101.88
489.261	79.88
489.479	73.88
489.696	70.88
489.914	87.88
490.132	78.88
490.35	87.88
490.568	78.88
490.786	93.88
491.003	78.88
491.221	89.88
491.439	83.88
491.657	97.88
491.874	90.88
492.092	83.88
492.31	84.88
492.527	88.88
492.745	79.88
492.963	85.88
493.18	79.88
493.398	78.88
493.615	91.88
493.833	91.88
494.05	81.88
494.268	95.88
494.485	83.88
494.703	86.88
494.92	81.88
495.138	67.88
495.355	80.88
495.573	81.88
495.79	73.88
496.008	91.88
496.225	83.88
496.442	84.88
496.66	77.88
496.877	71.88
497.094	82.88
497.312	84.88
497.529	86.88
497.746	82.88
497.963	77.88
498.181	73.88
498.398	86.88
498.615	93.88
498.832	96.88
499.049	95.88
499.267	93.88
499.484	82.88
499.701	87.88
499.918	97.88
500.135	104.88
500.352	90.88
500.569	78.88
500.786	91.88
501.003	71.88
501.22	73.88
501.437	71.88
501.654	76.88
501.871	85.88
502.088	72.88
502.305	74.88
502.522	80.88
502.739	81.88
502.956	75.88
503.172	88.88
503.389	71.88
503.606	85.88
503.823	71.88
504.04	85.88
504.256	104.88
504.473	102.88
504.69	100.88
504.907	93.88
505.123	91.88
505.34	85.88
505.557	77.88
505.773	79.88
505.99	79.88
506.207	73.88
506.423	76.88
506.64	88.88
506.856	94.88
507.073	89.88
507.289	81.88
507.506	90.88
507.722	80.88
507.939	78.88
508.155	81.88
508.372	70.88
508.588	98.88
508.805	91.88
509.021	74.88
509.238	86.88
509.454	74.88
509.67	63.88
509.887	83.88
510.103	86.88
510.319	78.88
510.536	76.88
510.752	95.88
510.968	83.88
511.184	86.88
511.401	83.88
511.617	70.88
511.833	79.88
512.049	87.88
512.265	74.88
512.481	83.88
512.698	76.88
512.914	94.88
513.13	84.88
513.346	72.88
513.562	86.88
513.778	89.88
513.994	72.88
514.21	96.88
514.426	84.88
514.642	80.88
514.858	95.88
515.074	91.88
515.29	91.88
515.506	79.88
515.721	83.88
515.937	85.88
516.153	79.88
516.369	95.88
516.585	79.88
516.801	79.88
517.016	80.88
517.232	77.88
517.448	97.88
517.664	100.88
517.879	75.88
518.095	83.88
518.311	83.88
518.527	89.88
518.742	91.88
518.958	129.88
