Data from 2145_1_HRD10591_00021.txt Node
Date: Mon Jan 19 14:21:19 EST 2026
User: Yrep
Spectrometer: HR+D1059
Trigger mode: 1
Integration Time (sec): 1.000000E-1
Scans to average: 1
Electric dark correction enabled: true
Nonlinearity correction enabled: false
Boxcar width: 0
XAxis mode: Wavelengths
Number of Pixels in Spectrum: 2048
>>>>>Begin Spectral Data<<<<<
223.165	-11.81
223.4	-11.81
223.635	-11.81
223.869	-21.81
224.104	-23.81
224.338	-18.81
224.573	-11.81
224.808	-17.81
225.042	-6.81
225.277	-2.81
225.511	12.19
225.746	1.19
225.98	0.19
226.215	7.19
226.449	11.19
226.683	25.19
226.918	23.19
227.152	35.19
227.387	47.19
227.621	32.19
227.856	42.19
228.09	43.19
228.324	53.19
228.559	52.19
228.793	74.19
229.027	47.19
229.262	57.19
229.496	65.19
229.73	70.19
229.964	83.19
230.199	83.19
230.433	63.19
230.667	89.19
230.901	68.19
231.136	87.19
231.37	81.19
231.604	93.19
231.838	81.19
232.072	88.19
232.306	93.19
232.541	93.19
232.775	86.19
233.009	86.19
233.243	93.19
233.477	81.19
233.711	98.19
233.945	77.19
234.179	69.19
234.413	88.19
234.647	89.19
234.881	83.19
235.115	82.19
235.349	77.19
235.583	76.19
235.817	94.19
236.051	86.19
236.285	73.19
236.519	62.19
236.753	82.19
236.987	88.19
237.221	82.19
237.455	85.19
237.689	88.19
237.922	77.19
238.156	70.19
238.39	75.19
238.624	70.19
238.858	100.19
239.091	78.19
239.325	74.19
239.559	72.19
239.793	73.19
240.027	84.19
240.26	74.19
240.494	85.19
240.728	73.19
240.961	62.19
241.195	73.19
241.429	86.19
241.662	83.19
241.896	75.19
242.13	78.19
242.363	82.19
242.597	78.19
242.83	74.19
243.064	78.19
243.298	66.19
243.531	79.19
243.765	84.19
243.998	75.19
244.232	80.19
244.465	68.19
244.699	79.19
244.932	71.19
245.166	82.19
245.399	82.19
245.633	67.19
245.866	76.19
246.099	64.19
246.333	87.19
246.566	76.19
246.8	76.19
247.033	83.19
247.266	73.19
247.5	71.19
247.733	92.19
247.966	70.19
248.2	72.19
248.433	82.19
248.666	66.19
248.899	88.19
249.133	92.19
249.366	73.19
249.599	76.19
249.832	82.19
250.066	98.19
250.299	94.19
250.532	80.19
250.765	66.19
250.998	81.19
251.231	74.19
251.465	75.19
251.698	67.19
251.931	81.19
252.164	78.19
252.397	87.19
252.63	73.19
252.863	90.19
253.096	64.19
253.329	92.19
253.562	73.19
253.795	67.19
254.028	73.19
254.261	82.19
254.494	65.19
254.727	84.19
254.96	70.19
255.193	90.19
255.426	76.19
255.659	75.19
255.892	94.19
256.124	94.19
256.357	82.19
256.59	76.19
256.823	87.19
257.056	81.19
257.289	86.19
257.521	89.19
257.754	93.19
257.987	70.19
258.22	73.19
258.452	79.19
258.685	77.19
258.918	75.19
259.151	77.19
259.383	69.19
259.616	78.19
259.849	74.19
260.081	78.19
260.314	84.19
260.547	87.19
260.779	76.19
261.012	76.19
261.244	73.19
261.477	76.19
261.71	88.19
261.942	76.19
262.175	89.19
262.407	73.19
262.64	81.19
262.872	78.19
263.105	80.19
263.337	84.19
263.57	76.19
263.802	64.19
264.035	84.19
264.267	76.19
264.499	83.19
264.732	77.19
264.964	60.19
265.197	68.19
265.429	82.19
265.661	64.19
265.894	84.19
266.126	90.19
266.358	91.19
266.591	77.19
266.823	75.19
267.055	79.19
267.287	77.19
267.52	84.19
267.752	94.19
267.984	86.19
268.216	89.19
268.448	85.19
268.681	98.19
268.913	96.19
269.145	75.19
269.377	84.19
269.609	75.19
269.841	73.19
270.073	77.19
270.306	73.19
270.538	89.19
270.77	83.19
271.002	73.19
271.234	79.19
271.466	78.19
271.698	88.19
271.93	86.19
272.162	96.19
272.394	71.19
272.626	100.19
272.858	82.19
273.09	81.19
273.322	82.19
273.553	90.19
273.785	91.19
274.017	75.19
274.249	84.19
274.481	88.19
274.713	90.19
274.945	91.19
275.176	78.19
275.408	82.19
275.64	76.19
275.872	98.19
276.104	84.19
276.335	83.19
276.567	77.19
276.799	90.19
277.031	75.19
277.262	100.19
277.494	84.19
277.726	70.19
277.957	85.19
278.189	77.19
278.421	87.19
278.652	76.19
278.884	83.19
279.115	84.19
279.347	85.19
279.579	76.19
279.81	79.19
280.042	84.19
280.273	74.19
280.505	68.19
280.736	77.19
280.968	80.19
281.199	79.19
281.431	89.19
281.662	88.19
281.894	92.19
282.125	90.19
282.356	94.19
282.588	77.19
282.819	92.19
283.051	76.19
283.282	71.19
283.513	92.19
283.745	86.19
283.976	87.19
284.207	75.19
284.439	79.19
284.67	99.19
284.901	85.19
285.132	87.19
285.364	90.19
285.595	93.19
285.826	86.19
286.057	83.19
286.288	80.19
286.52	100.19
286.751	76.19
286.982	93.19
287.213	69.19
287.444	86.19
287.675	102.19
287.906	96.19
288.138	73.19
288.369	84.19
288.6	80.19
288.831	84.19
289.062	94.19
289.293	90.19
289.524	70.19
289.755	76.19
289.986	81.19
290.217	88.19
290.448	101.19
290.679	84.19
290.91	70.19
291.141	78.19
291.371	87.19
291.602	79.19
291.833	79.19
292.064	78.19
292.295	66.19
292.526	93.19
292.757	88.19
292.987	64.19
293.218	88.19
293.449	64.19
293.68	85.19
293.91	91.19
294.141	83.19
294.372	81.19
294.603	85.19
294.833	78.19
295.064	94.19
295.295	75.19
295.525	86.19
295.756	97.19
295.987	85.19
296.217	91.19
296.448	76.19
296.679	80.19
296.909	90.19
297.14	96.19
297.37	91.19
297.601	88.19
297.831	77.19
298.062	83.19
298.292	76.19
298.523	87.19
298.753	78.19
298.984	76.19
299.214	97.19
299.445	89.19
299.675	85.19
299.905	86.19
300.136	97.19
300.366	91.19
300.597	97.19
300.827	78.19
301.057	74.19
301.288	88.19
301.518	106.19
301.748	79.19
301.979	90.19
302.209	77.19
302.439	84.19
302.669	99.19
302.9	97.19
303.13	75.19
303.36	76.19
303.59	78.19
303.82	78.19
304.051	88.19
304.281	91.19
304.511	89.19
304.741	97.19
304.971	78.19
305.201	80.19
305.431	95.19
305.661	88.19
305.891	86.19
306.121	86.19
306.352	75.19
306.582	84.19
306.812	82.19
307.042	86.19
307.272	73.19
307.502	84.19
307.731	86.19
307.961	73.19
308.191	86.19
308.421	86.19
308.651	85.19
308.881	78.19
309.111	86.19
309.341	84.19
309.571	79.19
309.8	97.19
310.03	93.19
310.26	89.19
310.49	108.19
310.72	91.19
310.949	77.19
311.179	88.19
311.409	76.19
311.639	80.19
311.868	73.19
312.098	78.19
312.328	76.19
312.557	90.19
312.787	89.19
313.017	89.19
313.246	78.19
313.476	87.19
313.706	77.19
313.935	89.19
314.165	77.19
314.394	96.19
314.624	106.19
314.853	88.19
315.083	95.19
315.312	81.19
315.542	87.19
315.771	73.19
316.001	85.19
316.23	74.19
316.46	88.19
316.689	76.19
316.919	71.19
317.148	81.19
317.377	86.19
317.607	75.19
317.836	81.19
318.065	90.19
318.295	86.19
318.524	91.19
318.753	70.19
318.983	87.19
319.212	79.19
319.441	86.19
319.67	77.19
319.9	75.19
320.129	77.19
320.358	87.19
320.587	99.19
320.816	76.19
321.046	75.19
321.275	87.19
321.504	84.19
321.733	74.19
321.962	88.19
322.191	82.19
322.42	78.19
322.649	83.19
322.878	86.19
323.108	92.19
323.337	88.19
323.566	82.19
323.795	87.19
324.024	93.19
324.253	84.19
324.482	76.19
324.71	86.19
324.939	99.19
325.168	77.19
325.397	85.19
325.626	92.19
325.855	78.19
326.084	96.19
326.313	82.19
326.542	92.19
326.77	82.19
326.999	91.19
327.228	81.19
327.457	82.19
327.686	89.19
327.914	82.19
328.143	86.19
328.372	93.19
328.6	72.19
328.829	72.19
329.058	75.19
329.287	87.19
329.515	79.19
329.744	87.19
329.972	84.19
330.201	78.19
330.43	90.19
330.658	80.19
330.887	94.19
331.115	102.19
331.344	100.19
331.572	100.19
331.801	94.19
332.03	85.19
332.258	70.19
332.486	82.19
332.715	81.19
332.943	94.19
333.172	77.19
333.4	74.19
333.629	74.19
333.857	80.19
334.085	81.19
334.314	77.19
334.542	79.19
334.771	89.19
334.999	98.19
335.227	77.19
335.455	92.19
335.684	108.19
335.912	81.19
336.14	98.19
336.369	85.19
336.597	91.19
336.825	81.19
337.053	79.19
337.281	81.19
337.51	89.19
337.738	71.19
337.966	78.19
338.194	76.19
338.422	88.19
338.65	80.19
338.878	88.19
339.106	91.19
339.334	79.19
339.562	82.19
339.79	84.19
340.018	68.19
340.246	81.19
340.474	78.19
340.702	77.19
340.93	101.19
341.158	84.19
341.386	82.19
341.614	107.19
341.842	78.19
342.07	99.19
342.298	81.19
342.526	86.19
342.754	68.19
342.981	91.19
343.209	78.19
343.437	95.19
343.665	80.19
343.893	92.19
344.12	68.19
344.348	76.19
344.576	81.19
344.804	92.19
345.031	84.19
345.259	86.19
345.487	78.19
345.714	88.19
345.942	86.19
346.17	86.19
346.397	81.19
346.625	81.19
346.853	85.19
347.08	87.19
347.308	86.19
347.535	88.19
347.763	89.19
347.99	69.19
348.218	84.19
348.445	84.19
348.673	89.19
348.9	100.19
349.128	76.19
349.355	85.19
349.583	83.19
349.81	82.19
350.037	80.19
350.265	85.19
350.492	84.19
350.72	83.19
350.947	94.19
351.174	85.19
351.402	84.19
351.629	86.19
351.856	92.19
352.083	86.19
352.311	77.19
352.538	86.19
352.765	89.19
352.992	90.19
353.22	102.19
353.447	97.19
353.674	93.19
353.901	91.19
354.128	70.19
354.355	84.19
354.583	69.19
354.81	76.19
355.037	76.19
355.264	99.19
355.491	86.19
355.718	83.19
355.945	90.19
356.172	77.19
356.399	93.19
356.626	92.19
356.853	82.19
357.08	94.19
357.307	88.19
357.534	90.19
357.761	80.19
357.988	91.19
358.215	88.19
358.441	78.19
358.668	93.19
358.895	82.19
359.122	92.19
359.349	85.19
359.576	86.19
359.802	79.19
360.029	98.19
360.256	74.19
360.483	77.19
360.709	76.19
360.936	93.19
361.163	82.19
361.39	93.19
361.616	86.19
361.843	93.19
362.07	86.19
362.296	85.19
362.523	107.19
362.749	109.19
362.976	88.19
363.203	101.19
363.429	89.19
363.656	86.19
363.882	82.19
364.109	107.19
364.335	123.19
364.562	98.19
364.788	88.19
365.015	87.19
365.241	93.19
365.468	95.19
365.694	80.19
365.92	88.19
366.147	90.19
366.373	78.19
366.599	87.19
366.826	85.19
367.052	96.19
367.278	90.19
367.505	85.19
367.731	92.19
367.957	88.19
368.184	88.19
368.41	77.19
368.636	83.19
368.862	95.19
369.089	96.19
369.315	84.19
369.541	81.19
369.767	78.19
369.993	84.19
370.219	72.19
370.445	100.19
370.672	94.19
370.898	73.19
371.124	90.19
371.35	84.19
371.576	85.19
371.802	71.19
372.028	95.19
372.254	75.19
372.48	87.19
372.706	102.19
372.932	85.19
373.158	97.19
373.384	105.19
373.61	91.19
373.835	90.19
374.061	96.19
374.287	81.19
374.513	85.19
374.739	68.19
374.965	97.19
375.191	81.19
375.416	91.19
375.642	80.19
375.868	96.19
376.094	93.19
376.319	100.19
376.545	101.19
376.771	98.19
376.997	88.19
377.222	86.19
377.448	89.19
377.674	70.19
377.899	77.19
378.125	77.19
378.35	71.19
378.576	74.19
378.802	95.19
379.027	86.19
379.253	78.19
379.478	70.19
379.704	74.19
379.929	85.19
380.155	77.19
380.38	82.19
380.606	94.19
380.831	85.19
381.057	101.19
381.282	77.19
381.507	90.19
381.733	81.19
381.958	80.19
382.184	83.19
382.409	88.19
382.634	83.19
382.86	80.19
383.085	92.19
383.31	88.19
383.535	97.19
383.761	84.19
383.986	84.19
384.211	90.19
384.436	85.19
384.662	76.19
384.887	88.19
385.112	98.19
385.337	87.19
385.562	97.19
385.787	84.19
386.013	74.19
386.238	94.19
386.463	98.19
386.688	101.19
386.913	90.19
387.138	99.19
387.363	89.19
387.588	92.19
387.813	90.19
388.038	90.19
388.263	91.19
388.488	93.19
388.713	101.19
388.938	85.19
389.163	77.19
389.387	90.19
389.612	80.19
389.837	78.19
390.062	88.19
390.287	79.19
390.512	74.19
390.736	89.19
390.961	85.19
391.186	87.19
391.411	88.19
391.636	96.19
391.86	81.19
392.085	78.19
392.31	87.19
392.534	87.19
392.759	87.19
392.984	122.19
393.208	190.19
393.433	228.19
393.658	192.19
393.882	109.19
394.107	104.19
394.331	108.19
394.556	102.19
394.78	92.19
395.005	87.19
395.229	86.19
395.454	90.19
395.678	96.19
395.903	101.19
396.127	112.19
396.352	122.19
396.576	118.19
396.801	163.19
397.025	180.19
397.249	128.19
397.474	104.19
397.698	87.19
397.922	86.19
398.147	84.19
398.371	88.19
398.595	85.19
398.82	91.19
399.044	92.19
399.268	89.19
399.492	95.19
399.717	102.19
399.941	87.19
400.165	100.19
400.389	89.19
400.613	87.19
400.837	90.19
401.062	76.19
401.286	74.19
401.51	89.19
401.734	83.19
401.958	89.19
402.182	82.19
402.406	67.19
402.63	73.19
402.854	82.19
403.078	85.19
403.302	85.19
403.526	106.19
403.75	80.19
403.974	91.19
404.198	108.19
404.422	125.19
404.645	151.19
404.869	117.19
405.093	100.19
405.317	82.19
405.541	82.19
405.765	87.19
405.988	82.19
406.212	82.19
406.436	80.19
406.66	89.19
406.883	91.19
407.107	81.19
407.331	94.19
407.555	79.19
407.778	89.19
408.002	117.19
408.226	96.19
408.449	88.19
408.673	87.19
408.896	77.19
409.12	73.19
409.344	87.19
409.567	93.19
409.791	91.19
410.014	101.19
410.238	88.19
410.461	82.19
410.685	74.19
410.908	87.19
411.132	92.19
411.355	86.19
411.578	87.19
411.802	80.19
412.025	93.19
412.249	82.19
412.472	82.19
412.695	77.19
412.919	86.19
413.142	90.19
413.365	63.19
413.589	82.19
413.812	82.19
414.035	79.19
414.258	82.19
414.482	97.19
414.705	86.19
414.928	77.19
415.151	93.19
415.374	66.19
415.597	84.19
415.821	91.19
416.044	83.19
416.267	81.19
416.49	82.19
416.713	83.19
416.936	92.19
417.159	86.19
417.382	89.19
417.605	76.19
417.828	85.19
418.051	84.19
418.274	96.19
418.497	92.19
418.72	96.19
418.943	90.19
419.166	72.19
419.389	77.19
419.611	97.19
419.834	79.19
420.057	84.19
420.28	77.19
420.503	79.19
420.726	96.19
420.948	83.19
421.171	90.19
421.394	103.19
421.617	115.19
421.839	102.19
422.062	107.19
422.285	150.19
422.507	247.19
422.73	392.19
422.953	353.19
423.175	166.19
423.398	116.19
423.621	96.19
423.843	99.19
424.066	90.19
424.288	82.19
424.511	91.19
424.733	92.19
424.956	76.19
425.178	99.19
425.401	97.19
425.623	98.19
425.846	80.19
426.068	91.19
426.291	85.19
426.513	72.19
426.735	102.19
426.958	96.19
427.18	92.19
427.402	88.19
427.625	85.19
427.847	89.19
428.069	94.19
428.292	112.19
428.514	122.19
428.736	93.19
428.958	120.19
429.181	110.19
429.403	94.19
429.625	96.19
429.847	120.19
430.069	162.19
430.292	155.19
430.514	164.19
430.736	125.19
430.958	148.19
431.18	92.19
431.402	89.19
431.624	96.19
431.846	123.19
432.068	130.19
432.29	98.19
432.512	81.19
432.734	82.19
432.956	81.19
433.178	86.19
433.4	82.19
433.622	84.19
433.844	84.19
434.066	82.19
434.287	95.19
434.509	92.19
434.731	86.19
434.953	78.19
435.175	85.19
435.397	89.19
435.618	72.19
435.84	86.19
436.062	88.19
436.284	87.19
436.505	79.19
436.727	90.19
436.949	94.19
437.17	84.19
437.392	85.19
437.614	99.19
437.835	85.19
438.057	90.19
438.278	80.19
438.5	86.19
438.721	69.19
438.943	75.19
439.165	79.19
439.386	67.19
439.608	75.19
439.829	87.19
440.05	96.19
440.272	70.19
440.493	83.19
440.715	88.19
440.936	82.19
441.158	73.19
441.379	71.19
441.6	91.19
441.822	80.19
442.043	96.19
442.264	101.19
442.486	126.19
442.707	158.19
442.928	110.19
443.149	97.19
443.371	133.19
443.592	210.19
443.813	184.19
444.034	102.19
444.255	86.19
444.476	91.19
444.698	85.19
444.919	95.19
445.14	180.19
445.361	188.19
445.582	232.19
445.803	221.19
446.024	111.19
446.245	90.19
446.466	92.19
446.687	83.19
446.908	78.19
447.129	84.19
447.35	93.19
447.571	82.19
447.792	92.19
448.013	85.19
448.234	85.19
448.455	81.19
448.675	90.19
448.896	97.19
449.117	90.19
449.338	72.19
449.559	86.19
449.779	92.19
450	73.19
450.221	89.19
450.442	83.19
450.662	103.19
450.883	76.19
451.104	88.19
451.324	84.19
451.545	86.19
451.766	74.19
451.986	73.19
452.207	76.19
452.428	79.19
452.648	81.19
452.869	82.19
453.089	94.19
453.31	89.19
453.53	82.19
453.751	85.19
453.971	84.19
454.192	88.19
454.412	90.19
454.633	83.19
454.853	81.19
455.073	73.19
455.294	87.19
455.514	91.19
455.734	77.19
455.955	63.19
456.175	80.19
456.395	92.19
456.616	98.19
456.836	70.19
457.056	80.19
457.276	87.19
457.497	79.19
457.717	84.19
457.937	94.19
458.157	103.19
458.377	114.19
458.598	101.19
458.818	95.19
459.038	90.19
459.258	97.19
459.478	81.19
459.698	74.19
459.918	93.19
460.138	95.19
460.358	90.19
460.578	93.19
460.798	123.19
461.018	118.19
461.238	86.19
461.458	99.19
461.678	88.19
461.898	78.19
462.118	101.19
462.338	79.19
462.558	88.19
462.777	86.19
462.997	92.19
463.217	83.19
463.437	82.19
463.657	76.19
463.876	78.19
464.096	77.19
464.316	83.19
464.536	79.19
464.755	90.19
464.975	82.19
465.195	84.19
465.414	89.19
465.634	74.19
465.854	83.19
466.073	80.19
466.293	85.19
466.512	74.19
466.732	78.19
466.951	90.19
467.171	92.19
467.391	73.19
467.61	84.19
467.829	94.19
468.049	93.19
468.268	87.19
468.488	104.19
468.707	85.19
468.927	93.19
469.146	88.19
469.365	84.19
469.585	88.19
469.804	88.19
470.023	71.19
470.243	82.19
470.462	86.19
470.681	79.19
470.901	84.19
471.12	77.19
471.339	88.19
471.558	84.19
471.777	73.19
471.997	67.19
472.216	84.19
472.435	87.19
472.654	90.19
472.873	94.19
473.092	92.19
473.311	80.19
473.53	93.19
473.749	84.19
473.968	85.19
474.187	107.19
474.406	76.19
474.625	86.19
474.844	84.19
475.063	88.19
475.282	87.19
475.501	74.19
475.72	85.19
475.939	78.19
476.158	89.19
476.377	89.19
476.596	90.19
476.814	89.19
477.033	92.19
477.252	91.19
477.471	86.19
477.69	88.19
477.908	95.19
478.127	90.19
478.346	88.19
478.564	70.19
478.783	78.19
479.002	91.19
479.22	85.19
479.439	98.19
479.658	69.19
479.876	93.19
480.095	82.19
480.313	92.19
480.532	91.19
480.751	76.19
480.969	91.19
481.188	85.19
481.406	84.19
481.624	73.19
481.843	82.19
482.061	85.19
482.28	81.19
482.498	94.19
482.717	93.19
482.935	68.19
483.153	81.19
483.372	85.19
483.59	66.19
483.808	98.19
484.027	83.19
484.245	70.19
484.463	91.19
484.681	90.19
484.9	81.19
485.118	92.19
485.336	72.19
485.554	82.19
485.772	88.19
485.99	95.19
486.209	98.19
486.427	94.19
486.645	92.19
486.863	78.19
487.081	72.19
487.299	94.19
487.517	85.19
487.735	95.19
487.953	129.19
488.171	114.19
488.389	86.19
488.607	86.19
488.825	81.19
489.043	85.19
489.261	88.19
489.479	87.19
489.696	90.19
489.914	84.19
490.132	80.19
490.35	94.19
490.568	84.19
490.786	66.19
491.003	95.19
491.221	96.19
491.439	88.19
491.657	80.19
491.874	98.19
492.092	76.19
492.31	89.19
492.527	81.19
492.745	83.19
492.963	88.19
493.18	92.19
493.398	92.19
493.615	78.19
493.833	88.19
494.05	82.19
494.268	85.19
494.485	77.19
494.703	82.19
494.92	84.19
495.138	65.19
495.355	75.19
495.573	98.19
495.79	87.19
496.008	92.19
496.225	92.19
496.442	89.19
496.66	84.19
496.877	89.19
497.094	90.19
497.312	79.19
497.529	87.19
497.746	86.19
497.963	82.19
498.181	83.19
498.398	90.19
498.615	77.19
498.832	85.19
499.049	88.19
499.267	78.19
499.484	82.19
499.701	82.19
499.918	83.19
500.135	90.19
500.352	80.19
500.569	79.19
500.786	91.19
501.003	82.19
501.22	88.19
501.437	87.19
501.654	90.19
501.871	82.19
502.088	83.19
502.305	96.19
502.522	76.19
502.739	86.19
502.956	86.19
503.172	86.19
503.389	93.19
503.606	78.19
503.823	94.19
504.04	93.19
504.256	96.19
504.473	105.19
504.69	90.19
504.907	94.19
505.123	94.19
505.34	88.19
505.557	83.19
505.773	93.19
505.99	87.19
506.207	96.19
506.423	88.19
506.64	91.19
506.856	88.19
507.073	91.19
507.289	84.19
507.506	84.19
507.722	78.19
507.939	78.19
508.155	81.19
508.372	83.19
508.588	78.19
508.805	96.19
509.021	93.19
509.238	99.19
509.454	69.19
509.67	87.19
509.887	89.19
510.103	93.19
510.319	95.19
510.536	86.19
510.752	85.19
510.968	91.19
511.184	85.19
511.401	89.19
511.617	90.19
511.833	85.19
512.049	107.19
512.265	87.19
512.481	76.19
512.698	82.19
512.914	74.19
513.13	85.19
513.346	69.19
513.562	82.19
513.778	105.19
513.994	85.19
514.21	89.19
514.426	90.19
514.642	90.19
514.858	102.19
515.074	99.19
515.29	100.19
515.506	93.19
515.721	75.19
515.937	90.19
516.153	88.19
516.369	88.19
516.585	80.19
516.801	84.19
517.016	92.19
517.232	89.19
517.448	105.19
517.664	86.19
517.879	76.19
518.095	89.19
518.311	107.19
518.527	103.19
518.742	103.19
