Data from 2145_1_HRD10591_00049.txt Node
Date: Mon Jan 19 14:21:33 EST 2026
User: Yrep
Spectrometer: HR+D1059
Trigger mode: 1
Integration Time (sec): 1.000000E-1
Scans to average: 1
Electric dark correction enabled: true
Nonlinearity correction enabled: false
Boxcar width: 0
XAxis mode: Wavelengths
Number of Pixels in Spectrum: 2048
>>>>>Begin Spectral Data<<<<<
223.165	-3.62
223.4	-3.62
223.635	-3.62
223.869	-22.62
224.104	-26.62
224.338	-11.62
224.573	-2.62
224.808	-4.62
225.042	-7.62
225.277	-15.62
225.511	-3.62
225.746	-0.62
225.98	9.38
226.215	23.38
226.449	16.38
226.683	13.38
226.918	18.38
227.152	18.38
227.387	29.38
227.621	37.38
227.856	28.38
228.09	48.38
228.324	53.38
228.559	77.38
228.793	63.38
229.027	66.38
229.262	68.38
229.496	70.38
229.73	66.38
229.964	50.38
230.199	65.38
230.433	78.38
230.667	77.38
230.901	92.38
231.136	84.38
231.37	60.38
231.604	82.38
231.838	77.38
232.072	68.38
232.306	80.38
232.541	92.38
232.775	81.38
233.009	84.38
233.243	68.38
233.477	96.38
233.711	75.38
233.945	65.38
234.179	84.38
234.413	88.38
234.647	83.38
234.881	76.38
235.115	81.38
235.349	83.38
235.583	76.38
235.817	73.38
236.051	77.38
236.285	74.38
236.519	94.38
236.753	89.38
236.987	78.38
237.221	82.38
237.455	75.38
237.689	78.38
237.922	84.38
238.156	81.38
238.39	82.38
238.624	76.38
238.858	84.38
239.091	74.38
239.325	74.38
239.559	74.38
239.793	77.38
240.027	67.38
240.26	78.38
240.494	67.38
240.728	67.38
240.961	84.38
241.195	79.38
241.429	77.38
241.662	93.38
241.896	74.38
242.13	74.38
242.363	91.38
242.597	63.38
242.83	74.38
243.064	62.38
243.298	82.38
243.531	70.38
243.765	87.38
243.998	69.38
244.232	92.38
244.465	75.38
244.699	82.38
244.932	80.38
245.166	93.38
245.399	87.38
245.633	76.38
245.866	72.38
246.099	77.38
246.333	85.38
246.566	78.38
246.8	69.38
247.033	90.38
247.266	79.38
247.5	72.38
247.733	68.38
247.966	77.38
248.2	86.38
248.433	83.38
248.666	84.38
248.899	86.38
249.133	87.38
249.366	88.38
249.599	67.38
249.832	64.38
250.066	88.38
250.299	76.38
250.532	77.38
250.765	87.38
250.998	83.38
251.231	79.38
251.465	82.38
251.698	75.38
251.931	80.38
252.164	84.38
252.397	73.38
252.63	88.38
252.863	76.38
253.096	85.38
253.329	86.38
253.562	98.38
253.795	74.38
254.028	72.38
254.261	77.38
254.494	89.38
254.727	91.38
254.96	86.38
255.193	88.38
255.426	75.38
255.659	83.38
255.892	78.38
256.124	77.38
256.357	80.38
256.59	88.38
256.823	71.38
257.056	79.38
257.289	88.38
257.521	82.38
257.754	77.38
257.987	76.38
258.22	80.38
258.452	80.38
258.685	79.38
258.918	94.38
259.151	78.38
259.383	91.38
259.616	94.38
259.849	77.38
260.081	76.38
260.314	85.38
260.547	83.38
260.779	86.38
261.012	98.38
261.244	72.38
261.477	80.38
261.71	85.38
261.942	74.38
262.175	76.38
262.407	80.38
262.64	85.38
262.872	100.38
263.105	94.38
263.337	81.38
263.57	72.38
263.802	84.38
264.035	73.38
264.267	70.38
264.499	81.38
264.732	87.38
264.964	81.38
265.197	92.38
265.429	87.38
265.661	79.38
265.894	93.38
266.126	96.38
266.358	90.38
266.591	92.38
266.823	76.38
267.055	84.38
267.287	80.38
267.52	82.38
267.752	89.38
267.984	84.38
268.216	84.38
268.448	83.38
268.681	75.38
268.913	86.38
269.145	82.38
269.377	92.38
269.609	71.38
269.841	77.38
270.073	84.38
270.306	90.38
270.538	81.38
270.77	84.38
271.002	94.38
271.234	94.38
271.466	94.38
271.698	79.38
271.93	78.38
272.162	86.38
272.394	77.38
272.626	74.38
272.858	82.38
273.09	75.38
273.322	85.38
273.553	82.38
273.785	85.38
274.017	81.38
274.249	89.38
274.481	81.38
274.713	91.38
274.945	80.38
275.176	79.38
275.408	91.38
275.64	81.38
275.872	72.38
276.104	89.38
276.335	79.38
276.567	85.38
276.799	98.38
277.031	67.38
277.262	86.38
277.494	100.38
277.726	78.38
277.957	83.38
278.189	101.38
278.421	80.38
278.652	101.38
278.884	85.38
279.115	81.38
279.347	80.38
279.579	93.38
279.81	86.38
280.042	92.38
280.273	77.38
280.505	90.38
280.736	85.38
280.968	76.38
281.199	73.38
281.431	84.38
281.662	89.38
281.894	84.38
282.125	96.38
282.356	78.38
282.588	86.38
282.819	76.38
283.051	75.38
283.282	65.38
283.513	77.38
283.745	88.38
283.976	78.38
284.207	85.38
284.439	96.38
284.67	90.38
284.901	87.38
285.132	91.38
285.364	78.38
285.595	94.38
285.826	88.38
286.057	96.38
286.288	79.38
286.52	92.38
286.751	84.38
286.982	78.38
287.213	88.38
287.444	86.38
287.675	72.38
287.906	85.38
288.138	96.38
288.369	84.38
288.6	89.38
288.831	85.38
289.062	87.38
289.293	84.38
289.524	85.38
289.755	91.38
289.986	101.38
290.217	89.38
290.448	86.38
290.679	74.38
290.91	78.38
291.141	88.38
291.371	94.38
291.602	77.38
291.833	82.38
292.064	90.38
292.295	83.38
292.526	76.38
292.757	83.38
292.987	89.38
293.218	82.38
293.449	82.38
293.68	75.38
293.91	80.38
294.141	72.38
294.372	92.38
294.603	82.38
294.833	85.38
295.064	76.38
295.295	92.38
295.525	91.38
295.756	82.38
295.987	80.38
296.217	85.38
296.448	91.38
296.679	91.38
296.909	87.38
297.14	86.38
297.37	96.38
297.601	88.38
297.831	69.38
298.062	80.38
298.292	86.38
298.523	92.38
298.753	90.38
298.984	82.38
299.214	89.38
299.445	84.38
299.675	91.38
299.905	68.38
300.136	84.38
300.366	94.38
300.597	73.38
300.827	90.38
301.057	74.38
301.288	84.38
301.518	81.38
301.748	84.38
301.979	94.38
302.209	92.38
302.439	81.38
302.669	76.38
302.9	80.38
303.13	100.38
303.36	85.38
303.59	79.38
303.82	98.38
304.051	85.38
304.281	94.38
304.511	95.38
304.741	86.38
304.971	99.38
305.201	76.38
305.431	79.38
305.661	92.38
305.891	87.38
306.121	100.38
306.352	96.38
306.582	74.38
306.812	73.38
307.042	100.38
307.272	95.38
307.502	81.38
307.731	89.38
307.961	93.38
308.191	88.38
308.421	98.38
308.651	76.38
308.881	92.38
309.111	92.38
309.341	90.38
309.571	86.38
309.8	99.38
310.03	88.38
310.26	96.38
310.49	75.38
310.72	76.38
310.949	86.38
311.179	86.38
311.409	68.38
311.639	68.38
311.868	89.38
312.098	90.38
312.328	93.38
312.557	86.38
312.787	85.38
313.017	86.38
313.246	100.38
313.476	83.38
313.706	81.38
313.935	75.38
314.165	79.38
314.394	82.38
314.624	81.38
314.853	87.38
315.083	84.38
315.312	78.38
315.542	88.38
315.771	100.38
316.001	98.38
316.23	95.38
316.46	89.38
316.689	97.38
316.919	82.38
317.148	85.38
317.377	99.38
317.607	90.38
317.836	86.38
318.065	98.38
318.295	91.38
318.524	74.38
318.753	87.38
318.983	82.38
319.212	79.38
319.441	78.38
319.67	75.38
319.9	91.38
320.129	82.38
320.358	90.38
320.587	77.38
320.816	96.38
321.046	88.38
321.275	89.38
321.504	86.38
321.733	77.38
321.962	91.38
322.191	96.38
322.42	85.38
322.649	88.38
322.878	84.38
323.108	86.38
323.337	84.38
323.566	85.38
323.795	87.38
324.024	94.38
324.253	90.38
324.482	88.38
324.71	89.38
324.939	101.38
325.168	88.38
325.397	91.38
325.626	78.38
325.855	95.38
326.084	86.38
326.313	91.38
326.542	93.38
326.77	103.38
326.999	88.38
327.228	83.38
327.457	85.38
327.686	88.38
327.914	80.38
328.143	86.38
328.372	85.38
328.6	75.38
328.829	90.38
329.058	79.38
329.287	84.38
329.515	84.38
329.744	92.38
329.972	85.38
330.201	93.38
330.43	89.38
330.658	78.38
330.887	76.38
331.115	84.38
331.344	83.38
331.572	91.38
331.801	81.38
332.03	89.38
332.258	87.38
332.486	81.38
332.715	90.38
332.943	83.38
333.172	98.38
333.4	86.38
333.629	82.38
333.857	86.38
334.085	89.38
334.314	77.38
334.542	89.38
334.771	85.38
334.999	93.38
335.227	85.38
335.455	95.38
335.684	88.38
335.912	88.38
336.14	85.38
336.369	90.38
336.597	92.38
336.825	87.38
337.053	99.38
337.281	86.38
337.51	91.38
337.738	88.38
337.966	87.38
338.194	80.38
338.422	71.38
338.65	80.38
338.878	83.38
339.106	85.38
339.334	97.38
339.562	99.38
339.79	86.38
340.018	79.38
340.246	74.38
340.474	87.38
340.702	87.38
340.93	92.38
341.158	96.38
341.386	69.38
341.614	75.38
341.842	85.38
342.07	66.38
342.298	86.38
342.526	78.38
342.754	88.38
342.981	94.38
343.209	88.38
343.437	93.38
343.665	94.38
343.893	93.38
344.12	106.38
344.348	100.38
344.576	84.38
344.804	88.38
345.031	83.38
345.259	92.38
345.487	77.38
345.714	85.38
345.942	74.38
346.17	81.38
346.397	88.38
346.625	77.38
346.853	95.38
347.08	82.38
347.308	91.38
347.535	89.38
347.763	92.38
347.99	91.38
348.218	90.38
348.445	78.38
348.673	84.38
348.9	74.38
349.128	97.38
349.355	84.38
349.583	80.38
349.81	78.38
350.037	98.38
350.265	94.38
350.492	87.38
350.72	85.38
350.947	94.38
351.174	90.38
351.402	91.38
351.629	86.38
351.856	86.38
352.083	82.38
352.311	80.38
352.538	77.38
352.765	97.38
352.992	88.38
353.22	82.38
353.447	84.38
353.674	82.38
353.901	99.38
354.128	74.38
354.355	79.38
354.583	75.38
354.81	92.38
355.037	92.38
355.264	88.38
355.491	81.38
355.718	74.38
355.945	96.38
356.172	85.38
356.399	91.38
356.626	79.38
356.853	91.38
357.08	83.38
357.307	97.38
357.534	75.38
357.761	93.38
357.988	90.38
358.215	78.38
358.441	93.38
358.668	91.38
358.895	94.38
359.122	88.38
359.349	88.38
359.576	78.38
359.802	95.38
360.029	96.38
360.256	92.38
360.483	98.38
360.709	89.38
360.936	112.38
361.163	89.38
361.39	83.38
361.616	86.38
361.843	85.38
362.07	100.38
362.296	97.38
362.523	89.38
362.749	90.38
362.976	93.38
363.203	115.38
363.429	112.38
363.656	89.38
363.882	98.38
364.109	93.38
364.335	105.38
364.562	101.38
364.788	98.38
365.015	94.38
365.241	82.38
365.468	88.38
365.694	93.38
365.92	84.38
366.147	71.38
366.373	95.38
366.599	79.38
366.826	82.38
367.052	76.38
367.278	84.38
367.505	88.38
367.731	101.38
367.957	94.38
368.184	82.38
368.41	86.38
368.636	73.38
368.862	82.38
369.089	71.38
369.315	74.38
369.541	94.38
369.767	87.38
369.993	73.38
370.219	99.38
370.445	96.38
370.672	97.38
370.898	82.38
371.124	85.38
371.35	79.38
371.576	90.38
371.802	90.38
372.028	69.38
372.254	90.38
372.48	84.38
372.706	80.38
372.932	93.38
373.158	85.38
373.384	97.38
373.61	102.38
373.835	100.38
374.061	93.38
374.287	94.38
374.513	83.38
374.739	83.38
374.965	92.38
375.191	86.38
375.416	92.38
375.642	91.38
375.868	89.38
376.094	82.38
376.319	93.38
376.545	88.38
376.771	74.38
376.997	97.38
377.222	68.38
377.448	94.38
377.674	94.38
377.899	81.38
378.125	84.38
378.35	72.38
378.576	76.38
378.802	100.38
379.027	81.38
379.253	76.38
379.478	91.38
379.704	96.38
379.929	80.38
380.155	78.38
380.38	84.38
380.606	82.38
380.831	96.38
381.057	87.38
381.282	84.38
381.507	94.38
381.733	85.38
381.958	77.38
382.184	88.38
382.409	77.38
382.634	85.38
382.86	95.38
383.085	92.38
383.31	95.38
383.535	89.38
383.761	94.38
383.986	95.38
384.211	83.38
384.436	82.38
384.662	86.38
384.887	89.38
385.112	85.38
385.337	77.38
385.562	90.38
385.787	90.38
386.013	78.38
386.238	87.38
386.463	86.38
386.688	90.38
386.913	96.38
387.138	91.38
387.363	78.38
387.588	98.38
387.813	94.38
388.038	104.38
388.263	100.38
388.488	76.38
388.713	77.38
388.938	85.38
389.163	85.38
389.387	78.38
389.612	103.38
389.837	90.38
390.062	93.38
390.287	76.38
390.512	81.38
390.736	78.38
390.961	79.38
391.186	93.38
391.411	88.38
391.636	92.38
391.86	91.38
392.085	94.38
392.31	86.38
392.534	101.38
392.759	99.38
392.984	134.38
393.208	231.38
393.433	304.38
393.658	246.38
393.882	109.38
394.107	96.38
394.331	113.38
394.556	108.38
394.78	105.38
395.005	89.38
395.229	90.38
395.454	92.38
395.678	112.38
395.903	101.38
396.127	123.38
396.352	125.38
396.576	152.38
396.801	245.38
397.025	270.38
397.249	162.38
397.474	115.38
397.698	91.38
397.922	91.38
398.147	82.38
398.371	80.38
398.595	78.38
398.82	74.38
399.044	92.38
399.268	89.38
399.492	91.38
399.717	91.38
399.941	77.38
400.165	94.38
400.389	86.38
400.613	85.38
400.837	90.38
401.062	89.38
401.286	82.38
401.51	83.38
401.734	96.38
401.958	88.38
402.182	79.38
402.406	85.38
402.63	85.38
402.854	94.38
403.078	96.38
403.302	92.38
403.526	97.38
403.75	96.38
403.974	89.38
404.198	112.38
404.422	114.38
404.645	135.38
404.869	112.38
405.093	92.38
405.317	87.38
405.541	84.38
405.765	85.38
405.988	75.38
406.212	97.38
406.436	84.38
406.66	93.38
406.883	82.38
407.107	82.38
407.331	89.38
407.555	100.38
407.778	106.38
408.002	92.38
408.226	84.38
408.449	81.38
408.673	90.38
408.896	89.38
409.12	84.38
409.344	80.38
409.567	88.38
409.791	97.38
410.014	100.38
410.238	104.38
410.461	91.38
410.685	97.38
410.908	95.38
411.132	84.38
411.355	94.38
411.578	84.38
411.802	88.38
412.025	79.38
412.249	86.38
412.472	83.38
412.695	92.38
412.919	78.38
413.142	88.38
413.365	82.38
413.589	88.38
413.812	82.38
414.035	83.38
414.258	85.38
414.482	83.38
414.705	87.38
414.928	79.38
415.151	88.38
415.374	97.38
415.597	94.38
415.821	88.38
416.044	82.38
416.267	88.38
416.49	84.38
416.713	90.38
416.936	89.38
417.159	67.38
417.382	84.38
417.605	107.38
417.828	73.38
418.051	94.38
418.274	87.38
418.497	81.38
418.72	79.38
418.943	92.38
419.166	88.38
419.389	88.38
419.611	90.38
419.834	82.38
420.057	84.38
420.28	98.38
420.503	85.38
420.726	94.38
420.948	91.38
421.171	93.38
421.394	103.38
421.617	116.38
421.839	108.38
422.062	121.38
422.285	151.38
422.507	285.38
422.73	406.38
422.953	388.38
423.175	195.38
423.398	137.38
423.621	102.38
423.843	104.38
424.066	101.38
424.288	91.38
424.511	97.38
424.733	88.38
424.956	87.38
425.178	88.38
425.401	85.38
425.623	89.38
425.846	83.38
426.068	92.38
426.291	84.38
426.513	83.38
426.735	100.38
426.958	92.38
427.18	81.38
427.402	97.38
427.625	84.38
427.847	101.38
428.069	93.38
428.292	131.38
428.514	150.38
428.736	124.38
428.958	129.38
429.181	136.38
429.403	91.38
429.625	104.38
429.847	107.38
430.069	152.38
430.292	187.38
430.514	167.38
430.736	139.38
430.958	125.38
431.18	108.38
431.402	98.38
431.624	89.38
431.846	119.38
432.068	129.38
432.29	105.38
432.512	80.38
432.734	86.38
432.956	78.38
433.178	90.38
433.4	84.38
433.622	93.38
433.844	82.38
434.066	74.38
434.287	86.38
434.509	77.38
434.731	72.38
434.953	75.38
435.175	81.38
435.397	86.38
435.618	88.38
435.84	86.38
436.062	90.38
436.284	78.38
436.505	77.38
436.727	85.38
436.949	74.38
437.17	92.38
437.392	76.38
437.614	94.38
437.835	91.38
438.057	86.38
438.278	89.38
438.5	85.38
438.721	92.38
438.943	86.38
439.165	77.38
439.386	92.38
439.608	90.38
439.829	88.38
440.05	88.38
440.272	80.38
440.493	87.38
440.715	86.38
440.936	88.38
441.158	84.38
441.379	94.38
441.6	97.38
441.822	92.38
442.043	104.38
442.264	98.38
442.486	146.38
442.707	165.38
442.928	107.38
443.149	108.38
443.371	163.38
443.592	254.38
443.813	196.38
444.034	120.38
444.255	87.38
444.476	101.38
444.698	87.38
444.919	87.38
445.14	199.38
445.361	221.38
445.582	278.38
445.803	245.38
446.024	121.38
446.245	94.38
446.466	84.38
446.687	73.38
446.908	91.38
447.129	102.38
447.35	79.38
447.571	89.38
447.792	88.38
448.013	77.38
448.234	82.38
448.455	81.38
448.675	94.38
448.896	90.38
449.117	90.38
449.338	97.38
449.559	84.38
449.779	85.38
450	76.38
450.221	79.38
450.442	81.38
450.662	91.38
450.883	75.38
451.104	96.38
451.324	85.38
451.545	73.38
451.766	93.38
451.986	86.38
452.207	86.38
452.428	89.38
452.648	83.38
452.869	101.38
453.089	76.38
453.31	72.38
453.53	88.38
453.751	90.38
453.971	99.38
454.192	77.38
454.412	86.38
454.633	90.38
454.853	75.38
455.073	76.38
455.294	77.38
455.514	84.38
455.734	77.38
455.955	83.38
456.175	67.38
456.395	82.38
456.616	88.38
456.836	76.38
457.056	97.38
457.276	84.38
457.497	88.38
457.717	100.38
457.937	110.38
458.157	114.38
458.377	102.38
458.598	100.38
458.818	109.38
459.038	82.38
459.258	89.38
459.478	84.38
459.698	86.38
459.918	80.38
460.138	82.38
460.358	88.38
460.578	90.38
460.798	133.38
461.018	123.38
461.238	86.38
461.458	84.38
461.678	89.38
461.898	98.38
462.118	77.38
462.338	73.38
462.558	97.38
462.777	76.38
462.997	84.38
463.217	88.38
463.437	88.38
463.657	93.38
463.876	96.38
464.096	70.38
464.316	84.38
464.536	90.38
464.755	88.38
464.975	87.38
465.195	74.38
465.414	84.38
465.634	75.38
465.854	79.38
466.073	88.38
466.293	82.38
466.512	78.38
466.732	77.38
466.951	82.38
467.171	91.38
467.391	96.38
467.61	92.38
467.829	74.38
468.049	84.38
468.268	87.38
468.488	82.38
468.707	75.38
468.927	92.38
469.146	68.38
469.365	85.38
469.585	69.38
469.804	76.38
470.023	90.38
470.243	92.38
470.462	79.38
470.681	97.38
470.901	97.38
471.12	67.38
471.339	92.38
471.558	92.38
471.777	103.38
471.997	93.38
472.216	73.38
472.435	62.38
472.654	80.38
472.873	94.38
473.092	78.38
473.311	97.38
473.53	91.38
473.749	80.38
473.968	90.38
474.187	84.38
474.406	73.38
474.625	89.38
474.844	88.38
475.063	96.38
475.282	88.38
475.501	91.38
475.72	94.38
475.939	83.38
476.158	98.38
476.377	82.38
476.596	89.38
476.814	84.38
477.033	86.38
477.252	96.38
477.471	67.38
477.69	87.38
477.908	89.38
478.127	83.38
478.346	87.38
478.564	84.38
478.783	88.38
479.002	89.38
479.22	76.38
479.439	82.38
479.658	74.38
479.876	88.38
480.095	79.38
480.313	85.38
480.532	79.38
480.751	89.38
480.969	87.38
481.188	87.38
481.406	94.38
481.624	87.38
481.843	89.38
482.061	89.38
482.28	91.38
482.498	80.38
482.717	76.38
482.935	72.38
483.153	82.38
483.372	86.38
483.59	83.38
483.808	83.38
484.027	73.38
484.245	85.38
484.463	85.38
484.681	84.38
484.9	84.38
485.118	85.38
485.336	78.38
485.554	79.38
485.772	86.38
485.99	97.38
486.209	93.38
486.427	65.38
486.645	69.38
486.863	81.38
487.081	79.38
487.299	72.38
487.517	83.38
487.735	101.38
487.953	152.38
488.171	140.38
488.389	100.38
488.607	94.38
488.825	79.38
489.043	108.38
489.261	100.38
489.479	103.38
489.696	81.38
489.914	82.38
490.132	97.38
490.35	82.38
490.568	93.38
490.786	88.38
491.003	87.38
491.221	75.38
491.439	93.38
491.657	74.38
491.874	84.38
492.092	85.38
492.31	88.38
492.527	74.38
492.745	85.38
492.963	99.38
493.18	108.38
493.398	59.38
493.615	91.38
493.833	84.38
494.05	81.38
494.268	87.38
494.485	92.38
494.703	70.38
494.92	82.38
495.138	72.38
495.355	74.38
495.573	88.38
495.79	89.38
496.008	90.38
496.225	80.38
496.442	100.38
496.66	93.38
496.877	88.38
497.094	95.38
497.312	86.38
497.529	88.38
497.746	94.38
497.963	78.38
498.181	82.38
498.398	76.38
498.615	84.38
498.832	88.38
499.049	91.38
499.267	97.38
499.484	84.38
499.701	93.38
499.918	93.38
500.135	86.38
500.352	99.38
500.569	92.38
500.786	90.38
501.003	103.38
501.22	110.38
501.437	107.38
501.654	93.38
501.871	84.38
502.088	89.38
502.305	85.38
502.522	104.38
502.739	85.38
502.956	88.38
503.172	91.38
503.389	79.38
503.606	91.38
503.823	99.38
504.04	97.38
504.256	126.38
504.473	124.38
504.69	97.38
504.907	80.38
505.123	84.38
505.34	98.38
505.557	84.38
505.773	94.38
505.99	89.38
506.207	79.38
506.423	97.38
506.64	65.38
506.856	81.38
507.073	94.38
507.289	89.38
507.506	99.38
507.722	96.38
507.939	94.38
508.155	91.38
508.372	90.38
508.588	99.38
508.805	79.38
509.021	85.38
509.238	89.38
509.454	92.38
509.67	82.38
509.887	92.38
510.103	85.38
510.319	93.38
510.536	101.38
510.752	78.38
510.968	78.38
511.184	89.38
511.401	85.38
511.617	97.38
511.833	87.38
512.049	85.38
512.265	99.38
512.481	89.38
512.698	91.38
512.914	82.38
513.13	100.38
513.346	79.38
513.562	77.38
513.778	89.38
513.994	92.38
514.21	88.38
514.426	96.38
514.642	96.38
514.858	70.38
515.074	78.38
515.29	85.38
515.506	79.38
515.721	91.38
515.937	87.38
516.153	87.38
516.369	90.38
516.585	74.38
516.801	79.38
517.016	103.38
517.232	88.38
517.448	87.38
517.664	88.38
517.879	83.38
518.095	88.38
518.311	92.38
518.527	102.38
