Data from 2145_1_HRD10591_00004.txt Node
Date: Mon Jan 19 14:21:11 EST 2026
User: Yrep
Spectrometer: HR+D1059
Trigger mode: 1
Integration Time (sec): 1.000000E-1
Scans to average: 1
Electric dark correction enabled: true
Nonlinearity correction enabled: false
Boxcar width: 0
XAxis mode: Wavelengths
Number of Pixels in Spectrum: 2048
>>>>>Begin Spectral Data<<<<<
223.165	-22.06
223.4	-22.06
223.635	-22.06
223.869	-23.06
224.104	-16.06
224.338	-17.06
224.573	-26.06
224.808	-12.06
225.042	-16.06
225.277	-4.06
225.511	0.94
225.746	4.94
225.98	17.94
226.215	17.94
226.449	-3.06
226.683	32.94
226.918	36.94
227.152	27.94
227.387	31.94
227.621	20.94
227.856	35.94
228.09	44.94
228.324	45.94
228.559	56.94
228.793	61.94
229.027	51.94
229.262	70.94
229.496	56.94
229.73	60.94
229.964	60.94
230.199	75.94
230.433	83.94
230.667	85.94
230.901	80.94
231.136	76.94
231.37	80.94
231.604	91.94
231.838	75.94
232.072	82.94
232.306	91.94
232.541	82.94
232.775	86.94
233.009	80.94
233.243	76.94
233.477	76.94
233.711	73.94
233.945	80.94
234.179	72.94
234.413	85.94
234.647	89.94
234.881	81.94
235.115	84.94
235.349	76.94
235.583	83.94
235.817	85.94
236.051	81.94
236.285	77.94
236.519	93.94
236.753	73.94
236.987	60.94
237.221	83.94
237.455	76.94
237.689	79.94
237.922	76.94
238.156	80.94
238.39	76.94
238.624	75.94
238.858	83.94
239.091	71.94
239.325	85.94
239.559	77.94
239.793	85.94
240.027	84.94
240.26	71.94
240.494	81.94
240.728	84.94
240.961	84.94
241.195	81.94
241.429	85.94
241.662	69.94
241.896	72.94
242.13	71.94
242.363	76.94
242.597	70.94
242.83	77.94
243.064	82.94
243.298	81.94
243.531	88.94
243.765	86.94
243.998	77.94
244.232	80.94
244.465	68.94
244.699	63.94
244.932	85.94
245.166	78.94
245.399	73.94
245.633	79.94
245.866	69.94
246.099	84.94
246.333	83.94
246.566	68.94
246.8	78.94
247.033	76.94
247.266	77.94
247.5	71.94
247.733	67.94
247.966	73.94
248.2	77.94
248.433	80.94
248.666	85.94
248.899	76.94
249.133	79.94
249.366	72.94
249.599	78.94
249.832	74.94
250.066	67.94
250.299	82.94
250.532	73.94
250.765	88.94
250.998	71.94
251.231	95.94
251.465	82.94
251.698	76.94
251.931	96.94
252.164	67.94
252.397	74.94
252.63	93.94
252.863	98.94
253.096	88.94
253.329	85.94
253.562	70.94
253.795	78.94
254.028	70.94
254.261	80.94
254.494	71.94
254.727	75.94
254.96	73.94
255.193	69.94
255.426	71.94
255.659	76.94
255.892	75.94
256.124	85.94
256.357	75.94
256.59	91.94
256.823	81.94
257.056	77.94
257.289	75.94
257.521	80.94
257.754	80.94
257.987	86.94
258.22	88.94
258.452	75.94
258.685	75.94
258.918	76.94
259.151	81.94
259.383	83.94
259.616	77.94
259.849	95.94
260.081	87.94
260.314	93.94
260.547	73.94
260.779	76.94
261.012	70.94
261.244	71.94
261.477	76.94
261.71	84.94
261.942	81.94
262.175	76.94
262.407	91.94
262.64	74.94
262.872	83.94
263.105	90.94
263.337	89.94
263.57	72.94
263.802	76.94
264.035	88.94
264.267	71.94
264.499	83.94
264.732	87.94
264.964	79.94
265.197	70.94
265.429	80.94
265.661	84.94
265.894	91.94
266.126	87.94
266.358	80.94
266.591	68.94
266.823	71.94
267.055	67.94
267.287	95.94
267.52	88.94
267.752	79.94
267.984	66.94
268.216	77.94
268.448	83.94
268.681	90.94
268.913	80.94
269.145	75.94
269.377	76.94
269.609	85.94
269.841	83.94
270.073	81.94
270.306	99.94
270.538	83.94
270.77	70.94
271.002	82.94
271.234	82.94
271.466	93.94
271.698	88.94
271.93	84.94
272.162	89.94
272.394	81.94
272.626	81.94
272.858	84.94
273.09	81.94
273.322	97.94
273.553	78.94
273.785	70.94
274.017	83.94
274.249	79.94
274.481	74.94
274.713	81.94
274.945	73.94
275.176	92.94
275.408	96.94
275.64	81.94
275.872	83.94
276.104	87.94
276.335	76.94
276.567	72.94
276.799	65.94
277.031	76.94
277.262	83.94
277.494	83.94
277.726	91.94
277.957	91.94
278.189	79.94
278.421	84.94
278.652	78.94
278.884	94.94
279.115	83.94
279.347	93.94
279.579	91.94
279.81	76.94
280.042	80.94
280.273	81.94
280.505	88.94
280.736	74.94
280.968	85.94
281.199	81.94
281.431	85.94
281.662	80.94
281.894	81.94
282.125	89.94
282.356	86.94
282.588	82.94
282.819	79.94
283.051	75.94
283.282	75.94
283.513	83.94
283.745	87.94
283.976	88.94
284.207	90.94
284.439	75.94
284.67	93.94
284.901	100.94
285.132	92.94
285.364	106.94
285.595	84.94
285.826	93.94
286.057	95.94
286.288	83.94
286.52	72.94
286.751	72.94
286.982	77.94
287.213	91.94
287.444	76.94
287.675	80.94
287.906	82.94
288.138	99.94
288.369	103.94
288.6	107.94
288.831	82.94
289.062	85.94
289.293	92.94
289.524	81.94
289.755	70.94
289.986	92.94
290.217	66.94
290.448	74.94
290.679	84.94
290.91	75.94
291.141	83.94
291.371	87.94
291.602	93.94
291.833	84.94
292.064	81.94
292.295	96.94
292.526	78.94
292.757	83.94
292.987	78.94
293.218	69.94
293.449	96.94
293.68	77.94
293.91	91.94
294.141	83.94
294.372	74.94
294.603	73.94
294.833	91.94
295.064	78.94
295.295	90.94
295.525	75.94
295.756	87.94
295.987	87.94
296.217	86.94
296.448	86.94
296.679	93.94
296.909	95.94
297.14	89.94
297.37	96.94
297.601	91.94
297.831	80.94
298.062	93.94
298.292	94.94
298.523	85.94
298.753	88.94
298.984	81.94
299.214	88.94
299.445	97.94
299.675	102.94
299.905	98.94
300.136	99.94
300.366	103.94
300.597	94.94
300.827	97.94
301.057	95.94
301.288	93.94
301.518	106.94
301.748	97.94
301.979	103.94
302.209	82.94
302.439	84.94
302.669	81.94
302.9	83.94
303.13	78.94
303.36	76.94
303.59	93.94
303.82	73.94
304.051	85.94
304.281	92.94
304.511	101.94
304.741	71.94
304.971	108.94
305.201	101.94
305.431	81.94
305.661	84.94
305.891	95.94
306.121	86.94
306.352	90.94
306.582	83.94
306.812	96.94
307.042	86.94
307.272	81.94
307.502	107.94
307.731	86.94
307.961	98.94
308.191	126.94
308.421	118.94
308.651	105.94
308.881	116.94
309.111	113.94
309.341	108.94
309.571	122.94
309.8	106.94
310.03	92.94
310.26	85.94
310.49	81.94
310.72	79.94
310.949	90.94
311.179	78.94
311.409	85.94
311.639	94.94
311.868	100.94
312.098	88.94
312.328	82.94
312.557	85.94
312.787	78.94
313.017	85.94
313.246	82.94
313.476	91.94
313.706	99.94
313.935	93.94
314.165	84.94
314.394	100.94
314.624	88.94
314.853	93.94
315.083	78.94
315.312	92.94
315.542	84.94
315.771	98.94
316.001	103.94
316.23	101.94
316.46	97.94
316.689	83.94
316.919	80.94
317.148	91.94
317.377	100.94
317.607	99.94
317.836	98.94
318.065	125.94
318.295	107.94
318.524	101.94
318.753	108.94
318.983	100.94
319.212	79.94
319.441	87.94
319.67	88.94
319.9	87.94
320.129	85.94
320.358	94.94
320.587	91.94
320.816	96.94
321.046	85.94
321.275	101.94
321.504	89.94
321.733	98.94
321.962	94.94
322.191	92.94
322.42	96.94
322.649	101.94
322.878	96.94
323.108	87.94
323.337	83.94
323.566	98.94
323.795	98.94
324.024	87.94
324.253	94.94
324.482	95.94
324.71	71.94
324.939	122.94
325.168	92.94
325.397	86.94
325.626	91.94
325.855	87.94
326.084	88.94
326.313	93.94
326.542	76.94
326.77	91.94
326.999	85.94
327.228	87.94
327.457	100.94
327.686	101.94
327.914	81.94
328.143	100.94
328.372	86.94
328.6	87.94
328.829	95.94
329.058	84.94
329.287	73.94
329.515	85.94
329.744	104.94
329.972	87.94
330.201	100.94
330.43	93.94
330.658	71.94
330.887	98.94
331.115	84.94
331.344	86.94
331.572	93.94
331.801	86.94
332.03	85.94
332.258	95.94
332.486	92.94
332.715	79.94
332.943	81.94
333.172	77.94
333.4	89.94
333.629	83.94
333.857	92.94
334.085	108.94
334.314	112.94
334.542	108.94
334.771	113.94
334.999	120.94
335.227	119.94
335.455	105.94
335.684	106.94
335.912	118.94
336.14	127.94
336.369	114.94
336.597	107.94
336.825	95.94
337.053	114.94
337.281	90.94
337.51	89.94
337.738	82.94
337.966	81.94
338.194	83.94
338.422	95.94
338.65	108.94
338.878	75.94
339.106	81.94
339.334	99.94
339.562	83.94
339.79	103.94
340.018	85.94
340.246	97.94
340.474	88.94
340.702	98.94
340.93	96.94
341.158	86.94
341.386	76.94
341.614	90.94
341.842	81.94
342.07	98.94
342.298	90.94
342.526	73.94
342.754	91.94
342.981	89.94
343.209	83.94
343.437	100.94
343.665	95.94
343.893	101.94
344.12	120.94
344.348	101.94
344.576	102.94
344.804	102.94
345.031	91.94
345.259	102.94
345.487	86.94
345.714	102.94
345.942	81.94
346.17	92.94
346.397	102.94
346.625	88.94
346.853	88.94
347.08	76.94
347.308	95.94
347.535	89.94
347.763	107.94
347.99	88.94
348.218	100.94
348.445	94.94
348.673	99.94
348.9	108.94
349.128	103.94
349.355	104.94
349.583	80.94
349.81	97.94
350.037	103.94
350.265	82.94
350.492	83.94
350.72	87.94
350.947	85.94
351.174	91.94
351.402	82.94
351.629	89.94
351.856	89.94
352.083	107.94
352.311	103.94
352.538	94.94
352.765	87.94
352.992	83.94
353.22	86.94
353.447	86.94
353.674	104.94
353.901	81.94
354.128	90.94
354.355	90.94
354.583	92.94
354.81	90.94
355.037	96.94
355.264	107.94
355.491	101.94
355.718	91.94
355.945	95.94
356.172	97.94
356.399	93.94
356.626	98.94
356.853	99.94
357.08	107.94
357.307	104.94
357.534	95.94
357.761	97.94
357.988	111.94
358.215	121.94
358.441	113.94
358.668	86.94
358.895	94.94
359.122	93.94
359.349	100.94
359.576	103.94
359.802	112.94
360.029	92.94
360.256	92.94
360.483	88.94
360.709	98.94
360.936	112.94
361.163	96.94
361.39	104.94
361.616	106.94
361.843	116.94
362.07	143.94
362.296	136.94
362.523	148.94
362.749	171.94
362.976	197.94
363.203	229.94
363.429	144.94
363.656	125.94
363.882	131.94
364.109	185.94
364.335	258.94
364.562	258.94
364.788	194.94
365.015	146.94
365.241	127.94
365.468	114.94
365.694	99.94
365.92	95.94
366.147	92.94
366.373	98.94
366.599	90.94
366.826	104.94
367.052	94.94
367.278	98.94
367.505	96.94
367.731	109.94
367.957	103.94
368.184	95.94
368.41	100.94
368.636	98.94
368.862	97.94
369.089	87.94
369.315	95.94
369.541	92.94
369.767	93.94
369.993	92.94
370.219	89.94
370.445	120.94
370.672	108.94
370.898	111.94
371.124	87.94
371.35	90.94
371.576	111.94
371.802	99.94
372.028	127.94
372.254	112.94
372.48	94.94
372.706	98.94
372.932	105.94
373.158	108.94
373.384	116.94
373.61	152.94
373.835	146.94
374.061	120.94
374.287	116.94
374.513	122.94
374.739	124.94
374.965	133.94
375.191	130.94
375.416	104.94
375.642	99.94
375.868	126.94
376.094	103.94
376.319	106.94
376.545	94.94
376.771	91.94
376.997	104.94
377.222	104.94
377.448	106.94
377.674	91.94
377.899	95.94
378.125	92.94
378.35	87.94
378.576	99.94
378.802	106.94
379.027	101.94
379.253	96.94
379.478	100.94
379.704	96.94
379.929	103.94
380.155	96.94
380.38	107.94
380.606	107.94
380.831	104.94
381.057	95.94
381.282	114.94
381.507	108.94
381.733	116.94
381.958	113.94
382.184	115.94
382.409	132.94
382.634	118.94
382.86	129.94
383.085	113.94
383.31	135.94
383.535	119.94
383.761	132.94
383.986	139.94
384.211	121.94
384.436	123.94
384.662	111.94
384.887	122.94
385.112	108.94
385.337	106.94
385.562	117.94
385.787	124.94
386.013	145.94
386.238	123.94
386.463	108.94
386.688	133.94
386.913	106.94
387.138	103.94
387.363	125.94
387.588	118.94
387.813	117.94
388.038	119.94
388.263	118.94
388.488	141.94
388.713	117.94
388.938	120.94
389.163	103.94
389.387	111.94
389.612	105.94
389.837	108.94
390.062	111.94
390.287	100.94
390.512	108.94
390.736	104.94
390.961	97.94
391.186	108.94
391.411	114.94
391.636	126.94
391.86	109.94
392.085	131.94
392.31	138.94
392.534	154.94
392.759	213.94
392.984	305.94
393.208	540.94
393.433	765.94
393.658	558.94
393.882	254.94
394.107	191.94
394.331	204.94
394.556	224.94
394.78	167.94
395.005	141.94
395.229	132.94
395.454	135.94
395.678	178.94
395.903	209.94
396.127	266.94
396.352	313.94
396.576	330.94
396.801	527.94
397.025	615.94
397.249	339.94
397.474	223.94
397.698	167.94
397.922	126.94
398.147	115.94
398.371	115.94
398.595	110.94
398.82	109.94
399.044	107.94
399.268	111.94
399.492	89.94
399.717	112.94
399.941	106.94
400.165	96.94
400.389	99.94
400.613	109.94
400.837	92.94
401.062	81.94
401.286	109.94
401.51	103.94
401.734	100.94
401.958	90.94
402.182	98.94
402.406	104.94
402.63	106.94
402.854	98.94
403.078	104.94
403.302	109.94
403.526	104.94
403.75	93.94
403.974	107.94
404.198	135.94
404.422	193.94
404.645	217.94
404.869	176.94
405.093	136.94
405.317	95.94
405.541	93.94
405.765	106.94
405.988	101.94
406.212	105.94
406.436	113.94
406.66	115.94
406.883	97.94
407.107	107.94
407.331	91.94
407.555	118.94
407.778	165.94
408.002	155.94
408.226	112.94
408.449	106.94
408.673	95.94
408.896	78.94
409.12	117.94
409.344	136.94
409.567	148.94
409.791	165.94
410.014	155.94
410.238	129.94
410.461	119.94
410.685	127.94
410.908	106.94
411.132	107.94
411.355	111.94
411.578	93.94
411.802	106.94
412.025	118.94
412.249	96.94
412.472	107.94
412.695	101.94
412.919	104.94
413.142	93.94
413.365	92.94
413.589	106.94
413.812	99.94
414.035	106.94
414.258	90.94
414.482	87.94
414.705	105.94
414.928	116.94
415.151	100.94
415.374	104.94
415.597	97.94
415.821	86.94
416.044	97.94
416.267	88.94
416.49	91.94
416.713	91.94
416.936	96.94
417.159	103.94
417.382	115.94
417.605	100.94
417.828	95.94
418.051	99.94
418.274	96.94
418.497	99.94
418.72	101.94
418.943	115.94
419.166	100.94
419.389	106.94
419.611	111.94
419.834	105.94
420.057	107.94
420.28	118.94
420.503	120.94
420.726	123.94
420.948	132.94
421.171	143.94
421.394	160.94
421.617	226.94
421.839	255.94
422.062	287.94
422.285	446.94
422.507	689.94
422.73	925.94
422.953	843.94
423.175	566.94
423.398	322.94
423.621	236.94
423.843	183.94
424.066	161.94
424.288	149.94
424.511	136.94
424.733	133.94
424.956	108.94
425.178	118.94
425.401	116.94
425.623	106.94
425.846	112.94
426.068	91.94
426.291	94.94
426.513	111.94
426.735	98.94
426.958	100.94
427.18	106.94
427.402	107.94
427.625	118.94
427.847	104.94
428.069	146.94
428.292	251.94
428.514	273.94
428.736	194.94
428.958	260.94
429.181	252.94
429.403	146.94
429.625	156.94
429.847	233.94
430.069	381.94
430.292	429.94
430.514	407.94
430.736	277.94
430.958	284.94
431.18	145.94
431.402	124.94
431.624	133.94
431.846	225.94
432.068	265.94
432.29	151.94
432.512	111.94
432.734	101.94
432.956	109.94
433.178	99.94
433.4	102.94
433.622	90.94
433.844	103.94
434.066	88.94
434.287	79.94
434.509	89.94
434.731	96.94
434.953	89.94
435.175	85.94
435.397	120.94
435.618	114.94
435.84	119.94
436.062	120.94
436.284	105.94
436.505	107.94
436.727	95.94
436.949	106.94
437.17	92.94
437.392	94.94
437.614	91.94
437.835	89.94
438.057	112.94
438.278	93.94
438.5	108.94
438.721	111.94
438.943	108.94
439.165	100.94
439.386	103.94
439.608	101.94
439.829	106.94
440.05	109.94
440.272	102.94
440.493	94.94
440.715	109.94
440.936	115.94
441.158	95.94
441.379	92.94
441.6	111.94
441.822	113.94
442.043	122.94
442.264	160.94
442.486	283.94
442.707	440.94
442.928	267.94
443.149	215.94
443.371	348.94
443.592	658.94
443.813	549.94
444.034	208.94
444.255	133.94
444.476	123.94
444.698	132.94
444.919	157.94
445.14	316.94
445.361	465.94
445.582	804.94
445.803	690.94
446.024	255.94
446.245	143.94
446.466	129.94
446.687	100.94
446.908	91.94
447.129	109.94
447.35	108.94
447.571	101.94
447.792	86.94
448.013	90.94
448.234	105.94
448.455	84.94
448.675	89.94
448.896	85.94
449.117	97.94
449.338	92.94
449.559	108.94
449.779	92.94
450	86.94
450.221	95.94
450.442	87.94
450.662	87.94
450.883	84.94
451.104	99.94
451.324	96.94
451.545	89.94
451.766	91.94
451.986	97.94
452.207	101.94
452.428	107.94
452.648	135.94
452.869	147.94
453.089	145.94
453.31	106.94
453.53	117.94
453.751	121.94
453.971	97.94
454.192	101.94
454.412	82.94
454.633	91.94
454.853	96.94
455.073	101.94
455.294	100.94
455.514	102.94
455.734	99.94
455.955	97.94
456.175	99.94
456.395	84.94
456.616	96.94
456.836	84.94
457.056	92.94
457.276	105.94
457.497	99.94
457.717	119.94
457.937	193.94
458.157	267.94
458.377	298.94
458.598	279.94
458.818	283.94
459.038	172.94
459.258	101.94
459.478	102.94
459.698	105.94
459.918	99.94
460.138	107.94
460.358	103.94
460.578	128.94
460.798	205.94
461.018	197.94
461.238	105.94
461.458	95.94
461.678	99.94
461.898	95.94
462.118	103.94
462.338	100.94
462.558	89.94
462.777	87.94
462.997	80.94
463.217	99.94
463.437	90.94
463.657	91.94
463.876	98.94
464.096	94.94
464.316	80.94
464.536	73.94
464.755	93.94
464.975	91.94
465.195	95.94
465.414	99.94
465.634	77.94
465.854	88.94
466.073	87.94
466.293	97.94
466.512	96.94
466.732	79.94
466.951	102.94
467.171	80.94
467.391	102.94
467.61	101.94
467.829	99.94
468.049	91.94
468.268	106.94
468.488	111.94
468.707	108.94
468.927	91.94
469.146	91.94
469.365	96.94
469.585	92.94
469.804	89.94
470.023	87.94
470.243	92.94
470.462	92.94
470.681	91.94
470.901	87.94
471.12	84.94
471.339	102.94
471.558	87.94
471.777	81.94
471.997	98.94
472.216	93.94
472.435	97.94
472.654	98.94
472.873	107.94
473.092	90.94
473.311	101.94
473.53	106.94
473.749	98.94
473.968	87.94
474.187	97.94
474.406	104.94
474.625	85.94
474.844	97.94
475.063	101.94
475.282	101.94
475.501	106.94
475.72	126.94
475.939	98.94
476.158	98.94
476.377	92.94
476.596	96.94
476.814	113.94
477.033	86.94
477.252	91.94
477.471	91.94
477.69	102.94
477.908	89.94
478.127	88.94
478.346	84.94
478.564	88.94
478.783	85.94
479.002	98.94
479.22	81.94
479.439	87.94
479.658	100.94
479.876	101.94
480.095	104.94
480.313	97.94
480.532	105.94
480.751	92.94
480.969	96.94
481.188	107.94
481.406	125.94
481.624	98.94
481.843	98.94
482.061	100.94
482.28	103.94
482.498	84.94
482.717	95.94
482.935	98.94
483.153	104.94
483.372	113.94
483.59	105.94
483.808	94.94
484.027	105.94
484.245	111.94
484.463	121.94
484.681	127.94
484.9	106.94
485.118	102.94
485.336	107.94
485.554	100.94
485.772	107.94
485.99	89.94
486.209	85.94
486.427	107.94
486.645	101.94
486.863	107.94
487.081	123.94
487.299	137.94
487.517	152.94
487.735	220.94
487.953	443.94
488.171	382.94
488.389	147.94
488.607	128.94
488.825	101.94
489.043	107.94
489.261	125.94
489.479	101.94
489.696	96.94
489.914	100.94
490.132	88.94
490.35	68.94
490.568	90.94
490.786	104.94
491.003	105.94
491.221	97.94
491.439	129.94
491.657	101.94
491.874	105.94
492.092	110.94
492.31	108.94
492.527	91.94
492.745	94.94
492.963	94.94
493.18	104.94
493.398	111.94
493.615	106.94
493.833	103.94
494.05	85.94
494.268	89.94
494.485	89.94
494.703	88.94
494.92	94.94
495.138	91.94
495.355	96.94
495.573	82.94
495.79	106.94
496.008	110.94
496.225	100.94
496.442	111.94
496.66	101.94
496.877	127.94
497.094	103.94
497.312	96.94
497.529	111.94
497.746	114.94
497.963	108.94
498.181	107.94
498.398	136.94
498.615	106.94
498.832	108.94
499.049	106.94
499.267	123.94
499.484	98.94
499.701	104.94
499.918	100.94
500.135	95.94
500.352	114.94
500.569	91.94
500.786	110.94
501.003	116.94
501.22	107.94
501.437	115.94
501.654	124.94
501.871	93.94
502.088	118.94
502.305	95.94
502.522	97.94
502.739	120.94
502.956	113.94
503.172	112.94
503.389	96.94
503.606	113.94
503.823	132.94
504.04	170.94
504.256	283.94
504.473	303.94
504.69	150.94
504.907	111.94
505.123	102.94
505.34	111.94
505.557	108.94
505.773	104.94
505.99	97.94
506.207	105.94
506.423	87.94
506.64	106.94
506.856	105.94
507.073	95.94
507.289	92.94
507.506	97.94
507.722	92.94
507.939	89.94
508.155	101.94
508.372	63.94
508.588	101.94
508.805	85.94
509.021	96.94
509.238	88.94
509.454	104.94
509.67	95.94
509.887	108.94
510.103	95.94
510.319	106.94
510.536	92.94
510.752	95.94
510.968	95.94
511.184	91.94
511.401	108.94
511.617	90.94
511.833	98.94
512.049	98.94
512.265	93.94
512.481	107.94
512.698	93.94
