Data from 2145_1_HRD10591_00009.txt Node
Date: Mon Jan 19 14:21:13 EST 2026
User: Yrep
Spectrometer: HR+D1059
Trigger mode: 1
Integration Time (sec): 1.000000E-1
Scans to average: 1
Electric dark correction enabled: true
Nonlinearity correction enabled: false
Boxcar width: 0
XAxis mode: Wavelengths
Number of Pixels in Spectrum: 2048
>>>>>Begin Spectral Data<<<<<
223.165	-12.69
223.4	-12.69
223.635	-12.69
223.869	-16.69
224.104	-21.69
224.338	-28.69
224.573	-12.69
224.808	-12.69
225.042	6.31
225.277	1.31
225.511	2.31
225.746	-1.69
225.98	13.31
226.215	19.31
226.449	-0.69
226.683	5.31
226.918	26.31
227.152	33.31
227.387	35.31
227.621	32.31
227.856	39.31
228.09	56.31
228.324	65.31
228.559	53.31
228.793	57.31
229.027	62.31
229.262	72.31
229.496	77.31
229.73	80.31
229.964	76.31
230.199	64.31
230.433	63.31
230.667	73.31
230.901	74.31
231.136	72.31
231.37	93.31
231.604	67.31
231.838	85.31
232.072	67.31
232.306	75.31
232.541	77.31
232.775	85.31
233.009	86.31
233.243	78.31
233.477	80.31
233.711	73.31
233.945	77.31
234.179	82.31
234.413	85.31
234.647	89.31
234.881	80.31
235.115	88.31
235.349	92.31
235.583	78.31
235.817	80.31
236.051	85.31
236.285	65.31
236.519	73.31
236.753	71.31
236.987	63.31
237.221	73.31
237.455	64.31
237.689	81.31
237.922	91.31
238.156	87.31
238.39	78.31
238.624	72.31
238.858	87.31
239.091	70.31
239.325	82.31
239.559	84.31
239.793	83.31
240.027	65.31
240.26	82.31
240.494	63.31
240.728	66.31
240.961	71.31
241.195	81.31
241.429	71.31
241.662	75.31
241.896	76.31
242.13	75.31
242.363	66.31
242.597	72.31
242.83	77.31
243.064	98.31
243.298	77.31
243.531	71.31
243.765	66.31
243.998	83.31
244.232	83.31
244.465	78.31
244.699	70.31
244.932	78.31
245.166	90.31
245.399	81.31
245.633	71.31
245.866	101.31
246.099	73.31
246.333	73.31
246.566	89.31
246.8	73.31
247.033	84.31
247.266	83.31
247.5	73.31
247.733	78.31
247.966	77.31
248.2	67.31
248.433	95.31
248.666	84.31
248.899	75.31
249.133	78.31
249.366	72.31
249.599	71.31
249.832	77.31
250.066	87.31
250.299	80.31
250.532	77.31
250.765	69.31
250.998	80.31
251.231	85.31
251.465	72.31
251.698	72.31
251.931	71.31
252.164	68.31
252.397	69.31
252.63	85.31
252.863	73.31
253.096	83.31
253.329	80.31
253.562	83.31
253.795	83.31
254.028	81.31
254.261	90.31
254.494	71.31
254.727	98.31
254.96	77.31
255.193	93.31
255.426	99.31
255.659	72.31
255.892	84.31
256.124	71.31
256.357	83.31
256.59	90.31
256.823	71.31
257.056	74.31
257.289	70.31
257.521	74.31
257.754	87.31
257.987	72.31
258.22	94.31
258.452	81.31
258.685	80.31
258.918	99.31
259.151	77.31
259.383	84.31
259.616	70.31
259.849	85.31
260.081	81.31
260.314	74.31
260.547	69.31
260.779	100.31
261.012	84.31
261.244	88.31
261.477	97.31
261.71	80.31
261.942	79.31
262.175	74.31
262.407	79.31
262.64	76.31
262.872	72.31
263.105	79.31
263.337	81.31
263.57	67.31
263.802	86.31
264.035	91.31
264.267	81.31
264.499	92.31
264.732	85.31
264.964	89.31
265.197	70.31
265.429	75.31
265.661	92.31
265.894	84.31
266.126	90.31
266.358	68.31
266.591	81.31
266.823	85.31
267.055	80.31
267.287	77.31
267.52	87.31
267.752	84.31
267.984	95.31
268.216	72.31
268.448	82.31
268.681	84.31
268.913	96.31
269.145	85.31
269.377	84.31
269.609	89.31
269.841	79.31
270.073	95.31
270.306	83.31
270.538	72.31
270.77	76.31
271.002	73.31
271.234	85.31
271.466	93.31
271.698	83.31
271.93	96.31
272.162	73.31
272.394	82.31
272.626	85.31
272.858	73.31
273.09	83.31
273.322	72.31
273.553	89.31
273.785	95.31
274.017	89.31
274.249	87.31
274.481	92.31
274.713	78.31
274.945	88.31
275.176	73.31
275.408	85.31
275.64	84.31
275.872	87.31
276.104	82.31
276.335	80.31
276.567	83.31
276.799	90.31
277.031	83.31
277.262	81.31
277.494	73.31
277.726	95.31
277.957	88.31
278.189	88.31
278.421	93.31
278.652	70.31
278.884	81.31
279.115	77.31
279.347	81.31
279.579	88.31
279.81	73.31
280.042	80.31
280.273	88.31
280.505	73.31
280.736	82.31
280.968	76.31
281.199	85.31
281.431	85.31
281.662	84.31
281.894	89.31
282.125	88.31
282.356	76.31
282.588	80.31
282.819	87.31
283.051	77.31
283.282	83.31
283.513	96.31
283.745	92.31
283.976	84.31
284.207	86.31
284.439	74.31
284.67	87.31
284.901	69.31
285.132	75.31
285.364	81.31
285.595	73.31
285.826	81.31
286.057	82.31
286.288	86.31
286.52	87.31
286.751	82.31
286.982	82.31
287.213	85.31
287.444	75.31
287.675	70.31
287.906	85.31
288.138	88.31
288.369	82.31
288.6	75.31
288.831	81.31
289.062	73.31
289.293	89.31
289.524	84.31
289.755	77.31
289.986	84.31
290.217	100.31
290.448	84.31
290.679	81.31
290.91	85.31
291.141	89.31
291.371	77.31
291.602	101.31
291.833	85.31
292.064	85.31
292.295	84.31
292.526	80.31
292.757	77.31
292.987	87.31
293.218	77.31
293.449	91.31
293.68	91.31
293.91	89.31
294.141	88.31
294.372	94.31
294.603	88.31
294.833	95.31
295.064	79.31
295.295	82.31
295.525	79.31
295.756	80.31
295.987	91.31
296.217	81.31
296.448	86.31
296.679	75.31
296.909	81.31
297.14	88.31
297.37	85.31
297.601	77.31
297.831	84.31
298.062	82.31
298.292	76.31
298.523	81.31
298.753	81.31
298.984	80.31
299.214	93.31
299.445	91.31
299.675	98.31
299.905	86.31
300.136	84.31
300.366	95.31
300.597	91.31
300.827	91.31
301.057	82.31
301.288	86.31
301.518	87.31
301.748	91.31
301.979	99.31
302.209	88.31
302.439	81.31
302.669	87.31
302.9	76.31
303.13	85.31
303.36	97.31
303.59	86.31
303.82	79.31
304.051	85.31
304.281	78.31
304.511	86.31
304.741	85.31
304.971	79.31
305.201	78.31
305.431	82.31
305.661	79.31
305.891	94.31
306.121	87.31
306.352	81.31
306.582	83.31
306.812	77.31
307.042	90.31
307.272	89.31
307.502	72.31
307.731	82.31
307.961	83.31
308.191	93.31
308.421	96.31
308.651	104.31
308.881	84.31
309.111	78.31
309.341	89.31
309.571	90.31
309.8	82.31
310.03	78.31
310.26	91.31
310.49	65.31
310.72	93.31
310.949	86.31
311.179	73.31
311.409	91.31
311.639	81.31
311.868	85.31
312.098	102.31
312.328	87.31
312.557	84.31
312.787	93.31
313.017	91.31
313.246	73.31
313.476	72.31
313.706	96.31
313.935	83.31
314.165	89.31
314.394	82.31
314.624	89.31
314.853	88.31
315.083	90.31
315.312	85.31
315.542	97.31
315.771	93.31
316.001	78.31
316.23	102.31
316.46	86.31
316.689	81.31
316.919	80.31
317.148	89.31
317.377	85.31
317.607	82.31
317.836	79.31
318.065	76.31
318.295	81.31
318.524	73.31
318.753	85.31
318.983	91.31
319.212	84.31
319.441	88.31
319.67	92.31
319.9	92.31
320.129	80.31
320.358	97.31
320.587	90.31
320.816	90.31
321.046	75.31
321.275	78.31
321.504	89.31
321.733	89.31
321.962	87.31
322.191	97.31
322.42	89.31
322.649	92.31
322.878	87.31
323.108	83.31
323.337	80.31
323.566	72.31
323.795	83.31
324.024	83.31
324.253	87.31
324.482	85.31
324.71	78.31
324.939	75.31
325.168	83.31
325.397	98.31
325.626	87.31
325.855	85.31
326.084	80.31
326.313	86.31
326.542	89.31
326.77	69.31
326.999	85.31
327.228	89.31
327.457	78.31
327.686	79.31
327.914	87.31
328.143	84.31
328.372	83.31
328.6	93.31
328.829	95.31
329.058	85.31
329.287	102.31
329.515	59.31
329.744	94.31
329.972	88.31
330.201	97.31
330.43	90.31
330.658	92.31
330.887	90.31
331.115	83.31
331.344	88.31
331.572	88.31
331.801	80.31
332.03	80.31
332.258	91.31
332.486	86.31
332.715	100.31
332.943	87.31
333.172	77.31
333.4	90.31
333.629	78.31
333.857	91.31
334.085	95.31
334.314	94.31
334.542	83.31
334.771	79.31
334.999	78.31
335.227	89.31
335.455	85.31
335.684	90.31
335.912	91.31
336.14	99.31
336.369	107.31
336.597	85.31
336.825	91.31
337.053	79.31
337.281	85.31
337.51	91.31
337.738	77.31
337.966	83.31
338.194	87.31
338.422	86.31
338.65	96.31
338.878	90.31
339.106	75.31
339.334	87.31
339.562	84.31
339.79	98.31
340.018	84.31
340.246	86.31
340.474	82.31
340.702	80.31
340.93	69.31
341.158	80.31
341.386	87.31
341.614	79.31
341.842	73.31
342.07	87.31
342.298	80.31
342.526	88.31
342.754	82.31
342.981	92.31
343.209	77.31
343.437	89.31
343.665	68.31
343.893	88.31
344.12	81.31
344.348	83.31
344.576	92.31
344.804	76.31
345.031	77.31
345.259	85.31
345.487	95.31
345.714	76.31
345.942	98.31
346.17	92.31
346.397	74.31
346.625	97.31
346.853	87.31
347.08	74.31
347.308	79.31
347.535	83.31
347.763	73.31
347.99	90.31
348.218	91.31
348.445	89.31
348.673	89.31
348.9	89.31
349.128	101.31
349.355	83.31
349.583	75.31
349.81	91.31
350.037	84.31
350.265	89.31
350.492	80.31
350.72	91.31
350.947	82.31
351.174	86.31
351.402	82.31
351.629	79.31
351.856	75.31
352.083	81.31
352.311	84.31
352.538	81.31
352.765	85.31
352.992	96.31
353.22	83.31
353.447	81.31
353.674	84.31
353.901	74.31
354.128	99.31
354.355	85.31
354.583	76.31
354.81	84.31
355.037	91.31
355.264	75.31
355.491	87.31
355.718	98.31
355.945	97.31
356.172	93.31
356.399	74.31
356.626	75.31
356.853	87.31
357.08	91.31
357.307	78.31
357.534	85.31
357.761	96.31
357.988	90.31
358.215	88.31
358.441	89.31
358.668	72.31
358.895	90.31
359.122	76.31
359.349	77.31
359.576	91.31
359.802	92.31
360.029	75.31
360.256	97.31
360.483	92.31
360.709	83.31
360.936	99.31
361.163	76.31
361.39	71.31
361.616	84.31
361.843	95.31
362.07	97.31
362.296	93.31
362.523	90.31
362.749	87.31
362.976	100.31
363.203	94.31
363.429	91.31
363.656	96.31
363.882	103.31
364.109	90.31
364.335	117.31
364.562	100.31
364.788	86.31
365.015	78.31
365.241	74.31
365.468	75.31
365.694	73.31
365.92	83.31
366.147	81.31
366.373	69.31
366.599	82.31
366.826	75.31
367.052	76.31
367.278	82.31
367.505	67.31
367.731	87.31
367.957	87.31
368.184	95.31
368.41	71.31
368.636	81.31
368.862	88.31
369.089	96.31
369.315	86.31
369.541	95.31
369.767	82.31
369.993	77.31
370.219	83.31
370.445	99.31
370.672	97.31
370.898	81.31
371.124	82.31
371.35	79.31
371.576	70.31
371.802	101.31
372.028	92.31
372.254	93.31
372.48	92.31
372.706	92.31
372.932	71.31
373.158	84.31
373.384	100.31
373.61	91.31
373.835	94.31
374.061	91.31
374.287	82.31
374.513	86.31
374.739	82.31
374.965	92.31
375.191	84.31
375.416	92.31
375.642	81.31
375.868	87.31
376.094	83.31
376.319	85.31
376.545	83.31
376.771	78.31
376.997	72.31
377.222	85.31
377.448	83.31
377.674	87.31
377.899	88.31
378.125	86.31
378.35	92.31
378.576	83.31
378.802	91.31
379.027	76.31
379.253	86.31
379.478	83.31
379.704	81.31
379.929	70.31
380.155	92.31
380.38	107.31
380.606	97.31
380.831	75.31
381.057	86.31
381.282	92.31
381.507	76.31
381.733	83.31
381.958	81.31
382.184	91.31
382.409	79.31
382.634	86.31
382.86	81.31
383.085	86.31
383.31	100.31
383.535	97.31
383.761	80.31
383.986	81.31
384.211	91.31
384.436	85.31
384.662	82.31
384.887	80.31
385.112	83.31
385.337	80.31
385.562	80.31
385.787	76.31
386.013	103.31
386.238	90.31
386.463	70.31
386.688	99.31
386.913	86.31
387.138	80.31
387.363	95.31
387.588	84.31
387.813	92.31
388.038	86.31
388.263	93.31
388.488	78.31
388.713	86.31
388.938	72.31
389.163	88.31
389.387	86.31
389.612	80.31
389.837	78.31
390.062	101.31
390.287	78.31
390.512	97.31
390.736	90.31
390.961	81.31
391.186	83.31
391.411	90.31
391.636	65.31
391.86	81.31
392.085	89.31
392.31	85.31
392.534	85.31
392.759	96.31
392.984	108.31
393.208	161.31
393.433	187.31
393.658	150.31
393.882	103.31
394.107	104.31
394.331	107.31
394.556	106.31
394.78	99.31
395.005	98.31
395.229	88.31
395.454	80.31
395.678	97.31
395.903	103.31
396.127	104.31
396.352	114.31
396.576	133.31
396.801	151.31
397.025	168.31
397.249	117.31
397.474	113.31
397.698	91.31
397.922	93.31
398.147	83.31
398.371	77.31
398.595	96.31
398.82	87.31
399.044	74.31
399.268	91.31
399.492	86.31
399.717	88.31
399.941	81.31
400.165	86.31
400.389	88.31
400.613	95.31
400.837	97.31
401.062	96.31
401.286	65.31
401.51	81.31
401.734	95.31
401.958	93.31
402.182	83.31
402.406	83.31
402.63	89.31
402.854	85.31
403.078	89.31
403.302	94.31
403.526	86.31
403.75	92.31
403.974	91.31
404.198	81.31
404.422	97.31
404.645	101.31
404.869	95.31
405.093	87.31
405.317	81.31
405.541	80.31
405.765	80.31
405.988	95.31
406.212	82.31
406.436	74.31
406.66	83.31
406.883	101.31
407.107	81.31
407.331	86.31
407.555	82.31
407.778	98.31
408.002	78.31
408.226	92.31
408.449	83.31
408.673	68.31
408.896	81.31
409.12	77.31
409.344	78.31
409.567	87.31
409.791	95.31
410.014	97.31
410.238	84.31
410.461	67.31
410.685	95.31
410.908	76.31
411.132	83.31
411.355	90.31
411.578	83.31
411.802	77.31
412.025	81.31
412.249	85.31
412.472	82.31
412.695	90.31
412.919	82.31
413.142	88.31
413.365	84.31
413.589	87.31
413.812	81.31
414.035	103.31
414.258	92.31
414.482	89.31
414.705	83.31
414.928	81.31
415.151	83.31
415.374	92.31
415.597	69.31
415.821	85.31
416.044	86.31
416.267	83.31
416.49	78.31
416.713	95.31
416.936	83.31
417.159	68.31
417.382	79.31
417.605	76.31
417.828	74.31
418.051	88.31
418.274	91.31
418.497	79.31
418.72	108.31
418.943	86.31
419.166	83.31
419.389	88.31
419.611	81.31
419.834	90.31
420.057	82.31
420.28	86.31
420.503	95.31
420.726	78.31
420.948	92.31
421.171	96.31
421.394	98.31
421.617	99.31
421.839	112.31
422.062	105.31
422.285	112.31
422.507	184.31
422.73	250.31
422.953	230.31
423.175	152.31
423.398	112.31
423.621	106.31
423.843	92.31
424.066	81.31
424.288	98.31
424.511	73.31
424.733	83.31
424.956	99.31
425.178	85.31
425.401	72.31
425.623	92.31
425.846	87.31
426.068	92.31
426.291	68.31
426.513	83.31
426.735	98.31
426.958	83.31
427.18	74.31
427.402	96.31
427.625	76.31
427.847	77.31
428.069	94.31
428.292	96.31
428.514	123.31
428.736	108.31
428.958	106.31
429.181	115.31
429.403	85.31
429.625	97.31
429.847	89.31
430.069	129.31
430.292	133.31
430.514	114.31
430.736	107.31
430.958	118.31
431.18	98.31
431.402	109.31
431.624	76.31
431.846	106.31
432.068	111.31
432.29	103.31
432.512	80.31
432.734	75.31
432.956	91.31
433.178	91.31
433.4	85.31
433.622	77.31
433.844	83.31
434.066	85.31
434.287	69.31
434.509	77.31
434.731	87.31
434.953	83.31
435.175	83.31
435.397	72.31
435.618	78.31
435.84	90.31
436.062	85.31
436.284	100.31
436.505	87.31
436.727	79.31
436.949	84.31
437.17	79.31
437.392	74.31
437.614	85.31
437.835	87.31
438.057	73.31
438.278	69.31
438.5	80.31
438.721	87.31
438.943	91.31
439.165	97.31
439.386	87.31
439.608	77.31
439.829	89.31
440.05	80.31
440.272	76.31
440.493	87.31
440.715	83.31
440.936	72.31
441.158	84.31
441.379	85.31
441.6	84.31
441.822	95.31
442.043	92.31
442.264	75.31
442.486	104.31
442.707	122.31
442.928	98.31
443.149	92.31
443.371	115.31
443.592	163.31
443.813	145.31
444.034	97.31
444.255	99.31
444.476	92.31
444.698	91.31
444.919	86.31
445.14	187.31
445.361	166.31
445.582	187.31
445.803	185.31
446.024	104.31
446.245	89.31
446.466	81.31
446.687	88.31
446.908	71.31
447.129	95.31
447.35	77.31
447.571	93.31
447.792	91.31
448.013	84.31
448.234	87.31
448.455	82.31
448.675	85.31
448.896	93.31
449.117	75.31
449.338	76.31
449.559	92.31
449.779	92.31
450	87.31
450.221	74.31
450.442	76.31
450.662	71.31
450.883	86.31
451.104	79.31
451.324	83.31
451.545	93.31
451.766	81.31
451.986	79.31
452.207	82.31
452.428	83.31
452.648	77.31
452.869	89.31
453.089	101.31
453.31	72.31
453.53	80.31
453.751	75.31
453.971	83.31
454.192	69.31
454.412	86.31
454.633	83.31
454.853	91.31
455.073	93.31
455.294	84.31
455.514	84.31
455.734	86.31
455.955	87.31
456.175	71.31
456.395	77.31
456.616	76.31
456.836	90.31
457.056	83.31
457.276	83.31
457.497	75.31
457.717	90.31
457.937	80.31
458.157	99.31
458.377	105.31
458.598	95.31
458.818	102.31
459.038	89.31
459.258	82.31
459.478	87.31
459.698	86.31
459.918	83.31
460.138	84.31
460.358	87.31
460.578	99.31
460.798	103.31
461.018	114.31
461.238	93.31
461.458	86.31
461.678	89.31
461.898	85.31
462.118	81.31
462.338	81.31
462.558	77.31
462.777	82.31
462.997	73.31
463.217	89.31
463.437	99.31
463.657	85.31
463.876	84.31
464.096	86.31
464.316	84.31
464.536	84.31
464.755	83.31
464.975	85.31
465.195	91.31
465.414	69.31
465.634	83.31
465.854	88.31
466.073	100.31
466.293	89.31
466.512	83.31
466.732	74.31
466.951	81.31
467.171	71.31
467.391	75.31
467.61	79.31
467.829	87.31
468.049	104.31
468.268	79.31
468.488	78.31
468.707	80.31
468.927	74.31
469.146	84.31
469.365	81.31
469.585	78.31
469.804	83.31
470.023	95.31
470.243	84.31
470.462	84.31
470.681	85.31
470.901	96.31
471.12	78.31
471.339	82.31
471.558	87.31
471.777	89.31
471.997	89.31
472.216	92.31
472.435	81.31
472.654	80.31
472.873	83.31
473.092	75.31
473.311	83.31
473.53	80.31
473.749	89.31
473.968	98.31
474.187	93.31
474.406	99.31
474.625	85.31
474.844	84.31
475.063	74.31
475.282	85.31
475.501	65.31
475.72	90.31
475.939	83.31
476.158	86.31
476.377	93.31
476.596	75.31
476.814	71.31
477.033	86.31
477.252	67.31
477.471	74.31
477.69	70.31
477.908	93.31
478.127	97.31
478.346	81.31
478.564	96.31
478.783	78.31
479.002	85.31
479.22	88.31
479.439	80.31
479.658	88.31
479.876	79.31
480.095	73.31
480.313	83.31
480.532	88.31
480.751	98.31
480.969	94.31
481.188	80.31
481.406	81.31
481.624	72.31
481.843	88.31
482.061	68.31
482.28	97.31
482.498	81.31
482.717	68.31
482.935	90.31
483.153	92.31
483.372	95.31
483.59	105.31
483.808	91.31
484.027	98.31
484.245	94.31
484.463	88.31
484.681	92.31
484.9	89.31
485.118	88.31
485.336	73.31
485.554	92.31
485.772	82.31
485.99	92.31
486.209	77.31
486.427	83.31
486.645	79.31
486.863	105.31
487.081	89.31
487.299	87.31
487.517	89.31
487.735	91.31
487.953	143.31
488.171	123.31
488.389	92.31
488.607	73.31
488.825	84.31
489.043	87.31
489.261	105.31
489.479	88.31
489.696	84.31
489.914	79.31
490.132	90.31
490.35	91.31
490.568	76.31
490.786	90.31
491.003	85.31
491.221	85.31
491.439	92.31
491.657	92.31
491.874	80.31
492.092	93.31
492.31	81.31
492.527	86.31
492.745	102.31
492.963	104.31
493.18	83.31
493.398	94.31
493.615	87.31
493.833	91.31
494.05	81.31
494.268	90.31
494.485	75.31
494.703	92.31
494.92	88.31
495.138	89.31
495.355	103.31
495.573	91.31
495.79	84.31
496.008	91.31
496.225	95.31
496.442	85.31
496.66	90.31
496.877	87.31
497.094	93.31
497.312	84.31
497.529	96.31
497.746	116.31
497.963	103.31
498.181	97.31
498.398	85.31
498.615	88.31
498.832	85.31
499.049	90.31
499.267	97.31
499.484	93.31
499.701	76.31
499.918	76.31
500.135	100.31
500.352	90.31
500.569	81.31
500.786	100.31
501.003	89.31
501.22	86.31
501.437	91.31
501.654	83.31
501.871	92.31
502.088	78.31
502.305	83.31
502.522	77.31
502.739	92.31
502.956	76.31
503.172	101.31
503.389	86.31
503.606	90.31
503.823	98.31
504.04	95.31
504.256	129.31
504.473	101.31
504.69	89.31
504.907	87.31
505.123	99.31
505.34	88.31
505.557	87.31
505.773	90.31
505.99	82.31
506.207	88.31
506.423	84.31
506.64	92.31
506.856	86.31
507.073	93.31
507.289	95.31
507.506	83.31
507.722	76.31
507.939	92.31
508.155	85.31
508.372	72.31
508.588	74.31
508.805	92.31
509.021	83.31
509.238	70.31
509.454	76.31
509.67	71.31
509.887	78.31
510.103	90.31
510.319	87.31
510.536	75.31
510.752	84.31
510.968	91.31
511.184	85.31
511.401	82.31
511.617	85.31
511.833	89.31
512.049	84.31
512.265	86.31
512.481	81.31
512.698	80.31
512.914	96.31
513.13	88.31
513.346	87.31
513.562	79.31
513.778	93.31
513.994	96.31
514.21	89.31
514.426	79.31
514.642	91.31
514.858	83.31
515.074	77.31
515.29	97.31
515.506	93.31
515.721	79.31
515.937	103.31
516.153	77.31
516.369	97.31
516.585	91.31
516.801	101.31
517.016	84.31
517.232	93.31
517.448	93.31
517.664	87.31
517.879	103.31
518.095	93.31
518.311	90.31
518.527	96.31
518.742	96.31
518.958	126.31
