Data from 2145_1_HRD10591_00012.txt Node
Date: Mon Jan 19 14:21:15 EST 2026
User: Yrep
Spectrometer: HR+D1059
Trigger mode: 1
Integration Time (sec): 1.000000E-1
Scans to average: 1
Electric dark correction enabled: true
Nonlinearity correction enabled: false
Boxcar width: 0
XAxis mode: Wavelengths
Number of Pixels in Spectrum: 2048
>>>>>Begin Spectral Data<<<<<
223.165	-22.06
223.4	-22.06
223.635	-22.06
223.869	-5.06
224.104	-31.06
224.338	-20.06
224.573	-9.06
224.808	-12.06
225.042	-4.06
225.277	7.94
225.511	-9.06
225.746	14.94
225.98	12.94
226.215	9.94
226.449	6.94
226.683	18.94
226.918	9.94
227.152	30.94
227.387	37.94
227.621	37.94
227.856	50.94
228.09	47.94
228.324	50.94
228.559	56.94
228.793	48.94
229.027	65.94
229.262	66.94
229.496	67.94
229.73	82.94
229.964	88.94
230.199	89.94
230.433	72.94
230.667	84.94
230.901	65.94
231.136	71.94
231.37	70.94
231.604	71.94
231.838	83.94
232.072	72.94
232.306	81.94
232.541	78.94
232.775	79.94
233.009	86.94
233.243	80.94
233.477	76.94
233.711	65.94
233.945	81.94
234.179	72.94
234.413	77.94
234.647	80.94
234.881	79.94
235.115	67.94
235.349	82.94
235.583	73.94
235.817	68.94
236.051	76.94
236.285	77.94
236.519	68.94
236.753	87.94
236.987	86.94
237.221	73.94
237.455	75.94
237.689	84.94
237.922	79.94
238.156	67.94
238.39	75.94
238.624	84.94
238.858	83.94
239.091	83.94
239.325	79.94
239.559	60.94
239.793	80.94
240.027	56.94
240.26	75.94
240.494	70.94
240.728	86.94
240.961	75.94
241.195	68.94
241.429	78.94
241.662	71.94
241.896	68.94
242.13	76.94
242.363	72.94
242.597	83.94
242.83	75.94
243.064	83.94
243.298	72.94
243.531	72.94
243.765	82.94
243.998	73.94
244.232	86.94
244.465	86.94
244.699	88.94
244.932	87.94
245.166	83.94
245.399	84.94
245.633	75.94
245.866	73.94
246.099	78.94
246.333	69.94
246.566	90.94
246.8	78.94
247.033	74.94
247.266	82.94
247.5	72.94
247.733	83.94
247.966	80.94
248.2	82.94
248.433	90.94
248.666	59.94
248.899	80.94
249.133	71.94
249.366	97.94
249.599	73.94
249.832	66.94
250.066	68.94
250.299	92.94
250.532	68.94
250.765	73.94
250.998	74.94
251.231	79.94
251.465	84.94
251.698	82.94
251.931	84.94
252.164	83.94
252.397	76.94
252.63	75.94
252.863	74.94
253.096	81.94
253.329	74.94
253.562	76.94
253.795	78.94
254.028	75.94
254.261	69.94
254.494	68.94
254.727	60.94
254.96	82.94
255.193	84.94
255.426	75.94
255.659	75.94
255.892	76.94
256.124	83.94
256.357	80.94
256.59	52.94
256.823	80.94
257.056	71.94
257.289	83.94
257.521	83.94
257.754	75.94
257.987	71.94
258.22	80.94
258.452	74.94
258.685	83.94
258.918	70.94
259.151	84.94
259.383	62.94
259.616	72.94
259.849	76.94
260.081	86.94
260.314	73.94
260.547	87.94
260.779	78.94
261.012	82.94
261.244	75.94
261.477	78.94
261.71	77.94
261.942	82.94
262.175	82.94
262.407	82.94
262.64	87.94
262.872	86.94
263.105	79.94
263.337	68.94
263.57	76.94
263.802	88.94
264.035	76.94
264.267	88.94
264.499	83.94
264.732	87.94
264.964	80.94
265.197	74.94
265.429	82.94
265.661	88.94
265.894	80.94
266.126	74.94
266.358	89.94
266.591	74.94
266.823	95.94
267.055	87.94
267.287	90.94
267.52	73.94
267.752	87.94
267.984	73.94
268.216	76.94
268.448	72.94
268.681	77.94
268.913	83.94
269.145	80.94
269.377	78.94
269.609	87.94
269.841	75.94
270.073	80.94
270.306	70.94
270.538	78.94
270.77	78.94
271.002	64.94
271.234	89.94
271.466	72.94
271.698	85.94
271.93	78.94
272.162	77.94
272.394	86.94
272.626	90.94
272.858	67.94
273.09	80.94
273.322	84.94
273.553	76.94
273.785	82.94
274.017	62.94
274.249	86.94
274.481	79.94
274.713	96.94
274.945	60.94
275.176	75.94
275.408	84.94
275.64	86.94
275.872	88.94
276.104	86.94
276.335	76.94
276.567	83.94
276.799	64.94
277.031	73.94
277.262	89.94
277.494	81.94
277.726	77.94
277.957	82.94
278.189	77.94
278.421	76.94
278.652	84.94
278.884	72.94
279.115	82.94
279.347	86.94
279.579	75.94
279.81	82.94
280.042	91.94
280.273	84.94
280.505	83.94
280.736	74.94
280.968	80.94
281.199	73.94
281.431	72.94
281.662	89.94
281.894	73.94
282.125	71.94
282.356	76.94
282.588	79.94
282.819	79.94
283.051	87.94
283.282	72.94
283.513	92.94
283.745	100.94
283.976	83.94
284.207	78.94
284.439	85.94
284.67	81.94
284.901	78.94
285.132	82.94
285.364	75.94
285.595	88.94
285.826	90.94
286.057	78.94
286.288	90.94
286.52	81.94
286.751	83.94
286.982	81.94
287.213	70.94
287.444	74.94
287.675	81.94
287.906	92.94
288.138	83.94
288.369	81.94
288.6	73.94
288.831	79.94
289.062	84.94
289.293	87.94
289.524	94.94
289.755	82.94
289.986	68.94
290.217	74.94
290.448	69.94
290.679	74.94
290.91	96.94
291.141	74.94
291.371	78.94
291.602	74.94
291.833	90.94
292.064	92.94
292.295	92.94
292.526	95.94
292.757	91.94
292.987	94.94
293.218	80.94
293.449	91.94
293.68	101.94
293.91	88.94
294.141	90.94
294.372	86.94
294.603	79.94
294.833	88.94
295.064	87.94
295.295	88.94
295.525	75.94
295.756	85.94
295.987	97.94
296.217	80.94
296.448	88.94
296.679	79.94
296.909	84.94
297.14	87.94
297.37	73.94
297.601	70.94
297.831	98.94
298.062	88.94
298.292	83.94
298.523	96.94
298.753	85.94
298.984	85.94
299.214	80.94
299.445	86.94
299.675	76.94
299.905	76.94
300.136	98.94
300.366	80.94
300.597	81.94
300.827	100.94
301.057	92.94
301.288	81.94
301.518	87.94
301.748	76.94
301.979	103.94
302.209	94.94
302.439	88.94
302.669	88.94
302.9	84.94
303.13	86.94
303.36	85.94
303.59	96.94
303.82	77.94
304.051	74.94
304.281	92.94
304.511	85.94
304.741	92.94
304.971	76.94
305.201	71.94
305.431	79.94
305.661	88.94
305.891	87.94
306.121	96.94
306.352	75.94
306.582	91.94
306.812	82.94
307.042	86.94
307.272	83.94
307.502	87.94
307.731	88.94
307.961	79.94
308.191	75.94
308.421	95.94
308.651	80.94
308.881	92.94
309.111	92.94
309.341	108.94
309.571	89.94
309.8	102.94
310.03	76.94
310.26	86.94
310.49	92.94
310.72	86.94
310.949	84.94
311.179	87.94
311.409	78.94
311.639	71.94
311.868	87.94
312.098	73.94
312.328	102.94
312.557	88.94
312.787	97.94
313.017	98.94
313.246	83.94
313.476	78.94
313.706	83.94
313.935	90.94
314.165	80.94
314.394	86.94
314.624	88.94
314.853	81.94
315.083	84.94
315.312	91.94
315.542	90.94
315.771	106.94
316.001	88.94
316.23	86.94
316.46	71.94
316.689	72.94
316.919	87.94
317.148	80.94
317.377	79.94
317.607	74.94
317.836	96.94
318.065	96.94
318.295	88.94
318.524	84.94
318.753	90.94
318.983	88.94
319.212	71.94
319.441	87.94
319.67	85.94
319.9	77.94
320.129	85.94
320.358	87.94
320.587	83.94
320.816	91.94
321.046	83.94
321.275	86.94
321.504	80.94
321.733	93.94
321.962	90.94
322.191	72.94
322.42	93.94
322.649	101.94
322.878	92.94
323.108	83.94
323.337	86.94
323.566	70.94
323.795	74.94
324.024	79.94
324.253	90.94
324.482	75.94
324.71	82.94
324.939	90.94
325.168	97.94
325.397	91.94
325.626	85.94
325.855	82.94
326.084	81.94
326.313	75.94
326.542	86.94
326.77	88.94
326.999	84.94
327.228	86.94
327.457	81.94
327.686	79.94
327.914	71.94
328.143	88.94
328.372	75.94
328.6	85.94
328.829	95.94
329.058	86.94
329.287	81.94
329.515	94.94
329.744	68.94
329.972	72.94
330.201	90.94
330.43	91.94
330.658	74.94
330.887	90.94
331.115	93.94
331.344	84.94
331.572	70.94
331.801	85.94
332.03	85.94
332.258	82.94
332.486	67.94
332.715	84.94
332.943	83.94
333.172	88.94
333.4	94.94
333.629	89.94
333.857	79.94
334.085	99.94
334.314	84.94
334.542	72.94
334.771	92.94
334.999	82.94
335.227	87.94
335.455	91.94
335.684	72.94
335.912	89.94
336.14	99.94
336.369	92.94
336.597	75.94
336.825	90.94
337.053	87.94
337.281	70.94
337.51	86.94
337.738	97.94
337.966	88.94
338.194	95.94
338.422	92.94
338.65	77.94
338.878	85.94
339.106	85.94
339.334	84.94
339.562	81.94
339.79	92.94
340.018	95.94
340.246	94.94
340.474	81.94
340.702	85.94
340.93	60.94
341.158	79.94
341.386	80.94
341.614	98.94
341.842	91.94
342.07	72.94
342.298	96.94
342.526	92.94
342.754	92.94
342.981	92.94
343.209	108.94
343.437	102.94
343.665	92.94
343.893	82.94
344.12	95.94
344.348	100.94
344.576	93.94
344.804	87.94
345.031	80.94
345.259	91.94
345.487	81.94
345.714	93.94
345.942	76.94
346.17	83.94
346.397	82.94
346.625	98.94
346.853	83.94
347.08	89.94
347.308	93.94
347.535	83.94
347.763	91.94
347.99	83.94
348.218	87.94
348.445	87.94
348.673	86.94
348.9	83.94
349.128	90.94
349.355	85.94
349.583	72.94
349.81	86.94
350.037	80.94
350.265	91.94
350.492	87.94
350.72	96.94
350.947	92.94
351.174	82.94
351.402	98.94
351.629	87.94
351.856	97.94
352.083	88.94
352.311	82.94
352.538	87.94
352.765	86.94
352.992	92.94
353.22	91.94
353.447	88.94
353.674	76.94
353.901	92.94
354.128	92.94
354.355	87.94
354.583	76.94
354.81	84.94
355.037	82.94
355.264	90.94
355.491	79.94
355.718	86.94
355.945	84.94
356.172	80.94
356.399	86.94
356.626	95.94
356.853	83.94
357.08	93.94
357.307	90.94
357.534	74.94
357.761	92.94
357.988	100.94
358.215	83.94
358.441	90.94
358.668	107.94
358.895	86.94
359.122	90.94
359.349	102.94
359.576	72.94
359.802	88.94
360.029	97.94
360.256	96.94
360.483	83.94
360.709	90.94
360.936	81.94
361.163	81.94
361.39	82.94
361.616	87.94
361.843	99.94
362.07	90.94
362.296	83.94
362.523	98.94
362.749	103.94
362.976	94.94
363.203	119.94
363.429	94.94
363.656	73.94
363.882	95.94
364.109	88.94
364.335	99.94
364.562	113.94
364.788	107.94
365.015	92.94
365.241	95.94
365.468	92.94
365.694	76.94
365.92	94.94
366.147	84.94
366.373	88.94
366.599	96.94
366.826	92.94
367.052	81.94
367.278	96.94
367.505	102.94
367.731	98.94
367.957	73.94
368.184	91.94
368.41	93.94
368.636	82.94
368.862	98.94
369.089	95.94
369.315	76.94
369.541	93.94
369.767	101.94
369.993	89.94
370.219	68.94
370.445	74.94
370.672	90.94
370.898	82.94
371.124	101.94
371.35	82.94
371.576	86.94
371.802	79.94
372.028	98.94
372.254	82.94
372.48	75.94
372.706	90.94
372.932	87.94
373.158	95.94
373.384	85.94
373.61	84.94
373.835	94.94
374.061	86.94
374.287	86.94
374.513	90.94
374.739	104.94
374.965	106.94
375.191	96.94
375.416	88.94
375.642	85.94
375.868	87.94
376.094	89.94
376.319	79.94
376.545	83.94
376.771	80.94
376.997	78.94
377.222	76.94
377.448	94.94
377.674	71.94
377.899	81.94
378.125	89.94
378.35	94.94
378.576	96.94
378.802	74.94
379.027	76.94
379.253	85.94
379.478	94.94
379.704	79.94
379.929	89.94
380.155	83.94
380.38	74.94
380.606	76.94
380.831	102.94
381.057	83.94
381.282	93.94
381.507	96.94
381.733	77.94
381.958	104.94
382.184	100.94
382.409	86.94
382.634	83.94
382.86	91.94
383.085	90.94
383.31	85.94
383.535	90.94
383.761	99.94
383.986	88.94
384.211	102.94
384.436	92.94
384.662	88.94
384.887	69.94
385.112	91.94
385.337	80.94
385.562	87.94
385.787	100.94
386.013	99.94
386.238	84.94
386.463	79.94
386.688	95.94
386.913	82.94
387.138	93.94
387.363	100.94
387.588	91.94
387.813	89.94
388.038	98.94
388.263	90.94
388.488	88.94
388.713	81.94
388.938	89.94
389.163	74.94
389.387	87.94
389.612	97.94
389.837	83.94
390.062	76.94
390.287	80.94
390.512	83.94
390.736	81.94
390.961	82.94
391.186	83.94
391.411	74.94
391.636	97.94
391.86	89.94
392.085	99.94
392.31	82.94
392.534	78.94
392.759	103.94
392.984	132.94
393.208	158.94
393.433	214.94
393.658	178.94
393.882	115.94
394.107	94.94
394.331	101.94
394.556	110.94
394.78	90.94
395.005	99.94
395.229	84.94
395.454	103.94
395.678	86.94
395.903	98.94
396.127	116.94
396.352	132.94
396.576	123.94
396.801	164.94
397.025	181.94
397.249	135.94
397.474	114.94
397.698	101.94
397.922	91.94
398.147	76.94
398.371	74.94
398.595	83.94
398.82	92.94
399.044	82.94
399.268	74.94
399.492	81.94
399.717	91.94
399.941	79.94
400.165	90.94
400.389	92.94
400.613	78.94
400.837	93.94
401.062	91.94
401.286	91.94
401.51	100.94
401.734	75.94
401.958	94.94
402.182	83.94
402.406	97.94
402.63	92.94
402.854	80.94
403.078	88.94
403.302	69.94
403.526	92.94
403.75	100.94
403.974	81.94
404.198	98.94
404.422	84.94
404.645	97.94
404.869	87.94
405.093	74.94
405.317	92.94
405.541	75.94
405.765	87.94
405.988	80.94
406.212	79.94
406.436	77.94
406.66	91.94
406.883	90.94
407.107	82.94
407.331	75.94
407.555	80.94
407.778	104.94
408.002	100.94
408.226	92.94
408.449	91.94
408.673	95.94
408.896	87.94
409.12	79.94
409.344	90.94
409.567	98.94
409.791	98.94
410.014	89.94
410.238	94.94
410.461	94.94
410.685	91.94
410.908	76.94
411.132	87.94
411.355	95.94
411.578	98.94
411.802	88.94
412.025	85.94
412.249	92.94
412.472	84.94
412.695	91.94
412.919	96.94
413.142	91.94
413.365	81.94
413.589	90.94
413.812	89.94
414.035	86.94
414.258	75.94
414.482	77.94
414.705	92.94
414.928	103.94
415.151	80.94
415.374	73.94
415.597	78.94
415.821	83.94
416.044	86.94
416.267	88.94
416.49	88.94
416.713	86.94
416.936	83.94
417.159	87.94
417.382	82.94
417.605	83.94
417.828	81.94
418.051	86.94
418.274	91.94
418.497	80.94
418.72	87.94
418.943	90.94
419.166	90.94
419.389	70.94
419.611	83.94
419.834	81.94
420.057	76.94
420.28	103.94
420.503	92.94
420.726	76.94
420.948	94.94
421.171	87.94
421.394	104.94
421.617	118.94
421.839	115.94
422.062	128.94
422.285	169.94
422.507	255.94
422.73	358.94
422.953	333.94
423.175	202.94
423.398	142.94
423.621	125.94
423.843	105.94
424.066	108.94
424.288	106.94
424.511	107.94
424.733	102.94
424.956	86.94
425.178	80.94
425.401	87.94
425.623	98.94
425.846	90.94
426.068	96.94
426.291	92.94
426.513	83.94
426.735	92.94
426.958	92.94
427.18	86.94
427.402	87.94
427.625	80.94
427.847	99.94
428.069	106.94
428.292	99.94
428.514	127.94
428.736	103.94
428.958	129.94
429.181	114.94
429.403	80.94
429.625	108.94
429.847	118.94
430.069	139.94
430.292	158.94
430.514	132.94
430.736	112.94
430.958	129.94
431.18	86.94
431.402	94.94
431.624	87.94
431.846	114.94
432.068	128.94
432.29	103.94
432.512	78.94
432.734	87.94
432.956	84.94
433.178	81.94
433.4	75.94
433.622	89.94
433.844	88.94
434.066	93.94
434.287	84.94
434.509	90.94
434.731	88.94
434.953	72.94
435.175	87.94
435.397	101.94
435.618	84.94
435.84	86.94
436.062	81.94
436.284	92.94
436.505	84.94
436.727	80.94
436.949	84.94
437.17	79.94
437.392	88.94
437.614	83.94
437.835	86.94
438.057	96.94
438.278	91.94
438.5	86.94
438.721	84.94
438.943	72.94
439.165	83.94
439.386	88.94
439.608	61.94
439.829	94.94
440.05	75.94
440.272	95.94
440.493	88.94
440.715	92.94
440.936	86.94
441.158	81.94
441.379	82.94
441.6	77.94
441.822	84.94
442.043	96.94
442.264	103.94
442.486	122.94
442.707	141.94
442.928	108.94
443.149	110.94
443.371	122.94
443.592	208.94
443.813	188.94
444.034	112.94
444.255	92.94
444.476	87.94
444.698	91.94
444.919	103.94
445.14	210.94
445.361	176.94
445.582	242.94
445.803	211.94
446.024	113.94
446.245	90.94
446.466	96.94
446.687	86.94
446.908	82.94
447.129	77.94
447.35	74.94
447.571	94.94
447.792	81.94
448.013	81.94
448.234	84.94
448.455	75.94
448.675	73.94
448.896	75.94
449.117	80.94
449.338	84.94
449.559	95.94
449.779	102.94
450	74.94
450.221	71.94
450.442	69.94
450.662	75.94
450.883	84.94
451.104	87.94
451.324	93.94
451.545	75.94
451.766	80.94
451.986	86.94
452.207	90.94
452.428	91.94
452.648	88.94
452.869	87.94
453.089	89.94
453.31	75.94
453.53	91.94
453.751	84.94
453.971	90.94
454.192	64.94
454.412	82.94
454.633	95.94
454.853	74.94
455.073	87.94
455.294	80.94
455.514	70.94
455.734	82.94
455.955	77.94
456.175	93.94
456.395	89.94
456.616	84.94
456.836	91.94
457.056	76.94
457.276	92.94
457.497	81.94
457.717	96.94
457.937	105.94
458.157	105.94
458.377	115.94
458.598	119.94
458.818	116.94
459.038	102.94
459.258	72.94
459.478	86.94
459.698	83.94
459.918	94.94
460.138	77.94
460.358	74.94
460.578	94.94
460.798	116.94
461.018	113.94
461.238	88.94
461.458	87.94
461.678	77.94
461.898	81.94
462.118	90.94
462.338	87.94
462.558	86.94
462.777	93.94
462.997	77.94
463.217	74.94
463.437	84.94
463.657	80.94
463.876	76.94
464.096	77.94
464.316	84.94
464.536	77.94
464.755	80.94
464.975	87.94
465.195	89.94
465.414	74.94
465.634	73.94
465.854	102.94
466.073	88.94
466.293	83.94
466.512	95.94
466.732	80.94
466.951	91.94
467.171	75.94
467.391	83.94
467.61	76.94
467.829	93.94
468.049	98.94
468.268	84.94
468.488	76.94
468.707	84.94
468.927	87.94
469.146	80.94
469.365	71.94
469.585	89.94
469.804	96.94
470.023	79.94
470.243	75.94
470.462	78.94
470.681	90.94
470.901	80.94
471.12	80.94
471.339	76.94
471.558	87.94
471.777	75.94
471.997	92.94
472.216	83.94
472.435	74.94
472.654	76.94
472.873	89.94
473.092	95.94
473.311	84.94
473.53	87.94
473.749	70.94
473.968	80.94
474.187	74.94
474.406	71.94
474.625	86.94
474.844	99.94
475.063	70.94
475.282	86.94
475.501	94.94
475.72	95.94
475.939	89.94
476.158	84.94
476.377	76.94
476.596	84.94
476.814	81.94
477.033	91.94
477.252	106.94
477.471	89.94
477.69	74.94
477.908	85.94
478.127	82.94
478.346	87.94
478.564	94.94
478.783	83.94
479.002	81.94
479.22	97.94
479.439	96.94
479.658	89.94
479.876	79.94
480.095	88.94
480.313	82.94
480.532	93.94
480.751	76.94
480.969	82.94
481.188	97.94
481.406	100.94
481.624	101.94
481.843	89.94
482.061	83.94
482.28	77.94
482.498	84.94
482.717	83.94
482.935	96.94
483.153	89.94
483.372	80.94
483.59	80.94
483.808	88.94
484.027	80.94
484.245	91.94
484.463	96.94
484.681	97.94
484.9	99.94
485.118	91.94
485.336	95.94
485.554	89.94
485.772	78.94
485.99	77.94
486.209	86.94
486.427	99.94
486.645	89.94
486.863	78.94
487.081	78.94
487.299	96.94
487.517	86.94
487.735	110.94
487.953	170.94
488.171	126.94
488.389	87.94
488.607	94.94
488.825	89.94
489.043	79.94
489.261	100.94
489.479	82.94
489.696	86.94
489.914	90.94
490.132	90.94
490.35	84.94
490.568	83.94
490.786	82.94
491.003	90.94
491.221	74.94
491.439	74.94
491.657	76.94
491.874	73.94
492.092	76.94
492.31	79.94
492.527	79.94
492.745	100.94
492.963	99.94
493.18	95.94
493.398	95.94
493.615	80.94
493.833	72.94
494.05	87.94
494.268	78.94
494.485	88.94
494.703	81.94
494.92	83.94
495.138	85.94
495.355	90.94
495.573	84.94
495.79	95.94
496.008	88.94
496.225	83.94
496.442	87.94
496.66	90.94
496.877	93.94
497.094	106.94
497.312	74.94
497.529	77.94
497.746	77.94
497.963	92.94
498.181	96.94
498.398	86.94
498.615	94.94
498.832	82.94
499.049	76.94
499.267	99.94
499.484	86.94
499.701	89.94
499.918	89.94
500.135	85.94
500.352	95.94
500.569	90.94
500.786	88.94
501.003	91.94
501.22	88.94
501.437	95.94
501.654	78.94
501.871	88.94
502.088	86.94
502.305	81.94
502.522	77.94
502.739	84.94
502.956	82.94
503.172	90.94
503.389	88.94
503.606	95.94
503.823	98.94
504.04	101.94
504.256	132.94
504.473	134.94
504.69	92.94
504.907	87.94
505.123	92.94
505.34	87.94
505.557	88.94
505.773	88.94
505.99	93.94
506.207	73.94
506.423	89.94
506.64	93.94
506.856	78.94
507.073	88.94
507.289	88.94
507.506	73.94
507.722	79.94
507.939	79.94
508.155	95.94
508.372	73.94
508.588	87.94
508.805	82.94
509.021	78.94
509.238	76.94
509.454	78.94
509.67	82.94
509.887	80.94
510.103	88.94
510.319	100.94
510.536	91.94
510.752	95.94
510.968	82.94
511.184	90.94
511.401	84.94
511.617	96.94
511.833	86.94
512.049	96.94
512.265	85.94
512.481	94.94
512.698	76.94
512.914	92.94
513.13	82.94
513.346	91.94
513.562	87.94
513.778	95.94
513.994	86.94
514.21	97.94
514.426	93.94
514.642	78.94
514.858	81.94
515.074	91.94
515.29	79.94
515.506	98.94
515.721	82.94
515.937	85.94
516.153	72.94
516.369	100.94
516.585	79.94
516.801	93.94
517.016	100.94
517.232	82.94
517.448	84.94
517.664	88.94
517.879	103.94
518.095	90.94
518.311	89.94
518.527	96.94
