Data from 2145_1_HRD10591_00037.txt Node
Date: Mon Jan 19 14:21:27 EST 2026
User: Yrep
Spectrometer: HR+D1059
Trigger mode: 1
Integration Time (sec): 1.000000E-1
Scans to average: 1
Electric dark correction enabled: true
Nonlinearity correction enabled: false
Boxcar width: 0
XAxis mode: Wavelengths
Number of Pixels in Spectrum: 2048
>>>>>Begin Spectral Data<<<<<
223.165	-16.5
223.4	-16.5
223.635	-16.5
223.869	-17.5
224.104	-13.5
224.338	-9.5
224.573	-5.5
224.808	-1.5
225.042	-6.5
225.277	-7.5
225.511	-5.5
225.746	4.5
225.98	10.5
226.215	6.5
226.449	-0.5
226.683	26.5
226.918	16.5
227.152	19.5
227.387	23.5
227.621	50.5
227.856	59.5
228.09	52.5
228.324	65.5
228.559	62.5
228.793	60.5
229.027	76.5
229.262	56.5
229.496	70.5
229.73	80.5
229.964	60.5
230.199	80.5
230.433	68.5
230.667	82.5
230.901	89.5
231.136	74.5
231.37	75.5
231.604	87.5
231.838	79.5
232.072	90.5
232.306	87.5
232.541	88.5
232.775	84.5
233.009	82.5
233.243	75.5
233.477	78.5
233.711	84.5
233.945	86.5
234.179	74.5
234.413	79.5
234.647	85.5
234.881	92.5
235.115	91.5
235.349	96.5
235.583	85.5
235.817	80.5
236.051	80.5
236.285	86.5
236.519	76.5
236.753	81.5
236.987	72.5
237.221	79.5
237.455	84.5
237.689	84.5
237.922	83.5
238.156	83.5
238.39	85.5
238.624	82.5
238.858	82.5
239.091	88.5
239.325	90.5
239.559	81.5
239.793	79.5
240.027	94.5
240.26	86.5
240.494	70.5
240.728	81.5
240.961	69.5
241.195	106.5
241.429	77.5
241.662	79.5
241.896	66.5
242.13	70.5
242.363	75.5
242.597	89.5
242.83	80.5
243.064	80.5
243.298	69.5
243.531	88.5
243.765	74.5
243.998	88.5
244.232	72.5
244.465	70.5
244.699	77.5
244.932	79.5
245.166	80.5
245.399	79.5
245.633	77.5
245.866	93.5
246.099	91.5
246.333	78.5
246.566	80.5
246.8	75.5
247.033	76.5
247.266	62.5
247.5	83.5
247.733	84.5
247.966	78.5
248.2	80.5
248.433	69.5
248.666	78.5
248.899	76.5
249.133	79.5
249.366	76.5
249.599	98.5
249.832	72.5
250.066	74.5
250.299	66.5
250.532	78.5
250.765	80.5
250.998	76.5
251.231	71.5
251.465	87.5
251.698	92.5
251.931	87.5
252.164	79.5
252.397	73.5
252.63	76.5
252.863	78.5
253.096	87.5
253.329	74.5
253.562	97.5
253.795	78.5
254.028	86.5
254.261	71.5
254.494	76.5
254.727	80.5
254.96	65.5
255.193	94.5
255.426	80.5
255.659	84.5
255.892	95.5
256.124	93.5
256.357	71.5
256.59	82.5
256.823	73.5
257.056	81.5
257.289	88.5
257.521	82.5
257.754	85.5
257.987	94.5
258.22	83.5
258.452	81.5
258.685	84.5
258.918	93.5
259.151	78.5
259.383	91.5
259.616	78.5
259.849	89.5
260.081	96.5
260.314	97.5
260.547	92.5
260.779	72.5
261.012	82.5
261.244	95.5
261.477	87.5
261.71	85.5
261.942	83.5
262.175	78.5
262.407	72.5
262.64	64.5
262.872	71.5
263.105	73.5
263.337	75.5
263.57	85.5
263.802	70.5
264.035	84.5
264.267	74.5
264.499	77.5
264.732	87.5
264.964	82.5
265.197	84.5
265.429	90.5
265.661	94.5
265.894	79.5
266.126	75.5
266.358	85.5
266.591	92.5
266.823	88.5
267.055	82.5
267.287	93.5
267.52	78.5
267.752	69.5
267.984	93.5
268.216	94.5
268.448	83.5
268.681	91.5
268.913	88.5
269.145	83.5
269.377	83.5
269.609	90.5
269.841	78.5
270.073	90.5
270.306	92.5
270.538	87.5
270.77	94.5
271.002	82.5
271.234	86.5
271.466	82.5
271.698	77.5
271.93	94.5
272.162	86.5
272.394	86.5
272.626	73.5
272.858	84.5
273.09	83.5
273.322	96.5
273.553	78.5
273.785	97.5
274.017	88.5
274.249	87.5
274.481	79.5
274.713	76.5
274.945	74.5
275.176	102.5
275.408	86.5
275.64	88.5
275.872	99.5
276.104	88.5
276.335	95.5
276.567	99.5
276.799	87.5
277.031	99.5
277.262	84.5
277.494	92.5
277.726	91.5
277.957	87.5
278.189	86.5
278.421	87.5
278.652	87.5
278.884	70.5
279.115	95.5
279.347	89.5
279.579	94.5
279.81	86.5
280.042	80.5
280.273	70.5
280.505	76.5
280.736	81.5
280.968	82.5
281.199	99.5
281.431	83.5
281.662	77.5
281.894	85.5
282.125	95.5
282.356	101.5
282.588	75.5
282.819	86.5
283.051	78.5
283.282	86.5
283.513	95.5
283.745	87.5
283.976	97.5
284.207	75.5
284.439	79.5
284.67	92.5
284.901	82.5
285.132	88.5
285.364	104.5
285.595	84.5
285.826	87.5
286.057	93.5
286.288	95.5
286.52	78.5
286.751	88.5
286.982	96.5
287.213	83.5
287.444	99.5
287.675	74.5
287.906	93.5
288.138	94.5
288.369	71.5
288.6	96.5
288.831	95.5
289.062	88.5
289.293	95.5
289.524	89.5
289.755	87.5
289.986	86.5
290.217	69.5
290.448	91.5
290.679	94.5
290.91	95.5
291.141	101.5
291.371	80.5
291.602	100.5
291.833	98.5
292.064	86.5
292.295	88.5
292.526	75.5
292.757	95.5
292.987	88.5
293.218	91.5
293.449	90.5
293.68	83.5
293.91	107.5
294.141	80.5
294.372	100.5
294.603	88.5
294.833	75.5
295.064	86.5
295.295	84.5
295.525	70.5
295.756	81.5
295.987	94.5
296.217	93.5
296.448	99.5
296.679	78.5
296.909	87.5
297.14	83.5
297.37	85.5
297.601	94.5
297.831	74.5
298.062	82.5
298.292	95.5
298.523	95.5
298.753	84.5
298.984	83.5
299.214	86.5
299.445	92.5
299.675	92.5
299.905	85.5
300.136	76.5
300.366	98.5
300.597	87.5
300.827	79.5
301.057	99.5
301.288	79.5
301.518	84.5
301.748	97.5
301.979	100.5
302.209	81.5
302.439	89.5
302.669	85.5
302.9	84.5
303.13	88.5
303.36	91.5
303.59	84.5
303.82	90.5
304.051	91.5
304.281	98.5
304.511	95.5
304.741	80.5
304.971	88.5
305.201	84.5
305.431	90.5
305.661	93.5
305.891	92.5
306.121	94.5
306.352	85.5
306.582	103.5
306.812	90.5
307.042	88.5
307.272	88.5
307.502	100.5
307.731	89.5
307.961	103.5
308.191	90.5
308.421	100.5
308.651	95.5
308.881	92.5
309.111	102.5
309.341	96.5
309.571	86.5
309.8	92.5
310.03	98.5
310.26	77.5
310.49	86.5
310.72	89.5
310.949	89.5
311.179	85.5
311.409	90.5
311.639	78.5
311.868	82.5
312.098	87.5
312.328	88.5
312.557	95.5
312.787	87.5
313.017	68.5
313.246	98.5
313.476	82.5
313.706	84.5
313.935	80.5
314.165	93.5
314.394	94.5
314.624	93.5
314.853	93.5
315.083	90.5
315.312	102.5
315.542	88.5
315.771	86.5
316.001	98.5
316.23	91.5
316.46	93.5
316.689	88.5
316.919	91.5
317.148	86.5
317.377	96.5
317.607	101.5
317.836	86.5
318.065	98.5
318.295	90.5
318.524	75.5
318.753	85.5
318.983	94.5
319.212	84.5
319.441	86.5
319.67	81.5
319.9	70.5
320.129	77.5
320.358	95.5
320.587	91.5
320.816	102.5
321.046	100.5
321.275	95.5
321.504	84.5
321.733	102.5
321.962	81.5
322.191	92.5
322.42	89.5
322.649	84.5
322.878	88.5
323.108	94.5
323.337	87.5
323.566	93.5
323.795	83.5
324.024	95.5
324.253	85.5
324.482	86.5
324.71	89.5
324.939	97.5
325.168	91.5
325.397	87.5
325.626	95.5
325.855	98.5
326.084	94.5
326.313	101.5
326.542	94.5
326.77	88.5
326.999	86.5
327.228	89.5
327.457	105.5
327.686	82.5
327.914	79.5
328.143	85.5
328.372	92.5
328.6	88.5
328.829	92.5
329.058	95.5
329.287	100.5
329.515	80.5
329.744	88.5
329.972	87.5
330.201	98.5
330.43	87.5
330.658	88.5
330.887	94.5
331.115	94.5
331.344	68.5
331.572	96.5
331.801	90.5
332.03	102.5
332.258	82.5
332.486	91.5
332.715	93.5
332.943	85.5
333.172	105.5
333.4	90.5
333.629	79.5
333.857	96.5
334.085	93.5
334.314	78.5
334.542	96.5
334.771	88.5
334.999	99.5
335.227	98.5
335.455	84.5
335.684	81.5
335.912	103.5
336.14	85.5
336.369	77.5
336.597	89.5
336.825	86.5
337.053	75.5
337.281	82.5
337.51	79.5
337.738	100.5
337.966	97.5
338.194	85.5
338.422	91.5
338.65	91.5
338.878	76.5
339.106	89.5
339.334	94.5
339.562	88.5
339.79	86.5
340.018	93.5
340.246	88.5
340.474	84.5
340.702	83.5
340.93	84.5
341.158	99.5
341.386	95.5
341.614	82.5
341.842	90.5
342.07	86.5
342.298	90.5
342.526	88.5
342.754	84.5
342.981	77.5
343.209	74.5
343.437	95.5
343.665	84.5
343.893	92.5
344.12	91.5
344.348	86.5
344.576	94.5
344.804	96.5
345.031	98.5
345.259	84.5
345.487	91.5
345.714	88.5
345.942	78.5
346.17	92.5
346.397	82.5
346.625	105.5
346.853	90.5
347.08	81.5
347.308	87.5
347.535	96.5
347.763	108.5
347.99	90.5
348.218	90.5
348.445	97.5
348.673	90.5
348.9	94.5
349.128	101.5
349.355	88.5
349.583	82.5
349.81	79.5
350.037	91.5
350.265	91.5
350.492	92.5
350.72	94.5
350.947	83.5
351.174	86.5
351.402	84.5
351.629	88.5
351.856	85.5
352.083	86.5
352.311	99.5
352.538	91.5
352.765	78.5
352.992	100.5
353.22	90.5
353.447	91.5
353.674	88.5
353.901	91.5
354.128	95.5
354.355	88.5
354.583	99.5
354.81	81.5
355.037	97.5
355.264	95.5
355.491	100.5
355.718	94.5
355.945	81.5
356.172	93.5
356.399	89.5
356.626	97.5
356.853	78.5
357.08	86.5
357.307	83.5
357.534	90.5
357.761	95.5
357.988	90.5
358.215	114.5
358.441	89.5
358.668	76.5
358.895	101.5
359.122	88.5
359.349	86.5
359.576	88.5
359.802	96.5
360.029	88.5
360.256	103.5
360.483	87.5
360.709	90.5
360.936	97.5
361.163	94.5
361.39	88.5
361.616	95.5
361.843	106.5
362.07	106.5
362.296	105.5
362.523	111.5
362.749	95.5
362.976	100.5
363.203	110.5
363.429	100.5
363.656	90.5
363.882	84.5
364.109	129.5
364.335	126.5
364.562	134.5
364.788	100.5
365.015	106.5
365.241	93.5
365.468	96.5
365.694	79.5
365.92	90.5
366.147	89.5
366.373	84.5
366.599	87.5
366.826	85.5
367.052	92.5
367.278	67.5
367.505	78.5
367.731	93.5
367.957	88.5
368.184	98.5
368.41	91.5
368.636	92.5
368.862	93.5
369.089	91.5
369.315	97.5
369.541	83.5
369.767	95.5
369.993	82.5
370.219	100.5
370.445	87.5
370.672	104.5
370.898	89.5
371.124	80.5
371.35	96.5
371.576	93.5
371.802	108.5
372.028	100.5
372.254	95.5
372.48	80.5
372.706	92.5
372.932	90.5
373.158	90.5
373.384	114.5
373.61	112.5
373.835	112.5
374.061	87.5
374.287	91.5
374.513	93.5
374.739	98.5
374.965	92.5
375.191	93.5
375.416	86.5
375.642	84.5
375.868	83.5
376.094	86.5
376.319	89.5
376.545	89.5
376.771	87.5
376.997	98.5
377.222	90.5
377.448	91.5
377.674	94.5
377.899	85.5
378.125	76.5
378.35	86.5
378.576	94.5
378.802	94.5
379.027	90.5
379.253	88.5
379.478	79.5
379.704	90.5
379.929	79.5
380.155	98.5
380.38	90.5
380.606	91.5
380.831	84.5
381.057	84.5
381.282	91.5
381.507	80.5
381.733	100.5
381.958	88.5
382.184	87.5
382.409	83.5
382.634	80.5
382.86	93.5
383.085	93.5
383.31	83.5
383.535	95.5
383.761	81.5
383.986	90.5
384.211	89.5
384.436	91.5
384.662	85.5
384.887	94.5
385.112	99.5
385.337	84.5
385.562	90.5
385.787	76.5
386.013	87.5
386.238	86.5
386.463	102.5
386.688	93.5
386.913	94.5
387.138	87.5
387.363	85.5
387.588	99.5
387.813	90.5
388.038	80.5
388.263	107.5
388.488	96.5
388.713	87.5
388.938	81.5
389.163	96.5
389.387	92.5
389.612	93.5
389.837	89.5
390.062	106.5
390.287	81.5
390.512	85.5
390.736	100.5
390.961	87.5
391.186	90.5
391.411	88.5
391.636	90.5
391.86	88.5
392.085	92.5
392.31	92.5
392.534	101.5
392.759	109.5
392.984	170.5
393.208	285.5
393.433	418.5
393.658	315.5
393.882	157.5
394.107	114.5
394.331	120.5
394.556	127.5
394.78	107.5
395.005	90.5
395.229	99.5
395.454	103.5
395.678	109.5
395.903	133.5
396.127	150.5
396.352	173.5
396.576	194.5
396.801	284.5
397.025	318.5
397.249	171.5
397.474	135.5
397.698	111.5
397.922	102.5
398.147	83.5
398.371	82.5
398.595	89.5
398.82	99.5
399.044	89.5
399.268	91.5
399.492	98.5
399.717	86.5
399.941	92.5
400.165	98.5
400.389	95.5
400.613	96.5
400.837	82.5
401.062	94.5
401.286	95.5
401.51	87.5
401.734	93.5
401.958	92.5
402.182	84.5
402.406	83.5
402.63	94.5
402.854	104.5
403.078	100.5
403.302	92.5
403.526	89.5
403.75	97.5
403.974	107.5
404.198	124.5
404.422	222.5
404.645	250.5
404.869	195.5
405.093	140.5
405.317	98.5
405.541	100.5
405.765	88.5
405.988	89.5
406.212	96.5
406.436	99.5
406.66	99.5
406.883	86.5
407.107	101.5
407.331	89.5
407.555	84.5
407.778	117.5
408.002	119.5
408.226	90.5
408.449	84.5
408.673	89.5
408.896	80.5
409.12	80.5
409.344	86.5
409.567	97.5
409.791	104.5
410.014	105.5
410.238	89.5
410.461	89.5
410.685	110.5
410.908	84.5
411.132	115.5
411.355	100.5
411.578	77.5
411.802	97.5
412.025	79.5
412.249	91.5
412.472	99.5
412.695	71.5
412.919	83.5
413.142	79.5
413.365	87.5
413.589	95.5
413.812	89.5
414.035	86.5
414.258	79.5
414.482	84.5
414.705	84.5
414.928	80.5
415.151	94.5
415.374	87.5
415.597	82.5
415.821	98.5
416.044	81.5
416.267	98.5
416.49	90.5
416.713	89.5
416.936	76.5
417.159	86.5
417.382	81.5
417.605	76.5
417.828	98.5
418.051	80.5
418.274	82.5
418.497	84.5
418.72	83.5
418.943	88.5
419.166	102.5
419.389	81.5
419.611	100.5
419.834	89.5
420.057	98.5
420.28	74.5
420.503	87.5
420.726	84.5
420.948	91.5
421.171	112.5
421.394	95.5
421.617	116.5
421.839	123.5
422.062	130.5
422.285	209.5
422.507	372.5
422.73	636.5
422.953	552.5
423.175	271.5
423.398	150.5
423.621	114.5
423.843	108.5
424.066	101.5
424.288	103.5
424.511	95.5
424.733	83.5
424.956	84.5
425.178	100.5
425.401	93.5
425.623	90.5
425.846	73.5
426.068	99.5
426.291	102.5
426.513	78.5
426.735	88.5
426.958	78.5
427.18	99.5
427.402	93.5
427.625	90.5
427.847	94.5
428.069	100.5
428.292	165.5
428.514	175.5
428.736	137.5
428.958	156.5
429.181	157.5
429.403	101.5
429.625	106.5
429.847	159.5
430.069	198.5
430.292	239.5
430.514	244.5
430.736	168.5
430.958	178.5
431.18	124.5
431.402	95.5
431.624	102.5
431.846	140.5
432.068	159.5
432.29	116.5
432.512	104.5
432.734	97.5
432.956	96.5
433.178	88.5
433.4	100.5
433.622	77.5
433.844	84.5
434.066	88.5
434.287	94.5
434.509	91.5
434.731	87.5
434.953	84.5
435.175	77.5
435.397	86.5
435.618	90.5
435.84	87.5
436.062	76.5
436.284	71.5
436.505	75.5
436.727	89.5
436.949	93.5
437.17	84.5
437.392	80.5
437.614	87.5
437.835	86.5
438.057	91.5
438.278	98.5
438.5	84.5
438.721	86.5
438.943	79.5
439.165	90.5
439.386	76.5
439.608	83.5
439.829	92.5
440.05	87.5
440.272	91.5
440.493	88.5
440.715	87.5
440.936	86.5
441.158	83.5
441.379	86.5
441.6	99.5
441.822	97.5
442.043	89.5
442.264	122.5
442.486	158.5
442.707	186.5
442.928	153.5
443.149	122.5
443.371	190.5
443.592	322.5
443.813	278.5
444.034	118.5
444.255	105.5
444.476	107.5
444.698	94.5
444.919	112.5
445.14	222.5
445.361	275.5
445.582	403.5
445.803	322.5
446.024	127.5
446.245	102.5
446.466	98.5
446.687	92.5
446.908	80.5
447.129	88.5
447.35	88.5
447.571	83.5
447.792	100.5
448.013	96.5
448.234	90.5
448.455	94.5
448.675	100.5
448.896	95.5
449.117	86.5
449.338	83.5
449.559	94.5
449.779	77.5
450	83.5
450.221	84.5
450.442	78.5
450.662	79.5
450.883	94.5
451.104	90.5
451.324	86.5
451.545	91.5
451.766	88.5
451.986	97.5
452.207	70.5
452.428	85.5
452.648	82.5
452.869	103.5
453.089	98.5
453.31	88.5
453.53	95.5
453.751	85.5
453.971	70.5
454.192	97.5
454.412	89.5
454.633	92.5
454.853	88.5
455.073	81.5
455.294	105.5
455.514	89.5
455.734	83.5
455.955	79.5
456.175	63.5
456.395	97.5
456.616	93.5
456.836	95.5
457.056	84.5
457.276	99.5
457.497	82.5
457.717	88.5
457.937	116.5
458.157	122.5
458.377	136.5
458.598	120.5
458.818	129.5
459.038	106.5
459.258	89.5
459.478	81.5
459.698	83.5
459.918	94.5
460.138	94.5
460.358	104.5
460.578	109.5
460.798	135.5
461.018	124.5
461.238	95.5
461.458	89.5
461.678	79.5
461.898	72.5
462.118	90.5
462.338	82.5
462.558	74.5
462.777	76.5
462.997	87.5
463.217	83.5
463.437	91.5
463.657	97.5
463.876	98.5
464.096	64.5
464.316	94.5
464.536	102.5
464.755	83.5
464.975	87.5
465.195	85.5
465.414	95.5
465.634	61.5
465.854	86.5
466.073	85.5
466.293	90.5
466.512	100.5
466.732	94.5
466.951	84.5
467.171	98.5
467.391	83.5
467.61	75.5
467.829	88.5
468.049	104.5
468.268	86.5
468.488	95.5
468.707	96.5
468.927	90.5
469.146	100.5
469.365	89.5
469.585	72.5
469.804	86.5
470.023	91.5
470.243	105.5
470.462	89.5
470.681	92.5
470.901	90.5
471.12	105.5
471.339	89.5
471.558	85.5
471.777	95.5
471.997	86.5
472.216	92.5
472.435	104.5
472.654	95.5
472.873	84.5
473.092	87.5
473.311	80.5
473.53	82.5
473.749	80.5
473.968	95.5
474.187	86.5
474.406	86.5
474.625	98.5
474.844	97.5
475.063	90.5
475.282	90.5
475.501	87.5
475.72	94.5
475.939	75.5
476.158	99.5
476.377	85.5
476.596	80.5
476.814	76.5
477.033	92.5
477.252	88.5
477.471	90.5
477.69	93.5
477.908	87.5
478.127	84.5
478.346	99.5
478.564	95.5
478.783	90.5
479.002	80.5
479.22	78.5
479.439	77.5
479.658	93.5
479.876	86.5
480.095	93.5
480.313	71.5
480.532	86.5
480.751	70.5
480.969	88.5
481.188	93.5
481.406	95.5
481.624	99.5
481.843	92.5
482.061	85.5
482.28	80.5
482.498	92.5
482.717	90.5
482.935	79.5
483.153	102.5
483.372	90.5
483.59	86.5
483.808	92.5
484.027	88.5
484.245	77.5
484.463	98.5
484.681	94.5
484.9	85.5
485.118	91.5
485.336	88.5
485.554	80.5
485.772	94.5
485.99	93.5
486.209	98.5
486.427	98.5
486.645	100.5
486.863	88.5
487.081	90.5
487.299	93.5
487.517	103.5
487.735	113.5
487.953	167.5
488.171	160.5
488.389	98.5
488.607	88.5
488.825	91.5
489.043	85.5
489.261	107.5
489.479	93.5
489.696	82.5
489.914	89.5
490.132	84.5
490.35	101.5
490.568	102.5
490.786	79.5
491.003	85.5
491.221	109.5
491.439	92.5
491.657	74.5
491.874	96.5
492.092	92.5
492.31	86.5
492.527	92.5
492.745	83.5
492.963	95.5
493.18	98.5
493.398	93.5
493.615	98.5
493.833	87.5
494.05	94.5
494.268	100.5
494.485	95.5
494.703	84.5
494.92	90.5
495.138	103.5
495.355	99.5
495.573	88.5
495.79	95.5
496.008	93.5
496.225	88.5
496.442	101.5
496.66	105.5
496.877	98.5
497.094	99.5
497.312	84.5
497.529	114.5
497.746	114.5
497.963	107.5
498.181	98.5
498.398	95.5
498.615	86.5
498.832	75.5
499.049	104.5
499.267	85.5
499.484	106.5
499.701	101.5
499.918	97.5
500.135	95.5
500.352	94.5
500.569	71.5
500.786	99.5
501.003	102.5
501.22	99.5
501.437	88.5
501.654	92.5
501.871	86.5
502.088	98.5
502.305	106.5
502.522	119.5
502.739	100.5
502.956	102.5
503.172	79.5
503.389	90.5
503.606	80.5
503.823	108.5
504.04	115.5
504.256	133.5
504.473	140.5
504.69	107.5
504.907	93.5
505.123	87.5
505.34	93.5
505.557	96.5
505.773	90.5
505.99	88.5
506.207	84.5
506.423	78.5
506.64	104.5
506.856	90.5
507.073	104.5
507.289	96.5
507.506	110.5
507.722	84.5
507.939	86.5
508.155	99.5
508.372	96.5
508.588	84.5
508.805	90.5
509.021	100.5
509.238	86.5
509.454	90.5
509.67	91.5
509.887	90.5
510.103	94.5
510.319	97.5
510.536	103.5
510.752	86.5
510.968	95.5
511.184	82.5
511.401	90.5
511.617	114.5
511.833	106.5
512.049	90.5
512.265	84.5
512.481	94.5
512.698	96.5
512.914	94.5
513.13	92.5
513.346	93.5
513.562	92.5
513.778	87.5
513.994	88.5
514.21	91.5
514.426	85.5
514.642	93.5
514.858	91.5
515.074	93.5
515.29	75.5
515.506	79.5
515.721	86.5
515.937	91.5
516.153	77.5
516.369	98.5
516.585	79.5
516.801	81.5
517.016	98.5
517.232	90.5
517.448	88.5
517.664	85.5
517.879	90.5
518.095	87.5
518.311	97.5
518.527	108.5
518.742	109.5
518.958	142.5
519.173	135.5
519.389	118.5
519.605	97.5
519.82	83.5
520.036	82.5
520.251	95.5
520.467	98.5
520.682	84.5
520.898	88.5
521.113	99.5
521.329	86.5
521.544	102.5
521.76	91.5
521.975	79.5
522.19	98.5
522.406	78.5
522.621	74.5
522.836	90.5
523.052	107.5
523.267	93.5
523.482	99.5
523.698	87.5
523.913	86.5
524.128	92.5
524.343	93.5
524.559	93.5
524.774	94.5
524.989	95.5
525.204	77.5
525.419	85.5
525.634	114.5
525.849	110.5
526.064	130.5
526.28	218.5
526.495	346.5
526.71	349.5
526.925	236.5
527.14	355.5
527.355	324.5
527.57	134.5
527.785	103.5
527.999	97.5
528.214	83.5
528.429	100.5
528.644	103.5
528.859	101.5
529.074	71.5
529.289	103.5
529.503	77.5
529.718	90.5
529.933	86.5
530.148	95.5
530.363	91.5
530.577	87.5
530.792	87.5
531.007	83.5
531.221	84.5
531.436	86.5
531.651	104.5
531.865	93.5
532.08	79.5
532.295	99.5
532.509	95.5
532.724	94.5
532.938	104.5
533.153	90.5
533.367	79.5
533.582	77.5
533.796	104.5
534.011	94.5
534.225	108.5
534.44	110.5
534.654	121.5
534.868	129.5
535.083	172.5
535.297	152.5
535.511	113.5
535.726	89.5
535.94	93.5
536.154	98.5
536.369	95.5
536.583	103.5
536.797	106.5
537.011	100.5
