Data from 2145_1_HRD10591_00015.txt Node
Date: Mon Jan 19 14:21:16 EST 2026
User: Yrep
Spectrometer: HR+D1059
Trigger mode: 1
Integration Time (sec): 1.000000E-1
Scans to average: 1
Electric dark correction enabled: true
Nonlinearity correction enabled: false
Boxcar width: 0
XAxis mode: Wavelengths
Number of Pixels in Spectrum: 2048
>>>>>Begin Spectral Data<<<<<
223.165	-27.19
223.4	-27.19
223.635	-27.19
223.869	-24.19
224.104	-16.19
224.338	-26.19
224.573	-1.19
224.808	-9.19
225.042	-13.19
225.277	-10.19
225.511	-9.19
225.746	4.81
225.98	0.81
226.215	20.81
226.449	28.81
226.683	31.81
226.918	14.81
227.152	34.81
227.387	48.81
227.621	28.81
227.856	43.81
228.09	54.81
228.324	57.81
228.559	63.81
228.793	47.81
229.027	43.81
229.262	63.81
229.496	70.81
229.73	65.81
229.964	63.81
230.199	69.81
230.433	69.81
230.667	72.81
230.901	66.81
231.136	65.81
231.37	79.81
231.604	75.81
231.838	88.81
232.072	76.81
232.306	85.81
232.541	81.81
232.775	69.81
233.009	75.81
233.243	74.81
233.477	92.81
233.711	83.81
233.945	83.81
234.179	72.81
234.413	91.81
234.647	73.81
234.881	72.81
235.115	82.81
235.349	80.81
235.583	88.81
235.817	83.81
236.051	74.81
236.285	65.81
236.519	73.81
236.753	66.81
236.987	72.81
237.221	78.81
237.455	63.81
237.689	77.81
237.922	70.81
238.156	73.81
238.39	70.81
238.624	61.81
238.858	79.81
239.091	71.81
239.325	70.81
239.559	73.81
239.793	71.81
240.027	78.81
240.26	73.81
240.494	82.81
240.728	69.81
240.961	62.81
241.195	78.81
241.429	90.81
241.662	60.81
241.896	77.81
242.13	81.81
242.363	66.81
242.597	67.81
242.83	78.81
243.064	83.81
243.298	87.81
243.531	77.81
243.765	63.81
243.998	75.81
244.232	70.81
244.465	75.81
244.699	82.81
244.932	63.81
245.166	71.81
245.399	75.81
245.633	72.81
245.866	65.81
246.099	66.81
246.333	62.81
246.566	91.81
246.8	76.81
247.033	81.81
247.266	76.81
247.5	65.81
247.733	67.81
247.966	66.81
248.2	75.81
248.433	70.81
248.666	75.81
248.899	87.81
249.133	79.81
249.366	72.81
249.599	75.81
249.832	65.81
250.066	76.81
250.299	81.81
250.532	71.81
250.765	78.81
250.998	71.81
251.231	66.81
251.465	73.81
251.698	83.81
251.931	81.81
252.164	84.81
252.397	79.81
252.63	85.81
252.863	88.81
253.096	80.81
253.329	74.81
253.562	85.81
253.795	88.81
254.028	72.81
254.261	75.81
254.494	89.81
254.727	87.81
254.96	85.81
255.193	83.81
255.426	76.81
255.659	90.81
255.892	77.81
256.124	71.81
256.357	73.81
256.59	65.81
256.823	72.81
257.056	78.81
257.289	71.81
257.521	80.81
257.754	88.81
257.987	70.81
258.22	86.81
258.452	80.81
258.685	85.81
258.918	79.81
259.151	79.81
259.383	87.81
259.616	72.81
259.849	74.81
260.081	87.81
260.314	83.81
260.547	73.81
260.779	78.81
261.012	67.81
261.244	78.81
261.477	86.81
261.71	77.81
261.942	70.81
262.175	72.81
262.407	67.81
262.64	76.81
262.872	84.81
263.105	78.81
263.337	75.81
263.57	69.81
263.802	83.81
264.035	75.81
264.267	89.81
264.499	75.81
264.732	69.81
264.964	89.81
265.197	81.81
265.429	82.81
265.661	93.81
265.894	81.81
266.126	85.81
266.358	73.81
266.591	88.81
266.823	72.81
267.055	83.81
267.287	77.81
267.52	78.81
267.752	71.81
267.984	70.81
268.216	83.81
268.448	88.81
268.681	76.81
268.913	76.81
269.145	83.81
269.377	77.81
269.609	84.81
269.841	82.81
270.073	87.81
270.306	79.81
270.538	71.81
270.77	78.81
271.002	75.81
271.234	86.81
271.466	77.81
271.698	83.81
271.93	82.81
272.162	90.81
272.394	81.81
272.626	83.81
272.858	83.81
273.09	82.81
273.322	72.81
273.553	77.81
273.785	87.81
274.017	86.81
274.249	83.81
274.481	72.81
274.713	67.81
274.945	75.81
275.176	80.81
275.408	75.81
275.64	82.81
275.872	72.81
276.104	80.81
276.335	90.81
276.567	81.81
276.799	77.81
277.031	80.81
277.262	77.81
277.494	97.81
277.726	85.81
277.957	95.81
278.189	79.81
278.421	72.81
278.652	89.81
278.884	93.81
279.115	100.81
279.347	94.81
279.579	91.81
279.81	81.81
280.042	88.81
280.273	86.81
280.505	85.81
280.736	81.81
280.968	98.81
281.199	85.81
281.431	79.81
281.662	85.81
281.894	85.81
282.125	84.81
282.356	74.81
282.588	82.81
282.819	71.81
283.051	75.81
283.282	71.81
283.513	80.81
283.745	64.81
283.976	63.81
284.207	70.81
284.439	71.81
284.67	91.81
284.901	84.81
285.132	86.81
285.364	82.81
285.595	86.81
285.826	78.81
286.057	85.81
286.288	89.81
286.52	75.81
286.751	75.81
286.982	70.81
287.213	87.81
287.444	92.81
287.675	95.81
287.906	93.81
288.138	86.81
288.369	78.81
288.6	71.81
288.831	84.81
289.062	87.81
289.293	82.81
289.524	85.81
289.755	79.81
289.986	84.81
290.217	85.81
290.448	78.81
290.679	77.81
290.91	83.81
291.141	86.81
291.371	74.81
291.602	89.81
291.833	92.81
292.064	83.81
292.295	76.81
292.526	75.81
292.757	87.81
292.987	101.81
293.218	83.81
293.449	79.81
293.68	88.81
293.91	88.81
294.141	81.81
294.372	71.81
294.603	65.81
294.833	82.81
295.064	79.81
295.295	93.81
295.525	84.81
295.756	99.81
295.987	91.81
296.217	86.81
296.448	82.81
296.679	76.81
296.909	81.81
297.14	92.81
297.37	82.81
297.601	98.81
297.831	78.81
298.062	83.81
298.292	78.81
298.523	89.81
298.753	84.81
298.984	83.81
299.214	91.81
299.445	97.81
299.675	103.81
299.905	97.81
300.136	105.81
300.366	98.81
300.597	93.81
300.827	99.81
301.057	74.81
301.288	75.81
301.518	87.81
301.748	83.81
301.979	87.81
302.209	101.81
302.439	79.81
302.669	97.81
302.9	78.81
303.13	64.81
303.36	94.81
303.59	82.81
303.82	82.81
304.051	78.81
304.281	83.81
304.511	87.81
304.741	76.81
304.971	75.81
305.201	83.81
305.431	69.81
305.661	83.81
305.891	76.81
306.121	78.81
306.352	94.81
306.582	79.81
306.812	90.81
307.042	95.81
307.272	78.81
307.502	90.81
307.731	79.81
307.961	79.81
308.191	90.81
308.421	102.81
308.651	79.81
308.881	81.81
309.111	113.81
309.341	101.81
309.571	79.81
309.8	97.81
310.03	82.81
310.26	88.81
310.49	78.81
310.72	87.81
310.949	83.81
311.179	90.81
311.409	70.81
311.639	94.81
311.868	78.81
312.098	93.81
312.328	94.81
312.557	79.81
312.787	75.81
313.017	79.81
313.246	102.81
313.476	97.81
313.706	72.81
313.935	82.81
314.165	88.81
314.394	71.81
314.624	77.81
314.853	80.81
315.083	89.81
315.312	101.81
315.542	97.81
315.771	103.81
316.001	113.81
316.23	99.81
316.46	93.81
316.689	84.81
316.919	91.81
317.148	101.81
317.377	89.81
317.607	98.81
317.836	95.81
318.065	116.81
318.295	109.81
318.524	80.81
318.753	92.81
318.983	97.81
319.212	90.81
319.441	87.81
319.67	87.81
319.9	83.81
320.129	76.81
320.358	82.81
320.587	90.81
320.816	88.81
321.046	90.81
321.275	98.81
321.504	80.81
321.733	88.81
321.962	85.81
322.191	82.81
322.42	85.81
322.649	101.81
322.878	87.81
323.108	86.81
323.337	96.81
323.566	81.81
323.795	99.81
324.024	66.81
324.253	83.81
324.482	91.81
324.71	86.81
324.939	95.81
325.168	87.81
325.397	80.81
325.626	89.81
325.855	76.81
326.084	82.81
326.313	81.81
326.542	83.81
326.77	87.81
326.999	84.81
327.228	86.81
327.457	94.81
327.686	96.81
327.914	86.81
328.143	86.81
328.372	69.81
328.6	81.81
328.829	82.81
329.058	88.81
329.287	60.81
329.515	81.81
329.744	80.81
329.972	84.81
330.201	74.81
330.43	78.81
330.658	82.81
330.887	85.81
331.115	91.81
331.344	81.81
331.572	81.81
331.801	74.81
332.03	81.81
332.258	86.81
332.486	89.81
332.715	90.81
332.943	88.81
333.172	83.81
333.4	82.81
333.629	90.81
333.857	84.81
334.085	87.81
334.314	92.81
334.542	83.81
334.771	113.81
334.999	103.81
335.227	96.81
335.455	97.81
335.684	91.81
335.912	111.81
336.14	106.81
336.369	123.81
336.597	84.81
336.825	84.81
337.053	86.81
337.281	92.81
337.51	86.81
337.738	103.81
337.966	94.81
338.194	91.81
338.422	85.81
338.65	93.81
338.878	93.81
339.106	68.81
339.334	87.81
339.562	85.81
339.79	97.81
340.018	77.81
340.246	85.81
340.474	83.81
340.702	95.81
340.93	100.81
341.158	89.81
341.386	84.81
341.614	89.81
341.842	90.81
342.07	83.81
342.298	95.81
342.526	90.81
342.754	85.81
342.981	85.81
343.209	96.81
343.437	96.81
343.665	93.81
343.893	83.81
344.12	87.81
344.348	103.81
344.576	83.81
344.804	93.81
345.031	79.81
345.259	86.81
345.487	75.81
345.714	93.81
345.942	96.81
346.17	81.81
346.397	104.81
346.625	87.81
346.853	99.81
347.08	82.81
347.308	87.81
347.535	100.81
347.763	81.81
347.99	74.81
348.218	94.81
348.445	76.81
348.673	105.81
348.9	87.81
349.128	90.81
349.355	85.81
349.583	89.81
349.81	71.81
350.037	94.81
350.265	92.81
350.492	87.81
350.72	90.81
350.947	101.81
351.174	69.81
351.402	88.81
351.629	75.81
351.856	79.81
352.083	85.81
352.311	80.81
352.538	87.81
352.765	85.81
352.992	73.81
353.22	89.81
353.447	79.81
353.674	92.81
353.901	96.81
354.128	83.81
354.355	79.81
354.583	90.81
354.81	76.81
355.037	89.81
355.264	92.81
355.491	94.81
355.718	86.81
355.945	82.81
356.172	84.81
356.399	99.81
356.626	85.81
356.853	92.81
357.08	87.81
357.307	93.81
357.534	69.81
357.761	84.81
357.988	88.81
358.215	92.81
358.441	101.81
358.668	97.81
358.895	89.81
359.122	79.81
359.349	96.81
359.576	101.81
359.802	83.81
360.029	94.81
360.256	83.81
360.483	91.81
360.709	93.81
360.936	109.81
361.163	88.81
361.39	67.81
361.616	77.81
361.843	93.81
362.07	110.81
362.296	102.81
362.523	137.81
362.749	125.81
362.976	139.81
363.203	166.81
363.429	119.81
363.656	101.81
363.882	112.81
364.109	138.81
364.335	182.81
364.562	203.81
364.788	133.81
365.015	111.81
365.241	92.81
365.468	95.81
365.694	83.81
365.92	78.81
366.147	90.81
366.373	83.81
366.599	92.81
366.826	89.81
367.052	89.81
367.278	90.81
367.505	84.81
367.731	88.81
367.957	91.81
368.184	94.81
368.41	74.81
368.636	96.81
368.862	89.81
369.089	84.81
369.315	96.81
369.541	87.81
369.767	88.81
369.993	93.81
370.219	83.81
370.445	80.81
370.672	90.81
370.898	99.81
371.124	93.81
371.35	88.81
371.576	79.81
371.802	92.81
372.028	97.81
372.254	92.81
372.48	93.81
372.706	91.81
372.932	88.81
373.158	94.81
373.384	103.81
373.61	129.81
373.835	117.81
374.061	100.81
374.287	86.81
374.513	98.81
374.739	95.81
374.965	109.81
375.191	92.81
375.416	79.81
375.642	98.81
375.868	94.81
376.094	102.81
376.319	89.81
376.545	99.81
376.771	88.81
376.997	87.81
377.222	82.81
377.448	83.81
377.674	81.81
377.899	93.81
378.125	95.81
378.35	87.81
378.576	90.81
378.802	89.81
379.027	103.81
379.253	88.81
379.478	85.81
379.704	85.81
379.929	89.81
380.155	82.81
380.38	89.81
380.606	81.81
380.831	78.81
381.057	97.81
381.282	101.81
381.507	91.81
381.733	97.81
381.958	104.81
382.184	96.81
382.409	91.81
382.634	110.81
382.86	95.81
383.085	112.81
383.31	98.81
383.535	98.81
383.761	114.81
383.986	106.81
384.211	106.81
384.436	88.81
384.662	101.81
384.887	81.81
385.112	92.81
385.337	105.81
385.562	95.81
385.787	89.81
386.013	113.81
386.238	109.81
386.463	89.81
386.688	124.81
386.913	76.81
387.138	83.81
387.363	110.81
387.588	101.81
387.813	90.81
388.038	98.81
388.263	101.81
388.488	82.81
388.713	94.81
388.938	87.81
389.163	95.81
389.387	112.81
389.612	81.81
389.837	97.81
390.062	91.81
390.287	99.81
390.512	87.81
390.736	85.81
390.961	93.81
391.186	92.81
391.411	112.81
391.636	104.81
391.86	98.81
392.085	106.81
392.31	118.81
392.534	101.81
392.759	148.81
392.984	241.81
393.208	449.81
393.433	711.81
393.658	520.81
393.882	210.81
394.107	130.81
394.331	140.81
394.556	146.81
394.78	129.81
395.005	110.81
395.229	88.81
395.454	117.81
395.678	136.81
395.903	149.81
396.127	176.81
396.352	199.81
396.576	268.81
396.801	429.81
397.025	563.81
397.249	265.81
397.474	173.81
397.698	147.81
397.922	109.81
398.147	95.81
398.371	98.81
398.595	105.81
398.82	93.81
399.044	99.81
399.268	87.81
399.492	93.81
399.717	89.81
399.941	94.81
400.165	97.81
400.389	90.81
400.613	92.81
400.837	80.81
401.062	69.81
401.286	87.81
401.51	73.81
401.734	95.81
401.958	88.81
402.182	100.81
402.406	78.81
402.63	89.81
402.854	87.81
403.078	86.81
403.302	95.81
403.526	101.81
403.75	96.81
403.974	91.81
404.198	114.81
404.422	150.81
404.645	166.81
404.869	130.81
405.093	97.81
405.317	88.81
405.541	98.81
405.765	90.81
405.988	82.81
406.212	83.81
406.436	93.81
406.66	103.81
406.883	98.81
407.107	84.81
407.331	97.81
407.555	104.81
407.778	146.81
408.002	126.81
408.226	103.81
408.449	101.81
408.673	95.81
408.896	99.81
409.12	94.81
409.344	102.81
409.567	131.81
409.791	115.81
410.014	111.81
410.238	101.81
410.461	89.81
410.685	99.81
410.908	89.81
411.132	103.81
411.355	83.81
411.578	91.81
411.802	73.81
412.025	86.81
412.249	89.81
412.472	111.81
412.695	91.81
412.919	78.81
413.142	97.81
413.365	86.81
413.589	79.81
413.812	87.81
414.035	74.81
414.258	95.81
414.482	98.81
414.705	91.81
414.928	87.81
415.151	78.81
415.374	81.81
415.597	90.81
415.821	93.81
416.044	90.81
416.267	93.81
416.49	76.81
416.713	78.81
416.936	104.81
417.159	75.81
417.382	87.81
417.605	73.81
417.828	88.81
418.051	87.81
418.274	90.81
418.497	81.81
418.72	94.81
418.943	94.81
419.166	88.81
419.389	83.81
419.611	96.81
419.834	85.81
420.057	103.81
420.28	97.81
420.503	107.81
420.726	117.81
420.948	107.81
421.171	113.81
421.394	134.81
421.617	167.81
421.839	181.81
422.062	197.81
422.285	290.81
422.507	500.81
422.73	753.81
422.953	671.81
423.175	365.81
423.398	200.81
423.621	156.81
423.843	128.81
424.066	113.81
424.288	116.81
424.511	112.81
424.733	75.81
424.956	93.81
425.178	93.81
425.401	93.81
425.623	94.81
425.846	90.81
426.068	98.81
426.291	86.81
426.513	106.81
426.735	96.81
426.958	90.81
427.18	91.81
427.402	89.81
427.625	89.81
427.847	87.81
428.069	126.81
428.292	176.81
428.514	203.81
428.736	145.81
428.958	189.81
429.181	184.81
429.403	128.81
429.625	105.81
429.847	158.81
430.069	260.81
430.292	305.81
430.514	298.81
430.736	201.81
430.958	223.81
431.18	129.81
431.402	98.81
431.624	108.81
431.846	191.81
432.068	207.81
432.29	115.81
432.512	89.81
432.734	104.81
432.956	79.81
433.178	88.81
433.4	83.81
433.622	91.81
433.844	79.81
434.066	94.81
434.287	85.81
434.509	90.81
434.731	82.81
434.953	85.81
435.175	91.81
435.397	98.81
435.618	101.81
435.84	82.81
436.062	106.81
436.284	99.81
436.505	80.81
436.727	92.81
436.949	73.81
437.17	90.81
437.392	82.81
437.614	99.81
437.835	87.81
438.057	77.81
438.278	83.81
438.5	94.81
438.721	93.81
438.943	79.81
439.165	83.81
439.386	82.81
439.608	96.81
439.829	76.81
440.05	95.81
440.272	76.81
440.493	86.81
440.715	99.81
440.936	89.81
441.158	87.81
441.379	87.81
441.6	91.81
441.822	91.81
442.043	96.81
442.264	123.81
442.486	207.81
442.707	308.81
442.928	170.81
443.149	147.81
443.371	240.81
443.592	475.81
443.813	405.81
444.034	157.81
444.255	106.81
444.476	92.81
444.698	104.81
444.919	112.81
445.14	243.81
445.361	327.81
445.582	559.81
445.803	470.81
446.024	171.81
446.245	119.81
446.466	91.81
446.687	101.81
446.908	82.81
447.129	89.81
447.35	97.81
447.571	91.81
447.792	73.81
448.013	95.81
448.234	87.81
448.455	92.81
448.675	89.81
448.896	82.81
449.117	88.81
449.338	75.81
449.559	75.81
449.779	88.81
450	80.81
450.221	75.81
450.442	93.81
450.662	98.81
450.883	84.81
451.104	105.81
451.324	106.81
451.545	85.81
451.766	82.81
451.986	83.81
452.207	82.81
452.428	91.81
452.648	113.81
452.869	122.81
453.089	105.81
453.31	83.81
453.53	101.81
453.751	92.81
453.971	78.81
454.192	83.81
454.412	89.81
454.633	73.81
454.853	77.81
455.073	85.81
455.294	66.81
455.514	82.81
455.734	80.81
455.955	94.81
456.175	86.81
456.395	105.81
456.616	85.81
456.836	93.81
457.056	89.81
457.276	78.81
457.497	81.81
457.717	106.81
457.937	138.81
458.157	174.81
458.377	193.81
458.598	175.81
458.818	197.81
459.038	129.81
459.258	91.81
459.478	91.81
459.698	71.81
459.918	90.81
460.138	88.81
460.358	82.81
460.578	115.81
460.798	173.81
461.018	148.81
461.238	100.81
461.458	87.81
461.678	75.81
461.898	84.81
462.118	78.81
462.338	98.81
462.558	81.81
462.777	80.81
462.997	87.81
463.217	87.81
463.437	86.81
463.657	78.81
463.876	85.81
464.096	90.81
464.316	66.81
464.536	90.81
464.755	86.81
464.975	98.81
465.195	82.81
465.414	83.81
465.634	83.81
465.854	81.81
466.073	73.81
466.293	81.81
466.512	93.81
466.732	94.81
466.951	88.81
467.171	80.81
467.391	82.81
467.61	89.81
467.829	74.81
468.049	91.81
468.268	74.81
468.488	97.81
468.707	109.81
468.927	77.81
469.146	81.81
469.365	90.81
469.585	76.81
469.804	71.81
470.023	75.81
470.243	96.81
470.462	87.81
470.681	79.81
470.901	95.81
471.12	74.81
471.339	97.81
471.558	89.81
471.777	77.81
471.997	89.81
472.216	80.81
472.435	89.81
472.654	90.81
472.873	78.81
473.092	77.81
473.311	86.81
473.53	67.81
473.749	95.81
473.968	85.81
474.187	82.81
474.406	106.81
474.625	90.81
474.844	87.81
475.063	85.81
475.282	86.81
475.501	80.81
475.72	78.81
475.939	101.81
476.158	82.81
476.377	81.81
476.596	86.81
476.814	97.81
477.033	94.81
477.252	104.81
477.471	85.81
477.69	77.81
477.908	76.81
478.127	73.81
478.346	82.81
478.564	90.81
478.783	92.81
479.002	93.81
479.22	79.81
479.439	88.81
479.658	77.81
479.876	83.81
480.095	86.81
480.313	94.81
480.532	77.81
480.751	95.81
480.969	83.81
481.188	96.81
481.406	93.81
481.624	99.81
481.843	73.81
482.061	84.81
482.28	83.81
482.498	88.81
482.717	82.81
482.935	100.81
483.153	101.81
483.372	102.81
483.59	91.81
483.808	87.81
484.027	110.81
484.245	90.81
484.463	81.81
484.681	106.81
484.9	85.81
485.118	91.81
485.336	93.81
485.554	90.81
485.772	90.81
485.99	89.81
486.209	88.81
486.427	96.81
486.645	93.81
486.863	89.81
487.081	100.81
487.299	99.81
487.517	118.81
487.735	163.81
487.953	282.81
488.171	220.81
488.389	108.81
488.607	92.81
488.825	78.81
489.043	75.81
489.261	93.81
489.479	84.81
489.696	90.81
489.914	80.81
490.132	79.81
490.35	99.81
490.568	94.81
490.786	95.81
491.003	79.81
491.221	94.81
491.439	93.81
491.657	103.81
491.874	89.81
492.092	88.81
492.31	70.81
492.527	90.81
492.745	80.81
492.963	81.81
493.18	91.81
493.398	92.81
493.615	101.81
493.833	87.81
494.05	86.81
494.268	91.81
494.485	94.81
494.703	90.81
494.92	74.81
495.138	83.81
495.355	91.81
495.573	85.81
495.79	99.81
496.008	96.81
496.225	80.81
496.442	86.81
496.66	99.81
496.877	89.81
497.094	89.81
497.312	80.81
497.529	92.81
497.746	90.81
497.963	98.81
498.181	93.81
498.398	106.81
498.615	101.81
498.832	79.81
499.049	94.81
499.267	98.81
499.484	83.81
499.701	87.81
499.918	79.81
500.135	104.81
500.352	79.81
500.569	96.81
500.786	84.81
501.003	93.81
501.22	83.81
501.437	81.81
501.654	98.81
501.871	82.81
502.088	74.81
502.305	91.81
502.522	89.81
502.739	91.81
502.956	74.81
503.172	93.81
503.389	87.81
503.606	85.81
503.823	119.81
504.04	125.81
504.256	198.81
504.473	208.81
504.69	110.81
504.907	99.81
505.123	96.81
505.34	89.81
505.557	73.81
505.773	94.81
505.99	92.81
506.207	85.81
506.423	82.81
506.64	82.81
506.856	95.81
507.073	71.81
507.289	90.81
507.506	88.81
507.722	95.81
507.939	86.81
508.155	78.81
508.372	91.81
508.588	100.81
508.805	93.81
509.021	94.81
509.238	89.81
509.454	80.81
509.67	102.81
509.887	91.81
510.103	101.81
510.319	93.81
510.536	94.81
510.752	88.81
510.968	93.81
511.184	87.81
511.401	98.81
511.617	85.81
511.833	81.81
512.049	88.81
512.265	105.81
512.481	88.81
512.698	94.81
512.914	93.81
513.13	87.81
513.346	90.81
513.562	96.81
513.778	88.81
513.994	106.81
514.21	95.81
514.426	74.81
514.642	87.81
514.858	96.81
515.074	92.81
515.29	96.81
515.506	96.81
515.721	78.81
515.937	84.81
516.153	93.81
516.369	80.81
516.585	90.81
516.801	95.81
517.016	80.81
