Data from 2145_1_HRD10591_00005.txt Node
Date: Mon Jan 19 14:21:11 EST 2026
User: Yrep
Spectrometer: HR+D1059
Trigger mode: 1
Integration Time (sec): 1.000000E-1
Scans to average: 1
Electric dark correction enabled: true
Nonlinearity correction enabled: false
Boxcar width: 0
XAxis mode: Wavelengths
Number of Pixels in Spectrum: 2048
>>>>>Begin Spectral Data<<<<<
223.165	-14.38
223.4	-14.38
223.635	-14.38
223.869	-16.38
224.104	-5.38
224.338	-8.38
224.573	-12.38
224.808	-16.38
225.042	-15.38
225.277	-14.38
225.511	5.62
225.746	0.62
225.98	5.62
226.215	12.62
226.449	8.62
226.683	23.62
226.918	22.62
227.152	23.62
227.387	44.62
227.621	49.62
227.856	49.62
228.09	55.62
228.324	49.62
228.559	65.62
228.793	56.62
229.027	54.62
229.262	71.62
229.496	69.62
229.73	55.62
229.964	66.62
230.199	75.62
230.433	75.62
230.667	77.62
230.901	82.62
231.136	79.62
231.37	87.62
231.604	85.62
231.838	85.62
232.072	75.62
232.306	91.62
232.541	89.62
232.775	76.62
233.009	87.62
233.243	83.62
233.477	87.62
233.711	71.62
233.945	70.62
234.179	81.62
234.413	91.62
234.647	75.62
234.881	85.62
235.115	75.62
235.349	80.62
235.583	69.62
235.817	77.62
236.051	81.62
236.285	77.62
236.519	79.62
236.753	69.62
236.987	81.62
237.221	71.62
237.455	62.62
237.689	61.62
237.922	71.62
238.156	87.62
238.39	69.62
238.624	75.62
238.858	62.62
239.091	71.62
239.325	89.62
239.559	68.62
239.793	75.62
240.027	58.62
240.26	84.62
240.494	76.62
240.728	81.62
240.961	71.62
241.195	83.62
241.429	67.62
241.662	59.62
241.896	71.62
242.13	69.62
242.363	72.62
242.597	76.62
242.83	77.62
243.064	61.62
243.298	80.62
243.531	75.62
243.765	72.62
243.998	75.62
244.232	80.62
244.465	67.62
244.699	76.62
244.932	91.62
245.166	80.62
245.399	75.62
245.633	78.62
245.866	84.62
246.099	83.62
246.333	73.62
246.566	79.62
246.8	65.62
247.033	77.62
247.266	77.62
247.5	90.62
247.733	82.62
247.966	76.62
248.2	75.62
248.433	83.62
248.666	81.62
248.899	87.62
249.133	79.62
249.366	81.62
249.599	80.62
249.832	72.62
250.066	84.62
250.299	75.62
250.532	79.62
250.765	76.62
250.998	69.62
251.231	71.62
251.465	77.62
251.698	78.62
251.931	78.62
252.164	85.62
252.397	88.62
252.63	94.62
252.863	71.62
253.096	84.62
253.329	93.62
253.562	81.62
253.795	83.62
254.028	72.62
254.261	85.62
254.494	75.62
254.727	78.62
254.96	88.62
255.193	87.62
255.426	70.62
255.659	81.62
255.892	87.62
256.124	90.62
256.357	74.62
256.59	95.62
256.823	79.62
257.056	68.62
257.289	92.62
257.521	75.62
257.754	80.62
257.987	91.62
258.22	84.62
258.452	79.62
258.685	79.62
258.918	86.62
259.151	82.62
259.383	75.62
259.616	91.62
259.849	95.62
260.081	95.62
260.314	80.62
260.547	75.62
260.779	77.62
261.012	84.62
261.244	84.62
261.477	95.62
261.71	81.62
261.942	78.62
262.175	81.62
262.407	67.62
262.64	89.62
262.872	87.62
263.105	78.62
263.337	85.62
263.57	89.62
263.802	68.62
264.035	68.62
264.267	84.62
264.499	82.62
264.732	87.62
264.964	70.62
265.197	76.62
265.429	75.62
265.661	82.62
265.894	76.62
266.126	77.62
266.358	86.62
266.591	77.62
266.823	86.62
267.055	81.62
267.287	79.62
267.52	77.62
267.752	81.62
267.984	81.62
268.216	67.62
268.448	72.62
268.681	89.62
268.913	83.62
269.145	71.62
269.377	89.62
269.609	72.62
269.841	82.62
270.073	103.62
270.306	90.62
270.538	89.62
270.77	87.62
271.002	87.62
271.234	85.62
271.466	81.62
271.698	86.62
271.93	71.62
272.162	86.62
272.394	81.62
272.626	77.62
272.858	87.62
273.09	83.62
273.322	85.62
273.553	77.62
273.785	83.62
274.017	82.62
274.249	88.62
274.481	81.62
274.713	80.62
274.945	96.62
275.176	81.62
275.408	96.62
275.64	97.62
275.872	85.62
276.104	87.62
276.335	81.62
276.567	80.62
276.799	82.62
277.031	94.62
277.262	89.62
277.494	96.62
277.726	74.62
277.957	70.62
278.189	85.62
278.421	75.62
278.652	96.62
278.884	90.62
279.115	92.62
279.347	97.62
279.579	95.62
279.81	94.62
280.042	91.62
280.273	88.62
280.505	93.62
280.736	83.62
280.968	97.62
281.199	75.62
281.431	80.62
281.662	86.62
281.894	85.62
282.125	93.62
282.356	76.62
282.588	79.62
282.819	97.62
283.051	81.62
283.282	80.62
283.513	77.62
283.745	86.62
283.976	77.62
284.207	99.62
284.439	83.62
284.67	83.62
284.901	88.62
285.132	84.62
285.364	91.62
285.595	79.62
285.826	81.62
286.057	92.62
286.288	81.62
286.52	88.62
286.751	81.62
286.982	92.62
287.213	85.62
287.444	87.62
287.675	83.62
287.906	93.62
288.138	85.62
288.369	84.62
288.6	87.62
288.831	81.62
289.062	81.62
289.293	89.62
289.524	80.62
289.755	92.62
289.986	78.62
290.217	75.62
290.448	85.62
290.679	84.62
290.91	84.62
291.141	88.62
291.371	81.62
291.602	72.62
291.833	99.62
292.064	89.62
292.295	83.62
292.526	90.62
292.757	79.62
292.987	96.62
293.218	93.62
293.449	78.62
293.68	78.62
293.91	85.62
294.141	84.62
294.372	90.62
294.603	83.62
294.833	88.62
295.064	69.62
295.295	77.62
295.525	90.62
295.756	79.62
295.987	87.62
296.217	97.62
296.448	81.62
296.679	88.62
296.909	86.62
297.14	91.62
297.37	89.62
297.601	89.62
297.831	88.62
298.062	91.62
298.292	81.62
298.523	92.62
298.753	71.62
298.984	81.62
299.214	91.62
299.445	96.62
299.675	94.62
299.905	82.62
300.136	97.62
300.366	93.62
300.597	100.62
300.827	97.62
301.057	91.62
301.288	104.62
301.518	79.62
301.748	102.62
301.979	84.62
302.209	94.62
302.439	87.62
302.669	101.62
302.9	91.62
303.13	80.62
303.36	83.62
303.59	95.62
303.82	97.62
304.051	71.62
304.281	87.62
304.511	80.62
304.741	77.62
304.971	103.62
305.201	79.62
305.431	103.62
305.661	91.62
305.891	89.62
306.121	90.62
306.352	84.62
306.582	97.62
306.812	82.62
307.042	93.62
307.272	76.62
307.502	88.62
307.731	83.62
307.961	90.62
308.191	113.62
308.421	91.62
308.651	99.62
308.881	95.62
309.111	97.62
309.341	100.62
309.571	97.62
309.8	91.62
310.03	87.62
310.26	89.62
310.49	81.62
310.72	82.62
310.949	90.62
311.179	83.62
311.409	95.62
311.639	81.62
311.868	90.62
312.098	79.62
312.328	92.62
312.557	84.62
312.787	81.62
313.017	97.62
313.246	87.62
313.476	86.62
313.706	68.62
313.935	104.62
314.165	100.62
314.394	100.62
314.624	94.62
314.853	89.62
315.083	92.62
315.312	75.62
315.542	90.62
315.771	104.62
316.001	83.62
316.23	91.62
316.46	93.62
316.689	87.62
316.919	93.62
317.148	91.62
317.377	100.62
317.607	92.62
317.836	97.62
318.065	91.62
318.295	93.62
318.524	92.62
318.753	100.62
318.983	92.62
319.212	96.62
319.441	102.62
319.67	75.62
319.9	77.62
320.129	95.62
320.358	85.62
320.587	84.62
320.816	89.62
321.046	93.62
321.275	91.62
321.504	90.62
321.733	76.62
321.962	103.62
322.191	79.62
322.42	92.62
322.649	99.62
322.878	87.62
323.108	96.62
323.337	84.62
323.566	107.62
323.795	83.62
324.024	93.62
324.253	86.62
324.482	77.62
324.71	98.62
324.939	84.62
325.168	93.62
325.397	96.62
325.626	91.62
325.855	89.62
326.084	115.62
326.313	90.62
326.542	85.62
326.77	92.62
326.999	73.62
327.228	88.62
327.457	75.62
327.686	95.62
327.914	89.62
328.143	91.62
328.372	89.62
328.6	97.62
328.829	81.62
329.058	93.62
329.287	99.62
329.515	92.62
329.744	85.62
329.972	101.62
330.201	89.62
330.43	74.62
330.658	95.62
330.887	88.62
331.115	79.62
331.344	90.62
331.572	83.62
331.801	85.62
332.03	104.62
332.258	89.62
332.486	85.62
332.715	92.62
332.943	77.62
333.172	68.62
333.4	95.62
333.629	75.62
333.857	102.62
334.085	105.62
334.314	100.62
334.542	100.62
334.771	111.62
334.999	103.62
335.227	91.62
335.455	103.62
335.684	95.62
335.912	95.62
336.14	106.62
336.369	88.62
336.597	101.62
336.825	93.62
337.053	103.62
337.281	90.62
337.51	93.62
337.738	98.62
337.966	76.62
338.194	98.62
338.422	83.62
338.65	99.62
338.878	84.62
339.106	97.62
339.334	93.62
339.562	95.62
339.79	99.62
340.018	94.62
340.246	91.62
340.474	89.62
340.702	83.62
340.93	86.62
341.158	79.62
341.386	97.62
341.614	76.62
341.842	84.62
342.07	85.62
342.298	77.62
342.526	90.62
342.754	98.62
342.981	96.62
343.209	89.62
343.437	98.62
343.665	87.62
343.893	109.62
344.12	101.62
344.348	86.62
344.576	111.62
344.804	87.62
345.031	91.62
345.259	84.62
345.487	100.62
345.714	74.62
345.942	81.62
346.17	85.62
346.397	91.62
346.625	80.62
346.853	95.62
347.08	97.62
347.308	92.62
347.535	97.62
347.763	89.62
347.99	83.62
348.218	93.62
348.445	102.62
348.673	90.62
348.9	95.62
349.128	83.62
349.355	92.62
349.583	83.62
349.81	95.62
350.037	98.62
350.265	100.62
350.492	83.62
350.72	95.62
350.947	90.62
351.174	81.62
351.402	84.62
351.629	92.62
351.856	90.62
352.083	98.62
352.311	99.62
352.538	86.62
352.765	103.62
352.992	96.62
353.22	95.62
353.447	85.62
353.674	93.62
353.901	85.62
354.128	82.62
354.355	76.62
354.583	87.62
354.81	92.62
355.037	89.62
355.264	84.62
355.491	82.62
355.718	80.62
355.945	87.62
356.172	85.62
356.399	99.62
356.626	87.62
356.853	100.62
357.08	105.62
357.307	101.62
357.534	89.62
357.761	93.62
357.988	99.62
358.215	108.62
358.441	97.62
358.668	83.62
358.895	92.62
359.122	92.62
359.349	85.62
359.576	90.62
359.802	86.62
360.029	103.62
360.256	91.62
360.483	99.62
360.709	85.62
360.936	85.62
361.163	95.62
361.39	92.62
361.616	108.62
361.843	90.62
362.07	108.62
362.296	89.62
362.523	124.62
362.749	123.62
362.976	161.62
363.203	177.62
363.429	106.62
363.656	95.62
363.882	128.62
364.109	145.62
364.335	169.62
364.562	191.62
364.788	129.62
365.015	95.62
365.241	102.62
365.468	98.62
365.694	86.62
365.92	94.62
366.147	88.62
366.373	79.62
366.599	104.62
366.826	96.62
367.052	87.62
367.278	97.62
367.505	93.62
367.731	100.62
367.957	95.62
368.184	100.62
368.41	91.62
368.636	83.62
368.862	96.62
369.089	81.62
369.315	87.62
369.541	95.62
369.767	96.62
369.993	88.62
370.219	88.62
370.445	86.62
370.672	95.62
370.898	101.62
371.124	101.62
371.35	90.62
371.576	97.62
371.802	91.62
372.028	88.62
372.254	96.62
372.48	86.62
372.706	103.62
372.932	97.62
373.158	105.62
373.384	131.62
373.61	119.62
373.835	129.62
374.061	108.62
374.287	98.62
374.513	102.62
374.739	115.62
374.965	104.62
375.191	109.62
375.416	98.62
375.642	102.62
375.868	92.62
376.094	88.62
376.319	98.62
376.545	96.62
376.771	89.62
376.997	97.62
377.222	104.62
377.448	101.62
377.674	96.62
377.899	95.62
378.125	95.62
378.35	88.62
378.576	88.62
378.802	91.62
379.027	106.62
379.253	98.62
379.478	95.62
379.704	89.62
379.929	83.62
380.155	93.62
380.38	89.62
380.606	98.62
380.831	93.62
381.057	103.62
381.282	92.62
381.507	104.62
381.733	104.62
381.958	84.62
382.184	112.62
382.409	95.62
382.634	95.62
382.86	112.62
383.085	102.62
383.31	91.62
383.535	109.62
383.761	121.62
383.986	127.62
384.211	101.62
384.436	102.62
384.662	88.62
384.887	85.62
385.112	104.62
385.337	104.62
385.562	103.62
385.787	95.62
386.013	115.62
386.238	116.62
386.463	76.62
386.688	111.62
386.913	106.62
387.138	100.62
387.363	118.62
387.588	115.62
387.813	111.62
388.038	104.62
388.263	107.62
388.488	101.62
388.713	99.62
388.938	90.62
389.163	91.62
389.387	94.62
389.612	98.62
389.837	106.62
390.062	103.62
390.287	105.62
390.512	95.62
390.736	96.62
390.961	100.62
391.186	111.62
391.411	91.62
391.636	100.62
391.86	103.62
392.085	118.62
392.31	86.62
392.534	116.62
392.759	152.62
392.984	197.62
393.208	347.62
393.433	483.62
393.658	384.62
393.882	187.62
394.107	135.62
394.331	133.62
394.556	124.62
394.78	116.62
395.005	126.62
395.229	111.62
395.454	108.62
395.678	129.62
395.903	157.62
396.127	190.62
396.352	231.62
396.576	236.62
396.801	345.62
397.025	384.62
397.249	233.62
397.474	149.62
397.698	122.62
397.922	115.62
398.147	89.62
398.371	101.62
398.595	112.62
398.82	94.62
399.044	92.62
399.268	104.62
399.492	101.62
399.717	101.62
399.941	98.62
400.165	111.62
400.389	97.62
400.613	90.62
400.837	89.62
401.062	91.62
401.286	94.62
401.51	103.62
401.734	108.62
401.958	97.62
402.182	109.62
402.406	100.62
402.63	97.62
402.854	83.62
403.078	90.62
403.302	105.62
403.526	99.62
403.75	101.62
403.974	92.62
404.198	121.62
404.422	175.62
404.645	172.62
404.869	143.62
405.093	106.62
405.317	99.62
405.541	88.62
405.765	84.62
405.988	91.62
406.212	93.62
406.436	92.62
406.66	88.62
406.883	83.62
407.107	86.62
407.331	99.62
407.555	118.62
407.778	129.62
408.002	131.62
408.226	106.62
408.449	89.62
408.673	100.62
408.896	101.62
409.12	101.62
409.344	101.62
409.567	113.62
409.791	120.62
410.014	118.62
410.238	107.62
410.461	106.62
410.685	93.62
410.908	95.62
411.132	94.62
411.355	93.62
411.578	91.62
411.802	97.62
412.025	93.62
412.249	79.62
412.472	92.62
412.695	107.62
412.919	87.62
413.142	81.62
413.365	91.62
413.589	89.62
413.812	84.62
414.035	97.62
414.258	91.62
414.482	103.62
414.705	105.62
414.928	96.62
415.151	89.62
415.374	93.62
415.597	99.62
415.821	87.62
416.044	79.62
416.267	95.62
416.49	101.62
416.713	91.62
416.936	92.62
417.159	75.62
417.382	83.62
417.605	92.62
417.828	103.62
418.051	82.62
418.274	89.62
418.497	84.62
418.72	101.62
418.943	89.62
419.166	88.62
419.389	96.62
419.611	101.62
419.834	109.62
420.057	117.62
420.28	91.62
420.503	116.62
420.726	105.62
420.948	111.62
421.171	113.62
421.394	136.62
421.617	165.62
421.839	156.62
422.062	207.62
422.285	293.62
422.507	440.62
422.73	577.62
422.953	537.62
423.175	359.62
423.398	219.62
423.621	165.62
423.843	139.62
424.066	125.62
424.288	123.62
424.511	121.62
424.733	119.62
424.956	103.62
425.178	95.62
425.401	109.62
425.623	99.62
425.846	97.62
426.068	97.62
426.291	97.62
426.513	102.62
426.735	92.62
426.958	83.62
427.18	88.62
427.402	111.62
427.625	89.62
427.847	107.62
428.069	113.62
428.292	172.62
428.514	205.62
428.736	151.62
428.958	165.62
429.181	171.62
429.403	116.62
429.625	116.62
429.847	161.62
430.069	248.62
430.292	273.62
430.514	259.62
430.736	187.62
430.958	195.62
431.18	124.62
431.402	105.62
431.624	111.62
431.846	163.62
432.068	197.62
432.29	124.62
432.512	103.62
432.734	96.62
432.956	87.62
433.178	99.62
433.4	89.62
433.622	95.62
433.844	89.62
434.066	83.62
434.287	83.62
434.509	97.62
434.731	98.62
434.953	88.62
435.175	82.62
435.397	86.62
435.618	104.62
435.84	94.62
436.062	78.62
436.284	100.62
436.505	93.62
436.727	89.62
436.949	91.62
437.17	97.62
437.392	88.62
437.614	93.62
437.835	97.62
438.057	97.62
438.278	101.62
438.5	99.62
438.721	97.62
438.943	100.62
439.165	100.62
439.386	92.62
439.608	97.62
439.829	103.62
440.05	94.62
440.272	91.62
440.493	77.62
440.715	102.62
440.936	95.62
441.158	87.62
441.379	95.62
441.6	99.62
441.822	92.62
442.043	112.62
442.264	116.62
442.486	197.62
442.707	272.62
442.928	199.62
443.149	147.62
443.371	232.62
443.592	420.62
443.813	343.62
444.034	151.62
444.255	125.62
444.476	103.62
444.698	102.62
444.919	114.62
445.14	231.62
445.361	306.62
445.582	478.62
445.803	407.62
446.024	176.62
446.245	117.62
446.466	102.62
446.687	99.62
446.908	92.62
447.129	84.62
447.35	90.62
447.571	87.62
447.792	85.62
448.013	102.62
448.234	83.62
448.455	87.62
448.675	93.62
448.896	84.62
449.117	99.62
449.338	84.62
449.559	111.62
449.779	94.62
450	102.62
450.221	105.62
450.442	78.62
450.662	83.62
450.883	98.62
451.104	93.62
451.324	89.62
451.545	96.62
451.766	105.62
451.986	101.62
452.207	99.62
452.428	100.62
452.648	103.62
452.869	118.62
453.089	120.62
453.31	100.62
453.53	119.62
453.751	115.62
453.971	102.62
454.192	83.62
454.412	83.62
454.633	88.62
454.853	94.62
455.073	81.62
455.294	88.62
455.514	94.62
455.734	87.62
455.955	100.62
456.175	103.62
456.395	97.62
456.616	87.62
456.836	88.62
457.056	85.62
457.276	85.62
457.497	88.62
457.717	99.62
457.937	128.62
458.157	165.62
458.377	191.62
458.598	170.62
458.818	170.62
459.038	115.62
459.258	99.62
459.478	88.62
459.698	96.62
459.918	85.62
460.138	89.62
460.358	108.62
460.578	118.62
460.798	171.62
461.018	156.62
461.238	105.62
461.458	87.62
461.678	98.62
461.898	85.62
462.118	102.62
462.338	89.62
462.558	91.62
462.777	89.62
462.997	99.62
463.217	87.62
463.437	89.62
463.657	91.62
463.876	97.62
464.096	91.62
464.316	84.62
464.536	91.62
464.755	87.62
464.975	96.62
465.195	98.62
465.414	77.62
465.634	91.62
465.854	76.62
466.073	70.62
466.293	82.62
466.512	72.62
466.732	88.62
466.951	86.62
467.171	93.62
467.391	93.62
467.61	92.62
467.829	105.62
468.049	91.62
468.268	94.62
468.488	93.62
468.707	95.62
468.927	87.62
469.146	89.62
469.365	99.62
469.585	85.62
469.804	92.62
470.023	75.62
470.243	93.62
470.462	96.62
470.681	92.62
470.901	90.62
471.12	105.62
471.339	91.62
471.558	89.62
471.777	81.62
471.997	92.62
472.216	100.62
472.435	91.62
472.654	108.62
472.873	100.62
473.092	91.62
473.311	85.62
473.53	98.62
473.749	97.62
473.968	80.62
474.187	98.62
474.406	90.62
474.625	98.62
474.844	97.62
475.063	97.62
475.282	95.62
475.501	89.62
475.72	98.62
475.939	83.62
476.158	90.62
476.377	102.62
476.596	98.62
476.814	105.62
477.033	95.62
477.252	86.62
477.471	98.62
477.69	66.62
477.908	83.62
478.127	93.62
478.346	111.62
478.564	104.62
478.783	95.62
479.002	91.62
479.22	95.62
479.439	84.62
479.658	86.62
479.876	98.62
480.095	99.62
480.313	84.62
480.532	92.62
480.751	98.62
480.969	92.62
481.188	103.62
481.406	104.62
481.624	88.62
481.843	99.62
482.061	83.62
482.28	93.62
482.498	105.62
482.717	100.62
482.935	99.62
483.153	91.62
483.372	98.62
483.59	108.62
483.808	101.62
484.027	107.62
484.245	92.62
484.463	111.62
484.681	119.62
484.9	100.62
485.118	118.62
485.336	111.62
485.554	108.62
485.772	103.62
485.99	79.62
486.209	97.62
486.427	111.62
486.645	106.62
486.863	107.62
487.081	104.62
487.299	125.62
487.517	117.62
487.735	141.62
487.953	270.62
488.171	239.62
488.389	102.62
488.607	100.62
488.825	99.62
489.043	107.62
489.261	106.62
489.479	89.62
489.696	103.62
489.914	97.62
490.132	83.62
490.35	87.62
490.568	95.62
490.786	94.62
491.003	89.62
491.221	85.62
491.439	99.62
491.657	93.62
491.874	105.62
492.092	81.62
492.31	94.62
492.527	95.62
492.745	94.62
492.963	97.62
493.18	89.62
493.398	94.62
493.615	104.62
493.833	79.62
494.05	90.62
494.268	83.62
494.485	90.62
494.703	100.62
494.92	87.62
495.138	94.62
495.355	106.62
495.573	83.62
495.79	93.62
496.008	93.62
496.225	103.62
496.442	104.62
496.66	104.62
496.877	103.62
497.094	106.62
497.312	88.62
497.529	89.62
497.746	104.62
497.963	104.62
498.181	109.62
498.398	115.62
498.615	106.62
498.832	115.62
499.049	110.62
499.267	111.62
499.484	95.62
499.701	101.62
499.918	80.62
500.135	122.62
500.352	83.62
500.569	96.62
500.786	117.62
501.003	106.62
501.22	76.62
501.437	107.62
501.654	104.62
501.871	87.62
502.088	99.62
502.305	83.62
502.522	99.62
502.739	97.62
502.956	85.62
503.172	83.62
503.389	90.62
503.606	95.62
503.823	106.62
504.04	127.62
504.256	170.62
504.473	195.62
504.69	122.62
504.907	113.62
505.123	93.62
505.34	100.62
505.557	91.62
505.773	96.62
505.99	104.62
506.207	93.62
506.423	90.62
506.64	91.62
506.856	94.62
507.073	90.62
507.289	81.62
507.506	73.62
507.722	95.62
507.939	102.62
508.155	99.62
508.372	89.62
508.588	90.62
508.805	108.62
509.021	98.62
509.238	96.62
509.454	90.62
509.67	83.62
509.887	98.62
510.103	89.62
510.319	106.62
510.536	115.62
510.752	100.62
510.968	104.62
511.184	90.62
511.401	87.62
511.617	99.62
511.833	95.62
512.049	93.62
512.265	88.62
512.481	93.62
512.698	98.62
512.914	97.62
513.13	88.62
513.346	81.62
513.562	85.62
513.778	84.62
513.994	94.62
514.21	99.62
514.426	102.62
514.642	96.62
514.858	100.62
515.074	100.62
515.29	95.62
