Data from 2145_1_HRD10591_00017.txt Node
Date: Mon Jan 19 14:21:17 EST 2026
User: Yrep
Spectrometer: HR+D1059
Trigger mode: 1
Integration Time (sec): 1.000000E-1
Scans to average: 1
Electric dark correction enabled: true
Nonlinearity correction enabled: false
Boxcar width: 0
XAxis mode: Wavelengths
Number of Pixels in Spectrum: 2048
>>>>>Begin Spectral Data<<<<<
223.165	-13.06
223.4	-13.06
223.635	-13.06
223.869	-25.06
224.104	-20.06
224.338	-15.06
224.573	-24.06
224.808	-11.06
225.042	-11.06
225.277	-3.06
225.511	1.94
225.746	-1.06
225.98	-4.06
226.215	22.94
226.449	18.94
226.683	22.94
226.918	25.94
227.152	34.94
227.387	40.94
227.621	45.94
227.856	50.94
228.09	38.94
228.324	60.94
228.559	50.94
228.793	41.94
229.027	60.94
229.262	59.94
229.496	79.94
229.73	65.94
229.964	63.94
230.199	78.94
230.433	73.94
230.667	79.94
230.901	78.94
231.136	79.94
231.37	83.94
231.604	81.94
231.838	89.94
232.072	77.94
232.306	83.94
232.541	101.94
232.775	77.94
233.009	85.94
233.243	72.94
233.477	97.94
233.711	79.94
233.945	66.94
234.179	65.94
234.413	79.94
234.647	94.94
234.881	77.94
235.115	86.94
235.349	79.94
235.583	92.94
235.817	72.94
236.051	78.94
236.285	98.94
236.519	75.94
236.753	82.94
236.987	87.94
237.221	74.94
237.455	77.94
237.689	71.94
237.922	73.94
238.156	89.94
238.39	92.94
238.624	68.94
238.858	77.94
239.091	78.94
239.325	71.94
239.559	59.94
239.793	67.94
240.027	85.94
240.26	80.94
240.494	89.94
240.728	89.94
240.961	78.94
241.195	72.94
241.429	84.94
241.662	76.94
241.896	69.94
242.13	77.94
242.363	68.94
242.597	80.94
242.83	80.94
243.064	74.94
243.298	95.94
243.531	80.94
243.765	90.94
243.998	78.94
244.232	90.94
244.465	70.94
244.699	88.94
244.932	80.94
245.166	74.94
245.399	93.94
245.633	88.94
245.866	98.94
246.099	79.94
246.333	84.94
246.566	77.94
246.8	92.94
247.033	82.94
247.266	86.94
247.5	71.94
247.733	77.94
247.966	81.94
248.2	80.94
248.433	81.94
248.666	90.94
248.899	79.94
249.133	71.94
249.366	84.94
249.599	77.94
249.832	85.94
250.066	76.94
250.299	80.94
250.532	87.94
250.765	92.94
250.998	84.94
251.231	73.94
251.465	80.94
251.698	69.94
251.931	72.94
252.164	82.94
252.397	83.94
252.63	87.94
252.863	71.94
253.096	68.94
253.329	76.94
253.562	75.94
253.795	75.94
254.028	81.94
254.261	78.94
254.494	81.94
254.727	86.94
254.96	80.94
255.193	94.94
255.426	77.94
255.659	74.94
255.892	83.94
256.124	64.94
256.357	92.94
256.59	72.94
256.823	85.94
257.056	86.94
257.289	78.94
257.521	79.94
257.754	86.94
257.987	84.94
258.22	77.94
258.452	68.94
258.685	93.94
258.918	93.94
259.151	92.94
259.383	81.94
259.616	95.94
259.849	94.94
260.081	84.94
260.314	89.94
260.547	71.94
260.779	70.94
261.012	77.94
261.244	73.94
261.477	85.94
261.71	88.94
261.942	80.94
262.175	87.94
262.407	72.94
262.64	81.94
262.872	78.94
263.105	87.94
263.337	96.94
263.57	87.94
263.802	76.94
264.035	76.94
264.267	90.94
264.499	73.94
264.732	85.94
264.964	79.94
265.197	89.94
265.429	85.94
265.661	86.94
265.894	90.94
266.126	94.94
266.358	94.94
266.591	64.94
266.823	82.94
267.055	70.94
267.287	75.94
267.52	71.94
267.752	85.94
267.984	82.94
268.216	81.94
268.448	79.94
268.681	72.94
268.913	88.94
269.145	79.94
269.377	84.94
269.609	91.94
269.841	99.94
270.073	81.94
270.306	84.94
270.538	79.94
270.77	81.94
271.002	81.94
271.234	91.94
271.466	76.94
271.698	80.94
271.93	80.94
272.162	87.94
272.394	85.94
272.626	68.94
272.858	79.94
273.09	78.94
273.322	101.94
273.553	84.94
273.785	79.94
274.017	74.94
274.249	84.94
274.481	79.94
274.713	81.94
274.945	86.94
275.176	96.94
275.408	92.94
275.64	75.94
275.872	74.94
276.104	71.94
276.335	84.94
276.567	87.94
276.799	87.94
277.031	76.94
277.262	78.94
277.494	85.94
277.726	96.94
277.957	77.94
278.189	90.94
278.421	88.94
278.652	92.94
278.884	83.94
279.115	76.94
279.347	93.94
279.579	78.94
279.81	94.94
280.042	73.94
280.273	72.94
280.505	81.94
280.736	74.94
280.968	99.94
281.199	78.94
281.431	85.94
281.662	92.94
281.894	94.94
282.125	78.94
282.356	88.94
282.588	84.94
282.819	85.94
283.051	88.94
283.282	81.94
283.513	73.94
283.745	84.94
283.976	86.94
284.207	86.94
284.439	92.94
284.67	85.94
284.901	87.94
285.132	87.94
285.364	86.94
285.595	81.94
285.826	84.94
286.057	102.94
286.288	102.94
286.52	80.94
286.751	87.94
286.982	89.94
287.213	88.94
287.444	84.94
287.675	105.94
287.906	91.94
288.138	80.94
288.369	103.94
288.6	83.94
288.831	71.94
289.062	92.94
289.293	88.94
289.524	88.94
289.755	92.94
289.986	87.94
290.217	78.94
290.448	83.94
290.679	90.94
290.91	86.94
291.141	87.94
291.371	68.94
291.602	88.94
291.833	66.94
292.064	82.94
292.295	80.94
292.526	95.94
292.757	98.94
292.987	92.94
293.218	89.94
293.449	83.94
293.68	82.94
293.91	89.94
294.141	97.94
294.372	83.94
294.603	92.94
294.833	98.94
295.064	94.94
295.295	67.94
295.525	86.94
295.756	77.94
295.987	72.94
296.217	87.94
296.448	76.94
296.679	98.94
296.909	85.94
297.14	92.94
297.37	94.94
297.601	85.94
297.831	82.94
298.062	82.94
298.292	86.94
298.523	87.94
298.753	75.94
298.984	83.94
299.214	91.94
299.445	88.94
299.675	79.94
299.905	86.94
300.136	99.94
300.366	92.94
300.597	84.94
300.827	79.94
301.057	87.94
301.288	94.94
301.518	68.94
301.748	85.94
301.979	114.94
302.209	110.94
302.439	77.94
302.669	84.94
302.9	95.94
303.13	98.94
303.36	70.94
303.59	87.94
303.82	70.94
304.051	92.94
304.281	88.94
304.511	77.94
304.741	88.94
304.971	84.94
305.201	83.94
305.431	91.94
305.661	81.94
305.891	84.94
306.121	90.94
306.352	79.94
306.582	94.94
306.812	79.94
307.042	76.94
307.272	75.94
307.502	105.94
307.731	77.94
307.961	85.94
308.191	82.94
308.421	88.94
308.651	90.94
308.881	88.94
309.111	100.94
309.341	94.94
309.571	103.94
309.8	98.94
310.03	92.94
310.26	87.94
310.49	78.94
310.72	88.94
310.949	88.94
311.179	85.94
311.409	87.94
311.639	92.94
311.868	86.94
312.098	82.94
312.328	87.94
312.557	89.94
312.787	83.94
313.017	75.94
313.246	95.94
313.476	77.94
313.706	87.94
313.935	94.94
314.165	103.94
314.394	101.94
314.624	81.94
314.853	93.94
315.083	85.94
315.312	100.94
315.542	80.94
315.771	89.94
316.001	92.94
316.23	103.94
316.46	86.94
316.689	86.94
316.919	74.94
317.148	95.94
317.377	99.94
317.607	88.94
317.836	76.94
318.065	90.94
318.295	80.94
318.524	80.94
318.753	89.94
318.983	86.94
319.212	91.94
319.441	87.94
319.67	94.94
319.9	91.94
320.129	102.94
320.358	77.94
320.587	86.94
320.816	86.94
321.046	83.94
321.275	81.94
321.504	72.94
321.733	93.94
321.962	73.94
322.191	102.94
322.42	92.94
322.649	87.94
322.878	103.94
323.108	87.94
323.337	80.94
323.566	80.94
323.795	80.94
324.024	93.94
324.253	94.94
324.482	84.94
324.71	79.94
324.939	96.94
325.168	109.94
325.397	84.94
325.626	78.94
325.855	94.94
326.084	84.94
326.313	84.94
326.542	90.94
326.77	78.94
326.999	96.94
327.228	82.94
327.457	81.94
327.686	82.94
327.914	87.94
328.143	95.94
328.372	80.94
328.6	90.94
328.829	89.94
329.058	93.94
329.287	76.94
329.515	98.94
329.744	77.94
329.972	90.94
330.201	94.94
330.43	100.94
330.658	89.94
330.887	105.94
331.115	97.94
331.344	80.94
331.572	90.94
331.801	96.94
332.03	85.94
332.258	94.94
332.486	85.94
332.715	71.94
332.943	102.94
333.172	97.94
333.4	98.94
333.629	93.94
333.857	97.94
334.085	102.94
334.314	81.94
334.542	100.94
334.771	89.94
334.999	92.94
335.227	103.94
335.455	76.94
335.684	87.94
335.912	88.94
336.14	99.94
336.369	92.94
336.597	100.94
336.825	80.94
337.053	81.94
337.281	88.94
337.51	86.94
337.738	80.94
337.966	84.94
338.194	88.94
338.422	87.94
338.65	72.94
338.878	82.94
339.106	92.94
339.334	91.94
339.562	93.94
339.79	88.94
340.018	96.94
340.246	95.94
340.474	81.94
340.702	88.94
340.93	78.94
341.158	91.94
341.386	91.94
341.614	80.94
341.842	93.94
342.07	88.94
342.298	85.94
342.526	87.94
342.754	88.94
342.981	90.94
343.209	78.94
343.437	98.94
343.665	83.94
343.893	84.94
344.12	92.94
344.348	98.94
344.576	102.94
344.804	81.94
345.031	90.94
345.259	89.94
345.487	91.94
345.714	81.94
345.942	95.94
346.17	89.94
346.397	86.94
346.625	76.94
346.853	79.94
347.08	83.94
347.308	105.94
347.535	78.94
347.763	95.94
347.99	102.94
348.218	86.94
348.445	85.94
348.673	78.94
348.9	90.94
349.128	77.94
349.355	96.94
349.583	79.94
349.81	79.94
350.037	99.94
350.265	66.94
350.492	86.94
350.72	84.94
350.947	81.94
351.174	82.94
351.402	85.94
351.629	84.94
351.856	73.94
352.083	79.94
352.311	87.94
352.538	76.94
352.765	98.94
352.992	90.94
353.22	80.94
353.447	92.94
353.674	85.94
353.901	91.94
354.128	103.94
354.355	87.94
354.583	88.94
354.81	80.94
355.037	80.94
355.264	90.94
355.491	81.94
355.718	92.94
355.945	87.94
356.172	91.94
356.399	83.94
356.626	98.94
356.853	94.94
357.08	101.94
357.307	88.94
357.534	81.94
357.761	87.94
357.988	89.94
358.215	92.94
358.441	93.94
358.668	83.94
358.895	80.94
359.122	80.94
359.349	85.94
359.576	88.94
359.802	76.94
360.029	90.94
360.256	98.94
360.483	92.94
360.709	89.94
360.936	86.94
361.163	90.94
361.39	94.94
361.616	96.94
361.843	106.94
362.07	91.94
362.296	102.94
362.523	101.94
362.749	97.94
362.976	111.94
363.203	122.94
363.429	116.94
363.656	97.94
363.882	95.94
364.109	113.94
364.335	134.94
364.562	143.94
364.788	102.94
365.015	103.94
365.241	91.94
365.468	79.94
365.694	107.94
365.92	97.94
366.147	90.94
366.373	86.94
366.599	84.94
366.826	91.94
367.052	76.94
367.278	95.94
367.505	98.94
367.731	96.94
367.957	87.94
368.184	86.94
368.41	77.94
368.636	86.94
368.862	97.94
369.089	89.94
369.315	87.94
369.541	85.94
369.767	96.94
369.993	83.94
370.219	96.94
370.445	94.94
370.672	92.94
370.898	96.94
371.124	92.94
371.35	88.94
371.576	79.94
371.802	87.94
372.028	86.94
372.254	91.94
372.48	82.94
372.706	80.94
372.932	81.94
373.158	92.94
373.384	94.94
373.61	94.94
373.835	80.94
374.061	100.94
374.287	99.94
374.513	73.94
374.739	98.94
374.965	106.94
375.191	87.94
375.416	86.94
375.642	92.94
375.868	108.94
376.094	80.94
376.319	85.94
376.545	88.94
376.771	79.94
376.997	94.94
377.222	86.94
377.448	96.94
377.674	80.94
377.899	81.94
378.125	94.94
378.35	81.94
378.576	77.94
378.802	94.94
379.027	79.94
379.253	86.94
379.478	92.94
379.704	90.94
379.929	89.94
380.155	66.94
380.38	82.94
380.606	86.94
380.831	91.94
381.057	95.94
381.282	95.94
381.507	83.94
381.733	102.94
381.958	90.94
382.184	82.94
382.409	87.94
382.634	86.94
382.86	91.94
383.085	82.94
383.31	74.94
383.535	92.94
383.761	73.94
383.986	84.94
384.211	90.94
384.436	86.94
384.662	92.94
384.887	111.94
385.112	95.94
385.337	96.94
385.562	86.94
385.787	78.94
386.013	91.94
386.238	84.94
386.463	84.94
386.688	94.94
386.913	100.94
387.138	101.94
387.363	101.94
387.588	95.94
387.813	84.94
388.038	85.94
388.263	98.94
388.488	108.94
388.713	92.94
388.938	90.94
389.163	92.94
389.387	84.94
389.612	105.94
389.837	96.94
390.062	91.94
390.287	81.94
390.512	98.94
390.736	85.94
390.961	86.94
391.186	94.94
391.411	88.94
391.636	90.94
391.86	94.94
392.085	82.94
392.31	107.94
392.534	106.94
392.759	113.94
392.984	131.94
393.208	174.94
393.433	261.94
393.658	205.94
393.882	116.94
394.107	108.94
394.331	115.94
394.556	118.94
394.78	103.94
395.005	93.94
395.229	94.94
395.454	85.94
395.678	104.94
395.903	126.94
396.127	111.94
396.352	125.94
396.576	130.94
396.801	192.94
397.025	208.94
397.249	152.94
397.474	114.94
397.698	103.94
397.922	88.94
398.147	90.94
398.371	76.94
398.595	105.94
398.82	96.94
399.044	83.94
399.268	94.94
399.492	91.94
399.717	94.94
399.941	93.94
400.165	77.94
400.389	87.94
400.613	90.94
400.837	86.94
401.062	84.94
401.286	101.94
401.51	87.94
401.734	97.94
401.958	93.94
402.182	91.94
402.406	86.94
402.63	96.94
402.854	114.94
403.078	102.94
403.302	98.94
403.526	95.94
403.75	100.94
403.974	114.94
404.198	101.94
404.422	130.94
404.645	130.94
404.869	129.94
405.093	119.94
405.317	87.94
405.541	95.94
405.765	88.94
405.988	99.94
406.212	76.94
406.436	92.94
406.66	94.94
406.883	93.94
407.107	85.94
407.331	93.94
407.555	78.94
407.778	97.94
408.002	91.94
408.226	87.94
408.449	94.94
408.673	83.94
408.896	96.94
409.12	100.94
409.344	98.94
409.567	112.94
409.791	114.94
410.014	113.94
410.238	92.94
410.461	86.94
410.685	79.94
410.908	92.94
411.132	100.94
411.355	96.94
411.578	86.94
411.802	82.94
412.025	91.94
412.249	83.94
412.472	87.94
412.695	73.94
412.919	93.94
413.142	86.94
413.365	85.94
413.589	82.94
413.812	84.94
414.035	99.94
414.258	88.94
414.482	84.94
414.705	84.94
414.928	106.94
415.151	89.94
415.374	85.94
415.597	104.94
415.821	79.94
416.044	90.94
416.267	77.94
416.49	80.94
416.713	94.94
416.936	88.94
417.159	88.94
417.382	90.94
417.605	84.94
417.828	90.94
418.051	81.94
418.274	98.94
418.497	95.94
418.72	86.94
418.943	96.94
419.166	81.94
419.389	76.94
419.611	80.94
419.834	94.94
420.057	102.94
420.28	102.94
420.503	80.94
420.726	97.94
420.948	80.94
421.171	93.94
421.394	116.94
421.617	117.94
421.839	135.94
422.062	125.94
422.285	191.94
422.507	292.94
422.73	419.94
422.953	392.94
423.175	240.94
423.398	148.94
423.621	121.94
423.843	115.94
424.066	106.94
424.288	108.94
424.511	84.94
424.733	85.94
424.956	91.94
425.178	90.94
425.401	81.94
425.623	96.94
425.846	102.94
426.068	89.94
426.291	79.94
426.513	90.94
426.735	87.94
426.958	95.94
427.18	88.94
427.402	101.94
427.625	88.94
427.847	92.94
428.069	92.94
428.292	145.94
428.514	154.94
428.736	106.94
428.958	130.94
429.181	140.94
429.403	103.94
429.625	107.94
429.847	131.94
430.069	164.94
430.292	204.94
430.514	168.94
430.736	144.94
430.958	152.94
431.18	103.94
431.402	84.94
431.624	109.94
431.846	127.94
432.068	134.94
432.29	118.94
432.512	94.94
432.734	82.94
432.956	89.94
433.178	80.94
433.4	86.94
433.622	87.94
433.844	85.94
434.066	93.94
434.287	76.94
434.509	91.94
434.731	90.94
434.953	79.94
435.175	87.94
435.397	87.94
435.618	95.94
435.84	108.94
436.062	90.94
436.284	100.94
436.505	94.94
436.727	77.94
436.949	88.94
437.17	93.94
437.392	84.94
437.614	93.94
437.835	92.94
438.057	90.94
438.278	89.94
438.5	77.94
438.721	94.94
438.943	84.94
439.165	84.94
439.386	89.94
439.608	88.94
439.829	88.94
440.05	102.94
440.272	108.94
440.493	89.94
440.715	91.94
440.936	104.94
441.158	75.94
441.379	96.94
441.6	88.94
441.822	86.94
442.043	99.94
442.264	94.94
442.486	127.94
442.707	189.94
442.928	131.94
443.149	110.94
443.371	177.94
443.592	278.94
443.813	238.94
444.034	126.94
444.255	98.94
444.476	102.94
444.698	99.94
444.919	107.94
445.14	211.94
445.361	224.94
445.582	319.94
445.803	269.94
446.024	133.94
446.245	102.94
446.466	99.94
446.687	90.94
446.908	95.94
447.129	84.94
447.35	86.94
447.571	89.94
447.792	85.94
448.013	67.94
448.234	93.94
448.455	103.94
448.675	85.94
448.896	84.94
449.117	96.94
449.338	83.94
449.559	78.94
449.779	87.94
450	86.94
450.221	78.94
450.442	81.94
450.662	88.94
450.883	97.94
451.104	77.94
451.324	95.94
451.545	80.94
451.766	84.94
451.986	83.94
452.207	85.94
452.428	79.94
452.648	82.94
452.869	100.94
453.089	98.94
453.31	91.94
453.53	95.94
453.751	93.94
453.971	87.94
454.192	90.94
454.412	88.94
454.633	93.94
454.853	68.94
455.073	69.94
455.294	88.94
455.514	70.94
455.734	76.94
455.955	89.94
456.175	90.94
456.395	83.94
456.616	86.94
456.836	84.94
457.056	84.94
457.276	70.94
457.497	88.94
457.717	83.94
457.937	100.94
458.157	127.94
458.377	132.94
458.598	130.94
458.818	128.94
459.038	104.94
459.258	81.94
459.478	96.94
459.698	97.94
459.918	94.94
460.138	88.94
460.358	84.94
460.578	92.94
460.798	138.94
461.018	126.94
461.238	85.94
461.458	96.94
461.678	83.94
461.898	90.94
462.118	90.94
462.338	89.94
462.558	94.94
462.777	94.94
462.997	91.94
463.217	88.94
463.437	94.94
463.657	75.94
463.876	88.94
464.096	84.94
464.316	80.94
464.536	94.94
464.755	90.94
464.975	76.94
465.195	86.94
465.414	88.94
465.634	81.94
465.854	93.94
466.073	83.94
466.293	95.94
466.512	79.94
466.732	81.94
466.951	79.94
467.171	95.94
467.391	94.94
467.61	94.94
467.829	94.94
468.049	99.94
468.268	98.94
468.488	83.94
468.707	95.94
468.927	88.94
469.146	84.94
469.365	90.94
469.585	83.94
469.804	78.94
470.023	89.94
470.243	98.94
470.462	88.94
470.681	95.94
470.901	90.94
471.12	103.94
471.339	83.94
471.558	74.94
471.777	94.94
471.997	88.94
472.216	98.94
472.435	94.94
472.654	93.94
472.873	80.94
473.092	87.94
473.311	84.94
473.53	81.94
473.749	95.94
473.968	103.94
474.187	74.94
474.406	88.94
474.625	86.94
474.844	87.94
475.063	88.94
475.282	78.94
475.501	81.94
475.72	92.94
475.939	71.94
476.158	106.94
476.377	101.94
476.596	91.94
476.814	90.94
477.033	98.94
477.252	79.94
477.471	95.94
477.69	82.94
477.908	87.94
478.127	94.94
478.346	90.94
478.564	83.94
478.783	79.94
479.002	82.94
479.22	84.94
479.439	81.94
479.658	79.94
479.876	95.94
480.095	79.94
480.313	97.94
480.532	86.94
480.751	91.94
480.969	100.94
481.188	105.94
481.406	95.94
481.624	90.94
481.843	89.94
482.061	77.94
482.28	97.94
482.498	100.94
482.717	87.94
482.935	95.94
483.153	90.94
483.372	84.94
483.59	96.94
483.808	86.94
484.027	93.94
484.245	97.94
484.463	73.94
484.681	105.94
484.9	98.94
485.118	76.94
485.336	82.94
485.554	97.94
485.772	94.94
485.99	74.94
486.209	94.94
486.427	90.94
486.645	70.94
486.863	75.94
487.081	84.94
487.299	88.94
487.517	89.94
487.735	124.94
487.953	171.94
488.171	157.94
488.389	99.94
488.607	86.94
488.825	107.94
489.043	81.94
489.261	96.94
489.479	84.94
489.696	91.94
489.914	98.94
490.132	96.94
490.35	105.94
490.568	80.94
490.786	93.94
491.003	90.94
491.221	79.94
491.439	98.94
491.657	88.94
491.874	111.94
492.092	99.94
492.31	89.94
492.527	101.94
492.745	80.94
492.963	82.94
493.18	81.94
493.398	86.94
493.615	78.94
493.833	70.94
494.05	102.94
494.268	94.94
494.485	95.94
494.703	109.94
494.92	103.94
495.138	98.94
495.355	102.94
495.573	95.94
495.79	96.94
496.008	94.94
496.225	86.94
496.442	95.94
496.66	103.94
496.877	96.94
497.094	93.94
497.312	100.94
497.529	93.94
497.746	99.94
497.963	91.94
498.181	88.94
498.398	105.94
498.615	80.94
498.832	74.94
499.049	95.94
499.267	92.94
499.484	90.94
499.701	90.94
499.918	87.94
500.135	100.94
500.352	80.94
500.569	79.94
500.786	99.94
501.003	95.94
501.22	85.94
501.437	99.94
501.654	85.94
501.871	96.94
502.088	93.94
502.305	102.94
502.522	112.94
502.739	98.94
502.956	100.94
503.172	90.94
503.389	95.94
503.606	91.94
503.823	98.94
504.04	103.94
504.256	127.94
504.473	131.94
504.69	99.94
504.907	88.94
505.123	94.94
505.34	98.94
505.557	98.94
505.773	87.94
505.99	79.94
506.207	86.94
506.423	87.94
506.64	86.94
506.856	91.94
507.073	92.94
507.289	87.94
507.506	77.94
507.722	95.94
507.939	86.94
508.155	86.94
508.372	101.94
508.588	104.94
508.805	101.94
509.021	92.94
509.238	89.94
509.454	95.94
509.67	91.94
509.887	100.94
510.103	101.94
510.319	94.94
510.536	85.94
510.752	92.94
510.968	86.94
511.184	93.94
511.401	89.94
511.617	82.94
511.833	83.94
512.049	84.94
512.265	99.94
512.481	87.94
512.698	102.94
512.914	78.94
513.13	85.94
513.346	101.94
513.562	97.94
513.778	94.94
513.994	87.94
514.21	88.94
514.426	95.94
514.642	89.94
514.858	90.94
515.074	108.94
515.29	104.94
515.506	83.94
515.721	97.94
515.937	94.94
516.153	89.94
516.369	95.94
516.585	88.94
516.801	86.94
517.016	94.94
517.232	90.94
517.448	88.94
