Data from 2145_1_HRD10591_00040.txt Node
Date: Mon Jan 19 14:21:29 EST 2026
User: Yrep
Spectrometer: HR+D1059
Trigger mode: 1
Integration Time (sec): 1.000000E-1
Scans to average: 1
Electric dark correction enabled: true
Nonlinearity correction enabled: false
Boxcar width: 0
XAxis mode: Wavelengths
Number of Pixels in Spectrum: 2048
>>>>>Begin Spectral Data<<<<<
223.165	-27.75
223.4	-27.75
223.635	-27.75
223.869	-10.75
224.104	-18.75
224.338	-12.75
224.573	-17.75
224.808	-18.75
225.042	-10.75
225.277	15.25
225.511	-9.75
225.746	13.25
225.98	-1.75
226.215	7.25
226.449	21.25
226.683	27.25
226.918	19.25
227.152	25.25
227.387	45.25
227.621	42.25
227.856	41.25
228.09	44.25
228.324	48.25
228.559	51.25
228.793	66.25
229.027	68.25
229.262	58.25
229.496	78.25
229.73	74.25
229.964	83.25
230.199	69.25
230.433	68.25
230.667	66.25
230.901	84.25
231.136	74.25
231.37	77.25
231.604	85.25
231.838	90.25
232.072	64.25
232.306	82.25
232.541	78.25
232.775	88.25
233.009	84.25
233.243	102.25
233.477	75.25
233.711	81.25
233.945	83.25
234.179	84.25
234.413	92.25
234.647	90.25
234.881	81.25
235.115	75.25
235.349	81.25
235.583	87.25
235.817	83.25
236.051	81.25
236.285	70.25
236.519	92.25
236.753	88.25
236.987	79.25
237.221	87.25
237.455	73.25
237.689	75.25
237.922	88.25
238.156	80.25
238.39	73.25
238.624	77.25
238.858	84.25
239.091	90.25
239.325	76.25
239.559	75.25
239.793	81.25
240.027	93.25
240.26	78.25
240.494	81.25
240.728	70.25
240.961	83.25
241.195	72.25
241.429	85.25
241.662	68.25
241.896	69.25
242.13	77.25
242.363	77.25
242.597	78.25
242.83	82.25
243.064	96.25
243.298	76.25
243.531	78.25
243.765	81.25
243.998	78.25
244.232	86.25
244.465	80.25
244.699	87.25
244.932	69.25
245.166	80.25
245.399	80.25
245.633	76.25
245.866	91.25
246.099	87.25
246.333	78.25
246.566	93.25
246.8	63.25
247.033	77.25
247.266	69.25
247.5	75.25
247.733	80.25
247.966	92.25
248.2	80.25
248.433	82.25
248.666	72.25
248.899	81.25
249.133	74.25
249.366	80.25
249.599	75.25
249.832	84.25
250.066	76.25
250.299	80.25
250.532	87.25
250.765	87.25
250.998	89.25
251.231	80.25
251.465	70.25
251.698	78.25
251.931	85.25
252.164	86.25
252.397	81.25
252.63	84.25
252.863	66.25
253.096	84.25
253.329	92.25
253.562	80.25
253.795	80.25
254.028	84.25
254.261	84.25
254.494	88.25
254.727	93.25
254.96	75.25
255.193	76.25
255.426	68.25
255.659	61.25
255.892	86.25
256.124	73.25
256.357	81.25
256.59	75.25
256.823	73.25
257.056	78.25
257.289	86.25
257.521	81.25
257.754	91.25
257.987	68.25
258.22	104.25
258.452	84.25
258.685	79.25
258.918	80.25
259.151	95.25
259.383	86.25
259.616	77.25
259.849	58.25
260.081	72.25
260.314	78.25
260.547	63.25
260.779	78.25
261.012	83.25
261.244	86.25
261.477	82.25
261.71	85.25
261.942	69.25
262.175	80.25
262.407	75.25
262.64	84.25
262.872	91.25
263.105	76.25
263.337	89.25
263.57	72.25
263.802	98.25
264.035	79.25
264.267	74.25
264.499	88.25
264.732	88.25
264.964	81.25
265.197	83.25
265.429	82.25
265.661	81.25
265.894	88.25
266.126	84.25
266.358	76.25
266.591	80.25
266.823	95.25
267.055	87.25
267.287	82.25
267.52	82.25
267.752	77.25
267.984	78.25
268.216	71.25
268.448	68.25
268.681	72.25
268.913	85.25
269.145	96.25
269.377	78.25
269.609	84.25
269.841	77.25
270.073	80.25
270.306	86.25
270.538	89.25
270.77	87.25
271.002	83.25
271.234	82.25
271.466	90.25
271.698	86.25
271.93	90.25
272.162	71.25
272.394	70.25
272.626	82.25
272.858	80.25
273.09	75.25
273.322	98.25
273.553	92.25
273.785	79.25
274.017	76.25
274.249	86.25
274.481	86.25
274.713	91.25
274.945	87.25
275.176	103.25
275.408	91.25
275.64	83.25
275.872	94.25
276.104	86.25
276.335	91.25
276.567	87.25
276.799	74.25
277.031	84.25
277.262	93.25
277.494	90.25
277.726	87.25
277.957	82.25
278.189	85.25
278.421	95.25
278.652	92.25
278.884	78.25
279.115	88.25
279.347	81.25
279.579	91.25
279.81	84.25
280.042	77.25
280.273	80.25
280.505	92.25
280.736	97.25
280.968	98.25
281.199	78.25
281.431	85.25
281.662	97.25
281.894	98.25
282.125	90.25
282.356	90.25
282.588	77.25
282.819	88.25
283.051	103.25
283.282	75.25
283.513	92.25
283.745	88.25
283.976	94.25
284.207	93.25
284.439	102.25
284.67	89.25
284.901	91.25
285.132	87.25
285.364	86.25
285.595	91.25
285.826	98.25
286.057	84.25
286.288	76.25
286.52	82.25
286.751	86.25
286.982	74.25
287.213	93.25
287.444	72.25
287.675	89.25
287.906	94.25
288.138	75.25
288.369	82.25
288.6	88.25
288.831	93.25
289.062	84.25
289.293	78.25
289.524	80.25
289.755	95.25
289.986	82.25
290.217	82.25
290.448	90.25
290.679	83.25
290.91	82.25
291.141	79.25
291.371	98.25
291.602	87.25
291.833	74.25
292.064	79.25
292.295	81.25
292.526	86.25
292.757	97.25
292.987	87.25
293.218	82.25
293.449	90.25
293.68	87.25
293.91	78.25
294.141	95.25
294.372	80.25
294.603	84.25
294.833	86.25
295.064	85.25
295.295	86.25
295.525	81.25
295.756	98.25
295.987	71.25
296.217	85.25
296.448	79.25
296.679	86.25
296.909	86.25
297.14	98.25
297.37	85.25
297.601	95.25
297.831	91.25
298.062	91.25
298.292	85.25
298.523	102.25
298.753	105.25
298.984	85.25
299.214	92.25
299.445	88.25
299.675	87.25
299.905	85.25
300.136	86.25
300.366	95.25
300.597	96.25
300.827	83.25
301.057	90.25
301.288	86.25
301.518	94.25
301.748	99.25
301.979	114.25
302.209	84.25
302.439	86.25
302.669	93.25
302.9	72.25
303.13	95.25
303.36	86.25
303.59	85.25
303.82	86.25
304.051	87.25
304.281	95.25
304.511	85.25
304.741	84.25
304.971	99.25
305.201	92.25
305.431	93.25
305.661	96.25
305.891	91.25
306.121	74.25
306.352	84.25
306.582	86.25
306.812	79.25
307.042	91.25
307.272	97.25
307.502	92.25
307.731	107.25
307.961	92.25
308.191	74.25
308.421	98.25
308.651	84.25
308.881	88.25
309.111	95.25
309.341	81.25
309.571	100.25
309.8	87.25
310.03	87.25
310.26	80.25
310.49	76.25
310.72	94.25
310.949	90.25
311.179	83.25
311.409	95.25
311.639	83.25
311.868	92.25
312.098	90.25
312.328	77.25
312.557	85.25
312.787	89.25
313.017	85.25
313.246	88.25
313.476	71.25
313.706	78.25
313.935	79.25
314.165	90.25
314.394	93.25
314.624	88.25
314.853	79.25
315.083	89.25
315.312	94.25
315.542	98.25
315.771	102.25
316.001	88.25
316.23	79.25
316.46	90.25
316.689	83.25
316.919	86.25
317.148	86.25
317.377	85.25
317.607	100.25
317.836	100.25
318.065	95.25
318.295	94.25
318.524	93.25
318.753	97.25
318.983	73.25
319.212	89.25
319.441	93.25
319.67	86.25
319.9	81.25
320.129	99.25
320.358	85.25
320.587	81.25
320.816	99.25
321.046	81.25
321.275	90.25
321.504	94.25
321.733	92.25
321.962	92.25
322.191	97.25
322.42	96.25
322.649	87.25
322.878	79.25
323.108	87.25
323.337	92.25
323.566	74.25
323.795	87.25
324.024	82.25
324.253	87.25
324.482	76.25
324.71	78.25
324.939	94.25
325.168	80.25
325.397	78.25
325.626	91.25
325.855	105.25
326.084	95.25
326.313	81.25
326.542	91.25
326.77	92.25
326.999	92.25
327.228	88.25
327.457	93.25
327.686	92.25
327.914	95.25
328.143	91.25
328.372	78.25
328.6	86.25
328.829	77.25
329.058	90.25
329.287	87.25
329.515	83.25
329.744	89.25
329.972	83.25
330.201	101.25
330.43	100.25
330.658	96.25
330.887	94.25
331.115	91.25
331.344	88.25
331.572	80.25
331.801	90.25
332.03	78.25
332.258	104.25
332.486	99.25
332.715	78.25
332.943	94.25
333.172	94.25
333.4	89.25
333.629	98.25
333.857	85.25
334.085	96.25
334.314	89.25
334.542	98.25
334.771	90.25
334.999	81.25
335.227	94.25
335.455	97.25
335.684	99.25
335.912	98.25
336.14	106.25
336.369	101.25
336.597	82.25
336.825	79.25
337.053	92.25
337.281	93.25
337.51	95.25
337.738	111.25
337.966	94.25
338.194	91.25
338.422	91.25
338.65	76.25
338.878	96.25
339.106	84.25
339.334	78.25
339.562	100.25
339.79	93.25
340.018	80.25
340.246	88.25
340.474	99.25
340.702	71.25
340.93	80.25
341.158	75.25
341.386	81.25
341.614	92.25
341.842	87.25
342.07	96.25
342.298	107.25
342.526	95.25
342.754	105.25
342.981	105.25
343.209	83.25
343.437	90.25
343.665	96.25
343.893	91.25
344.12	91.25
344.348	93.25
344.576	101.25
344.804	91.25
345.031	92.25
345.259	99.25
345.487	79.25
345.714	80.25
345.942	79.25
346.17	79.25
346.397	95.25
346.625	80.25
346.853	95.25
347.08	94.25
347.308	93.25
347.535	90.25
347.763	89.25
347.99	84.25
348.218	101.25
348.445	100.25
348.673	91.25
348.9	84.25
349.128	92.25
349.355	91.25
349.583	93.25
349.81	94.25
350.037	99.25
350.265	87.25
350.492	78.25
350.72	90.25
350.947	96.25
351.174	93.25
351.402	86.25
351.629	93.25
351.856	89.25
352.083	80.25
352.311	104.25
352.538	94.25
352.765	100.25
352.992	91.25
353.22	90.25
353.447	87.25
353.674	101.25
353.901	92.25
354.128	71.25
354.355	66.25
354.583	92.25
354.81	88.25
355.037	100.25
355.264	92.25
355.491	85.25
355.718	98.25
355.945	106.25
356.172	98.25
356.399	94.25
356.626	102.25
356.853	93.25
357.08	91.25
357.307	93.25
357.534	98.25
357.761	79.25
357.988	109.25
358.215	93.25
358.441	80.25
358.668	83.25
358.895	78.25
359.122	79.25
359.349	85.25
359.576	100.25
359.802	74.25
360.029	84.25
360.256	83.25
360.483	81.25
360.709	91.25
360.936	91.25
361.163	95.25
361.39	69.25
361.616	75.25
361.843	87.25
362.07	90.25
362.296	102.25
362.523	89.25
362.749	96.25
362.976	111.25
363.203	122.25
363.429	111.25
363.656	96.25
363.882	100.25
364.109	98.25
364.335	126.25
364.562	127.25
364.788	123.25
365.015	91.25
365.241	89.25
365.468	102.25
365.694	99.25
365.92	103.25
366.147	87.25
366.373	66.25
366.599	89.25
366.826	82.25
367.052	84.25
367.278	84.25
367.505	92.25
367.731	89.25
367.957	99.25
368.184	95.25
368.41	86.25
368.636	91.25
368.862	87.25
369.089	79.25
369.315	82.25
369.541	89.25
369.767	97.25
369.993	84.25
370.219	93.25
370.445	74.25
370.672	85.25
370.898	88.25
371.124	88.25
371.35	98.25
371.576	87.25
371.802	75.25
372.028	94.25
372.254	100.25
372.48	100.25
372.706	83.25
372.932	88.25
373.158	88.25
373.384	83.25
373.61	86.25
373.835	87.25
374.061	86.25
374.287	90.25
374.513	91.25
374.739	98.25
374.965	96.25
375.191	101.25
375.416	88.25
375.642	88.25
375.868	101.25
376.094	85.25
376.319	88.25
376.545	93.25
376.771	87.25
376.997	97.25
377.222	76.25
377.448	91.25
377.674	80.25
377.899	88.25
378.125	94.25
378.35	81.25
378.576	87.25
378.802	78.25
379.027	85.25
379.253	85.25
379.478	85.25
379.704	98.25
379.929	90.25
380.155	96.25
380.38	92.25
380.606	86.25
380.831	102.25
381.057	99.25
381.282	103.25
381.507	91.25
381.733	94.25
381.958	86.25
382.184	99.25
382.409	104.25
382.634	105.25
382.86	94.25
383.085	92.25
383.31	97.25
383.535	91.25
383.761	81.25
383.986	89.25
384.211	98.25
384.436	84.25
384.662	76.25
384.887	88.25
385.112	100.25
385.337	84.25
385.562	92.25
385.787	105.25
386.013	103.25
386.238	95.25
386.463	93.25
386.688	110.25
386.913	90.25
387.138	93.25
387.363	94.25
387.588	88.25
387.813	82.25
388.038	95.25
388.263	104.25
388.488	98.25
388.713	98.25
388.938	79.25
389.163	78.25
389.387	98.25
389.612	104.25
389.837	86.25
390.062	98.25
390.287	91.25
390.512	100.25
390.736	96.25
390.961	94.25
391.186	83.25
391.411	104.25
391.636	91.25
391.86	104.25
392.085	104.25
392.31	98.25
392.534	111.25
392.759	120.25
392.984	146.25
393.208	247.25
393.433	378.25
393.658	274.25
393.882	132.25
394.107	112.25
394.331	124.25
394.556	126.25
394.78	95.25
395.005	89.25
395.229	83.25
395.454	98.25
395.678	96.25
395.903	125.25
396.127	153.25
396.352	159.25
396.576	184.25
396.801	273.25
397.025	314.25
397.249	158.25
397.474	114.25
397.698	98.25
397.922	98.25
398.147	89.25
398.371	91.25
398.595	91.25
398.82	88.25
399.044	98.25
399.268	95.25
399.492	88.25
399.717	93.25
399.941	111.25
400.165	91.25
400.389	82.25
400.613	81.25
400.837	83.25
401.062	94.25
401.286	79.25
401.51	84.25
401.734	90.25
401.958	87.25
402.182	86.25
402.406	89.25
402.63	95.25
402.854	97.25
403.078	101.25
403.302	99.25
403.526	91.25
403.75	96.25
403.974	97.25
404.198	128.25
404.422	175.25
404.645	208.25
404.869	179.25
405.093	118.25
405.317	90.25
405.541	87.25
405.765	88.25
405.988	94.25
406.212	89.25
406.436	70.25
406.66	89.25
406.883	94.25
407.107	84.25
407.331	96.25
407.555	103.25
407.778	115.25
408.002	100.25
408.226	88.25
408.449	92.25
408.673	90.25
408.896	110.25
409.12	104.25
409.344	92.25
409.567	94.25
409.791	90.25
410.014	97.25
410.238	94.25
410.461	86.25
410.685	84.25
410.908	88.25
411.132	84.25
411.355	93.25
411.578	93.25
411.802	88.25
412.025	95.25
412.249	109.25
412.472	89.25
412.695	87.25
412.919	95.25
413.142	79.25
413.365	90.25
413.589	92.25
413.812	87.25
414.035	92.25
414.258	70.25
414.482	72.25
414.705	85.25
414.928	92.25
415.151	101.25
415.374	95.25
415.597	86.25
415.821	84.25
416.044	91.25
416.267	88.25
416.49	86.25
416.713	78.25
416.936	95.25
417.159	85.25
417.382	83.25
417.605	96.25
417.828	93.25
418.051	84.25
418.274	86.25
418.497	83.25
418.72	85.25
418.943	88.25
419.166	104.25
419.389	86.25
419.611	79.25
419.834	100.25
420.057	98.25
420.28	81.25
420.503	94.25
420.726	92.25
420.948	78.25
421.171	94.25
421.394	95.25
421.617	125.25
421.839	134.25
422.062	144.25
422.285	204.25
422.507	350.25
422.73	557.25
422.953	489.25
423.175	232.25
423.398	152.25
423.621	111.25
423.843	100.25
424.066	88.25
424.288	117.25
424.511	94.25
424.733	92.25
424.956	70.25
425.178	86.25
425.401	83.25
425.623	88.25
425.846	80.25
426.068	91.25
426.291	78.25
426.513	84.25
426.735	84.25
426.958	93.25
427.18	87.25
427.402	101.25
427.625	90.25
427.847	98.25
428.069	108.25
428.292	145.25
428.514	173.25
428.736	135.25
428.958	152.25
429.181	157.25
429.403	100.25
429.625	117.25
429.847	131.25
430.069	180.25
430.292	228.25
430.514	197.25
430.736	159.25
430.958	160.25
431.18	104.25
431.402	88.25
431.624	101.25
431.846	140.25
432.068	150.25
432.29	120.25
432.512	85.25
432.734	90.25
432.956	85.25
433.178	91.25
433.4	94.25
433.622	104.25
433.844	90.25
434.066	99.25
434.287	89.25
434.509	81.25
434.731	93.25
434.953	78.25
435.175	79.25
435.397	101.25
435.618	61.25
435.84	106.25
436.062	92.25
436.284	80.25
436.505	84.25
436.727	79.25
436.949	76.25
437.17	90.25
437.392	87.25
437.614	94.25
437.835	96.25
438.057	89.25
438.278	84.25
438.5	85.25
438.721	87.25
438.943	77.25
439.165	85.25
439.386	92.25
439.608	82.25
439.829	87.25
440.05	95.25
440.272	80.25
440.493	79.25
440.715	89.25
440.936	86.25
441.158	66.25
441.379	103.25
441.6	74.25
441.822	100.25
442.043	101.25
442.264	105.25
442.486	160.25
442.707	201.25
442.928	141.25
443.149	111.25
443.371	180.25
443.592	306.25
443.813	258.25
444.034	121.25
444.255	117.25
444.476	87.25
444.698	100.25
444.919	106.25
445.14	208.25
445.361	269.25
445.582	390.25
445.803	325.25
446.024	142.25
446.245	106.25
446.466	92.25
446.687	89.25
446.908	79.25
447.129	86.25
447.35	90.25
447.571	85.25
447.792	84.25
448.013	81.25
448.234	93.25
448.455	91.25
448.675	94.25
448.896	94.25
449.117	89.25
449.338	77.25
449.559	72.25
449.779	89.25
450	90.25
450.221	75.25
450.442	82.25
450.662	84.25
450.883	84.25
451.104	86.25
451.324	93.25
451.545	91.25
451.766	99.25
451.986	85.25
452.207	81.25
452.428	85.25
452.648	106.25
452.869	102.25
453.089	80.25
453.31	83.25
453.53	100.25
453.751	84.25
453.971	80.25
454.192	97.25
454.412	101.25
454.633	94.25
454.853	88.25
455.073	83.25
455.294	79.25
455.514	81.25
455.734	90.25
455.955	96.25
456.175	84.25
456.395	83.25
456.616	76.25
456.836	66.25
457.056	86.25
457.276	85.25
457.497	84.25
457.717	83.25
457.937	97.25
458.157	122.25
458.377	118.25
458.598	110.25
458.818	110.25
459.038	95.25
459.258	87.25
459.478	81.25
459.698	77.25
459.918	102.25
460.138	86.25
460.358	89.25
460.578	104.25
460.798	135.25
461.018	144.25
461.238	90.25
461.458	87.25
461.678	86.25
461.898	90.25
462.118	90.25
462.338	99.25
462.558	86.25
462.777	96.25
462.997	87.25
463.217	102.25
463.437	91.25
463.657	95.25
463.876	74.25
464.096	75.25
464.316	87.25
464.536	81.25
464.755	94.25
464.975	94.25
465.195	74.25
465.414	79.25
465.634	91.25
465.854	89.25
466.073	85.25
466.293	99.25
466.512	92.25
466.732	93.25
466.951	92.25
467.171	79.25
467.391	75.25
467.61	103.25
467.829	82.25
468.049	99.25
468.268	83.25
468.488	84.25
468.707	104.25
468.927	94.25
469.146	88.25
469.365	88.25
469.585	89.25
469.804	80.25
470.023	79.25
470.243	91.25
470.462	84.25
470.681	92.25
470.901	100.25
471.12	88.25
471.339	91.25
471.558	80.25
471.777	88.25
471.997	85.25
472.216	92.25
472.435	94.25
472.654	91.25
472.873	88.25
473.092	78.25
473.311	92.25
473.53	97.25
473.749	92.25
473.968	90.25
474.187	101.25
474.406	95.25
474.625	101.25
474.844	97.25
475.063	85.25
475.282	100.25
475.501	79.25
475.72	85.25
475.939	96.25
476.158	80.25
476.377	89.25
476.596	98.25
476.814	83.25
477.033	95.25
477.252	85.25
477.471	88.25
477.69	91.25
477.908	103.25
478.127	99.25
478.346	92.25
478.564	82.25
478.783	95.25
479.002	89.25
479.22	80.25
479.439	86.25
479.658	92.25
479.876	99.25
480.095	80.25
480.313	100.25
480.532	91.25
480.751	90.25
480.969	93.25
481.188	90.25
481.406	94.25
481.624	90.25
481.843	100.25
482.061	96.25
482.28	72.25
482.498	81.25
482.717	92.25
482.935	86.25
483.153	87.25
483.372	92.25
483.59	103.25
483.808	103.25
484.027	100.25
484.245	88.25
484.463	91.25
484.681	101.25
484.9	91.25
485.118	106.25
485.336	87.25
485.554	85.25
485.772	88.25
485.99	86.25
486.209	76.25
486.427	93.25
486.645	85.25
486.863	94.25
487.081	90.25
487.299	87.25
487.517	86.25
487.735	104.25
487.953	136.25
488.171	143.25
488.389	107.25
488.607	86.25
488.825	86.25
489.043	91.25
489.261	88.25
489.479	79.25
489.696	98.25
489.914	79.25
490.132	88.25
490.35	88.25
490.568	82.25
490.786	78.25
491.003	86.25
491.221	78.25
491.439	89.25
491.657	79.25
491.874	90.25
492.092	85.25
492.31	89.25
492.527	89.25
492.745	86.25
492.963	92.25
493.18	103.25
493.398	85.25
493.615	102.25
493.833	81.25
494.05	86.25
494.268	80.25
494.485	92.25
494.703	81.25
494.92	92.25
495.138	86.25
495.355	91.25
495.573	92.25
495.79	102.25
496.008	91.25
496.225	95.25
496.442	101.25
496.66	108.25
496.877	95.25
497.094	82.25
497.312	83.25
497.529	78.25
497.746	104.25
497.963	95.25
498.181	98.25
498.398	90.25
498.615	104.25
498.832	92.25
499.049	81.25
499.267	104.25
499.484	82.25
499.701	92.25
499.918	81.25
500.135	83.25
500.352	96.25
500.569	85.25
500.786	91.25
501.003	94.25
501.22	80.25
501.437	76.25
501.654	84.25
501.871	86.25
502.088	90.25
502.305	94.25
502.522	93.25
502.739	92.25
502.956	96.25
503.172	80.25
503.389	91.25
503.606	84.25
503.823	87.25
504.04	109.25
504.256	130.25
504.473	130.25
504.69	101.25
504.907	100.25
505.123	93.25
505.34	84.25
505.557	84.25
505.773	81.25
505.99	93.25
506.207	107.25
506.423	93.25
506.64	107.25
506.856	87.25
507.073	93.25
507.289	98.25
507.506	91.25
507.722	87.25
507.939	88.25
508.155	95.25
508.372	90.25
508.588	91.25
508.805	94.25
509.021	94.25
509.238	106.25
509.454	96.25
509.67	98.25
509.887	86.25
510.103	89.25
510.319	100.25
510.536	103.25
510.752	98.25
510.968	106.25
511.184	77.25
511.401	101.25
511.617	91.25
511.833	90.25
512.049	89.25
512.265	88.25
512.481	91.25
512.698	77.25
512.914	93.25
513.13	80.25
513.346	86.25
513.562	84.25
513.778	95.25
513.994	102.25
514.21	78.25
514.426	98.25
514.642	91.25
514.858	90.25
515.074	96.25
515.29	92.25
515.506	76.25
515.721	95.25
515.937	99.25
516.153	81.25
516.369	90.25
516.585	91.25
516.801	91.25
517.016	102.25
517.232	92.25
