Data from 2145_1_HRD10591_00028.txt Node
Date: Mon Jan 19 14:21:23 EST 2026
User: Yrep
Spectrometer: HR+D1059
Trigger mode: 1
Integration Time (sec): 1.000000E-1
Scans to average: 1
Electric dark correction enabled: true
Nonlinearity correction enabled: false
Boxcar width: 0
XAxis mode: Wavelengths
Number of Pixels in Spectrum: 2048
>>>>>Begin Spectral Data<<<<<
223.165	-12.94
223.4	-12.94
223.635	-12.94
223.869	-3.94
224.104	-23.94
224.338	-14.94
224.573	-27.94
224.808	-3.94
225.042	-11.94
225.277	-4.94
225.511	-2.94
225.746	0.06
225.98	14.06
226.215	15.06
226.449	13.06
226.683	5.06
226.918	24.06
227.152	36.06
227.387	36.06
227.621	39.06
227.856	42.06
228.09	43.06
228.324	56.06
228.559	57.06
228.793	53.06
229.027	67.06
229.262	69.06
229.496	61.06
229.73	63.06
229.964	65.06
230.199	60.06
230.433	60.06
230.667	73.06
230.901	79.06
231.136	83.06
231.37	73.06
231.604	83.06
231.838	77.06
232.072	72.06
232.306	75.06
232.541	80.06
232.775	83.06
233.009	86.06
233.243	76.06
233.477	97.06
233.711	67.06
233.945	79.06
234.179	89.06
234.413	74.06
234.647	87.06
234.881	72.06
235.115	83.06
235.349	70.06
235.583	71.06
235.817	78.06
236.051	70.06
236.285	79.06
236.519	68.06
236.753	82.06
236.987	74.06
237.221	85.06
237.455	72.06
237.689	85.06
237.922	81.06
238.156	87.06
238.39	76.06
238.624	70.06
238.858	85.06
239.091	92.06
239.325	73.06
239.559	76.06
239.793	70.06
240.027	74.06
240.26	72.06
240.494	72.06
240.728	79.06
240.961	82.06
241.195	75.06
241.429	80.06
241.662	65.06
241.896	73.06
242.13	69.06
242.363	74.06
242.597	69.06
242.83	81.06
243.064	75.06
243.298	85.06
243.531	89.06
243.765	63.06
243.998	79.06
244.232	79.06
244.465	72.06
244.699	73.06
244.932	83.06
245.166	84.06
245.399	85.06
245.633	78.06
245.866	71.06
246.099	76.06
246.333	70.06
246.566	65.06
246.8	73.06
247.033	66.06
247.266	74.06
247.5	73.06
247.733	78.06
247.966	85.06
248.2	67.06
248.433	62.06
248.666	85.06
248.899	84.06
249.133	77.06
249.366	85.06
249.599	70.06
249.832	76.06
250.066	77.06
250.299	88.06
250.532	73.06
250.765	73.06
250.998	84.06
251.231	73.06
251.465	60.06
251.698	88.06
251.931	72.06
252.164	79.06
252.397	71.06
252.63	90.06
252.863	77.06
253.096	87.06
253.329	84.06
253.562	86.06
253.795	87.06
254.028	79.06
254.261	71.06
254.494	74.06
254.727	79.06
254.96	82.06
255.193	85.06
255.426	78.06
255.659	83.06
255.892	85.06
256.124	78.06
256.357	80.06
256.59	96.06
256.823	69.06
257.056	90.06
257.289	77.06
257.521	79.06
257.754	82.06
257.987	83.06
258.22	66.06
258.452	60.06
258.685	78.06
258.918	65.06
259.151	83.06
259.383	79.06
259.616	66.06
259.849	83.06
260.081	82.06
260.314	76.06
260.547	69.06
260.779	80.06
261.012	94.06
261.244	77.06
261.477	82.06
261.71	81.06
261.942	91.06
262.175	91.06
262.407	72.06
262.64	85.06
262.872	80.06
263.105	71.06
263.337	95.06
263.57	108.06
263.802	85.06
264.035	81.06
264.267	87.06
264.499	77.06
264.732	81.06
264.964	97.06
265.197	87.06
265.429	83.06
265.661	90.06
265.894	84.06
266.126	82.06
266.358	80.06
266.591	77.06
266.823	77.06
267.055	91.06
267.287	76.06
267.52	88.06
267.752	82.06
267.984	74.06
268.216	76.06
268.448	82.06
268.681	77.06
268.913	75.06
269.145	83.06
269.377	79.06
269.609	78.06
269.841	93.06
270.073	78.06
270.306	77.06
270.538	80.06
270.77	87.06
271.002	90.06
271.234	77.06
271.466	81.06
271.698	85.06
271.93	75.06
272.162	91.06
272.394	75.06
272.626	86.06
272.858	91.06
273.09	78.06
273.322	81.06
273.553	67.06
273.785	73.06
274.017	90.06
274.249	84.06
274.481	100.06
274.713	80.06
274.945	84.06
275.176	79.06
275.408	88.06
275.64	60.06
275.872	77.06
276.104	82.06
276.335	87.06
276.567	82.06
276.799	86.06
277.031	105.06
277.262	82.06
277.494	86.06
277.726	86.06
277.957	82.06
278.189	93.06
278.421	69.06
278.652	95.06
278.884	79.06
279.115	76.06
279.347	85.06
279.579	87.06
279.81	83.06
280.042	89.06
280.273	92.06
280.505	75.06
280.736	83.06
280.968	84.06
281.199	74.06
281.431	79.06
281.662	75.06
281.894	85.06
282.125	82.06
282.356	84.06
282.588	87.06
282.819	76.06
283.051	78.06
283.282	83.06
283.513	94.06
283.745	76.06
283.976	88.06
284.207	92.06
284.439	74.06
284.67	80.06
284.901	94.06
285.132	98.06
285.364	106.06
285.595	93.06
285.826	98.06
286.057	77.06
286.288	69.06
286.52	87.06
286.751	89.06
286.982	80.06
287.213	67.06
287.444	93.06
287.675	88.06
287.906	85.06
288.138	91.06
288.369	91.06
288.6	67.06
288.831	81.06
289.062	90.06
289.293	93.06
289.524	81.06
289.755	84.06
289.986	86.06
290.217	88.06
290.448	86.06
290.679	85.06
290.91	70.06
291.141	83.06
291.371	91.06
291.602	80.06
291.833	92.06
292.064	101.06
292.295	97.06
292.526	86.06
292.757	90.06
292.987	85.06
293.218	68.06
293.449	69.06
293.68	82.06
293.91	78.06
294.141	87.06
294.372	78.06
294.603	76.06
294.833	73.06
295.064	82.06
295.295	76.06
295.525	69.06
295.756	79.06
295.987	91.06
296.217	78.06
296.448	83.06
296.679	81.06
296.909	79.06
297.14	74.06
297.37	74.06
297.601	74.06
297.831	91.06
298.062	89.06
298.292	92.06
298.523	95.06
298.753	76.06
298.984	74.06
299.214	97.06
299.445	92.06
299.675	82.06
299.905	85.06
300.136	89.06
300.366	91.06
300.597	102.06
300.827	97.06
301.057	83.06
301.288	78.06
301.518	85.06
301.748	67.06
301.979	105.06
302.209	91.06
302.439	90.06
302.669	88.06
302.9	98.06
303.13	68.06
303.36	77.06
303.59	91.06
303.82	86.06
304.051	79.06
304.281	83.06
304.511	105.06
304.741	95.06
304.971	103.06
305.201	81.06
305.431	85.06
305.661	92.06
305.891	75.06
306.121	90.06
306.352	86.06
306.582	92.06
306.812	87.06
307.042	69.06
307.272	98.06
307.502	97.06
307.731	89.06
307.961	87.06
308.191	100.06
308.421	88.06
308.651	96.06
308.881	78.06
309.111	76.06
309.341	86.06
309.571	89.06
309.8	85.06
310.03	89.06
310.26	93.06
310.49	85.06
310.72	73.06
310.949	95.06
311.179	80.06
311.409	82.06
311.639	86.06
311.868	91.06
312.098	76.06
312.328	95.06
312.557	73.06
312.787	81.06
313.017	77.06
313.246	69.06
313.476	76.06
313.706	85.06
313.935	79.06
314.165	85.06
314.394	99.06
314.624	91.06
314.853	94.06
315.083	82.06
315.312	89.06
315.542	89.06
315.771	80.06
316.001	95.06
316.23	99.06
316.46	93.06
316.689	80.06
316.919	82.06
317.148	87.06
317.377	102.06
317.607	85.06
317.836	83.06
318.065	101.06
318.295	88.06
318.524	94.06
318.753	86.06
318.983	81.06
319.212	104.06
319.441	84.06
319.67	72.06
319.9	80.06
320.129	79.06
320.358	87.06
320.587	93.06
320.816	75.06
321.046	73.06
321.275	80.06
321.504	85.06
321.733	79.06
321.962	85.06
322.191	79.06
322.42	78.06
322.649	79.06
322.878	86.06
323.108	93.06
323.337	92.06
323.566	78.06
323.795	91.06
324.024	100.06
324.253	86.06
324.482	91.06
324.71	78.06
324.939	84.06
325.168	88.06
325.397	107.06
325.626	81.06
325.855	77.06
326.084	94.06
326.313	88.06
326.542	77.06
326.77	79.06
326.999	97.06
327.228	85.06
327.457	91.06
327.686	101.06
327.914	79.06
328.143	93.06
328.372	80.06
328.6	80.06
328.829	71.06
329.058	95.06
329.287	82.06
329.515	91.06
329.744	96.06
329.972	80.06
330.201	94.06
330.43	87.06
330.658	85.06
330.887	104.06
331.115	94.06
331.344	103.06
331.572	85.06
331.801	95.06
332.03	74.06
332.258	83.06
332.486	89.06
332.715	85.06
332.943	78.06
333.172	85.06
333.4	94.06
333.629	91.06
333.857	83.06
334.085	89.06
334.314	100.06
334.542	83.06
334.771	94.06
334.999	83.06
335.227	95.06
335.455	108.06
335.684	93.06
335.912	91.06
336.14	91.06
336.369	95.06
336.597	73.06
336.825	93.06
337.053	82.06
337.281	86.06
337.51	88.06
337.738	106.06
337.966	87.06
338.194	91.06
338.422	91.06
338.65	89.06
338.878	82.06
339.106	82.06
339.334	84.06
339.562	80.06
339.79	91.06
340.018	72.06
340.246	94.06
340.474	82.06
340.702	76.06
340.93	85.06
341.158	82.06
341.386	87.06
341.614	93.06
341.842	91.06
342.07	91.06
342.298	101.06
342.526	83.06
342.754	95.06
342.981	96.06
343.209	94.06
343.437	89.06
343.665	91.06
343.893	97.06
344.12	87.06
344.348	83.06
344.576	85.06
344.804	93.06
345.031	88.06
345.259	85.06
345.487	91.06
345.714	86.06
345.942	95.06
346.17	76.06
346.397	84.06
346.625	79.06
346.853	83.06
347.08	78.06
347.308	81.06
347.535	86.06
347.763	77.06
347.99	92.06
348.218	90.06
348.445	83.06
348.673	83.06
348.9	91.06
349.128	90.06
349.355	74.06
349.583	76.06
349.81	79.06
350.037	96.06
350.265	96.06
350.492	89.06
350.72	82.06
350.947	94.06
351.174	87.06
351.402	87.06
351.629	102.06
351.856	79.06
352.083	83.06
352.311	84.06
352.538	86.06
352.765	85.06
352.992	90.06
353.22	112.06
353.447	87.06
353.674	85.06
353.901	76.06
354.128	83.06
354.355	80.06
354.583	102.06
354.81	86.06
355.037	82.06
355.264	83.06
355.491	76.06
355.718	91.06
355.945	86.06
356.172	91.06
356.399	83.06
356.626	87.06
356.853	91.06
357.08	78.06
357.307	71.06
357.534	93.06
357.761	93.06
357.988	75.06
358.215	85.06
358.441	85.06
358.668	97.06
358.895	80.06
359.122	89.06
359.349	78.06
359.576	63.06
359.802	83.06
360.029	75.06
360.256	86.06
360.483	93.06
360.709	79.06
360.936	88.06
361.163	81.06
361.39	87.06
361.616	78.06
361.843	93.06
362.07	92.06
362.296	93.06
362.523	75.06
362.749	105.06
362.976	118.06
363.203	129.06
363.429	83.06
363.656	77.06
363.882	99.06
364.109	91.06
364.335	119.06
364.562	105.06
364.788	99.06
365.015	95.06
365.241	91.06
365.468	82.06
365.694	78.06
365.92	86.06
366.147	103.06
366.373	85.06
366.599	95.06
366.826	101.06
367.052	87.06
367.278	91.06
367.505	87.06
367.731	88.06
367.957	87.06
368.184	66.06
368.41	88.06
368.636	87.06
368.862	104.06
369.089	83.06
369.315	89.06
369.541	91.06
369.767	100.06
369.993	87.06
370.219	78.06
370.445	83.06
370.672	78.06
370.898	86.06
371.124	75.06
371.35	79.06
371.576	82.06
371.802	79.06
372.028	96.06
372.254	95.06
372.48	90.06
372.706	77.06
372.932	93.06
373.158	91.06
373.384	84.06
373.61	83.06
373.835	92.06
374.061	99.06
374.287	85.06
374.513	86.06
374.739	87.06
374.965	82.06
375.191	69.06
375.416	83.06
375.642	91.06
375.868	91.06
376.094	67.06
376.319	83.06
376.545	83.06
376.771	80.06
376.997	71.06
377.222	77.06
377.448	92.06
377.674	82.06
377.899	84.06
378.125	91.06
378.35	90.06
378.576	101.06
378.802	95.06
379.027	86.06
379.253	102.06
379.478	94.06
379.704	62.06
379.929	75.06
380.155	94.06
380.38	89.06
380.606	90.06
380.831	80.06
381.057	88.06
381.282	95.06
381.507	93.06
381.733	101.06
381.958	82.06
382.184	94.06
382.409	90.06
382.634	89.06
382.86	90.06
383.085	103.06
383.31	87.06
383.535	91.06
383.761	86.06
383.986	79.06
384.211	89.06
384.436	66.06
384.662	73.06
384.887	75.06
385.112	89.06
385.337	78.06
385.562	94.06
385.787	100.06
386.013	78.06
386.238	103.06
386.463	77.06
386.688	101.06
386.913	93.06
387.138	102.06
387.363	74.06
387.588	90.06
387.813	82.06
388.038	88.06
388.263	80.06
388.488	93.06
388.713	92.06
388.938	93.06
389.163	71.06
389.387	80.06
389.612	80.06
389.837	90.06
390.062	92.06
390.287	94.06
390.512	80.06
390.736	88.06
390.961	88.06
391.186	88.06
391.411	74.06
391.636	75.06
391.86	76.06
392.085	95.06
392.31	93.06
392.534	98.06
392.759	86.06
392.984	126.06
393.208	188.06
393.433	260.06
393.658	203.06
393.882	115.06
394.107	108.06
394.331	87.06
394.556	92.06
394.78	83.06
395.005	93.06
395.229	92.06
395.454	90.06
395.678	82.06
395.903	111.06
396.127	110.06
396.352	124.06
396.576	121.06
396.801	194.06
397.025	221.06
397.249	137.06
397.474	99.06
397.698	94.06
397.922	91.06
398.147	85.06
398.371	81.06
398.595	93.06
398.82	87.06
399.044	92.06
399.268	75.06
399.492	82.06
399.717	75.06
399.941	94.06
400.165	105.06
400.389	85.06
400.613	85.06
400.837	94.06
401.062	90.06
401.286	78.06
401.51	65.06
401.734	78.06
401.958	83.06
402.182	92.06
402.406	99.06
402.63	67.06
402.854	87.06
403.078	79.06
403.302	73.06
403.526	92.06
403.75	100.06
403.974	90.06
404.198	115.06
404.422	150.06
404.645	173.06
404.869	141.06
405.093	110.06
405.317	94.06
405.541	87.06
405.765	92.06
405.988	94.06
406.212	79.06
406.436	86.06
406.66	77.06
406.883	83.06
407.107	80.06
407.331	92.06
407.555	88.06
407.778	117.06
408.002	109.06
408.226	69.06
408.449	92.06
408.673	85.06
408.896	99.06
409.12	85.06
409.344	93.06
409.567	100.06
409.791	89.06
410.014	90.06
410.238	90.06
410.461	79.06
410.685	89.06
410.908	78.06
411.132	72.06
411.355	66.06
411.578	94.06
411.802	73.06
412.025	83.06
412.249	99.06
412.472	83.06
412.695	89.06
412.919	88.06
413.142	94.06
413.365	79.06
413.589	88.06
413.812	84.06
414.035	94.06
414.258	80.06
414.482	85.06
414.705	72.06
414.928	91.06
415.151	87.06
415.374	72.06
415.597	81.06
415.821	69.06
416.044	80.06
416.267	88.06
416.49	86.06
416.713	86.06
416.936	89.06
417.159	77.06
417.382	85.06
417.605	82.06
417.828	100.06
418.051	64.06
418.274	90.06
418.497	85.06
418.72	94.06
418.943	88.06
419.166	81.06
419.389	95.06
419.611	76.06
419.834	82.06
420.057	78.06
420.28	93.06
420.503	92.06
420.726	77.06
420.948	98.06
421.171	71.06
421.394	108.06
421.617	91.06
421.839	94.06
422.062	122.06
422.285	168.06
422.507	257.06
422.73	434.06
422.953	392.06
423.175	179.06
423.398	129.06
423.621	124.06
423.843	97.06
424.066	99.06
424.288	96.06
424.511	92.06
424.733	85.06
424.956	95.06
425.178	87.06
425.401	94.06
425.623	82.06
425.846	101.06
426.068	86.06
426.291	79.06
426.513	94.06
426.735	92.06
426.958	81.06
427.18	83.06
427.402	84.06
427.625	92.06
427.847	75.06
428.069	102.06
428.292	108.06
428.514	124.06
428.736	113.06
428.958	121.06
429.181	130.06
429.403	94.06
429.625	94.06
429.847	115.06
430.069	154.06
430.292	186.06
430.514	169.06
430.736	130.06
430.958	140.06
431.18	100.06
431.402	94.06
431.624	88.06
431.846	123.06
432.068	140.06
432.29	100.06
432.512	85.06
432.734	87.06
432.956	93.06
433.178	83.06
433.4	83.06
433.622	93.06
433.844	103.06
434.066	100.06
434.287	85.06
434.509	74.06
434.731	89.06
434.953	99.06
435.175	82.06
435.397	101.06
435.618	83.06
435.84	99.06
436.062	79.06
436.284	97.06
436.505	80.06
436.727	80.06
436.949	86.06
437.17	77.06
437.392	91.06
437.614	81.06
437.835	82.06
438.057	85.06
438.278	82.06
438.5	93.06
438.721	95.06
438.943	80.06
439.165	86.06
439.386	93.06
439.608	90.06
439.829	94.06
440.05	97.06
440.272	85.06
440.493	88.06
440.715	81.06
440.936	91.06
441.158	81.06
441.379	80.06
441.6	98.06
441.822	101.06
442.043	78.06
442.264	88.06
442.486	130.06
442.707	143.06
442.928	110.06
443.149	106.06
443.371	143.06
443.592	230.06
443.813	215.06
444.034	119.06
444.255	94.06
444.476	84.06
444.698	82.06
444.919	77.06
445.14	185.06
445.361	204.06
445.582	287.06
445.803	235.06
446.024	122.06
446.245	87.06
446.466	79.06
446.687	94.06
446.908	88.06
447.129	86.06
447.35	83.06
447.571	82.06
447.792	79.06
448.013	76.06
448.234	68.06
448.455	70.06
448.675	75.06
448.896	74.06
449.117	78.06
449.338	81.06
449.559	68.06
449.779	87.06
450	83.06
450.221	78.06
450.442	85.06
450.662	81.06
450.883	84.06
451.104	96.06
451.324	78.06
451.545	86.06
451.766	84.06
451.986	90.06
452.207	94.06
452.428	87.06
452.648	86.06
452.869	98.06
453.089	100.06
453.31	103.06
453.53	85.06
453.751	86.06
453.971	82.06
454.192	76.06
454.412	89.06
454.633	95.06
454.853	88.06
455.073	97.06
455.294	86.06
455.514	95.06
455.734	77.06
455.955	77.06
456.175	80.06
456.395	88.06
456.616	79.06
456.836	97.06
457.056	85.06
457.276	81.06
457.497	82.06
457.717	90.06
457.937	97.06
458.157	93.06
458.377	107.06
458.598	98.06
458.818	123.06
459.038	95.06
459.258	102.06
459.478	82.06
459.698	84.06
459.918	86.06
460.138	88.06
460.358	74.06
460.578	114.06
460.798	113.06
461.018	113.06
461.238	80.06
461.458	77.06
461.678	81.06
461.898	91.06
462.118	79.06
462.338	72.06
462.558	77.06
462.777	85.06
462.997	89.06
463.217	88.06
463.437	82.06
463.657	74.06
463.876	92.06
464.096	86.06
464.316	77.06
464.536	87.06
464.755	100.06
464.975	87.06
465.195	87.06
465.414	73.06
465.634	87.06
465.854	69.06
466.073	74.06
466.293	84.06
466.512	70.06
466.732	81.06
466.951	90.06
467.171	79.06
467.391	90.06
467.61	90.06
467.829	88.06
468.049	95.06
468.268	89.06
468.488	79.06
468.707	97.06
468.927	98.06
469.146	98.06
469.365	91.06
469.585	85.06
469.804	77.06
470.023	78.06
470.243	89.06
470.462	87.06
470.681	84.06
470.901	101.06
471.12	85.06
471.339	90.06
471.558	91.06
471.777	82.06
471.997	85.06
472.216	98.06
472.435	91.06
472.654	69.06
472.873	72.06
473.092	93.06
473.311	96.06
473.53	77.06
473.749	79.06
473.968	82.06
474.187	82.06
474.406	86.06
474.625	94.06
474.844	74.06
475.063	75.06
475.282	86.06
475.501	95.06
475.72	77.06
475.939	89.06
476.158	83.06
476.377	89.06
476.596	85.06
476.814	88.06
477.033	71.06
477.252	92.06
477.471	88.06
477.69	72.06
477.908	97.06
478.127	93.06
478.346	87.06
478.564	94.06
478.783	83.06
479.002	85.06
479.22	72.06
479.439	85.06
479.658	78.06
479.876	88.06
480.095	78.06
480.313	95.06
480.532	101.06
480.751	86.06
480.969	79.06
481.188	93.06
481.406	93.06
481.624	95.06
481.843	86.06
482.061	68.06
482.28	96.06
482.498	74.06
482.717	93.06
482.935	74.06
483.153	90.06
483.372	92.06
483.59	66.06
483.808	98.06
484.027	72.06
484.245	89.06
484.463	94.06
484.681	104.06
484.9	102.06
485.118	105.06
485.336	89.06
485.554	80.06
485.772	101.06
485.99	89.06
486.209	82.06
486.427	103.06
486.645	97.06
486.863	93.06
487.081	93.06
487.299	91.06
487.517	89.06
487.735	100.06
487.953	140.06
488.171	129.06
488.389	94.06
488.607	85.06
488.825	67.06
489.043	88.06
489.261	80.06
489.479	99.06
489.696	83.06
489.914	85.06
490.132	92.06
490.35	84.06
490.568	89.06
490.786	85.06
491.003	97.06
491.221	80.06
491.439	102.06
491.657	79.06
491.874	87.06
492.092	86.06
492.31	85.06
492.527	93.06
492.745	93.06
492.963	100.06
493.18	106.06
493.398	81.06
493.615	85.06
493.833	85.06
494.05	89.06
494.268	87.06
494.485	101.06
494.703	92.06
494.92	106.06
495.138	85.06
495.355	89.06
495.573	105.06
495.79	84.06
496.008	101.06
496.225	84.06
496.442	82.06
496.66	87.06
496.877	92.06
497.094	80.06
497.312	87.06
497.529	98.06
497.746	89.06
497.963	91.06
498.181	84.06
498.398	91.06
498.615	83.06
498.832	89.06
499.049	79.06
499.267	88.06
499.484	94.06
499.701	82.06
499.918	95.06
500.135	86.06
500.352	96.06
500.569	102.06
500.786	89.06
501.003	70.06
501.22	68.06
501.437	96.06
501.654	87.06
501.871	89.06
502.088	78.06
502.305	85.06
502.522	76.06
502.739	93.06
502.956	89.06
503.172	77.06
503.389	85.06
503.606	72.06
503.823	85.06
504.04	82.06
504.256	123.06
504.473	127.06
504.69	98.06
504.907	102.06
505.123	95.06
505.34	99.06
505.557	91.06
505.773	83.06
505.99	97.06
506.207	78.06
506.423	91.06
506.64	95.06
506.856	86.06
507.073	87.06
507.289	86.06
507.506	88.06
507.722	97.06
507.939	91.06
508.155	87.06
508.372	77.06
508.588	94.06
508.805	84.06
509.021	89.06
509.238	99.06
509.454	80.06
509.67	82.06
509.887	78.06
510.103	97.06
510.319	97.06
510.536	88.06
510.752	83.06
510.968	90.06
511.184	83.06
511.401	98.06
511.617	93.06
511.833	98.06
512.049	92.06
512.265	91.06
512.481	85.06
512.698	77.06
512.914	91.06
513.13	92.06
513.346	90.06
513.562	98.06
513.778	84.06
513.994	77.06
514.21	94.06
514.426	69.06
514.642	71.06
514.858	91.06
515.074	85.06
515.29	82.06
515.506	94.06
515.721	71.06
515.937	91.06
516.153	95.06
516.369	87.06
516.585	84.06
516.801	94.06
517.016	85.06
517.232	83.06
517.448	92.06
517.664	80.06
517.879	80.06
518.095	78.06
518.311	93.06
