Data from 2145_1_HRD10591_00048.txt Node
Date: Mon Jan 19 14:21:33 EST 2026
User: Yrep
Spectrometer: HR+D1059
Trigger mode: 1
Integration Time (sec): 1.000000E-1
Scans to average: 1
Electric dark correction enabled: true
Nonlinearity correction enabled: false
Boxcar width: 0
XAxis mode: Wavelengths
Number of Pixels in Spectrum: 2048
>>>>>Begin Spectral Data<<<<<
223.165	-13.56
223.4	-13.56
223.635	-13.56
223.869	-14.56
224.104	-27.56
224.338	-19.56
224.573	-28.56
224.808	-4.56
225.042	-0.56
225.277	-8.56
225.511	-2.56
225.746	10.44
225.98	-1.56
226.215	13.44
226.449	24.44
226.683	19.44
226.918	31.44
227.152	22.44
227.387	35.44
227.621	46.44
227.856	43.44
228.09	47.44
228.324	61.44
228.559	52.44
228.793	44.44
229.027	49.44
229.262	83.44
229.496	69.44
229.73	76.44
229.964	64.44
230.199	85.44
230.433	91.44
230.667	79.44
230.901	68.44
231.136	70.44
231.37	74.44
231.604	74.44
231.838	87.44
232.072	81.44
232.306	83.44
232.541	81.44
232.775	81.44
233.009	81.44
233.243	87.44
233.477	94.44
233.711	89.44
233.945	85.44
234.179	78.44
234.413	85.44
234.647	80.44
234.881	88.44
235.115	90.44
235.349	99.44
235.583	79.44
235.817	86.44
236.051	93.44
236.285	71.44
236.519	75.44
236.753	78.44
236.987	77.44
237.221	89.44
237.455	74.44
237.689	85.44
237.922	73.44
238.156	80.44
238.39	62.44
238.624	76.44
238.858	85.44
239.091	72.44
239.325	82.44
239.559	77.44
239.793	88.44
240.027	91.44
240.26	73.44
240.494	80.44
240.728	82.44
240.961	65.44
241.195	73.44
241.429	89.44
241.662	86.44
241.896	69.44
242.13	69.44
242.363	74.44
242.597	78.44
242.83	71.44
243.064	89.44
243.298	86.44
243.531	77.44
243.765	90.44
243.998	61.44
244.232	68.44
244.465	71.44
244.699	93.44
244.932	79.44
245.166	72.44
245.399	79.44
245.633	84.44
245.866	81.44
246.099	73.44
246.333	87.44
246.566	79.44
246.8	91.44
247.033	74.44
247.266	87.44
247.5	73.44
247.733	83.44
247.966	82.44
248.2	87.44
248.433	70.44
248.666	78.44
248.899	76.44
249.133	79.44
249.366	79.44
249.599	96.44
249.832	79.44
250.066	77.44
250.299	84.44
250.532	72.44
250.765	75.44
250.998	76.44
251.231	82.44
251.465	87.44
251.698	87.44
251.931	66.44
252.164	77.44
252.397	83.44
252.63	80.44
252.863	90.44
253.096	95.44
253.329	80.44
253.562	84.44
253.795	80.44
254.028	87.44
254.261	91.44
254.494	87.44
254.727	79.44
254.96	79.44
255.193	90.44
255.426	92.44
255.659	79.44
255.892	73.44
256.124	74.44
256.357	89.44
256.59	84.44
256.823	74.44
257.056	82.44
257.289	85.44
257.521	82.44
257.754	97.44
257.987	78.44
258.22	74.44
258.452	65.44
258.685	86.44
258.918	100.44
259.151	87.44
259.383	69.44
259.616	79.44
259.849	88.44
260.081	72.44
260.314	92.44
260.547	62.44
260.779	82.44
261.012	86.44
261.244	89.44
261.477	77.44
261.71	87.44
261.942	77.44
262.175	78.44
262.407	78.44
262.64	70.44
262.872	79.44
263.105	86.44
263.337	83.44
263.57	70.44
263.802	81.44
264.035	83.44
264.267	98.44
264.499	87.44
264.732	85.44
264.964	104.44
265.197	89.44
265.429	89.44
265.661	77.44
265.894	73.44
266.126	88.44
266.358	92.44
266.591	95.44
266.823	85.44
267.055	86.44
267.287	86.44
267.52	79.44
267.752	89.44
267.984	82.44
268.216	91.44
268.448	84.44
268.681	79.44
268.913	82.44
269.145	87.44
269.377	88.44
269.609	88.44
269.841	86.44
270.073	87.44
270.306	81.44
270.538	92.44
270.77	71.44
271.002	83.44
271.234	88.44
271.466	77.44
271.698	82.44
271.93	79.44
272.162	94.44
272.394	89.44
272.626	80.44
272.858	93.44
273.09	89.44
273.322	82.44
273.553	88.44
273.785	93.44
274.017	75.44
274.249	90.44
274.481	78.44
274.713	93.44
274.945	89.44
275.176	69.44
275.408	81.44
275.64	85.44
275.872	86.44
276.104	85.44
276.335	85.44
276.567	80.44
276.799	87.44
277.031	65.44
277.262	90.44
277.494	82.44
277.726	85.44
277.957	90.44
278.189	87.44
278.421	81.44
278.652	97.44
278.884	75.44
279.115	97.44
279.347	92.44
279.579	74.44
279.81	77.44
280.042	108.44
280.273	100.44
280.505	75.44
280.736	75.44
280.968	77.44
281.199	82.44
281.431	85.44
281.662	92.44
281.894	86.44
282.125	84.44
282.356	75.44
282.588	75.44
282.819	87.44
283.051	78.44
283.282	74.44
283.513	96.44
283.745	67.44
283.976	85.44
284.207	79.44
284.439	93.44
284.67	73.44
284.901	82.44
285.132	90.44
285.364	108.44
285.595	99.44
285.826	92.44
286.057	88.44
286.288	86.44
286.52	89.44
286.751	77.44
286.982	88.44
287.213	87.44
287.444	82.44
287.675	94.44
287.906	104.44
288.138	87.44
288.369	79.44
288.6	101.44
288.831	80.44
289.062	98.44
289.293	76.44
289.524	71.44
289.755	79.44
289.986	95.44
290.217	95.44
290.448	84.44
290.679	87.44
290.91	85.44
291.141	91.44
291.371	86.44
291.602	85.44
291.833	89.44
292.064	86.44
292.295	100.44
292.526	90.44
292.757	79.44
292.987	79.44
293.218	85.44
293.449	91.44
293.68	101.44
293.91	85.44
294.141	75.44
294.372	87.44
294.603	87.44
294.833	82.44
295.064	99.44
295.295	79.44
295.525	92.44
295.756	77.44
295.987	97.44
296.217	87.44
296.448	78.44
296.679	88.44
296.909	91.44
297.14	94.44
297.37	95.44
297.601	85.44
297.831	91.44
298.062	95.44
298.292	91.44
298.523	93.44
298.753	86.44
298.984	83.44
299.214	82.44
299.445	92.44
299.675	77.44
299.905	87.44
300.136	100.44
300.366	100.44
300.597	89.44
300.827	97.44
301.057	91.44
301.288	83.44
301.518	84.44
301.748	97.44
301.979	91.44
302.209	86.44
302.439	97.44
302.669	79.44
302.9	72.44
303.13	85.44
303.36	95.44
303.59	86.44
303.82	95.44
304.051	87.44
304.281	70.44
304.511	83.44
304.741	88.44
304.971	90.44
305.201	87.44
305.431	85.44
305.661	86.44
305.891	99.44
306.121	80.44
306.352	99.44
306.582	100.44
306.812	83.44
307.042	85.44
307.272	86.44
307.502	74.44
307.731	87.44
307.961	88.44
308.191	97.44
308.421	106.44
308.651	91.44
308.881	83.44
309.111	93.44
309.341	101.44
309.571	105.44
309.8	82.44
310.03	91.44
310.26	97.44
310.49	98.44
310.72	83.44
310.949	92.44
311.179	81.44
311.409	79.44
311.639	81.44
311.868	81.44
312.098	100.44
312.328	74.44
312.557	89.44
312.787	101.44
313.017	99.44
313.246	95.44
313.476	93.44
313.706	81.44
313.935	91.44
314.165	82.44
314.394	96.44
314.624	93.44
314.853	80.44
315.083	90.44
315.312	90.44
315.542	92.44
315.771	82.44
316.001	94.44
316.23	104.44
316.46	81.44
316.689	84.44
316.919	83.44
317.148	93.44
317.377	93.44
317.607	98.44
317.836	117.44
318.065	83.44
318.295	102.44
318.524	88.44
318.753	95.44
318.983	86.44
319.212	85.44
319.441	95.44
319.67	86.44
319.9	89.44
320.129	88.44
320.358	91.44
320.587	88.44
320.816	98.44
321.046	90.44
321.275	94.44
321.504	92.44
321.733	102.44
321.962	86.44
322.191	88.44
322.42	94.44
322.649	86.44
322.878	91.44
323.108	90.44
323.337	79.44
323.566	63.44
323.795	83.44
324.024	80.44
324.253	73.44
324.482	93.44
324.71	89.44
324.939	78.44
325.168	92.44
325.397	76.44
325.626	79.44
325.855	70.44
326.084	89.44
326.313	84.44
326.542	87.44
326.77	80.44
326.999	89.44
327.228	98.44
327.457	95.44
327.686	95.44
327.914	98.44
328.143	89.44
328.372	94.44
328.6	93.44
328.829	93.44
329.058	79.44
329.287	81.44
329.515	89.44
329.744	94.44
329.972	87.44
330.201	98.44
330.43	83.44
330.658	86.44
330.887	94.44
331.115	75.44
331.344	96.44
331.572	90.44
331.801	94.44
332.03	98.44
332.258	89.44
332.486	85.44
332.715	78.44
332.943	83.44
333.172	97.44
333.4	88.44
333.629	93.44
333.857	99.44
334.085	94.44
334.314	91.44
334.542	88.44
334.771	100.44
334.999	99.44
335.227	108.44
335.455	84.44
335.684	95.44
335.912	99.44
336.14	94.44
336.369	90.44
336.597	87.44
336.825	113.44
337.053	97.44
337.281	84.44
337.51	97.44
337.738	80.44
337.966	77.44
338.194	89.44
338.422	88.44
338.65	105.44
338.878	87.44
339.106	97.44
339.334	99.44
339.562	81.44
339.79	82.44
340.018	82.44
340.246	89.44
340.474	84.44
340.702	80.44
340.93	86.44
341.158	85.44
341.386	80.44
341.614	92.44
341.842	91.44
342.07	105.44
342.298	79.44
342.526	75.44
342.754	83.44
342.981	88.44
343.209	88.44
343.437	113.44
343.665	71.44
343.893	89.44
344.12	91.44
344.348	80.44
344.576	85.44
344.804	93.44
345.031	97.44
345.259	94.44
345.487	81.44
345.714	90.44
345.942	94.44
346.17	82.44
346.397	90.44
346.625	77.44
346.853	83.44
347.08	86.44
347.308	88.44
347.535	94.44
347.763	87.44
347.99	84.44
348.218	84.44
348.445	79.44
348.673	99.44
348.9	92.44
349.128	83.44
349.355	83.44
349.583	92.44
349.81	99.44
350.037	95.44
350.265	98.44
350.492	81.44
350.72	78.44
350.947	81.44
351.174	91.44
351.402	91.44
351.629	83.44
351.856	85.44
352.083	81.44
352.311	75.44
352.538	94.44
352.765	77.44
352.992	94.44
353.22	91.44
353.447	75.44
353.674	87.44
353.901	86.44
354.128	85.44
354.355	80.44
354.583	90.44
354.81	89.44
355.037	78.44
355.264	85.44
355.491	89.44
355.718	80.44
355.945	81.44
356.172	71.44
356.399	101.44
356.626	83.44
356.853	104.44
357.08	97.44
357.307	84.44
357.534	96.44
357.761	92.44
357.988	92.44
358.215	105.44
358.441	92.44
358.668	83.44
358.895	81.44
359.122	73.44
359.349	88.44
359.576	76.44
359.802	81.44
360.029	90.44
360.256	79.44
360.483	86.44
360.709	84.44
360.936	101.44
361.163	82.44
361.39	81.44
361.616	86.44
361.843	89.44
362.07	80.44
362.296	113.44
362.523	101.44
362.749	107.44
362.976	124.44
363.203	140.44
363.429	96.44
363.656	95.44
363.882	102.44
364.109	107.44
364.335	141.44
364.562	150.44
364.788	107.44
365.015	100.44
365.241	83.44
365.468	80.44
365.694	81.44
365.92	94.44
366.147	86.44
366.373	77.44
366.599	83.44
366.826	94.44
367.052	78.44
367.278	85.44
367.505	90.44
367.731	92.44
367.957	90.44
368.184	92.44
368.41	77.44
368.636	85.44
368.862	85.44
369.089	93.44
369.315	79.44
369.541	90.44
369.767	101.44
369.993	91.44
370.219	86.44
370.445	83.44
370.672	102.44
370.898	94.44
371.124	103.44
371.35	96.44
371.576	85.44
371.802	90.44
372.028	96.44
372.254	101.44
372.48	105.44
372.706	83.44
372.932	95.44
373.158	80.44
373.384	109.44
373.61	103.44
373.835	111.44
374.061	94.44
374.287	85.44
374.513	90.44
374.739	89.44
374.965	93.44
375.191	91.44
375.416	106.44
375.642	91.44
375.868	99.44
376.094	95.44
376.319	84.44
376.545	93.44
376.771	91.44
376.997	94.44
377.222	85.44
377.448	93.44
377.674	92.44
377.899	80.44
378.125	92.44
378.35	94.44
378.576	87.44
378.802	103.44
379.027	87.44
379.253	89.44
379.478	108.44
379.704	90.44
379.929	87.44
380.155	81.44
380.38	79.44
380.606	97.44
380.831	82.44
381.057	95.44
381.282	83.44
381.507	84.44
381.733	90.44
381.958	97.44
382.184	86.44
382.409	93.44
382.634	101.44
382.86	110.44
383.085	102.44
383.31	106.44
383.535	102.44
383.761	90.44
383.986	97.44
384.211	93.44
384.436	89.44
384.662	100.44
384.887	89.44
385.112	100.44
385.337	100.44
385.562	91.44
385.787	97.44
386.013	101.44
386.238	92.44
386.463	103.44
386.688	104.44
386.913	91.44
387.138	92.44
387.363	102.44
387.588	104.44
387.813	98.44
388.038	92.44
388.263	85.44
388.488	103.44
388.713	107.44
388.938	97.44
389.163	91.44
389.387	92.44
389.612	73.44
389.837	81.44
390.062	83.44
390.287	86.44
390.512	89.44
390.736	98.44
390.961	90.44
391.186	97.44
391.411	104.44
391.636	79.44
391.86	102.44
392.085	91.44
392.31	102.44
392.534	102.44
392.759	128.44
392.984	193.44
393.208	319.44
393.433	507.44
393.658	363.44
393.882	146.44
394.107	121.44
394.331	120.44
394.556	124.44
394.78	107.44
395.005	82.44
395.229	97.44
395.454	111.44
395.678	111.44
395.903	132.44
396.127	162.44
396.352	192.44
396.576	211.44
396.801	321.44
397.025	394.44
397.249	205.44
397.474	150.44
397.698	103.44
397.922	98.44
398.147	98.44
398.371	91.44
398.595	88.44
398.82	105.44
399.044	102.44
399.268	87.44
399.492	89.44
399.717	83.44
399.941	88.44
400.165	78.44
400.389	87.44
400.613	84.44
400.837	86.44
401.062	83.44
401.286	89.44
401.51	99.44
401.734	79.44
401.958	102.44
402.182	101.44
402.406	81.44
402.63	80.44
402.854	82.44
403.078	94.44
403.302	93.44
403.526	89.44
403.75	100.44
403.974	90.44
404.198	119.44
404.422	153.44
404.645	200.44
404.869	147.44
405.093	113.44
405.317	100.44
405.541	81.44
405.765	80.44
405.988	92.44
406.212	113.44
406.436	99.44
406.66	92.44
406.883	86.44
407.107	85.44
407.331	108.44
407.555	109.44
407.778	130.44
408.002	141.44
408.226	89.44
408.449	78.44
408.673	78.44
408.896	89.44
409.12	83.44
409.344	89.44
409.567	124.44
409.791	100.44
410.014	92.44
410.238	108.44
410.461	85.44
410.685	82.44
410.908	85.44
411.132	97.44
411.355	88.44
411.578	91.44
411.802	80.44
412.025	89.44
412.249	76.44
412.472	77.44
412.695	73.44
412.919	85.44
413.142	81.44
413.365	82.44
413.589	105.44
413.812	89.44
414.035	80.44
414.258	90.44
414.482	86.44
414.705	83.44
414.928	85.44
415.151	95.44
415.374	79.44
415.597	89.44
415.821	106.44
416.044	96.44
416.267	79.44
416.49	82.44
416.713	85.44
416.936	81.44
417.159	86.44
417.382	86.44
417.605	93.44
417.828	90.44
418.051	93.44
418.274	93.44
418.497	91.44
418.72	102.44
418.943	103.44
419.166	94.44
419.389	80.44
419.611	91.44
419.834	101.44
420.057	85.44
420.28	90.44
420.503	96.44
420.726	86.44
420.948	89.44
421.171	95.44
421.394	125.44
421.617	134.44
421.839	136.44
422.062	149.44
422.285	219.44
422.507	375.44
422.73	601.44
422.953	540.44
423.175	282.44
423.398	146.44
423.621	130.44
423.843	93.44
424.066	107.44
424.288	96.44
424.511	85.44
424.733	83.44
424.956	82.44
425.178	106.44
425.401	91.44
425.623	87.44
425.846	94.44
426.068	90.44
426.291	90.44
426.513	82.44
426.735	91.44
426.958	88.44
427.18	102.44
427.402	102.44
427.625	94.44
427.847	91.44
428.069	111.44
428.292	161.44
428.514	170.44
428.736	130.44
428.958	163.44
429.181	158.44
429.403	121.44
429.625	122.44
429.847	150.44
430.069	231.44
430.292	276.44
430.514	235.44
430.736	165.44
430.958	184.44
431.18	125.44
431.402	106.44
431.624	110.44
431.846	150.44
432.068	194.44
432.29	113.44
432.512	111.44
432.734	102.44
432.956	91.44
433.178	103.44
433.4	87.44
433.622	85.44
433.844	86.44
434.066	87.44
434.287	79.44
434.509	77.44
434.731	82.44
434.953	86.44
435.175	86.44
435.397	90.44
435.618	81.44
435.84	100.44
436.062	96.44
436.284	85.44
436.505	87.44
436.727	80.44
436.949	85.44
437.17	91.44
437.392	83.44
437.614	100.44
437.835	85.44
438.057	91.44
438.278	88.44
438.5	104.44
438.721	105.44
438.943	83.44
439.165	92.44
439.386	89.44
439.608	99.44
439.829	90.44
440.05	83.44
440.272	85.44
440.493	65.44
440.715	83.44
440.936	92.44
441.158	97.44
441.379	93.44
441.6	88.44
441.822	102.44
442.043	98.44
442.264	119.44
442.486	174.44
442.707	212.44
442.928	153.44
443.149	148.44
443.371	215.44
443.592	382.44
443.813	305.44
444.034	136.44
444.255	97.44
444.476	105.44
444.698	102.44
444.919	105.44
445.14	222.44
445.361	283.44
445.582	440.44
445.803	378.44
446.024	163.44
446.245	105.44
446.466	94.44
446.687	84.44
446.908	85.44
447.129	108.44
447.35	85.44
447.571	69.44
447.792	89.44
448.013	90.44
448.234	91.44
448.455	90.44
448.675	77.44
448.896	86.44
449.117	101.44
449.338	85.44
449.559	93.44
449.779	82.44
450	90.44
450.221	94.44
450.442	85.44
450.662	85.44
450.883	78.44
451.104	95.44
451.324	93.44
451.545	92.44
451.766	82.44
451.986	89.44
452.207	89.44
452.428	104.44
452.648	97.44
452.869	118.44
453.089	95.44
453.31	101.44
453.53	101.44
453.751	101.44
453.971	95.44
454.192	99.44
454.412	97.44
454.633	77.44
454.853	82.44
455.073	78.44
455.294	87.44
455.514	93.44
455.734	90.44
455.955	72.44
456.175	93.44
456.395	81.44
456.616	91.44
456.836	77.44
457.056	87.44
457.276	76.44
457.497	85.44
457.717	103.44
457.937	127.44
458.157	135.44
458.377	152.44
458.598	138.44
458.818	137.44
459.038	92.44
459.258	86.44
459.478	83.44
459.698	85.44
459.918	83.44
460.138	79.44
460.358	100.44
460.578	118.44
460.798	140.44
461.018	154.44
461.238	79.44
461.458	90.44
461.678	97.44
461.898	95.44
462.118	85.44
462.338	103.44
462.558	82.44
462.777	85.44
462.997	81.44
463.217	84.44
463.437	85.44
463.657	83.44
463.876	99.44
464.096	83.44
464.316	84.44
464.536	98.44
464.755	92.44
464.975	83.44
465.195	80.44
465.414	97.44
465.634	81.44
465.854	90.44
466.073	77.44
466.293	94.44
466.512	77.44
466.732	72.44
466.951	74.44
467.171	91.44
467.391	86.44
467.61	82.44
467.829	92.44
468.049	93.44
468.268	98.44
468.488	103.44
468.707	113.44
468.927	78.44
469.146	87.44
469.365	97.44
469.585	72.44
469.804	86.44
470.023	88.44
470.243	100.44
470.462	99.44
470.681	102.44
470.901	81.44
471.12	91.44
471.339	89.44
471.558	83.44
471.777	77.44
471.997	78.44
472.216	97.44
472.435	71.44
472.654	95.44
472.873	91.44
473.092	94.44
473.311	92.44
473.53	87.44
473.749	83.44
473.968	98.44
474.187	79.44
474.406	81.44
474.625	101.44
474.844	89.44
475.063	79.44
475.282	91.44
475.501	81.44
475.72	91.44
475.939	89.44
476.158	86.44
476.377	81.44
476.596	85.44
476.814	84.44
477.033	83.44
477.252	91.44
477.471	100.44
477.69	85.44
477.908	100.44
478.127	99.44
478.346	98.44
478.564	79.44
478.783	96.44
479.002	74.44
479.22	85.44
479.439	90.44
479.658	96.44
479.876	89.44
480.095	79.44
480.313	87.44
480.532	95.44
480.751	92.44
480.969	73.44
481.188	94.44
481.406	94.44
481.624	85.44
481.843	83.44
482.061	89.44
482.28	97.44
482.498	98.44
482.717	84.44
482.935	99.44
483.153	95.44
483.372	92.44
483.59	96.44
483.808	89.44
484.027	89.44
484.245	91.44
484.463	86.44
484.681	89.44
484.9	97.44
485.118	101.44
485.336	98.44
485.554	90.44
485.772	92.44
485.99	104.44
486.209	101.44
486.427	84.44
486.645	79.44
486.863	84.44
487.081	91.44
487.299	97.44
487.517	105.44
487.735	127.44
487.953	203.44
488.171	180.44
488.389	102.44
488.607	96.44
488.825	79.44
489.043	99.44
489.261	115.44
489.479	89.44
489.696	106.44
489.914	95.44
490.132	110.44
490.35	82.44
490.568	86.44
490.786	91.44
491.003	90.44
491.221	82.44
491.439	81.44
491.657	103.44
491.874	92.44
492.092	96.44
492.31	89.44
492.527	103.44
492.745	94.44
492.963	85.44
493.18	102.44
493.398	106.44
493.615	98.44
493.833	99.44
494.05	102.44
494.268	99.44
494.485	100.44
494.703	88.44
494.92	78.44
495.138	92.44
495.355	101.44
495.573	97.44
495.79	99.44
496.008	99.44
496.225	98.44
496.442	91.44
496.66	102.44
496.877	89.44
497.094	85.44
497.312	82.44
497.529	93.44
497.746	100.44
497.963	100.44
498.181	98.44
498.398	102.44
498.615	96.44
498.832	101.44
499.049	109.44
499.267	92.44
499.484	77.44
499.701	89.44
499.918	99.44
500.135	101.44
500.352	91.44
500.569	89.44
500.786	97.44
501.003	92.44
501.22	89.44
501.437	99.44
501.654	87.44
501.871	84.44
502.088	85.44
502.305	104.44
502.522	106.44
502.739	98.44
502.956	77.44
503.172	91.44
503.389	95.44
503.606	103.44
503.823	102.44
504.04	123.44
504.256	145.44
504.473	143.44
504.69	119.44
504.907	102.44
505.123	82.44
505.34	85.44
505.557	94.44
505.773	85.44
505.99	99.44
506.207	101.44
506.423	100.44
506.64	91.44
506.856	80.44
507.073	97.44
507.289	92.44
507.506	91.44
507.722	92.44
507.939	90.44
508.155	96.44
508.372	100.44
508.588	89.44
508.805	75.44
509.021	93.44
509.238	101.44
509.454	85.44
509.67	93.44
509.887	96.44
510.103	73.44
510.319	96.44
510.536	96.44
510.752	87.44
510.968	98.44
511.184	101.44
511.401	98.44
511.617	96.44
511.833	98.44
512.049	83.44
512.265	95.44
512.481	99.44
512.698	83.44
512.914	83.44
513.13	85.44
513.346	99.44
513.562	85.44
513.778	102.44
513.994	97.44
514.21	87.44
514.426	79.44
514.642	84.44
514.858	93.44
515.074	89.44
515.29	98.44
515.506	98.44
515.721	90.44
515.937	86.44
516.153	103.44
516.369	89.44
516.585	90.44
516.801	79.44
