Data from 2145_1_HRD10591_00018.txt Node
Date: Mon Jan 19 14:21:18 EST 2026
User: Yrep
Spectrometer: HR+D1059
Trigger mode: 1
Integration Time (sec): 1.000000E-1
Scans to average: 1
Electric dark correction enabled: true
Nonlinearity correction enabled: false
Boxcar width: 0
XAxis mode: Wavelengths
Number of Pixels in Spectrum: 2048
>>>>>Begin Spectral Data<<<<<
223.165	-12.31
223.4	-12.31
223.635	-12.31
223.869	-20.31
224.104	0.69
224.338	-16.31
224.573	-18.31
224.808	-25.31
225.042	-4.31
225.277	-10.31
225.511	-6.31
225.746	7.69
225.98	-0.31
226.215	10.69
226.449	14.69
226.683	19.69
226.918	28.69
227.152	31.69
227.387	33.69
227.621	32.69
227.856	46.69
228.09	49.69
228.324	58.69
228.559	63.69
228.793	61.69
229.027	62.69
229.262	72.69
229.496	72.69
229.73	59.69
229.964	57.69
230.199	69.69
230.433	61.69
230.667	81.69
230.901	83.69
231.136	57.69
231.37	88.69
231.604	81.69
231.838	90.69
232.072	87.69
232.306	85.69
232.541	87.69
232.775	66.69
233.009	85.69
233.243	61.69
233.477	81.69
233.711	74.69
233.945	83.69
234.179	86.69
234.413	83.69
234.647	79.69
234.881	71.69
235.115	74.69
235.349	76.69
235.583	70.69
235.817	75.69
236.051	73.69
236.285	81.69
236.519	78.69
236.753	74.69
236.987	83.69
237.221	73.69
237.455	86.69
237.689	73.69
237.922	67.69
238.156	64.69
238.39	73.69
238.624	82.69
238.858	71.69
239.091	68.69
239.325	68.69
239.559	62.69
239.793	58.69
240.027	83.69
240.26	61.69
240.494	88.69
240.728	75.69
240.961	72.69
241.195	61.69
241.429	71.69
241.662	70.69
241.896	76.69
242.13	69.69
242.363	62.69
242.597	78.69
242.83	80.69
243.064	88.69
243.298	84.69
243.531	79.69
243.765	81.69
243.998	75.69
244.232	73.69
244.465	84.69
244.699	82.69
244.932	85.69
245.166	71.69
245.399	71.69
245.633	75.69
245.866	70.69
246.099	71.69
246.333	67.69
246.566	61.69
246.8	92.69
247.033	66.69
247.266	59.69
247.5	69.69
247.733	84.69
247.966	83.69
248.2	90.69
248.433	75.69
248.666	84.69
248.899	81.69
249.133	80.69
249.366	75.69
249.599	77.69
249.832	79.69
250.066	74.69
250.299	83.69
250.532	72.69
250.765	61.69
250.998	83.69
251.231	74.69
251.465	73.69
251.698	81.69
251.931	66.69
252.164	62.69
252.397	91.69
252.63	81.69
252.863	86.69
253.096	83.69
253.329	82.69
253.562	73.69
253.795	72.69
254.028	88.69
254.261	85.69
254.494	87.69
254.727	74.69
254.96	82.69
255.193	87.69
255.426	71.69
255.659	79.69
255.892	80.69
256.124	84.69
256.357	79.69
256.59	82.69
256.823	91.69
257.056	82.69
257.289	69.69
257.521	74.69
257.754	84.69
257.987	91.69
258.22	78.69
258.452	65.69
258.685	83.69
258.918	83.69
259.151	80.69
259.383	81.69
259.616	82.69
259.849	85.69
260.081	97.69
260.314	70.69
260.547	74.69
260.779	75.69
261.012	66.69
261.244	99.69
261.477	73.69
261.71	75.69
261.942	65.69
262.175	82.69
262.407	81.69
262.64	79.69
262.872	67.69
263.105	86.69
263.337	87.69
263.57	83.69
263.802	89.69
264.035	83.69
264.267	74.69
264.499	74.69
264.732	77.69
264.964	68.69
265.197	89.69
265.429	93.69
265.661	80.69
265.894	77.69
266.126	62.69
266.358	80.69
266.591	87.69
266.823	89.69
267.055	85.69
267.287	66.69
267.52	79.69
267.752	77.69
267.984	79.69
268.216	80.69
268.448	89.69
268.681	80.69
268.913	79.69
269.145	73.69
269.377	77.69
269.609	72.69
269.841	94.69
270.073	90.69
270.306	80.69
270.538	76.69
270.77	79.69
271.002	89.69
271.234	77.69
271.466	79.69
271.698	66.69
271.93	74.69
272.162	81.69
272.394	75.69
272.626	76.69
272.858	89.69
273.09	78.69
273.322	79.69
273.553	85.69
273.785	79.69
274.017	83.69
274.249	72.69
274.481	81.69
274.713	66.69
274.945	85.69
275.176	80.69
275.408	79.69
275.64	78.69
275.872	78.69
276.104	88.69
276.335	85.69
276.567	91.69
276.799	82.69
277.031	61.69
277.262	82.69
277.494	86.69
277.726	87.69
277.957	82.69
278.189	91.69
278.421	86.69
278.652	81.69
278.884	72.69
279.115	83.69
279.347	76.69
279.579	82.69
279.81	77.69
280.042	82.69
280.273	85.69
280.505	69.69
280.736	81.69
280.968	80.69
281.199	82.69
281.431	82.69
281.662	80.69
281.894	87.69
282.125	81.69
282.356	85.69
282.588	67.69
282.819	69.69
283.051	71.69
283.282	71.69
283.513	88.69
283.745	76.69
283.976	87.69
284.207	96.69
284.439	81.69
284.67	88.69
284.901	91.69
285.132	86.69
285.364	90.69
285.595	80.69
285.826	94.69
286.057	91.69
286.288	80.69
286.52	71.69
286.751	82.69
286.982	77.69
287.213	75.69
287.444	99.69
287.675	91.69
287.906	81.69
288.138	79.69
288.369	91.69
288.6	75.69
288.831	86.69
289.062	87.69
289.293	70.69
289.524	81.69
289.755	93.69
289.986	81.69
290.217	87.69
290.448	99.69
290.679	74.69
290.91	85.69
291.141	86.69
291.371	81.69
291.602	86.69
291.833	82.69
292.064	82.69
292.295	91.69
292.526	79.69
292.757	75.69
292.987	93.69
293.218	84.69
293.449	81.69
293.68	76.69
293.91	79.69
294.141	83.69
294.372	86.69
294.603	79.69
294.833	71.69
295.064	80.69
295.295	76.69
295.525	72.69
295.756	77.69
295.987	79.69
296.217	76.69
296.448	85.69
296.679	75.69
296.909	77.69
297.14	87.69
297.37	88.69
297.601	71.69
297.831	80.69
298.062	81.69
298.292	89.69
298.523	87.69
298.753	82.69
298.984	85.69
299.214	89.69
299.445	85.69
299.675	77.69
299.905	86.69
300.136	100.69
300.366	80.69
300.597	94.69
300.827	83.69
301.057	89.69
301.288	91.69
301.518	95.69
301.748	81.69
301.979	103.69
302.209	77.69
302.439	92.69
302.669	77.69
302.9	88.69
303.13	60.69
303.36	83.69
303.59	95.69
303.82	81.69
304.051	85.69
304.281	98.69
304.511	84.69
304.741	93.69
304.971	73.69
305.201	81.69
305.431	88.69
305.661	93.69
305.891	78.69
306.121	80.69
306.352	83.69
306.582	93.69
306.812	95.69
307.042	82.69
307.272	75.69
307.502	81.69
307.731	85.69
307.961	88.69
308.191	86.69
308.421	89.69
308.651	71.69
308.881	78.69
309.111	77.69
309.341	87.69
309.571	93.69
309.8	82.69
310.03	82.69
310.26	89.69
310.49	73.69
310.72	71.69
310.949	71.69
311.179	65.69
311.409	74.69
311.639	91.69
311.868	82.69
312.098	91.69
312.328	85.69
312.557	92.69
312.787	97.69
313.017	88.69
313.246	92.69
313.476	75.69
313.706	95.69
313.935	61.69
314.165	95.69
314.394	101.69
314.624	72.69
314.853	75.69
315.083	104.69
315.312	87.69
315.542	71.69
315.771	78.69
316.001	69.69
316.23	69.69
316.46	97.69
316.689	85.69
316.919	75.69
317.148	89.69
317.377	83.69
317.607	82.69
317.836	84.69
318.065	80.69
318.295	90.69
318.524	76.69
318.753	91.69
318.983	98.69
319.212	82.69
319.441	80.69
319.67	72.69
319.9	88.69
320.129	85.69
320.358	84.69
320.587	85.69
320.816	69.69
321.046	70.69
321.275	70.69
321.504	70.69
321.733	87.69
321.962	75.69
322.191	77.69
322.42	76.69
322.649	93.69
322.878	88.69
323.108	98.69
323.337	97.69
323.566	83.69
323.795	88.69
324.024	86.69
324.253	86.69
324.482	73.69
324.71	89.69
324.939	98.69
325.168	89.69
325.397	97.69
325.626	99.69
325.855	82.69
326.084	74.69
326.313	93.69
326.542	88.69
326.77	88.69
326.999	90.69
327.228	89.69
327.457	86.69
327.686	78.69
327.914	85.69
328.143	87.69
328.372	82.69
328.6	80.69
328.829	87.69
329.058	67.69
329.287	84.69
329.515	85.69
329.744	87.69
329.972	83.69
330.201	83.69
330.43	90.69
330.658	77.69
330.887	86.69
331.115	84.69
331.344	88.69
331.572	87.69
331.801	81.69
332.03	84.69
332.258	88.69
332.486	81.69
332.715	78.69
332.943	84.69
333.172	85.69
333.4	89.69
333.629	93.69
333.857	84.69
334.085	93.69
334.314	91.69
334.542	80.69
334.771	77.69
334.999	92.69
335.227	82.69
335.455	87.69
335.684	76.69
335.912	93.69
336.14	80.69
336.369	70.69
336.597	81.69
336.825	78.69
337.053	91.69
337.281	96.69
337.51	78.69
337.738	81.69
337.966	92.69
338.194	85.69
338.422	81.69
338.65	70.69
338.878	86.69
339.106	80.69
339.334	80.69
339.562	75.69
339.79	85.69
340.018	79.69
340.246	86.69
340.474	83.69
340.702	81.69
340.93	95.69
341.158	73.69
341.386	85.69
341.614	83.69
341.842	81.69
342.07	70.69
342.298	79.69
342.526	73.69
342.754	75.69
342.981	77.69
343.209	81.69
343.437	92.69
343.665	81.69
343.893	73.69
344.12	93.69
344.348	97.69
344.576	85.69
344.804	86.69
345.031	83.69
345.259	58.69
345.487	83.69
345.714	88.69
345.942	81.69
346.17	80.69
346.397	96.69
346.625	80.69
346.853	95.69
347.08	83.69
347.308	74.69
347.535	103.69
347.763	85.69
347.99	73.69
348.218	82.69
348.445	90.69
348.673	87.69
348.9	81.69
349.128	75.69
349.355	77.69
349.583	84.69
349.81	77.69
350.037	93.69
350.265	89.69
350.492	101.69
350.72	88.69
350.947	83.69
351.174	79.69
351.402	88.69
351.629	88.69
351.856	79.69
352.083	75.69
352.311	83.69
352.538	74.69
352.765	71.69
352.992	98.69
353.22	77.69
353.447	73.69
353.674	80.69
353.901	86.69
354.128	89.69
354.355	93.69
354.583	82.69
354.81	91.69
355.037	83.69
355.264	75.69
355.491	91.69
355.718	74.69
355.945	77.69
356.172	64.69
356.399	79.69
356.626	85.69
356.853	89.69
357.08	82.69
357.307	79.69
357.534	78.69
357.761	81.69
357.988	76.69
358.215	96.69
358.441	93.69
358.668	89.69
358.895	83.69
359.122	84.69
359.349	85.69
359.576	82.69
359.802	79.69
360.029	82.69
360.256	83.69
360.483	99.69
360.709	85.69
360.936	95.69
361.163	88.69
361.39	71.69
361.616	84.69
361.843	93.69
362.07	76.69
362.296	95.69
362.523	94.69
362.749	87.69
362.976	105.69
363.203	122.69
363.429	91.69
363.656	101.69
363.882	85.69
364.109	83.69
364.335	120.69
364.562	109.69
364.788	88.69
365.015	87.69
365.241	91.69
365.468	71.69
365.694	80.69
365.92	87.69
366.147	93.69
366.373	84.69
366.599	85.69
366.826	80.69
367.052	86.69
367.278	73.69
367.505	102.69
367.731	74.69
367.957	75.69
368.184	81.69
368.41	81.69
368.636	83.69
368.862	83.69
369.089	87.69
369.315	74.69
369.541	82.69
369.767	79.69
369.993	78.69
370.219	85.69
370.445	82.69
370.672	81.69
370.898	61.69
371.124	82.69
371.35	91.69
371.576	71.69
371.802	74.69
372.028	87.69
372.254	89.69
372.48	78.69
372.706	91.69
372.932	83.69
373.158	73.69
373.384	91.69
373.61	94.69
373.835	102.69
374.061	82.69
374.287	88.69
374.513	75.69
374.739	87.69
374.965	96.69
375.191	78.69
375.416	76.69
375.642	86.69
375.868	81.69
376.094	84.69
376.319	81.69
376.545	70.69
376.771	69.69
376.997	67.69
377.222	87.69
377.448	87.69
377.674	75.69
377.899	66.69
378.125	96.69
378.35	97.69
378.576	86.69
378.802	89.69
379.027	81.69
379.253	88.69
379.478	74.69
379.704	86.69
379.929	83.69
380.155	88.69
380.38	69.69
380.606	90.69
380.831	86.69
381.057	66.69
381.282	88.69
381.507	87.69
381.733	73.69
381.958	82.69
382.184	95.69
382.409	87.69
382.634	91.69
382.86	79.69
383.085	90.69
383.31	91.69
383.535	91.69
383.761	95.69
383.986	82.69
384.211	80.69
384.436	72.69
384.662	71.69
384.887	75.69
385.112	84.69
385.337	78.69
385.562	91.69
385.787	101.69
386.013	72.69
386.238	76.69
386.463	89.69
386.688	99.69
386.913	77.69
387.138	76.69
387.363	90.69
387.588	93.69
387.813	93.69
388.038	84.69
388.263	82.69
388.488	82.69
388.713	77.69
388.938	75.69
389.163	82.69
389.387	90.69
389.612	95.69
389.837	83.69
390.062	78.69
390.287	86.69
390.512	79.69
390.736	84.69
390.961	75.69
391.186	93.69
391.411	83.69
391.636	85.69
391.86	83.69
392.085	86.69
392.31	75.69
392.534	81.69
392.759	94.69
392.984	110.69
393.208	166.69
393.433	225.69
393.658	202.69
393.882	115.69
394.107	105.69
394.331	93.69
394.556	90.69
394.78	97.69
395.005	93.69
395.229	90.69
395.454	89.69
395.678	88.69
395.903	95.69
396.127	111.69
396.352	110.69
396.576	135.69
396.801	187.69
397.025	214.69
397.249	135.69
397.474	114.69
397.698	102.69
397.922	85.69
398.147	75.69
398.371	81.69
398.595	83.69
398.82	81.69
399.044	87.69
399.268	80.69
399.492	85.69
399.717	75.69
399.941	82.69
400.165	78.69
400.389	85.69
400.613	91.69
400.837	82.69
401.062	82.69
401.286	91.69
401.51	82.69
401.734	77.69
401.958	80.69
402.182	90.69
402.406	86.69
402.63	72.69
402.854	82.69
403.078	73.69
403.302	63.69
403.526	85.69
403.75	92.69
403.974	82.69
404.198	89.69
404.422	117.69
404.645	114.69
404.869	118.69
405.093	101.69
405.317	71.69
405.541	87.69
405.765	91.69
405.988	100.69
406.212	85.69
406.436	86.69
406.66	103.69
406.883	90.69
407.107	68.69
407.331	75.69
407.555	99.69
407.778	101.69
408.002	111.69
408.226	89.69
408.449	91.69
408.673	86.69
408.896	81.69
409.12	90.69
409.344	91.69
409.567	81.69
409.791	96.69
410.014	86.69
410.238	92.69
410.461	83.69
410.685	85.69
410.908	73.69
411.132	76.69
411.355	85.69
411.578	82.69
411.802	77.69
412.025	95.69
412.249	74.69
412.472	76.69
412.695	88.69
412.919	85.69
413.142	75.69
413.365	86.69
413.589	79.69
413.812	90.69
414.035	86.69
414.258	91.69
414.482	84.69
414.705	71.69
414.928	80.69
415.151	85.69
415.374	77.69
415.597	78.69
415.821	96.69
416.044	85.69
416.267	75.69
416.49	83.69
416.713	89.69
416.936	86.69
417.159	85.69
417.382	82.69
417.605	70.69
417.828	73.69
418.051	78.69
418.274	88.69
418.497	86.69
418.72	74.69
418.943	80.69
419.166	71.69
419.389	64.69
419.611	91.69
419.834	91.69
420.057	80.69
420.28	90.69
420.503	73.69
420.726	80.69
420.948	85.69
421.171	102.69
421.394	90.69
421.617	106.69
421.839	115.69
422.062	127.69
422.285	157.69
422.507	229.69
422.73	322.69
422.953	324.69
423.175	181.69
423.398	127.69
423.621	103.69
423.843	96.69
424.066	93.69
424.288	82.69
424.511	83.69
424.733	93.69
424.956	76.69
425.178	89.69
425.401	79.69
425.623	82.69
425.846	81.69
426.068	79.69
426.291	80.69
426.513	81.69
426.735	91.69
426.958	73.69
427.18	79.69
427.402	76.69
427.625	79.69
427.847	90.69
428.069	91.69
428.292	100.69
428.514	123.69
428.736	98.69
428.958	122.69
429.181	123.69
429.403	99.69
429.625	97.69
429.847	96.69
430.069	149.69
430.292	161.69
430.514	154.69
430.736	119.69
430.958	134.69
431.18	99.69
431.402	79.69
431.624	91.69
431.846	106.69
432.068	138.69
432.29	98.69
432.512	88.69
432.734	90.69
432.956	82.69
433.178	86.69
433.4	81.69
433.622	76.69
433.844	86.69
434.066	69.69
434.287	71.69
434.509	83.69
434.731	91.69
434.953	87.69
435.175	95.69
435.397	78.69
435.618	85.69
435.84	89.69
436.062	85.69
436.284	84.69
436.505	88.69
436.727	82.69
436.949	64.69
437.17	86.69
437.392	93.69
437.614	89.69
437.835	80.69
438.057	77.69
438.278	79.69
438.5	80.69
438.721	90.69
438.943	83.69
439.165	75.69
439.386	88.69
439.608	83.69
439.829	93.69
440.05	82.69
440.272	79.69
440.493	89.69
440.715	81.69
440.936	80.69
441.158	82.69
441.379	79.69
441.6	68.69
441.822	85.69
442.043	89.69
442.264	93.69
442.486	130.69
442.707	139.69
442.928	116.69
443.149	93.69
443.371	131.69
443.592	209.69
443.813	198.69
444.034	113.69
444.255	86.69
444.476	107.69
444.698	93.69
444.919	85.69
445.14	189.69
445.361	202.69
445.582	260.69
445.803	211.69
446.024	105.69
446.245	100.69
446.466	86.69
446.687	93.69
446.908	79.69
447.129	88.69
447.35	99.69
447.571	80.69
447.792	64.69
448.013	75.69
448.234	70.69
448.455	96.69
448.675	71.69
448.896	99.69
449.117	75.69
449.338	86.69
449.559	71.69
449.779	87.69
450	74.69
450.221	67.69
450.442	85.69
450.662	93.69
450.883	87.69
451.104	81.69
451.324	74.69
451.545	83.69
451.766	82.69
451.986	83.69
452.207	89.69
452.428	71.69
452.648	75.69
452.869	81.69
453.089	89.69
453.31	73.69
453.53	88.69
453.751	89.69
453.971	72.69
454.192	86.69
454.412	74.69
454.633	71.69
454.853	91.69
455.073	85.69
455.294	85.69
455.514	87.69
455.734	94.69
455.955	76.69
456.175	81.69
456.395	79.69
456.616	80.69
456.836	94.69
457.056	78.69
457.276	76.69
457.497	73.69
457.717	91.69
457.937	105.69
458.157	102.69
458.377	114.69
458.598	113.69
458.818	100.69
459.038	90.69
459.258	81.69
459.478	90.69
459.698	79.69
459.918	71.69
460.138	76.69
460.358	69.69
460.578	91.69
460.798	109.69
461.018	119.69
461.238	81.69
461.458	89.69
461.678	76.69
461.898	87.69
462.118	87.69
462.338	75.69
462.558	79.69
462.777	86.69
462.997	99.69
463.217	61.69
463.437	86.69
463.657	73.69
463.876	67.69
464.096	83.69
464.316	82.69
464.536	82.69
464.755	78.69
464.975	88.69
465.195	91.69
465.414	80.69
465.634	81.69
465.854	84.69
466.073	80.69
466.293	90.69
466.512	81.69
466.732	94.69
466.951	81.69
467.171	75.69
467.391	71.69
467.61	80.69
467.829	69.69
468.049	88.69
468.268	75.69
468.488	89.69
468.707	83.69
468.927	89.69
469.146	101.69
469.365	83.69
469.585	74.69
469.804	84.69
470.023	76.69
470.243	94.69
470.462	74.69
470.681	81.69
470.901	71.69
471.12	83.69
471.339	75.69
471.558	85.69
471.777	84.69
471.997	87.69
472.216	77.69
472.435	83.69
472.654	79.69
472.873	85.69
473.092	78.69
473.311	72.69
473.53	77.69
473.749	83.69
473.968	101.69
474.187	79.69
474.406	76.69
474.625	79.69
474.844	80.69
475.063	86.69
475.282	83.69
475.501	85.69
475.72	68.69
475.939	81.69
476.158	74.69
476.377	70.69
476.596	90.69
476.814	85.69
477.033	84.69
477.252	98.69
477.471	94.69
477.69	93.69
477.908	88.69
478.127	93.69
478.346	83.69
478.564	81.69
478.783	83.69
479.002	90.69
479.22	90.69
479.439	87.69
479.658	86.69
479.876	90.69
480.095	70.69
480.313	87.69
480.532	82.69
480.751	86.69
480.969	89.69
481.188	89.69
481.406	86.69
481.624	90.69
481.843	81.69
482.061	73.69
482.28	80.69
482.498	88.69
482.717	81.69
482.935	87.69
483.153	76.69
483.372	83.69
483.59	81.69
483.808	89.69
484.027	73.69
484.245	91.69
484.463	89.69
484.681	75.69
484.9	82.69
485.118	80.69
485.336	94.69
485.554	96.69
485.772	95.69
485.99	83.69
486.209	87.69
486.427	96.69
486.645	92.69
486.863	86.69
487.081	83.69
487.299	83.69
487.517	95.69
487.735	85.69
487.953	138.69
488.171	115.69
488.389	98.69
488.607	93.69
488.825	86.69
489.043	93.69
489.261	94.69
489.479	69.69
489.696	100.69
489.914	87.69
490.132	85.69
490.35	68.69
490.568	81.69
490.786	86.69
491.003	90.69
491.221	75.69
491.439	80.69
491.657	74.69
491.874	98.69
492.092	73.69
492.31	87.69
492.527	81.69
492.745	82.69
492.963	88.69
493.18	99.69
493.398	91.69
493.615	79.69
493.833	79.69
494.05	93.69
494.268	80.69
494.485	89.69
494.703	77.69
494.92	91.69
495.138	88.69
495.355	87.69
495.573	78.69
495.79	86.69
496.008	90.69
496.225	99.69
496.442	93.69
496.66	101.69
496.877	98.69
497.094	90.69
497.312	90.69
497.529	82.69
497.746	81.69
497.963	82.69
498.181	73.69
498.398	78.69
498.615	87.69
498.832	84.69
499.049	81.69
499.267	85.69
499.484	71.69
499.701	84.69
499.918	81.69
500.135	89.69
500.352	65.69
500.569	102.69
500.786	79.69
501.003	85.69
501.22	91.69
501.437	105.69
501.654	92.69
501.871	76.69
502.088	85.69
502.305	79.69
502.522	83.69
502.739	97.69
502.956	90.69
503.172	91.69
503.389	79.69
503.606	89.69
503.823	87.69
504.04	102.69
504.256	106.69
504.473	106.69
504.69	99.69
504.907	95.69
505.123	86.69
505.34	79.69
505.557	71.69
505.773	78.69
505.99	89.69
506.207	87.69
506.423	85.69
506.64	85.69
506.856	90.69
507.073	72.69
507.289	85.69
507.506	79.69
507.722	83.69
507.939	80.69
508.155	86.69
508.372	83.69
508.588	96.69
508.805	82.69
509.021	85.69
509.238	89.69
509.454	81.69
509.67	78.69
509.887	75.69
510.103	83.69
510.319	85.69
510.536	91.69
510.752	88.69
510.968	84.69
511.184	92.69
511.401	87.69
511.617	95.69
511.833	76.69
512.049	97.69
512.265	85.69
512.481	75.69
512.698	89.69
512.914	87.69
513.13	86.69
513.346	84.69
513.562	96.69
513.778	78.69
513.994	67.69
514.21	81.69
514.426	77.69
514.642	83.69
514.858	76.69
515.074	78.69
515.29	98.69
515.506	86.69
515.721	77.69
515.937	99.69
516.153	71.69
516.369	79.69
516.585	80.69
516.801	87.69
517.016	92.69
517.232	88.69
517.448	95.69
517.664	93.69
517.879	100.69
518.095	88.69
518.311	90.69
518.527	86.69
518.742	103.69
518.958	119.69
