Data from 2145_1_HRD10591_00029.txt Node
Date: Mon Jan 19 14:21:23 EST 2026
User: Yrep
Spectrometer: HR+D1059
Trigger mode: 1
Integration Time (sec): 1.000000E-1
Scans to average: 1
Electric dark correction enabled: true
Nonlinearity correction enabled: false
Boxcar width: 0
XAxis mode: Wavelengths
Number of Pixels in Spectrum: 2048
>>>>>Begin Spectral Data<<<<<
223.165	-5.38
223.4	-5.38
223.635	-5.38
223.869	-31.38
224.104	-16.38
224.338	-12.38
224.573	-10.38
224.808	-13.38
225.042	-26.38
225.277	-7.38
225.511	12.62
225.746	6.62
225.98	9.62
226.215	12.62
226.449	12.62
226.683	18.62
226.918	24.62
227.152	25.62
227.387	35.62
227.621	43.62
227.856	33.62
228.09	59.62
228.324	65.62
228.559	51.62
228.793	56.62
229.027	61.62
229.262	66.62
229.496	70.62
229.73	63.62
229.964	74.62
230.199	79.62
230.433	64.62
230.667	77.62
230.901	72.62
231.136	73.62
231.37	74.62
231.604	65.62
231.838	89.62
232.072	80.62
232.306	89.62
232.541	92.62
232.775	73.62
233.009	85.62
233.243	85.62
233.477	86.62
233.711	85.62
233.945	78.62
234.179	88.62
234.413	71.62
234.647	70.62
234.881	83.62
235.115	75.62
235.349	64.62
235.583	85.62
235.817	83.62
236.051	69.62
236.285	81.62
236.519	77.62
236.753	64.62
236.987	85.62
237.221	88.62
237.455	71.62
237.689	81.62
237.922	64.62
238.156	87.62
238.39	63.62
238.624	85.62
238.858	85.62
239.091	69.62
239.325	73.62
239.559	77.62
239.793	83.62
240.027	87.62
240.26	76.62
240.494	90.62
240.728	85.62
240.961	60.62
241.195	73.62
241.429	85.62
241.662	72.62
241.896	63.62
242.13	79.62
242.363	83.62
242.597	75.62
242.83	67.62
243.064	74.62
243.298	67.62
243.531	63.62
243.765	77.62
243.998	83.62
244.232	72.62
244.465	71.62
244.699	64.62
244.932	69.62
245.166	79.62
245.399	87.62
245.633	78.62
245.866	77.62
246.099	71.62
246.333	77.62
246.566	67.62
246.8	64.62
247.033	76.62
247.266	74.62
247.5	71.62
247.733	69.62
247.966	78.62
248.2	69.62
248.433	77.62
248.666	77.62
248.899	76.62
249.133	76.62
249.366	77.62
249.599	81.62
249.832	87.62
250.066	73.62
250.299	75.62
250.532	85.62
250.765	72.62
250.998	71.62
251.231	83.62
251.465	78.62
251.698	78.62
251.931	89.62
252.164	84.62
252.397	81.62
252.63	83.62
252.863	81.62
253.096	72.62
253.329	71.62
253.562	76.62
253.795	76.62
254.028	80.62
254.261	91.62
254.494	89.62
254.727	81.62
254.96	75.62
255.193	73.62
255.426	72.62
255.659	81.62
255.892	79.62
256.124	68.62
256.357	78.62
256.59	77.62
256.823	78.62
257.056	75.62
257.289	74.62
257.521	76.62
257.754	72.62
257.987	86.62
258.22	75.62
258.452	85.62
258.685	72.62
258.918	86.62
259.151	75.62
259.383	83.62
259.616	75.62
259.849	79.62
260.081	74.62
260.314	77.62
260.547	75.62
260.779	77.62
261.012	71.62
261.244	75.62
261.477	82.62
261.71	72.62
261.942	74.62
262.175	103.62
262.407	81.62
262.64	76.62
262.872	104.62
263.105	74.62
263.337	81.62
263.57	93.62
263.802	82.62
264.035	81.62
264.267	97.62
264.499	89.62
264.732	82.62
264.964	71.62
265.197	90.62
265.429	87.62
265.661	88.62
265.894	68.62
266.126	77.62
266.358	72.62
266.591	77.62
266.823	71.62
267.055	77.62
267.287	89.62
267.52	78.62
267.752	79.62
267.984	84.62
268.216	78.62
268.448	83.62
268.681	69.62
268.913	85.62
269.145	83.62
269.377	78.62
269.609	71.62
269.841	77.62
270.073	67.62
270.306	71.62
270.538	69.62
270.77	90.62
271.002	85.62
271.234	88.62
271.466	82.62
271.698	81.62
271.93	80.62
272.162	75.62
272.394	91.62
272.626	101.62
272.858	82.62
273.09	78.62
273.322	85.62
273.553	85.62
273.785	91.62
274.017	96.62
274.249	73.62
274.481	72.62
274.713	76.62
274.945	81.62
275.176	69.62
275.408	77.62
275.64	83.62
275.872	88.62
276.104	88.62
276.335	80.62
276.567	74.62
276.799	85.62
277.031	78.62
277.262	86.62
277.494	76.62
277.726	86.62
277.957	77.62
278.189	88.62
278.421	76.62
278.652	68.62
278.884	73.62
279.115	84.62
279.347	81.62
279.579	86.62
279.81	90.62
280.042	75.62
280.273	84.62
280.505	89.62
280.736	79.62
280.968	91.62
281.199	74.62
281.431	92.62
281.662	80.62
281.894	77.62
282.125	77.62
282.356	84.62
282.588	85.62
282.819	85.62
283.051	78.62
283.282	99.62
283.513	98.62
283.745	88.62
283.976	72.62
284.207	83.62
284.439	79.62
284.67	87.62
284.901	92.62
285.132	75.62
285.364	88.62
285.595	81.62
285.826	84.62
286.057	74.62
286.288	89.62
286.52	85.62
286.751	88.62
286.982	77.62
287.213	89.62
287.444	90.62
287.675	85.62
287.906	89.62
288.138	83.62
288.369	71.62
288.6	91.62
288.831	80.62
289.062	74.62
289.293	74.62
289.524	84.62
289.755	85.62
289.986	91.62
290.217	91.62
290.448	84.62
290.679	90.62
290.91	90.62
291.141	107.62
291.371	85.62
291.602	96.62
291.833	79.62
292.064	83.62
292.295	74.62
292.526	71.62
292.757	81.62
292.987	96.62
293.218	96.62
293.449	71.62
293.68	72.62
293.91	91.62
294.141	91.62
294.372	83.62
294.603	88.62
294.833	87.62
295.064	64.62
295.295	88.62
295.525	71.62
295.756	85.62
295.987	96.62
296.217	85.62
296.448	91.62
296.679	90.62
296.909	86.62
297.14	94.62
297.37	102.62
297.601	88.62
297.831	75.62
298.062	76.62
298.292	77.62
298.523	81.62
298.753	79.62
298.984	93.62
299.214	87.62
299.445	90.62
299.675	88.62
299.905	82.62
300.136	83.62
300.366	85.62
300.597	86.62
300.827	86.62
301.057	74.62
301.288	90.62
301.518	85.62
301.748	101.62
301.979	95.62
302.209	96.62
302.439	81.62
302.669	95.62
302.9	84.62
303.13	89.62
303.36	90.62
303.59	85.62
303.82	93.62
304.051	93.62
304.281	82.62
304.511	79.62
304.741	76.62
304.971	81.62
305.201	91.62
305.431	89.62
305.661	91.62
305.891	76.62
306.121	93.62
306.352	85.62
306.582	76.62
306.812	83.62
307.042	84.62
307.272	88.62
307.502	80.62
307.731	87.62
307.961	91.62
308.191	87.62
308.421	89.62
308.651	90.62
308.881	102.62
309.111	92.62
309.341	102.62
309.571	100.62
309.8	101.62
310.03	83.62
310.26	91.62
310.49	73.62
310.72	76.62
310.949	69.62
311.179	68.62
311.409	88.62
311.639	76.62
311.868	102.62
312.098	92.62
312.328	90.62
312.557	88.62
312.787	84.62
313.017	88.62
313.246	82.62
313.476	85.62
313.706	81.62
313.935	74.62
314.165	87.62
314.394	96.62
314.624	85.62
314.853	85.62
315.083	79.62
315.312	75.62
315.542	72.62
315.771	83.62
316.001	83.62
316.23	90.62
316.46	89.62
316.689	85.62
316.919	83.62
317.148	85.62
317.377	98.62
317.607	86.62
317.836	88.62
318.065	76.62
318.295	80.62
318.524	66.62
318.753	86.62
318.983	85.62
319.212	86.62
319.441	87.62
319.67	80.62
319.9	78.62
320.129	87.62
320.358	90.62
320.587	90.62
320.816	91.62
321.046	84.62
321.275	92.62
321.504	84.62
321.733	77.62
321.962	94.62
322.191	73.62
322.42	85.62
322.649	80.62
322.878	75.62
323.108	92.62
323.337	83.62
323.566	87.62
323.795	83.62
324.024	87.62
324.253	89.62
324.482	71.62
324.71	91.62
324.939	89.62
325.168	77.62
325.397	100.62
325.626	92.62
325.855	81.62
326.084	75.62
326.313	90.62
326.542	86.62
326.77	87.62
326.999	89.62
327.228	83.62
327.457	83.62
327.686	85.62
327.914	73.62
328.143	70.62
328.372	84.62
328.6	89.62
328.829	93.62
329.058	83.62
329.287	83.62
329.515	90.62
329.744	99.62
329.972	83.62
330.201	89.62
330.43	90.62
330.658	89.62
330.887	77.62
331.115	83.62
331.344	83.62
331.572	85.62
331.801	80.62
332.03	88.62
332.258	91.62
332.486	83.62
332.715	76.62
332.943	87.62
333.172	94.62
333.4	83.62
333.629	81.62
333.857	99.62
334.085	84.62
334.314	95.62
334.542	89.62
334.771	91.62
334.999	84.62
335.227	89.62
335.455	87.62
335.684	90.62
335.912	91.62
336.14	90.62
336.369	72.62
336.597	84.62
336.825	92.62
337.053	84.62
337.281	91.62
337.51	81.62
337.738	95.62
337.966	92.62
338.194	93.62
338.422	103.62
338.65	92.62
338.878	92.62
339.106	82.62
339.334	77.62
339.562	95.62
339.79	90.62
340.018	87.62
340.246	71.62
340.474	90.62
340.702	82.62
340.93	95.62
341.158	93.62
341.386	80.62
341.614	67.62
341.842	96.62
342.07	89.62
342.298	82.62
342.526	89.62
342.754	77.62
342.981	79.62
343.209	78.62
343.437	95.62
343.665	75.62
343.893	80.62
344.12	82.62
344.348	104.62
344.576	88.62
344.804	101.62
345.031	99.62
345.259	91.62
345.487	86.62
345.714	94.62
345.942	80.62
346.17	90.62
346.397	94.62
346.625	75.62
346.853	87.62
347.08	97.62
347.308	96.62
347.535	93.62
347.763	96.62
347.99	67.62
348.218	84.62
348.445	102.62
348.673	74.62
348.9	92.62
349.128	76.62
349.355	99.62
349.583	82.62
349.81	92.62
350.037	68.62
350.265	71.62
350.492	83.62
350.72	90.62
350.947	100.62
351.174	98.62
351.402	95.62
351.629	89.62
351.856	90.62
352.083	76.62
352.311	85.62
352.538	85.62
352.765	93.62
352.992	80.62
353.22	83.62
353.447	80.62
353.674	95.62
353.901	94.62
354.128	97.62
354.355	91.62
354.583	69.62
354.81	76.62
355.037	84.62
355.264	84.62
355.491	86.62
355.718	89.62
355.945	89.62
356.172	87.62
356.399	85.62
356.626	95.62
356.853	87.62
357.08	92.62
357.307	82.62
357.534	93.62
357.761	85.62
357.988	89.62
358.215	97.62
358.441	77.62
358.668	89.62
358.895	91.62
359.122	91.62
359.349	76.62
359.576	86.62
359.802	83.62
360.029	103.62
360.256	103.62
360.483	82.62
360.709	75.62
360.936	91.62
361.163	89.62
361.39	75.62
361.616	83.62
361.843	90.62
362.07	87.62
362.296	102.62
362.523	97.62
362.749	103.62
362.976	106.62
363.203	91.62
363.429	108.62
363.656	75.62
363.882	87.62
364.109	115.62
364.335	113.62
364.562	112.62
364.788	115.62
365.015	94.62
365.241	87.62
365.468	91.62
365.694	68.62
365.92	83.62
366.147	95.62
366.373	82.62
366.599	102.62
366.826	88.62
367.052	76.62
367.278	98.62
367.505	72.62
367.731	85.62
367.957	92.62
368.184	84.62
368.41	86.62
368.636	84.62
368.862	79.62
369.089	81.62
369.315	90.62
369.541	91.62
369.767	84.62
369.993	75.62
370.219	79.62
370.445	91.62
370.672	89.62
370.898	84.62
371.124	90.62
371.35	74.62
371.576	86.62
371.802	88.62
372.028	83.62
372.254	94.62
372.48	93.62
372.706	89.62
372.932	81.62
373.158	92.62
373.384	95.62
373.61	90.62
373.835	93.62
374.061	99.62
374.287	82.62
374.513	95.62
374.739	88.62
374.965	93.62
375.191	90.62
375.416	91.62
375.642	84.62
375.868	87.62
376.094	87.62
376.319	86.62
376.545	95.62
376.771	91.62
376.997	90.62
377.222	85.62
377.448	99.62
377.674	83.62
377.899	83.62
378.125	96.62
378.35	82.62
378.576	72.62
378.802	93.62
379.027	89.62
379.253	87.62
379.478	81.62
379.704	88.62
379.929	92.62
380.155	90.62
380.38	92.62
380.606	94.62
380.831	75.62
381.057	93.62
381.282	88.62
381.507	85.62
381.733	97.62
381.958	81.62
382.184	85.62
382.409	90.62
382.634	106.62
382.86	87.62
383.085	91.62
383.31	86.62
383.535	85.62
383.761	83.62
383.986	92.62
384.211	93.62
384.436	89.62
384.662	90.62
384.887	81.62
385.112	80.62
385.337	87.62
385.562	95.62
385.787	97.62
386.013	91.62
386.238	91.62
386.463	82.62
386.688	103.62
386.913	94.62
387.138	99.62
387.363	85.62
387.588	103.62
387.813	91.62
388.038	93.62
388.263	95.62
388.488	81.62
388.713	71.62
388.938	83.62
389.163	90.62
389.387	88.62
389.612	85.62
389.837	80.62
390.062	90.62
390.287	100.62
390.512	89.62
390.736	73.62
390.961	73.62
391.186	90.62
391.411	77.62
391.636	73.62
391.86	102.62
392.085	98.62
392.31	79.62
392.534	95.62
392.759	94.62
392.984	141.62
393.208	216.62
393.433	268.62
393.658	225.62
393.882	103.62
394.107	118.62
394.331	107.62
394.556	109.62
394.78	90.62
395.005	108.62
395.229	90.62
395.454	94.62
395.678	99.62
395.903	101.62
396.127	135.62
396.352	137.62
396.576	147.62
396.801	177.62
397.025	222.62
397.249	141.62
397.474	102.62
397.698	100.62
397.922	87.62
398.147	77.62
398.371	84.62
398.595	80.62
398.82	89.62
399.044	81.62
399.268	101.62
399.492	96.62
399.717	81.62
399.941	86.62
400.165	85.62
400.389	71.62
400.613	91.62
400.837	90.62
401.062	93.62
401.286	90.62
401.51	94.62
401.734	103.62
401.958	97.62
402.182	91.62
402.406	100.62
402.63	73.62
402.854	73.62
403.078	87.62
403.302	90.62
403.526	86.62
403.75	107.62
403.974	106.62
404.198	135.62
404.422	185.62
404.645	212.62
404.869	157.62
405.093	121.62
405.317	91.62
405.541	94.62
405.765	88.62
405.988	74.62
406.212	105.62
406.436	89.62
406.66	86.62
406.883	76.62
407.107	83.62
407.331	92.62
407.555	98.62
407.778	98.62
408.002	86.62
408.226	103.62
408.449	90.62
408.673	77.62
408.896	82.62
409.12	87.62
409.344	95.62
409.567	92.62
409.791	87.62
410.014	89.62
410.238	87.62
410.461	94.62
410.685	95.62
410.908	67.62
411.132	89.62
411.355	77.62
411.578	90.62
411.802	86.62
412.025	93.62
412.249	89.62
412.472	86.62
412.695	91.62
412.919	71.62
413.142	78.62
413.365	84.62
413.589	87.62
413.812	78.62
414.035	91.62
414.258	85.62
414.482	88.62
414.705	79.62
414.928	96.62
415.151	83.62
415.374	79.62
415.597	85.62
415.821	87.62
416.044	87.62
416.267	77.62
416.49	86.62
416.713	95.62
416.936	82.62
417.159	81.62
417.382	77.62
417.605	70.62
417.828	91.62
418.051	82.62
418.274	85.62
418.497	87.62
418.72	99.62
418.943	82.62
419.166	86.62
419.389	97.62
419.611	83.62
419.834	83.62
420.057	92.62
420.28	86.62
420.503	88.62
420.726	85.62
420.948	100.62
421.171	96.62
421.394	96.62
421.617	103.62
421.839	104.62
422.062	136.62
422.285	165.62
422.507	273.62
422.73	434.62
422.953	408.62
423.175	198.62
423.398	113.62
423.621	99.62
423.843	101.62
424.066	88.62
424.288	91.62
424.511	80.62
424.733	95.62
424.956	88.62
425.178	93.62
425.401	85.62
425.623	82.62
425.846	86.62
426.068	91.62
426.291	72.62
426.513	82.62
426.735	88.62
426.958	85.62
427.18	92.62
427.402	97.62
427.625	97.62
427.847	95.62
428.069	91.62
428.292	131.62
428.514	138.62
428.736	115.62
428.958	130.62
429.181	139.62
429.403	99.62
429.625	97.62
429.847	125.62
430.069	162.62
430.292	195.62
430.514	188.62
430.736	137.62
430.958	138.62
431.18	98.62
431.402	101.62
431.624	85.62
431.846	127.62
432.068	144.62
432.29	104.62
432.512	84.62
432.734	97.62
432.956	72.62
433.178	91.62
433.4	77.62
433.622	80.62
433.844	83.62
434.066	90.62
434.287	78.62
434.509	89.62
434.731	87.62
434.953	89.62
435.175	95.62
435.397	103.62
435.618	84.62
435.84	95.62
436.062	91.62
436.284	98.62
436.505	75.62
436.727	95.62
436.949	84.62
437.17	67.62
437.392	95.62
437.614	82.62
437.835	108.62
438.057	83.62
438.278	80.62
438.5	90.62
438.721	92.62
438.943	83.62
439.165	68.62
439.386	83.62
439.608	83.62
439.829	84.62
440.05	76.62
440.272	84.62
440.493	79.62
440.715	84.62
440.936	83.62
441.158	83.62
441.379	91.62
441.6	97.62
441.822	72.62
442.043	98.62
442.264	87.62
442.486	119.62
442.707	150.62
442.928	122.62
443.149	112.62
443.371	153.62
443.592	232.62
443.813	210.62
444.034	119.62
444.255	87.62
444.476	98.62
444.698	98.62
444.919	97.62
445.14	204.62
445.361	223.62
445.582	288.62
445.803	234.62
446.024	130.62
446.245	93.62
446.466	91.62
446.687	88.62
446.908	83.62
447.129	74.62
447.35	82.62
447.571	81.62
447.792	98.62
448.013	88.62
448.234	98.62
448.455	79.62
448.675	96.62
448.896	78.62
449.117	91.62
449.338	90.62
449.559	81.62
449.779	85.62
450	80.62
450.221	95.62
450.442	84.62
450.662	91.62
450.883	91.62
451.104	75.62
451.324	70.62
451.545	88.62
451.766	93.62
451.986	83.62
452.207	85.62
452.428	95.62
452.648	99.62
452.869	96.62
453.089	79.62
453.31	76.62
453.53	82.62
453.751	87.62
453.971	91.62
454.192	83.62
454.412	82.62
454.633	91.62
454.853	70.62
455.073	89.62
455.294	87.62
455.514	83.62
455.734	111.62
455.955	91.62
456.175	83.62
456.395	76.62
456.616	90.62
456.836	85.62
457.056	81.62
457.276	95.62
457.497	76.62
457.717	81.62
457.937	112.62
458.157	106.62
458.377	103.62
458.598	109.62
458.818	103.62
459.038	87.62
459.258	84.62
459.478	97.62
459.698	87.62
459.918	70.62
460.138	78.62
460.358	82.62
460.578	102.62
460.798	119.62
461.018	125.62
461.238	94.62
461.458	89.62
461.678	85.62
461.898	100.62
462.118	92.62
462.338	87.62
462.558	96.62
462.777	98.62
462.997	99.62
463.217	97.62
463.437	91.62
463.657	78.62
463.876	93.62
464.096	80.62
464.316	87.62
464.536	80.62
464.755	101.62
464.975	100.62
465.195	86.62
465.414	81.62
465.634	81.62
465.854	87.62
466.073	93.62
466.293	91.62
466.512	71.62
466.732	96.62
466.951	79.62
467.171	83.62
467.391	67.62
467.61	82.62
467.829	74.62
468.049	76.62
468.268	94.62
468.488	85.62
468.707	89.62
468.927	83.62
469.146	82.62
469.365	88.62
469.585	83.62
469.804	95.62
470.023	86.62
470.243	75.62
470.462	84.62
470.681	73.62
470.901	87.62
471.12	85.62
471.339	97.62
471.558	85.62
471.777	77.62
471.997	90.62
472.216	86.62
472.435	103.62
472.654	89.62
472.873	106.62
473.092	91.62
473.311	82.62
473.53	92.62
473.749	90.62
473.968	94.62
474.187	95.62
474.406	83.62
474.625	87.62
474.844	90.62
475.063	83.62
475.282	79.62
475.501	81.62
475.72	75.62
475.939	95.62
476.158	99.62
476.377	100.62
476.596	112.62
476.814	93.62
477.033	71.62
477.252	89.62
477.471	84.62
477.69	96.62
477.908	83.62
478.127	98.62
478.346	83.62
478.564	85.62
478.783	86.62
479.002	91.62
479.22	86.62
479.439	71.62
479.658	88.62
479.876	87.62
480.095	87.62
480.313	93.62
480.532	95.62
480.751	91.62
480.969	88.62
481.188	83.62
481.406	97.62
481.624	89.62
481.843	81.62
482.061	85.62
482.28	76.62
482.498	96.62
482.717	83.62
482.935	96.62
483.153	85.62
483.372	83.62
483.59	99.62
483.808	99.62
484.027	86.62
484.245	91.62
484.463	86.62
484.681	97.62
484.9	95.62
485.118	87.62
485.336	89.62
485.554	89.62
485.772	80.62
485.99	94.62
486.209	81.62
486.427	88.62
486.645	87.62
486.863	86.62
487.081	82.62
487.299	92.62
487.517	90.62
487.735	97.62
487.953	144.62
488.171	125.62
488.389	98.62
488.607	77.62
488.825	98.62
489.043	87.62
489.261	90.62
489.479	84.62
489.696	91.62
489.914	84.62
490.132	90.62
490.35	109.62
490.568	90.62
490.786	97.62
491.003	86.62
491.221	74.62
491.439	76.62
491.657	88.62
491.874	86.62
492.092	85.62
492.31	93.62
492.527	100.62
492.745	78.62
492.963	81.62
493.18	87.62
493.398	81.62
493.615	86.62
493.833	80.62
494.05	95.62
494.268	90.62
494.485	73.62
494.703	92.62
494.92	78.62
495.138	89.62
495.355	80.62
495.573	96.62
495.79	84.62
496.008	90.62
496.225	94.62
496.442	88.62
496.66	94.62
496.877	95.62
497.094	99.62
497.312	77.62
497.529	88.62
497.746	85.62
497.963	75.62
498.181	100.62
498.398	91.62
498.615	96.62
498.832	86.62
499.049	75.62
499.267	79.62
499.484	85.62
499.701	69.62
499.918	84.62
500.135	96.62
500.352	86.62
500.569	76.62
500.786	81.62
501.003	74.62
501.22	92.62
501.437	82.62
501.654	85.62
501.871	86.62
502.088	85.62
502.305	83.62
502.522	106.62
502.739	97.62
502.956	81.62
503.172	88.62
503.389	94.62
503.606	91.62
503.823	81.62
504.04	103.62
504.256	104.62
504.473	108.62
504.69	112.62
504.907	92.62
505.123	92.62
505.34	96.62
505.557	90.62
505.773	85.62
505.99	76.62
506.207	88.62
506.423	88.62
506.64	75.62
506.856	95.62
507.073	77.62
507.289	87.62
507.506	87.62
507.722	90.62
507.939	101.62
508.155	87.62
508.372	83.62
508.588	83.62
508.805	82.62
509.021	76.62
509.238	78.62
509.454	99.62
509.67	79.62
509.887	93.62
510.103	89.62
510.319	86.62
510.536	89.62
510.752	82.62
510.968	94.62
511.184	78.62
511.401	77.62
511.617	92.62
511.833	83.62
512.049	89.62
512.265	89.62
512.481	91.62
512.698	104.62
512.914	91.62
513.13	87.62
513.346	87.62
513.562	95.62
513.778	82.62
513.994	88.62
514.21	90.62
514.426	87.62
514.642	90.62
514.858	78.62
515.074	89.62
515.29	99.62
515.506	77.62
515.721	88.62
515.937	89.62
516.153	88.62
516.369	75.62
516.585	79.62
516.801	82.62
517.016	72.62
517.232	75.62
517.448	84.62
517.664	97.62
517.879	78.62
518.095	89.62
518.311	78.62
518.527	99.62
