Data from 2145_1_HRD10591_00003.txt Node
Date: Mon Jan 19 14:21:10 EST 2026
User: Yrep
Spectrometer: HR+D1059
Trigger mode: 1
Integration Time (sec): 1.000000E-1
Scans to average: 1
Electric dark correction enabled: true
Nonlinearity correction enabled: false
Boxcar width: 0
XAxis mode: Wavelengths
Number of Pixels in Spectrum: 2048
>>>>>Begin Spectral Data<<<<<
223.165	-20.81
223.4	-20.81
223.635	-20.81
223.869	-5.81
224.104	-30.81
224.338	-18.81
224.573	-7.81
224.808	-17.81
225.042	-32.81
225.277	7.19
225.511	-8.81
225.746	6.19
225.98	16.19
226.215	23.19
226.449	10.19
226.683	35.19
226.918	21.19
227.152	24.19
227.387	32.19
227.621	47.19
227.856	47.19
228.09	40.19
228.324	49.19
228.559	66.19
228.793	71.19
229.027	58.19
229.262	55.19
229.496	59.19
229.73	61.19
229.964	68.19
230.199	70.19
230.433	67.19
230.667	79.19
230.901	80.19
231.136	83.19
231.37	78.19
231.604	77.19
231.838	83.19
232.072	76.19
232.306	77.19
232.541	78.19
232.775	83.19
233.009	75.19
233.243	86.19
233.477	72.19
233.711	83.19
233.945	91.19
234.179	83.19
234.413	77.19
234.647	65.19
234.881	74.19
235.115	77.19
235.349	90.19
235.583	65.19
235.817	88.19
236.051	76.19
236.285	69.19
236.519	63.19
236.753	72.19
236.987	74.19
237.221	90.19
237.455	78.19
237.689	72.19
237.922	79.19
238.156	70.19
238.39	71.19
238.624	71.19
238.858	78.19
239.091	71.19
239.325	71.19
239.559	77.19
239.793	84.19
240.027	71.19
240.26	76.19
240.494	85.19
240.728	79.19
240.961	78.19
241.195	82.19
241.429	75.19
241.662	72.19
241.896	77.19
242.13	77.19
242.363	70.19
242.597	72.19
242.83	88.19
243.064	65.19
243.298	76.19
243.531	102.19
243.765	74.19
243.998	75.19
244.232	83.19
244.465	76.19
244.699	78.19
244.932	73.19
245.166	77.19
245.399	76.19
245.633	78.19
245.866	91.19
246.099	87.19
246.333	91.19
246.566	82.19
246.8	65.19
247.033	78.19
247.266	63.19
247.5	70.19
247.733	84.19
247.966	88.19
248.2	72.19
248.433	87.19
248.666	71.19
248.899	88.19
249.133	84.19
249.366	77.19
249.599	79.19
249.832	82.19
250.066	96.19
250.299	71.19
250.532	80.19
250.765	84.19
250.998	80.19
251.231	84.19
251.465	81.19
251.698	78.19
251.931	79.19
252.164	77.19
252.397	90.19
252.63	83.19
252.863	68.19
253.096	84.19
253.329	87.19
253.562	75.19
253.795	90.19
254.028	100.19
254.261	83.19
254.494	59.19
254.727	77.19
254.96	78.19
255.193	76.19
255.426	85.19
255.659	76.19
255.892	79.19
256.124	82.19
256.357	71.19
256.59	80.19
256.823	77.19
257.056	79.19
257.289	83.19
257.521	71.19
257.754	93.19
257.987	84.19
258.22	92.19
258.452	81.19
258.685	89.19
258.918	62.19
259.151	77.19
259.383	63.19
259.616	87.19
259.849	89.19
260.081	66.19
260.314	76.19
260.547	81.19
260.779	78.19
261.012	72.19
261.244	71.19
261.477	85.19
261.71	79.19
261.942	79.19
262.175	84.19
262.407	79.19
262.64	76.19
262.872	91.19
263.105	76.19
263.337	73.19
263.57	81.19
263.802	72.19
264.035	76.19
264.267	86.19
264.499	80.19
264.732	69.19
264.964	100.19
265.197	89.19
265.429	74.19
265.661	82.19
265.894	76.19
266.126	81.19
266.358	80.19
266.591	89.19
266.823	67.19
267.055	82.19
267.287	81.19
267.52	92.19
267.752	86.19
267.984	82.19
268.216	80.19
268.448	82.19
268.681	82.19
268.913	93.19
269.145	85.19
269.377	71.19
269.609	79.19
269.841	90.19
270.073	86.19
270.306	90.19
270.538	74.19
270.77	72.19
271.002	83.19
271.234	75.19
271.466	76.19
271.698	85.19
271.93	80.19
272.162	84.19
272.394	86.19
272.626	70.19
272.858	74.19
273.09	93.19
273.322	97.19
273.553	90.19
273.785	79.19
274.017	95.19
274.249	86.19
274.481	86.19
274.713	77.19
274.945	87.19
275.176	80.19
275.408	78.19
275.64	71.19
275.872	76.19
276.104	80.19
276.335	77.19
276.567	82.19
276.799	95.19
277.031	87.19
277.262	76.19
277.494	88.19
277.726	76.19
277.957	81.19
278.189	88.19
278.421	84.19
278.652	68.19
278.884	81.19
279.115	81.19
279.347	66.19
279.579	83.19
279.81	77.19
280.042	97.19
280.273	69.19
280.505	65.19
280.736	65.19
280.968	80.19
281.199	83.19
281.431	90.19
281.662	81.19
281.894	75.19
282.125	79.19
282.356	87.19
282.588	77.19
282.819	88.19
283.051	88.19
283.282	84.19
283.513	86.19
283.745	90.19
283.976	82.19
284.207	88.19
284.439	81.19
284.67	67.19
284.901	81.19
285.132	80.19
285.364	73.19
285.595	80.19
285.826	77.19
286.057	80.19
286.288	82.19
286.52	82.19
286.751	90.19
286.982	96.19
287.213	86.19
287.444	75.19
287.675	77.19
287.906	80.19
288.138	87.19
288.369	95.19
288.6	83.19
288.831	67.19
289.062	77.19
289.293	93.19
289.524	77.19
289.755	84.19
289.986	86.19
290.217	80.19
290.448	89.19
290.679	86.19
290.91	79.19
291.141	90.19
291.371	86.19
291.602	73.19
291.833	88.19
292.064	80.19
292.295	83.19
292.526	93.19
292.757	90.19
292.987	97.19
293.218	95.19
293.449	75.19
293.68	81.19
293.91	73.19
294.141	77.19
294.372	87.19
294.603	94.19
294.833	89.19
295.064	75.19
295.295	85.19
295.525	86.19
295.756	77.19
295.987	99.19
296.217	91.19
296.448	94.19
296.679	89.19
296.909	83.19
297.14	88.19
297.37	91.19
297.601	86.19
297.831	80.19
298.062	90.19
298.292	80.19
298.523	90.19
298.753	81.19
298.984	82.19
299.214	83.19
299.445	75.19
299.675	83.19
299.905	88.19
300.136	93.19
300.366	104.19
300.597	87.19
300.827	86.19
301.057	88.19
301.288	68.19
301.518	81.19
301.748	92.19
301.979	108.19
302.209	84.19
302.439	88.19
302.669	83.19
302.9	78.19
303.13	85.19
303.36	85.19
303.59	99.19
303.82	75.19
304.051	98.19
304.281	83.19
304.511	88.19
304.741	77.19
304.971	73.19
305.201	68.19
305.431	81.19
305.661	89.19
305.891	82.19
306.121	69.19
306.352	81.19
306.582	87.19
306.812	84.19
307.042	86.19
307.272	83.19
307.502	94.19
307.731	84.19
307.961	83.19
308.191	95.19
308.421	93.19
308.651	89.19
308.881	86.19
309.111	90.19
309.341	92.19
309.571	83.19
309.8	86.19
310.03	82.19
310.26	90.19
310.49	88.19
310.72	89.19
310.949	85.19
311.179	88.19
311.409	85.19
311.639	85.19
311.868	86.19
312.098	89.19
312.328	90.19
312.557	98.19
312.787	75.19
313.017	91.19
313.246	70.19
313.476	80.19
313.706	77.19
313.935	83.19
314.165	95.19
314.394	84.19
314.624	86.19
314.853	97.19
315.083	85.19
315.312	84.19
315.542	86.19
315.771	73.19
316.001	89.19
316.23	84.19
316.46	80.19
316.689	75.19
316.919	77.19
317.148	87.19
317.377	95.19
317.607	83.19
317.836	84.19
318.065	90.19
318.295	91.19
318.524	89.19
318.753	102.19
318.983	88.19
319.212	88.19
319.441	94.19
319.67	83.19
319.9	96.19
320.129	77.19
320.358	87.19
320.587	83.19
320.816	75.19
321.046	75.19
321.275	94.19
321.504	88.19
321.733	84.19
321.962	73.19
322.191	78.19
322.42	95.19
322.649	85.19
322.878	91.19
323.108	84.19
323.337	93.19
323.566	72.19
323.795	92.19
324.024	86.19
324.253	71.19
324.482	81.19
324.71	92.19
324.939	69.19
325.168	86.19
325.397	91.19
325.626	84.19
325.855	92.19
326.084	98.19
326.313	74.19
326.542	91.19
326.77	83.19
326.999	79.19
327.228	85.19
327.457	89.19
327.686	86.19
327.914	84.19
328.143	99.19
328.372	82.19
328.6	104.19
328.829	84.19
329.058	64.19
329.287	75.19
329.515	76.19
329.744	87.19
329.972	81.19
330.201	91.19
330.43	95.19
330.658	85.19
330.887	76.19
331.115	75.19
331.344	82.19
331.572	96.19
331.801	91.19
332.03	85.19
332.258	81.19
332.486	94.19
332.715	86.19
332.943	81.19
333.172	76.19
333.4	90.19
333.629	83.19
333.857	73.19
334.085	84.19
334.314	85.19
334.542	87.19
334.771	90.19
334.999	100.19
335.227	76.19
335.455	91.19
335.684	95.19
335.912	102.19
336.14	99.19
336.369	89.19
336.597	95.19
336.825	82.19
337.053	90.19
337.281	77.19
337.51	92.19
337.738	109.19
337.966	82.19
338.194	84.19
338.422	88.19
338.65	95.19
338.878	76.19
339.106	83.19
339.334	85.19
339.562	75.19
339.79	81.19
340.018	87.19
340.246	81.19
340.474	84.19
340.702	81.19
340.93	72.19
341.158	80.19
341.386	79.19
341.614	77.19
341.842	79.19
342.07	88.19
342.298	80.19
342.526	96.19
342.754	78.19
342.981	80.19
343.209	83.19
343.437	88.19
343.665	85.19
343.893	89.19
344.12	104.19
344.348	86.19
344.576	105.19
344.804	75.19
345.031	76.19
345.259	85.19
345.487	77.19
345.714	83.19
345.942	79.19
346.17	85.19
346.397	77.19
346.625	82.19
346.853	87.19
347.08	84.19
347.308	83.19
347.535	80.19
347.763	97.19
347.99	88.19
348.218	100.19
348.445	86.19
348.673	88.19
348.9	95.19
349.128	91.19
349.355	71.19
349.583	90.19
349.81	79.19
350.037	89.19
350.265	91.19
350.492	81.19
350.72	95.19
350.947	84.19
351.174	105.19
351.402	71.19
351.629	75.19
351.856	74.19
352.083	79.19
352.311	97.19
352.538	69.19
352.765	83.19
352.992	94.19
353.22	92.19
353.447	86.19
353.674	96.19
353.901	93.19
354.128	70.19
354.355	85.19
354.583	102.19
354.81	95.19
355.037	83.19
355.264	77.19
355.491	83.19
355.718	83.19
355.945	76.19
356.172	71.19
356.399	80.19
356.626	80.19
356.853	92.19
357.08	89.19
357.307	91.19
357.534	92.19
357.761	89.19
357.988	98.19
358.215	98.19
358.441	102.19
358.668	78.19
358.895	107.19
359.122	83.19
359.349	87.19
359.576	82.19
359.802	86.19
360.029	77.19
360.256	81.19
360.483	79.19
360.709	81.19
360.936	104.19
361.163	83.19
361.39	100.19
361.616	96.19
361.843	72.19
362.07	98.19
362.296	98.19
362.523	97.19
362.749	121.19
362.976	112.19
363.203	121.19
363.429	96.19
363.656	93.19
363.882	112.19
364.109	115.19
364.335	147.19
364.562	140.19
364.788	114.19
365.015	87.19
365.241	80.19
365.468	92.19
365.694	93.19
365.92	90.19
366.147	84.19
366.373	82.19
366.599	96.19
366.826	86.19
367.052	77.19
367.278	108.19
367.505	87.19
367.731	85.19
367.957	91.19
368.184	97.19
368.41	72.19
368.636	68.19
368.862	81.19
369.089	85.19
369.315	86.19
369.541	91.19
369.767	75.19
369.993	87.19
370.219	96.19
370.445	86.19
370.672	95.19
370.898	81.19
371.124	83.19
371.35	90.19
371.576	92.19
371.802	79.19
372.028	84.19
372.254	82.19
372.48	82.19
372.706	77.19
372.932	87.19
373.158	93.19
373.384	99.19
373.61	91.19
373.835	112.19
374.061	95.19
374.287	88.19
374.513	78.19
374.739	102.19
374.965	93.19
375.191	101.19
375.416	97.19
375.642	104.19
375.868	93.19
376.094	91.19
376.319	93.19
376.545	90.19
376.771	85.19
376.997	84.19
377.222	96.19
377.448	95.19
377.674	86.19
377.899	85.19
378.125	99.19
378.35	88.19
378.576	74.19
378.802	103.19
379.027	86.19
379.253	87.19
379.478	93.19
379.704	91.19
379.929	80.19
380.155	89.19
380.38	91.19
380.606	84.19
380.831	80.19
381.057	81.19
381.282	91.19
381.507	87.19
381.733	95.19
381.958	103.19
382.184	98.19
382.409	92.19
382.634	98.19
382.86	107.19
383.085	95.19
383.31	83.19
383.535	103.19
383.761	100.19
383.986	95.19
384.211	91.19
384.436	93.19
384.662	91.19
384.887	91.19
385.112	90.19
385.337	96.19
385.562	103.19
385.787	100.19
386.013	104.19
386.238	96.19
386.463	92.19
386.688	101.19
386.913	91.19
387.138	95.19
387.363	101.19
387.588	121.19
387.813	98.19
388.038	97.19
388.263	99.19
388.488	96.19
388.713	97.19
388.938	90.19
389.163	90.19
389.387	84.19
389.612	87.19
389.837	87.19
390.062	77.19
390.287	88.19
390.512	67.19
390.736	89.19
390.961	83.19
391.186	90.19
391.411	112.19
391.636	93.19
391.86	87.19
392.085	96.19
392.31	95.19
392.534	97.19
392.759	115.19
392.984	151.19
393.208	239.19
393.433	317.19
393.658	243.19
393.882	131.19
394.107	116.19
394.331	119.19
394.556	117.19
394.78	107.19
395.005	90.19
395.229	83.19
395.454	91.19
395.678	100.19
395.903	131.19
396.127	145.19
396.352	165.19
396.576	162.19
396.801	225.19
397.025	284.19
397.249	169.19
397.474	124.19
397.698	86.19
397.922	95.19
398.147	96.19
398.371	77.19
398.595	95.19
398.82	96.19
399.044	89.19
399.268	98.19
399.492	94.19
399.717	93.19
399.941	75.19
400.165	89.19
400.389	89.19
400.613	88.19
400.837	94.19
401.062	74.19
401.286	83.19
401.51	80.19
401.734	81.19
401.958	100.19
402.182	84.19
402.406	102.19
402.63	80.19
402.854	96.19
403.078	80.19
403.302	92.19
403.526	83.19
403.75	83.19
403.974	78.19
404.198	92.19
404.422	104.19
404.645	104.19
404.869	89.19
405.093	83.19
405.317	66.19
405.541	91.19
405.765	75.19
405.988	86.19
406.212	82.19
406.436	77.19
406.66	106.19
406.883	92.19
407.107	103.19
407.331	95.19
407.555	98.19
407.778	98.19
408.002	106.19
408.226	73.19
408.449	73.19
408.673	79.19
408.896	93.19
409.12	97.19
409.344	86.19
409.567	103.19
409.791	108.19
410.014	105.19
410.238	96.19
410.461	99.19
410.685	84.19
410.908	91.19
411.132	70.19
411.355	83.19
411.578	105.19
411.802	78.19
412.025	88.19
412.249	96.19
412.472	82.19
412.695	90.19
412.919	100.19
413.142	77.19
413.365	94.19
413.589	100.19
413.812	92.19
414.035	98.19
414.258	103.19
414.482	94.19
414.705	71.19
414.928	87.19
415.151	80.19
415.374	72.19
415.597	90.19
415.821	92.19
416.044	82.19
416.267	97.19
416.49	80.19
416.713	93.19
416.936	82.19
417.159	84.19
417.382	84.19
417.605	79.19
417.828	84.19
418.051	96.19
418.274	96.19
418.497	83.19
418.72	79.19
418.943	75.19
419.166	84.19
419.389	79.19
419.611	83.19
419.834	82.19
420.057	86.19
420.28	92.19
420.503	101.19
420.726	98.19
420.948	98.19
421.171	89.19
421.394	97.19
421.617	122.19
421.839	137.19
422.062	131.19
422.285	186.19
422.507	306.19
422.73	399.19
422.953	355.19
423.175	250.19
423.398	143.19
423.621	121.19
423.843	104.19
424.066	106.19
424.288	96.19
424.511	99.19
424.733	97.19
424.956	76.19
425.178	83.19
425.401	89.19
425.623	91.19
425.846	90.19
426.068	89.19
426.291	78.19
426.513	91.19
426.735	89.19
426.958	95.19
427.18	85.19
427.402	79.19
427.625	102.19
427.847	82.19
428.069	105.19
428.292	130.19
428.514	122.19
428.736	116.19
428.958	131.19
429.181	131.19
429.403	102.19
429.625	97.19
429.847	115.19
430.069	164.19
430.292	191.19
430.514	179.19
430.736	131.19
430.958	144.19
431.18	95.19
431.402	101.19
431.624	105.19
431.846	127.19
432.068	141.19
432.29	104.19
432.512	81.19
432.734	75.19
432.956	97.19
433.178	92.19
433.4	84.19
433.622	93.19
433.844	72.19
434.066	82.19
434.287	73.19
434.509	85.19
434.731	77.19
434.953	83.19
435.175	65.19
435.397	89.19
435.618	92.19
435.84	91.19
436.062	92.19
436.284	95.19
436.505	89.19
436.727	84.19
436.949	87.19
437.17	85.19
437.392	84.19
437.614	77.19
437.835	85.19
438.057	81.19
438.278	94.19
438.5	83.19
438.721	80.19
438.943	98.19
439.165	85.19
439.386	89.19
439.608	97.19
439.829	75.19
440.05	78.19
440.272	83.19
440.493	80.19
440.715	92.19
440.936	101.19
441.158	81.19
441.379	88.19
441.6	80.19
441.822	96.19
442.043	85.19
442.264	102.19
442.486	133.19
442.707	191.19
442.928	127.19
443.149	101.19
443.371	151.19
443.592	259.19
443.813	226.19
444.034	111.19
444.255	96.19
444.476	95.19
444.698	85.19
444.919	109.19
445.14	206.19
445.361	247.19
445.582	307.19
445.803	279.19
446.024	128.19
446.245	101.19
446.466	69.19
446.687	90.19
446.908	89.19
447.129	71.19
447.35	83.19
447.571	88.19
447.792	74.19
448.013	80.19
448.234	86.19
448.455	80.19
448.675	87.19
448.896	93.19
449.117	84.19
449.338	80.19
449.559	86.19
449.779	80.19
450	93.19
450.221	76.19
450.442	99.19
450.662	95.19
450.883	96.19
451.104	88.19
451.324	78.19
451.545	86.19
451.766	85.19
451.986	68.19
452.207	84.19
452.428	97.19
452.648	90.19
452.869	101.19
453.089	89.19
453.31	90.19
453.53	100.19
453.751	101.19
453.971	77.19
454.192	90.19
454.412	73.19
454.633	73.19
454.853	88.19
455.073	83.19
455.294	76.19
455.514	83.19
455.734	89.19
455.955	72.19
456.175	83.19
456.395	69.19
456.616	87.19
456.836	96.19
457.056	75.19
457.276	86.19
457.497	91.19
457.717	95.19
457.937	116.19
458.157	131.19
458.377	146.19
458.598	124.19
458.818	137.19
459.038	97.19
459.258	93.19
459.478	89.19
459.698	68.19
459.918	88.19
460.138	92.19
460.358	72.19
460.578	97.19
460.798	110.19
461.018	119.19
461.238	80.19
461.458	89.19
461.678	82.19
461.898	97.19
462.118	93.19
462.338	77.19
462.558	89.19
462.777	78.19
462.997	93.19
463.217	83.19
463.437	77.19
463.657	88.19
463.876	92.19
464.096	86.19
464.316	79.19
464.536	89.19
464.755	96.19
464.975	74.19
465.195	82.19
465.414	87.19
465.634	88.19
465.854	98.19
466.073	62.19
466.293	81.19
466.512	95.19
466.732	71.19
466.951	100.19
467.171	82.19
467.391	72.19
467.61	77.19
467.829	84.19
468.049	89.19
468.268	97.19
468.488	96.19
468.707	94.19
468.927	87.19
469.146	77.19
469.365	77.19
469.585	83.19
469.804	78.19
470.023	73.19
470.243	70.19
470.462	68.19
470.681	89.19
470.901	90.19
471.12	78.19
471.339	84.19
471.558	80.19
471.777	76.19
471.997	76.19
472.216	81.19
472.435	98.19
472.654	84.19
472.873	93.19
473.092	84.19
473.311	96.19
473.53	87.19
473.749	85.19
473.968	79.19
474.187	82.19
474.406	86.19
474.625	86.19
474.844	77.19
475.063	88.19
475.282	87.19
475.501	95.19
475.72	73.19
475.939	85.19
476.158	77.19
476.377	71.19
476.596	82.19
476.814	88.19
477.033	87.19
477.252	98.19
477.471	83.19
477.69	86.19
477.908	86.19
478.127	100.19
478.346	88.19
478.564	80.19
478.783	95.19
479.002	94.19
479.22	83.19
479.439	87.19
479.658	76.19
479.876	73.19
480.095	79.19
480.313	82.19
480.532	90.19
480.751	92.19
480.969	65.19
481.188	95.19
481.406	92.19
481.624	96.19
481.843	80.19
482.061	77.19
482.28	82.19
482.498	81.19
482.717	88.19
482.935	91.19
483.153	101.19
483.372	96.19
483.59	79.19
483.808	95.19
484.027	93.19
484.245	97.19
484.463	79.19
484.681	95.19
484.9	83.19
485.118	97.19
485.336	95.19
485.554	96.19
485.772	80.19
485.99	93.19
486.209	87.19
486.427	87.19
486.645	88.19
486.863	100.19
487.081	104.19
487.299	94.19
487.517	99.19
487.735	124.19
487.953	219.19
488.171	164.19
488.389	96.19
488.607	83.19
488.825	77.19
489.043	96.19
489.261	97.19
489.479	93.19
489.696	77.19
489.914	78.19
490.132	92.19
490.35	97.19
490.568	84.19
490.786	72.19
491.003	77.19
491.221	74.19
491.439	96.19
491.657	94.19
491.874	82.19
492.092	84.19
492.31	79.19
492.527	88.19
492.745	75.19
492.963	85.19
493.18	97.19
493.398	83.19
493.615	72.19
493.833	99.19
494.05	75.19
494.268	89.19
494.485	98.19
494.703	82.19
494.92	97.19
495.138	89.19
495.355	93.19
495.573	91.19
495.79	87.19
496.008	83.19
496.225	86.19
496.442	100.19
496.66	85.19
496.877	87.19
497.094	98.19
497.312	75.19
497.529	84.19
497.746	92.19
497.963	91.19
498.181	87.19
498.398	98.19
498.615	87.19
498.832	77.19
499.049	97.19
499.267	100.19
499.484	79.19
499.701	83.19
499.918	82.19
500.135	85.19
500.352	74.19
500.569	96.19
500.786	97.19
501.003	102.19
501.22	66.19
501.437	91.19
501.654	100.19
501.871	91.19
502.088	103.19
502.305	107.19
502.522	75.19
502.739	90.19
502.956	97.19
503.172	98.19
503.389	82.19
503.606	95.19
503.823	105.19
504.04	117.19
504.256	155.19
504.473	155.19
504.69	115.19
504.907	85.19
505.123	77.19
505.34	84.19
505.557	97.19
505.773	83.19
505.99	84.19
506.207	88.19
506.423	94.19
506.64	91.19
506.856	102.19
507.073	83.19
507.289	99.19
507.506	89.19
507.722	80.19
507.939	86.19
508.155	89.19
508.372	90.19
508.588	94.19
508.805	94.19
509.021	97.19
509.238	71.19
509.454	100.19
509.67	76.19
509.887	84.19
510.103	85.19
510.319	91.19
510.536	93.19
510.752	89.19
510.968	98.19
511.184	90.19
511.401	84.19
511.617	91.19
511.833	84.19
512.049	82.19
512.265	89.19
512.481	84.19
512.698	91.19
512.914	81.19
513.13	93.19
513.346	91.19
513.562	88.19
513.778	89.19
513.994	94.19
514.21	89.19
514.426	87.19
514.642	83.19
514.858	84.19
515.074	90.19
515.29	83.19
515.506	77.19
515.721	93.19
515.937	100.19
516.153	92.19
516.369	90.19
516.585	89.19
516.801	96.19
517.016	99.19
517.232	78.19
517.448	97.19
517.664	102.19
517.879	90.19
518.095	99.19
