Data from 2145_1_HRD10591_00045.txt Node
Date: Mon Jan 19 14:21:31 EST 2026
User: Yrep
Spectrometer: HR+D1059
Trigger mode: 1
Integration Time (sec): 1.000000E-1
Scans to average: 1
Electric dark correction enabled: true
Nonlinearity correction enabled: false
Boxcar width: 0
XAxis mode: Wavelengths
Number of Pixels in Spectrum: 2048
>>>>>Begin Spectral Data<<<<<
223.165	-33.19
223.4	-33.19
223.635	-33.19
223.869	-11.19
224.104	-17.19
224.338	-8.19
224.573	-7.19
224.808	-4.19
225.042	-9.19
225.277	-10.19
225.511	-22.19
225.746	4.81
225.98	10.81
226.215	11.81
226.449	19.81
226.683	23.81
226.918	23.81
227.152	27.81
227.387	37.81
227.621	39.81
227.856	46.81
228.09	40.81
228.324	62.81
228.559	69.81
228.793	62.81
229.027	66.81
229.262	75.81
229.496	67.81
229.73	76.81
229.964	78.81
230.199	71.81
230.433	79.81
230.667	84.81
230.901	84.81
231.136	70.81
231.37	76.81
231.604	80.81
231.838	94.81
232.072	98.81
232.306	68.81
232.541	71.81
232.775	66.81
233.009	86.81
233.243	85.81
233.477	91.81
233.711	87.81
233.945	82.81
234.179	88.81
234.413	81.81
234.647	84.81
234.881	79.81
235.115	75.81
235.349	90.81
235.583	79.81
235.817	84.81
236.051	75.81
236.285	70.81
236.519	69.81
236.753	76.81
236.987	84.81
237.221	81.81
237.455	82.81
237.689	72.81
237.922	69.81
238.156	87.81
238.39	72.81
238.624	71.81
238.858	74.81
239.091	74.81
239.325	65.81
239.559	93.81
239.793	65.81
240.027	88.81
240.26	88.81
240.494	86.81
240.728	81.81
240.961	83.81
241.195	80.81
241.429	86.81
241.662	76.81
241.896	76.81
242.13	80.81
242.363	80.81
242.597	87.81
242.83	85.81
243.064	89.81
243.298	70.81
243.531	83.81
243.765	76.81
243.998	80.81
244.232	83.81
244.465	87.81
244.699	74.81
244.932	73.81
245.166	71.81
245.399	77.81
245.633	83.81
245.866	76.81
246.099	86.81
246.333	94.81
246.566	93.81
246.8	71.81
247.033	90.81
247.266	88.81
247.5	84.81
247.733	86.81
247.966	57.81
248.2	78.81
248.433	80.81
248.666	75.81
248.899	67.81
249.133	98.81
249.366	86.81
249.599	73.81
249.832	72.81
250.066	85.81
250.299	70.81
250.532	74.81
250.765	88.81
250.998	74.81
251.231	92.81
251.465	76.81
251.698	73.81
251.931	74.81
252.164	86.81
252.397	85.81
252.63	78.81
252.863	108.81
253.096	66.81
253.329	80.81
253.562	73.81
253.795	93.81
254.028	85.81
254.261	78.81
254.494	86.81
254.727	78.81
254.96	102.81
255.193	94.81
255.426	77.81
255.659	86.81
255.892	91.81
256.124	77.81
256.357	81.81
256.59	88.81
256.823	92.81
257.056	87.81
257.289	73.81
257.521	86.81
257.754	92.81
257.987	76.81
258.22	86.81
258.452	67.81
258.685	74.81
258.918	89.81
259.151	80.81
259.383	74.81
259.616	85.81
259.849	92.81
260.081	71.81
260.314	60.81
260.547	77.81
260.779	81.81
261.012	70.81
261.244	68.81
261.477	94.81
261.71	89.81
261.942	85.81
262.175	87.81
262.407	76.81
262.64	78.81
262.872	85.81
263.105	83.81
263.337	67.81
263.57	77.81
263.802	78.81
264.035	73.81
264.267	71.81
264.499	90.81
264.732	79.81
264.964	90.81
265.197	82.81
265.429	87.81
265.661	85.81
265.894	80.81
266.126	79.81
266.358	85.81
266.591	72.81
266.823	81.81
267.055	77.81
267.287	87.81
267.52	80.81
267.752	88.81
267.984	84.81
268.216	89.81
268.448	74.81
268.681	68.81
268.913	86.81
269.145	76.81
269.377	73.81
269.609	75.81
269.841	93.81
270.073	88.81
270.306	96.81
270.538	97.81
270.77	90.81
271.002	86.81
271.234	84.81
271.466	83.81
271.698	73.81
271.93	80.81
272.162	88.81
272.394	87.81
272.626	84.81
272.858	94.81
273.09	94.81
273.322	84.81
273.553	77.81
273.785	79.81
274.017	90.81
274.249	88.81
274.481	100.81
274.713	88.81
274.945	81.81
275.176	88.81
275.408	92.81
275.64	98.81
275.872	86.81
276.104	78.81
276.335	89.81
276.567	73.81
276.799	78.81
277.031	83.81
277.262	75.81
277.494	90.81
277.726	80.81
277.957	92.81
278.189	79.81
278.421	84.81
278.652	85.81
278.884	88.81
279.115	85.81
279.347	82.81
279.579	83.81
279.81	94.81
280.042	80.81
280.273	103.81
280.505	74.81
280.736	82.81
280.968	90.81
281.199	87.81
281.431	84.81
281.662	84.81
281.894	98.81
282.125	85.81
282.356	90.81
282.588	80.81
282.819	70.81
283.051	84.81
283.282	73.81
283.513	89.81
283.745	78.81
283.976	92.81
284.207	98.81
284.439	98.81
284.67	90.81
284.901	86.81
285.132	100.81
285.364	87.81
285.595	80.81
285.826	107.81
286.057	98.81
286.288	75.81
286.52	89.81
286.751	68.81
286.982	81.81
287.213	81.81
287.444	94.81
287.675	77.81
287.906	82.81
288.138	83.81
288.369	82.81
288.6	100.81
288.831	79.81
289.062	86.81
289.293	92.81
289.524	80.81
289.755	79.81
289.986	92.81
290.217	99.81
290.448	84.81
290.679	93.81
290.91	91.81
291.141	75.81
291.371	94.81
291.602	84.81
291.833	79.81
292.064	80.81
292.295	100.81
292.526	86.81
292.757	84.81
292.987	98.81
293.218	74.81
293.449	73.81
293.68	86.81
293.91	92.81
294.141	95.81
294.372	94.81
294.603	89.81
294.833	88.81
295.064	92.81
295.295	86.81
295.525	87.81
295.756	98.81
295.987	81.81
296.217	90.81
296.448	88.81
296.679	98.81
296.909	86.81
297.14	83.81
297.37	88.81
297.601	82.81
297.831	81.81
298.062	92.81
298.292	83.81
298.523	73.81
298.753	85.81
298.984	85.81
299.214	87.81
299.445	97.81
299.675	87.81
299.905	87.81
300.136	89.81
300.366	83.81
300.597	88.81
300.827	98.81
301.057	91.81
301.288	86.81
301.518	85.81
301.748	89.81
301.979	96.81
302.209	102.81
302.439	108.81
302.669	97.81
302.9	96.81
303.13	80.81
303.36	87.81
303.59	89.81
303.82	90.81
304.051	86.81
304.281	81.81
304.511	89.81
304.741	108.81
304.971	82.81
305.201	98.81
305.431	90.81
305.661	99.81
305.891	82.81
306.121	93.81
306.352	82.81
306.582	93.81
306.812	70.81
307.042	81.81
307.272	82.81
307.502	93.81
307.731	102.81
307.961	94.81
308.191	88.81
308.421	88.81
308.651	78.81
308.881	86.81
309.111	88.81
309.341	94.81
309.571	92.81
309.8	88.81
310.03	86.81
310.26	86.81
310.49	90.81
310.72	80.81
310.949	86.81
311.179	90.81
311.409	91.81
311.639	77.81
311.868	88.81
312.098	106.81
312.328	92.81
312.557	78.81
312.787	83.81
313.017	79.81
313.246	98.81
313.476	78.81
313.706	97.81
313.935	87.81
314.165	91.81
314.394	86.81
314.624	81.81
314.853	87.81
315.083	88.81
315.312	98.81
315.542	91.81
315.771	75.81
316.001	73.81
316.23	91.81
316.46	89.81
316.689	88.81
316.919	85.81
317.148	87.81
317.377	91.81
317.607	105.81
317.836	78.81
318.065	78.81
318.295	78.81
318.524	95.81
318.753	88.81
318.983	78.81
319.212	95.81
319.441	91.81
319.67	83.81
319.9	83.81
320.129	85.81
320.358	79.81
320.587	76.81
320.816	79.81
321.046	80.81
321.275	97.81
321.504	87.81
321.733	92.81
321.962	90.81
322.191	87.81
322.42	94.81
322.649	96.81
322.878	84.81
323.108	88.81
323.337	84.81
323.566	89.81
323.795	102.81
324.024	93.81
324.253	82.81
324.482	83.81
324.71	91.81
324.939	90.81
325.168	69.81
325.397	80.81
325.626	93.81
325.855	91.81
326.084	81.81
326.313	80.81
326.542	96.81
326.77	89.81
326.999	82.81
327.228	94.81
327.457	98.81
327.686	94.81
327.914	88.81
328.143	88.81
328.372	88.81
328.6	93.81
328.829	84.81
329.058	89.81
329.287	79.81
329.515	83.81
329.744	90.81
329.972	78.81
330.201	86.81
330.43	86.81
330.658	91.81
330.887	74.81
331.115	82.81
331.344	73.81
331.572	97.81
331.801	106.81
332.03	89.81
332.258	93.81
332.486	95.81
332.715	93.81
332.943	91.81
333.172	84.81
333.4	84.81
333.629	83.81
333.857	88.81
334.085	91.81
334.314	83.81
334.542	81.81
334.771	90.81
334.999	92.81
335.227	92.81
335.455	103.81
335.684	90.81
335.912	92.81
336.14	95.81
336.369	91.81
336.597	76.81
336.825	88.81
337.053	78.81
337.281	96.81
337.51	91.81
337.738	99.81
337.966	84.81
338.194	92.81
338.422	87.81
338.65	106.81
338.878	92.81
339.106	94.81
339.334	89.81
339.562	77.81
339.79	89.81
340.018	73.81
340.246	84.81
340.474	93.81
340.702	94.81
340.93	95.81
341.158	81.81
341.386	97.81
341.614	95.81
341.842	87.81
342.07	87.81
342.298	77.81
342.526	86.81
342.754	94.81
342.981	77.81
343.209	94.81
343.437	114.81
343.665	68.81
343.893	78.81
344.12	87.81
344.348	92.81
344.576	96.81
344.804	107.81
345.031	100.81
345.259	96.81
345.487	80.81
345.714	85.81
345.942	87.81
346.17	100.81
346.397	86.81
346.625	86.81
346.853	91.81
347.08	80.81
347.308	89.81
347.535	96.81
347.763	94.81
347.99	85.81
348.218	90.81
348.445	75.81
348.673	82.81
348.9	102.81
349.128	96.81
349.355	83.81
349.583	74.81
349.81	82.81
350.037	92.81
350.265	85.81
350.492	84.81
350.72	79.81
350.947	81.81
351.174	82.81
351.402	83.81
351.629	77.81
351.856	88.81
352.083	86.81
352.311	83.81
352.538	88.81
352.765	92.81
352.992	104.81
353.22	92.81
353.447	96.81
353.674	97.81
353.901	98.81
354.128	93.81
354.355	70.81
354.583	75.81
354.81	87.81
355.037	79.81
355.264	93.81
355.491	88.81
355.718	72.81
355.945	71.81
356.172	83.81
356.399	78.81
356.626	102.81
356.853	93.81
357.08	87.81
357.307	90.81
357.534	80.81
357.761	93.81
357.988	80.81
358.215	98.81
358.441	95.81
358.668	93.81
358.895	91.81
359.122	81.81
359.349	90.81
359.576	88.81
359.802	84.81
360.029	79.81
360.256	86.81
360.483	87.81
360.709	86.81
360.936	88.81
361.163	89.81
361.39	87.81
361.616	83.81
361.843	98.81
362.07	79.81
362.296	95.81
362.523	101.81
362.749	96.81
362.976	95.81
363.203	116.81
363.429	84.81
363.656	93.81
363.882	105.81
364.109	116.81
364.335	106.81
364.562	106.81
364.788	106.81
365.015	84.81
365.241	96.81
365.468	94.81
365.694	89.81
365.92	93.81
366.147	95.81
366.373	108.81
366.599	87.81
366.826	83.81
367.052	93.81
367.278	94.81
367.505	83.81
367.731	95.81
367.957	86.81
368.184	84.81
368.41	98.81
368.636	95.81
368.862	85.81
369.089	86.81
369.315	83.81
369.541	95.81
369.767	98.81
369.993	82.81
370.219	78.81
370.445	90.81
370.672	87.81
370.898	83.81
371.124	78.81
371.35	92.81
371.576	83.81
371.802	91.81
372.028	85.81
372.254	78.81
372.48	95.81
372.706	90.81
372.932	83.81
373.158	88.81
373.384	101.81
373.61	92.81
373.835	88.81
374.061	71.81
374.287	79.81
374.513	100.81
374.739	84.81
374.965	90.81
375.191	84.81
375.416	92.81
375.642	99.81
375.868	86.81
376.094	92.81
376.319	93.81
376.545	88.81
376.771	83.81
376.997	84.81
377.222	77.81
377.448	89.81
377.674	98.81
377.899	91.81
378.125	92.81
378.35	81.81
378.576	87.81
378.802	87.81
379.027	91.81
379.253	105.81
379.478	91.81
379.704	92.81
379.929	81.81
380.155	82.81
380.38	85.81
380.606	76.81
380.831	82.81
381.057	90.81
381.282	84.81
381.507	76.81
381.733	90.81
381.958	87.81
382.184	86.81
382.409	90.81
382.634	87.81
382.86	73.81
383.085	93.81
383.31	93.81
383.535	87.81
383.761	102.81
383.986	88.81
384.211	88.81
384.436	95.81
384.662	96.81
384.887	84.81
385.112	90.81
385.337	102.81
385.562	97.81
385.787	78.81
386.013	98.81
386.238	88.81
386.463	84.81
386.688	88.81
386.913	98.81
387.138	91.81
387.363	105.81
387.588	101.81
387.813	90.81
388.038	86.81
388.263	100.81
388.488	105.81
388.713	90.81
388.938	90.81
389.163	104.81
389.387	90.81
389.612	82.81
389.837	78.81
390.062	76.81
390.287	87.81
390.512	90.81
390.736	91.81
390.961	90.81
391.186	89.81
391.411	87.81
391.636	97.81
391.86	94.81
392.085	92.81
392.31	100.81
392.534	85.81
392.759	96.81
392.984	130.81
393.208	182.81
393.433	246.81
393.658	208.81
393.882	113.81
394.107	106.81
394.331	98.81
394.556	112.81
394.78	96.81
395.005	92.81
395.229	77.81
395.454	102.81
395.678	96.81
395.903	100.81
396.127	124.81
396.352	135.81
396.576	151.81
396.801	200.81
397.025	191.81
397.249	144.81
397.474	114.81
397.698	107.81
397.922	91.81
398.147	86.81
398.371	81.81
398.595	90.81
398.82	101.81
399.044	88.81
399.268	84.81
399.492	86.81
399.717	79.81
399.941	90.81
400.165	90.81
400.389	103.81
400.613	97.81
400.837	87.81
401.062	108.81
401.286	81.81
401.51	86.81
401.734	78.81
401.958	99.81
402.182	87.81
402.406	103.81
402.63	91.81
402.854	88.81
403.078	92.81
403.302	86.81
403.526	101.81
403.75	96.81
403.974	98.81
404.198	118.81
404.422	142.81
404.645	158.81
404.869	141.81
405.093	110.81
405.317	86.81
405.541	93.81
405.765	94.81
405.988	95.81
406.212	85.81
406.436	86.81
406.66	91.81
406.883	88.81
407.107	91.81
407.331	86.81
407.555	89.81
407.778	116.81
408.002	96.81
408.226	83.81
408.449	90.81
408.673	86.81
408.896	83.81
409.12	83.81
409.344	104.81
409.567	84.81
409.791	98.81
410.014	102.81
410.238	89.81
410.461	94.81
410.685	102.81
410.908	93.81
411.132	92.81
411.355	89.81
411.578	90.81
411.802	80.81
412.025	91.81
412.249	86.81
412.472	79.81
412.695	92.81
412.919	92.81
413.142	107.81
413.365	100.81
413.589	83.81
413.812	85.81
414.035	93.81
414.258	80.81
414.482	91.81
414.705	89.81
414.928	80.81
415.151	91.81
415.374	102.81
415.597	82.81
415.821	82.81
416.044	97.81
416.267	90.81
416.49	88.81
416.713	95.81
416.936	92.81
417.159	86.81
417.382	79.81
417.605	96.81
417.828	103.81
418.051	82.81
418.274	84.81
418.497	86.81
418.72	101.81
418.943	85.81
419.166	91.81
419.389	89.81
419.611	102.81
419.834	80.81
420.057	111.81
420.28	94.81
420.503	87.81
420.726	100.81
420.948	98.81
421.171	90.81
421.394	100.81
421.617	97.81
421.839	118.81
422.062	122.81
422.285	154.81
422.507	246.81
422.73	369.81
422.953	323.81
423.175	207.81
423.398	116.81
423.621	105.81
423.843	86.81
424.066	86.81
424.288	104.81
424.511	80.81
424.733	88.81
424.956	77.81
425.178	94.81
425.401	88.81
425.623	80.81
425.846	87.81
426.068	91.81
426.291	97.81
426.513	79.81
426.735	90.81
426.958	97.81
427.18	85.81
427.402	102.81
427.625	97.81
427.847	97.81
428.069	95.81
428.292	127.81
428.514	139.81
428.736	111.81
428.958	123.81
429.181	130.81
429.403	103.81
429.625	115.81
429.847	120.81
430.069	160.81
430.292	157.81
430.514	151.81
430.736	119.81
430.958	143.81
431.18	106.81
431.402	93.81
431.624	89.81
431.846	123.81
432.068	125.81
432.29	88.81
432.512	92.81
432.734	82.81
432.956	87.81
433.178	99.81
433.4	96.81
433.622	77.81
433.844	99.81
434.066	74.81
434.287	89.81
434.509	89.81
434.731	84.81
434.953	95.81
435.175	94.81
435.397	95.81
435.618	92.81
435.84	90.81
436.062	94.81
436.284	84.81
436.505	76.81
436.727	86.81
436.949	86.81
437.17	90.81
437.392	78.81
437.614	85.81
437.835	78.81
438.057	88.81
438.278	92.81
438.5	94.81
438.721	84.81
438.943	95.81
439.165	86.81
439.386	101.81
439.608	86.81
439.829	92.81
440.05	82.81
440.272	89.81
440.493	87.81
440.715	86.81
440.936	102.81
441.158	79.81
441.379	92.81
441.6	93.81
441.822	90.81
442.043	91.81
442.264	100.81
442.486	130.81
442.707	145.81
442.928	122.81
443.149	104.81
443.371	156.81
443.592	210.81
443.813	178.81
444.034	92.81
444.255	90.81
444.476	93.81
444.698	109.81
444.919	107.81
445.14	199.81
445.361	214.81
445.582	259.81
445.803	221.81
446.024	126.81
446.245	115.81
446.466	101.81
446.687	82.81
446.908	73.81
447.129	90.81
447.35	83.81
447.571	90.81
447.792	92.81
448.013	76.81
448.234	91.81
448.455	88.81
448.675	81.81
448.896	87.81
449.117	73.81
449.338	90.81
449.559	99.81
449.779	90.81
450	92.81
450.221	100.81
450.442	98.81
450.662	87.81
450.883	92.81
451.104	84.81
451.324	81.81
451.545	85.81
451.766	93.81
451.986	73.81
452.207	101.81
452.428	84.81
452.648	102.81
452.869	106.81
453.089	94.81
453.31	86.81
453.53	72.81
453.751	77.81
453.971	87.81
454.192	84.81
454.412	73.81
454.633	75.81
454.853	81.81
455.073	78.81
455.294	76.81
455.514	95.81
455.734	91.81
455.955	86.81
456.175	85.81
456.395	80.81
456.616	84.81
456.836	88.81
457.056	74.81
457.276	69.81
457.497	74.81
457.717	88.81
457.937	101.81
458.157	106.81
458.377	96.81
458.598	106.81
458.818	116.81
459.038	86.81
459.258	93.81
459.478	89.81
459.698	94.81
459.918	81.81
460.138	97.81
460.358	107.81
460.578	95.81
460.798	120.81
461.018	104.81
461.238	84.81
461.458	99.81
461.678	90.81
461.898	95.81
462.118	90.81
462.338	73.81
462.558	82.81
462.777	82.81
462.997	84.81
463.217	87.81
463.437	87.81
463.657	77.81
463.876	87.81
464.096	72.81
464.316	88.81
464.536	86.81
464.755	89.81
464.975	99.81
465.195	100.81
465.414	82.81
465.634	96.81
465.854	91.81
466.073	95.81
466.293	93.81
466.512	94.81
466.732	79.81
466.951	100.81
467.171	102.81
467.391	81.81
467.61	106.81
467.829	98.81
468.049	83.81
468.268	89.81
468.488	86.81
468.707	89.81
468.927	87.81
469.146	84.81
469.365	86.81
469.585	81.81
469.804	88.81
470.023	85.81
470.243	72.81
470.462	91.81
470.681	80.81
470.901	81.81
471.12	86.81
471.339	97.81
471.558	91.81
471.777	71.81
471.997	92.81
472.216	78.81
472.435	102.81
472.654	79.81
472.873	88.81
473.092	86.81
473.311	79.81
473.53	82.81
473.749	86.81
473.968	89.81
474.187	89.81
474.406	98.81
474.625	85.81
474.844	77.81
475.063	88.81
475.282	86.81
475.501	89.81
475.72	105.81
475.939	76.81
476.158	85.81
476.377	79.81
476.596	78.81
476.814	82.81
477.033	91.81
477.252	87.81
477.471	83.81
477.69	84.81
477.908	102.81
478.127	93.81
478.346	78.81
478.564	81.81
478.783	86.81
479.002	92.81
479.22	77.81
479.439	86.81
479.658	98.81
479.876	86.81
480.095	91.81
480.313	89.81
480.532	95.81
480.751	87.81
480.969	86.81
481.188	81.81
481.406	82.81
481.624	103.81
481.843	94.81
482.061	78.81
482.28	91.81
482.498	93.81
482.717	83.81
482.935	95.81
483.153	93.81
483.372	102.81
483.59	79.81
483.808	82.81
484.027	89.81
484.245	96.81
484.463	92.81
484.681	101.81
484.9	85.81
485.118	79.81
485.336	74.81
485.554	85.81
485.772	99.81
485.99	87.81
486.209	99.81
486.427	85.81
486.645	98.81
486.863	92.81
487.081	85.81
487.299	100.81
487.517	108.81
487.735	108.81
487.953	124.81
488.171	122.81
488.389	103.81
488.607	94.81
488.825	102.81
489.043	76.81
489.261	71.81
489.479	93.81
489.696	91.81
489.914	92.81
490.132	100.81
490.35	79.81
490.568	86.81
490.786	88.81
491.003	69.81
491.221	90.81
491.439	76.81
491.657	97.81
491.874	106.81
492.092	89.81
492.31	94.81
492.527	89.81
492.745	93.81
492.963	84.81
493.18	89.81
493.398	94.81
493.615	91.81
493.833	87.81
494.05	72.81
494.268	86.81
494.485	86.81
494.703	81.81
494.92	85.81
495.138	91.81
495.355	87.81
495.573	93.81
495.79	83.81
496.008	92.81
496.225	87.81
496.442	99.81
496.66	85.81
496.877	87.81
497.094	99.81
497.312	92.81
497.529	87.81
497.746	94.81
497.963	79.81
498.181	92.81
498.398	76.81
498.615	89.81
498.832	96.81
499.049	86.81
499.267	86.81
499.484	87.81
499.701	88.81
499.918	91.81
500.135	83.81
500.352	98.81
500.569	94.81
500.786	88.81
501.003	89.81
501.22	85.81
501.437	86.81
501.654	93.81
501.871	86.81
502.088	83.81
502.305	87.81
502.522	75.81
502.739	89.81
502.956	94.81
503.172	85.81
503.389	84.81
503.606	80.81
503.823	84.81
504.04	106.81
504.256	121.81
504.473	114.81
504.69	94.81
504.907	109.81
505.123	90.81
505.34	84.81
505.557	87.81
505.773	87.81
505.99	94.81
506.207	87.81
506.423	109.81
506.64	85.81
506.856	92.81
507.073	85.81
507.289	92.81
507.506	81.81
507.722	84.81
507.939	79.81
508.155	95.81
508.372	81.81
508.588	84.81
508.805	90.81
509.021	85.81
509.238	103.81
509.454	93.81
509.67	89.81
509.887	115.81
510.103	98.81
510.319	83.81
510.536	97.81
510.752	99.81
510.968	94.81
511.184	94.81
511.401	93.81
511.617	109.81
511.833	84.81
512.049	84.81
512.265	104.81
512.481	90.81
512.698	87.81
512.914	86.81
513.13	89.81
513.346	84.81
513.562	79.81
513.778	96.81
513.994	88.81
514.21	84.81
514.426	98.81
514.642	91.81
514.858	88.81
515.074	110.81
515.29	92.81
515.506	85.81
515.721	78.81
515.937	95.81
516.153	78.81
516.369	89.81
516.585	78.81
516.801	79.81
517.016	69.81
517.232	88.81
517.448	106.81
517.664	99.81
517.879	93.81
