Data from 2145_1_HRD10591_00007.txt Node
Date: Mon Jan 19 14:21:12 EST 2026
User: Yrep
Spectrometer: HR+D1059
Trigger mode: 1
Integration Time (sec): 1.000000E-1
Scans to average: 1
Electric dark correction enabled: true
Nonlinearity correction enabled: false
Boxcar width: 0
XAxis mode: Wavelengths
Number of Pixels in Spectrum: 2048
>>>>>Begin Spectral Data<<<<<
223.165	-23.19
223.4	-23.19
223.635	-23.19
223.869	-34.19
224.104	-19.19
224.338	-8.19
224.573	-14.19
224.808	-10.19
225.042	6.81
225.277	-4.19
225.511	0.81
225.746	-2.19
225.98	-1.19
226.215	12.81
226.449	17.81
226.683	20.81
226.918	19.81
227.152	37.81
227.387	38.81
227.621	34.81
227.856	34.81
228.09	54.81
228.324	52.81
228.559	65.81
228.793	60.81
229.027	78.81
229.262	68.81
229.496	75.81
229.73	68.81
229.964	96.81
230.199	77.81
230.433	76.81
230.667	74.81
230.901	80.81
231.136	82.81
231.37	94.81
231.604	82.81
231.838	77.81
232.072	93.81
232.306	72.81
232.541	77.81
232.775	94.81
233.009	88.81
233.243	77.81
233.477	95.81
233.711	82.81
233.945	77.81
234.179	79.81
234.413	78.81
234.647	79.81
234.881	68.81
235.115	70.81
235.349	78.81
235.583	62.81
235.817	74.81
236.051	73.81
236.285	59.81
236.519	73.81
236.753	71.81
236.987	85.81
237.221	76.81
237.455	91.81
237.689	75.81
237.922	83.81
238.156	83.81
238.39	84.81
238.624	76.81
238.858	73.81
239.091	69.81
239.325	69.81
239.559	81.81
239.793	98.81
240.027	81.81
240.26	84.81
240.494	89.81
240.728	66.81
240.961	69.81
241.195	80.81
241.429	66.81
241.662	64.81
241.896	72.81
242.13	80.81
242.363	89.81
242.597	68.81
242.83	80.81
243.064	88.81
243.298	75.81
243.531	61.81
243.765	82.81
243.998	85.81
244.232	70.81
244.465	78.81
244.699	73.81
244.932	84.81
245.166	73.81
245.399	70.81
245.633	87.81
245.866	72.81
246.099	76.81
246.333	83.81
246.566	64.81
246.8	77.81
247.033	80.81
247.266	86.81
247.5	74.81
247.733	84.81
247.966	76.81
248.2	76.81
248.433	94.81
248.666	86.81
248.899	91.81
249.133	90.81
249.366	100.81
249.599	83.81
249.832	68.81
250.066	84.81
250.299	84.81
250.532	85.81
250.765	70.81
250.998	77.81
251.231	84.81
251.465	74.81
251.698	77.81
251.931	78.81
252.164	82.81
252.397	86.81
252.63	71.81
252.863	89.81
253.096	76.81
253.329	80.81
253.562	77.81
253.795	73.81
254.028	87.81
254.261	84.81
254.494	86.81
254.727	73.81
254.96	78.81
255.193	77.81
255.426	72.81
255.659	84.81
255.892	77.81
256.124	75.81
256.357	83.81
256.59	80.81
256.823	68.81
257.056	78.81
257.289	78.81
257.521	76.81
257.754	81.81
257.987	84.81
258.22	67.81
258.452	77.81
258.685	99.81
258.918	92.81
259.151	84.81
259.383	69.81
259.616	77.81
259.849	88.81
260.081	68.81
260.314	77.81
260.547	77.81
260.779	77.81
261.012	93.81
261.244	83.81
261.477	82.81
261.71	90.81
261.942	85.81
262.175	74.81
262.407	84.81
262.64	84.81
262.872	85.81
263.105	78.81
263.337	84.81
263.57	88.81
263.802	84.81
264.035	60.81
264.267	73.81
264.499	77.81
264.732	82.81
264.964	94.81
265.197	90.81
265.429	84.81
265.661	90.81
265.894	74.81
266.126	80.81
266.358	82.81
266.591	86.81
266.823	92.81
267.055	73.81
267.287	80.81
267.52	79.81
267.752	89.81
267.984	88.81
268.216	89.81
268.448	80.81
268.681	85.81
268.913	91.81
269.145	82.81
269.377	93.81
269.609	84.81
269.841	81.81
270.073	81.81
270.306	87.81
270.538	88.81
270.77	83.81
271.002	93.81
271.234	86.81
271.466	89.81
271.698	85.81
271.93	93.81
272.162	102.81
272.394	90.81
272.626	82.81
272.858	67.81
273.09	82.81
273.322	79.81
273.553	81.81
273.785	100.81
274.017	81.81
274.249	86.81
274.481	91.81
274.713	80.81
274.945	77.81
275.176	92.81
275.408	85.81
275.64	81.81
275.872	78.81
276.104	89.81
276.335	90.81
276.567	85.81
276.799	87.81
277.031	70.81
277.262	84.81
277.494	84.81
277.726	89.81
277.957	89.81
278.189	77.81
278.421	78.81
278.652	76.81
278.884	87.81
279.115	88.81
279.347	83.81
279.579	85.81
279.81	103.81
280.042	92.81
280.273	93.81
280.505	104.81
280.736	96.81
280.968	83.81
281.199	72.81
281.431	85.81
281.662	77.81
281.894	92.81
282.125	92.81
282.356	83.81
282.588	98.81
282.819	94.81
283.051	100.81
283.282	80.81
283.513	83.81
283.745	83.81
283.976	98.81
284.207	71.81
284.439	78.81
284.67	102.81
284.901	96.81
285.132	80.81
285.364	86.81
285.595	92.81
285.826	84.81
286.057	86.81
286.288	99.81
286.52	88.81
286.751	101.81
286.982	92.81
287.213	87.81
287.444	84.81
287.675	84.81
287.906	75.81
288.138	82.81
288.369	86.81
288.6	96.81
288.831	90.81
289.062	100.81
289.293	80.81
289.524	86.81
289.755	89.81
289.986	90.81
290.217	89.81
290.448	89.81
290.679	91.81
290.91	89.81
291.141	78.81
291.371	79.81
291.602	82.81
291.833	86.81
292.064	85.81
292.295	89.81
292.526	77.81
292.757	87.81
292.987	96.81
293.218	73.81
293.449	78.81
293.68	66.81
293.91	84.81
294.141	88.81
294.372	78.81
294.603	86.81
294.833	76.81
295.064	77.81
295.295	94.81
295.525	89.81
295.756	78.81
295.987	86.81
296.217	85.81
296.448	76.81
296.679	84.81
296.909	89.81
297.14	97.81
297.37	92.81
297.601	86.81
297.831	87.81
298.062	92.81
298.292	86.81
298.523	92.81
298.753	88.81
298.984	93.81
299.214	89.81
299.445	103.81
299.675	101.81
299.905	84.81
300.136	90.81
300.366	96.81
300.597	97.81
300.827	90.81
301.057	83.81
301.288	93.81
301.518	97.81
301.748	92.81
301.979	120.81
302.209	92.81
302.439	98.81
302.669	91.81
302.9	94.81
303.13	98.81
303.36	91.81
303.59	96.81
303.82	86.81
304.051	88.81
304.281	74.81
304.511	87.81
304.741	78.81
304.971	84.81
305.201	84.81
305.431	89.81
305.661	82.81
305.891	94.81
306.121	87.81
306.352	98.81
306.582	109.81
306.812	92.81
307.042	88.81
307.272	100.81
307.502	90.81
307.731	85.81
307.961	88.81
308.191	88.81
308.421	95.81
308.651	103.81
308.881	90.81
309.111	99.81
309.341	107.81
309.571	110.81
309.8	85.81
310.03	90.81
310.26	88.81
310.49	81.81
310.72	84.81
310.949	81.81
311.179	86.81
311.409	91.81
311.639	91.81
311.868	77.81
312.098	99.81
312.328	88.81
312.557	90.81
312.787	76.81
313.017	82.81
313.246	89.81
313.476	110.81
313.706	94.81
313.935	86.81
314.165	89.81
314.394	85.81
314.624	86.81
314.853	91.81
315.083	90.81
315.312	94.81
315.542	91.81
315.771	108.81
316.001	92.81
316.23	96.81
316.46	92.81
316.689	83.81
316.919	87.81
317.148	85.81
317.377	92.81
317.607	77.81
317.836	78.81
318.065	91.81
318.295	96.81
318.524	88.81
318.753	93.81
318.983	101.81
319.212	92.81
319.441	91.81
319.67	91.81
319.9	79.81
320.129	87.81
320.358	96.81
320.587	84.81
320.816	86.81
321.046	96.81
321.275	86.81
321.504	85.81
321.733	114.81
321.962	98.81
322.191	96.81
322.42	82.81
322.649	91.81
322.878	92.81
323.108	94.81
323.337	92.81
323.566	81.81
323.795	98.81
324.024	95.81
324.253	99.81
324.482	82.81
324.71	105.81
324.939	90.81
325.168	78.81
325.397	94.81
325.626	85.81
325.855	102.81
326.084	83.81
326.313	86.81
326.542	93.81
326.77	88.81
326.999	92.81
327.228	77.81
327.457	98.81
327.686	95.81
327.914	81.81
328.143	91.81
328.372	91.81
328.6	77.81
328.829	88.81
329.058	88.81
329.287	89.81
329.515	94.81
329.744	88.81
329.972	86.81
330.201	101.81
330.43	91.81
330.658	83.81
330.887	88.81
331.115	98.81
331.344	104.81
331.572	80.81
331.801	74.81
332.03	89.81
332.258	90.81
332.486	90.81
332.715	81.81
332.943	87.81
333.172	103.81
333.4	83.81
333.629	89.81
333.857	89.81
334.085	97.81
334.314	93.81
334.542	95.81
334.771	98.81
334.999	84.81
335.227	99.81
335.455	91.81
335.684	103.81
335.912	83.81
336.14	119.81
336.369	109.81
336.597	85.81
336.825	98.81
337.053	88.81
337.281	85.81
337.51	100.81
337.738	92.81
337.966	83.81
338.194	93.81
338.422	90.81
338.65	100.81
338.878	90.81
339.106	89.81
339.334	96.81
339.562	93.81
339.79	74.81
340.018	79.81
340.246	70.81
340.474	76.81
340.702	89.81
340.93	92.81
341.158	91.81
341.386	87.81
341.614	85.81
341.842	74.81
342.07	88.81
342.298	84.81
342.526	97.81
342.754	98.81
342.981	80.81
343.209	97.81
343.437	99.81
343.665	77.81
343.893	88.81
344.12	89.81
344.348	95.81
344.576	100.81
344.804	98.81
345.031	83.81
345.259	87.81
345.487	89.81
345.714	72.81
345.942	84.81
346.17	93.81
346.397	90.81
346.625	94.81
346.853	81.81
347.08	96.81
347.308	88.81
347.535	75.81
347.763	87.81
347.99	80.81
348.218	103.81
348.445	93.81
348.673	99.81
348.9	96.81
349.128	93.81
349.355	93.81
349.583	99.81
349.81	104.81
350.037	86.81
350.265	96.81
350.492	91.81
350.72	91.81
350.947	77.81
351.174	77.81
351.402	88.81
351.629	90.81
351.856	91.81
352.083	99.81
352.311	92.81
352.538	88.81
352.765	101.81
352.992	115.81
353.22	92.81
353.447	94.81
353.674	102.81
353.901	92.81
354.128	87.81
354.355	93.81
354.583	89.81
354.81	77.81
355.037	92.81
355.264	84.81
355.491	87.81
355.718	100.81
355.945	93.81
356.172	73.81
356.399	86.81
356.626	88.81
356.853	98.81
357.08	102.81
357.307	99.81
357.534	99.81
357.761	100.81
357.988	105.81
358.215	100.81
358.441	94.81
358.668	93.81
358.895	112.81
359.122	96.81
359.349	101.81
359.576	79.81
359.802	84.81
360.029	95.81
360.256	85.81
360.483	96.81
360.709	100.81
360.936	107.81
361.163	92.81
361.39	82.81
361.616	102.81
361.843	116.81
362.07	105.81
362.296	116.81
362.523	124.81
362.749	121.81
362.976	137.81
363.203	157.81
363.429	132.81
363.656	109.81
363.882	107.81
364.109	117.81
364.335	157.81
364.562	184.81
364.788	124.81
365.015	108.81
365.241	89.81
365.468	91.81
365.694	99.81
365.92	88.81
366.147	93.81
366.373	86.81
366.599	92.81
366.826	85.81
367.052	90.81
367.278	107.81
367.505	100.81
367.731	110.81
367.957	92.81
368.184	88.81
368.41	85.81
368.636	78.81
368.862	86.81
369.089	85.81
369.315	82.81
369.541	87.81
369.767	85.81
369.993	93.81
370.219	99.81
370.445	98.81
370.672	106.81
370.898	88.81
371.124	88.81
371.35	81.81
371.576	94.81
371.802	98.81
372.028	103.81
372.254	96.81
372.48	100.81
372.706	90.81
372.932	96.81
373.158	103.81
373.384	119.81
373.61	126.81
373.835	124.81
374.061	100.81
374.287	105.81
374.513	99.81
374.739	104.81
374.965	86.81
375.191	101.81
375.416	90.81
375.642	97.81
375.868	105.81
376.094	103.81
376.319	98.81
376.545	104.81
376.771	92.81
376.997	89.81
377.222	98.81
377.448	104.81
377.674	101.81
377.899	98.81
378.125	89.81
378.35	79.81
378.576	106.81
378.802	100.81
379.027	82.81
379.253	91.81
379.478	90.81
379.704	90.81
379.929	88.81
380.155	85.81
380.38	89.81
380.606	98.81
380.831	106.81
381.057	94.81
381.282	104.81
381.507	101.81
381.733	93.81
381.958	115.81
382.184	115.81
382.409	107.81
382.634	110.81
382.86	100.81
383.085	110.81
383.31	110.81
383.535	110.81
383.761	116.81
383.986	124.81
384.211	94.81
384.436	95.81
384.662	102.81
384.887	91.81
385.112	89.81
385.337	109.81
385.562	98.81
385.787	125.81
386.013	114.81
386.238	106.81
386.463	100.81
386.688	120.81
386.913	85.81
387.138	106.81
387.363	102.81
387.588	104.81
387.813	100.81
388.038	105.81
388.263	113.81
388.488	105.81
388.713	107.81
388.938	109.81
389.163	95.81
389.387	92.81
389.612	94.81
389.837	102.81
390.062	94.81
390.287	82.81
390.512	112.81
390.736	88.81
390.961	93.81
391.186	98.81
391.411	97.81
391.636	90.81
391.86	98.81
392.085	103.81
392.31	113.81
392.534	124.81
392.759	144.81
392.984	217.81
393.208	370.81
393.433	534.81
393.658	399.81
393.882	197.81
394.107	140.81
394.331	147.81
394.556	158.81
394.78	130.81
395.005	98.81
395.229	110.81
395.454	124.81
395.678	118.81
395.903	146.81
396.127	186.81
396.352	200.81
396.576	241.81
396.801	382.81
397.025	422.81
397.249	236.81
397.474	143.81
397.698	136.81
397.922	112.81
398.147	102.81
398.371	94.81
398.595	84.81
398.82	94.81
399.044	95.81
399.268	98.81
399.492	86.81
399.717	103.81
399.941	96.81
400.165	88.81
400.389	104.81
400.613	85.81
400.837	92.81
401.062	94.81
401.286	89.81
401.51	92.81
401.734	74.81
401.958	92.81
402.182	74.81
402.406	94.81
402.63	92.81
402.854	92.81
403.078	94.81
403.302	99.81
403.526	91.81
403.75	92.81
403.974	84.81
404.198	86.81
404.422	116.81
404.645	119.81
404.869	109.81
405.093	94.81
405.317	84.81
405.541	86.81
405.765	98.81
405.988	86.81
406.212	77.81
406.436	76.81
406.66	92.81
406.883	86.81
407.107	98.81
407.331	103.81
407.555	131.81
407.778	142.81
408.002	126.81
408.226	114.81
408.449	91.81
408.673	101.81
408.896	99.81
409.12	87.81
409.344	102.81
409.567	116.81
409.791	120.81
410.014	107.81
410.238	104.81
410.461	88.81
410.685	95.81
410.908	92.81
411.132	95.81
411.355	93.81
411.578	100.81
411.802	86.81
412.025	84.81
412.249	97.81
412.472	90.81
412.695	104.81
412.919	85.81
413.142	88.81
413.365	92.81
413.589	87.81
413.812	80.81
414.035	94.81
414.258	99.81
414.482	92.81
414.705	89.81
414.928	93.81
415.151	105.81
415.374	80.81
415.597	76.81
415.821	74.81
416.044	93.81
416.267	85.81
416.49	91.81
416.713	82.81
416.936	86.81
417.159	101.81
417.382	90.81
417.605	86.81
417.828	90.81
418.051	89.81
418.274	76.81
418.497	83.81
418.72	90.81
418.943	85.81
419.166	84.81
419.389	83.81
419.611	86.81
419.834	91.81
420.057	88.81
420.28	108.81
420.503	93.81
420.726	100.81
420.948	94.81
421.171	109.81
421.394	138.81
421.617	176.81
421.839	192.81
422.062	165.81
422.285	223.81
422.507	371.81
422.73	547.81
422.953	489.81
423.175	306.81
423.398	178.81
423.621	152.81
423.843	124.81
424.066	114.81
424.288	106.81
424.511	116.81
424.733	107.81
424.956	112.81
425.178	109.81
425.401	94.81
425.623	98.81
425.846	100.81
426.068	98.81
426.291	105.81
426.513	94.81
426.735	92.81
426.958	100.81
427.18	108.81
427.402	103.81
427.625	100.81
427.847	97.81
428.069	117.81
428.292	151.81
428.514	192.81
428.736	127.81
428.958	153.81
429.181	160.81
429.403	124.81
429.625	112.81
429.847	152.81
430.069	230.81
430.292	255.81
430.514	229.81
430.736	180.81
430.958	191.81
431.18	123.81
431.402	109.81
431.624	112.81
431.846	165.81
432.068	189.81
432.29	110.81
432.512	93.81
432.734	110.81
432.956	91.81
433.178	94.81
433.4	100.81
433.622	92.81
433.844	99.81
434.066	95.81
434.287	89.81
434.509	86.81
434.731	90.81
434.953	89.81
435.175	90.81
435.397	105.81
435.618	109.81
435.84	106.81
436.062	89.81
436.284	95.81
436.505	84.81
436.727	98.81
436.949	99.81
437.17	99.81
437.392	80.81
437.614	84.81
437.835	93.81
438.057	78.81
438.278	90.81
438.5	101.81
438.721	100.81
438.943	88.81
439.165	85.81
439.386	80.81
439.608	104.81
439.829	88.81
440.05	89.81
440.272	106.81
440.493	97.81
440.715	84.81
440.936	82.81
441.158	80.81
441.379	91.81
441.6	78.81
441.822	94.81
442.043	110.81
442.264	125.81
442.486	165.81
442.707	235.81
442.928	160.81
443.149	129.81
443.371	202.81
443.592	363.81
443.813	301.81
444.034	111.81
444.255	82.81
444.476	102.81
444.698	89.81
444.919	106.81
445.14	245.81
445.361	275.81
445.582	413.81
445.803	352.81
446.024	168.81
446.245	117.81
446.466	104.81
446.687	88.81
446.908	75.81
447.129	84.81
447.35	103.81
447.571	85.81
447.792	97.81
448.013	88.81
448.234	78.81
448.455	88.81
448.675	112.81
448.896	85.81
449.117	98.81
449.338	88.81
449.559	91.81
449.779	86.81
450	85.81
450.221	84.81
450.442	90.81
450.662	85.81
450.883	100.81
451.104	85.81
451.324	96.81
451.545	93.81
451.766	84.81
451.986	86.81
452.207	85.81
452.428	91.81
452.648	119.81
452.869	140.81
453.089	99.81
453.31	103.81
453.53	100.81
453.751	108.81
453.971	86.81
454.192	93.81
454.412	96.81
454.633	78.81
454.853	97.81
455.073	82.81
455.294	112.81
455.514	103.81
455.734	74.81
455.955	83.81
456.175	97.81
456.395	89.81
456.616	85.81
456.836	97.81
457.056	92.81
457.276	90.81
457.497	99.81
457.717	105.81
457.937	130.81
458.157	150.81
458.377	192.81
458.598	136.81
458.818	178.81
459.038	109.81
459.258	89.81
459.478	80.81
459.698	103.81
459.918	94.81
460.138	95.81
460.358	91.81
460.578	109.81
460.798	148.81
461.018	167.81
461.238	98.81
461.458	103.81
461.678	94.81
461.898	98.81
462.118	84.81
462.338	89.81
462.558	90.81
462.777	83.81
462.997	76.81
463.217	85.81
463.437	82.81
463.657	105.81
463.876	93.81
464.096	84.81
464.316	73.81
464.536	70.81
464.755	83.81
464.975	76.81
465.195	70.81
465.414	101.81
465.634	84.81
465.854	93.81
466.073	100.81
466.293	83.81
466.512	90.81
466.732	84.81
466.951	84.81
467.171	90.81
467.391	92.81
467.61	98.81
467.829	73.81
468.049	96.81
468.268	88.81
468.488	95.81
468.707	102.81
468.927	94.81
469.146	91.81
469.365	93.81
469.585	82.81
469.804	91.81
470.023	86.81
470.243	87.81
470.462	94.81
470.681	91.81
470.901	73.81
471.12	99.81
471.339	89.81
471.558	86.81
471.777	80.81
471.997	95.81
472.216	86.81
472.435	91.81
472.654	78.81
472.873	91.81
473.092	92.81
473.311	103.81
473.53	92.81
473.749	99.81
473.968	100.81
474.187	88.81
474.406	86.81
474.625	87.81
474.844	92.81
475.063	91.81
475.282	93.81
475.501	74.81
475.72	105.81
475.939	87.81
476.158	91.81
476.377	93.81
476.596	101.81
476.814	99.81
477.033	85.81
477.252	87.81
477.471	88.81
477.69	98.81
477.908	94.81
478.127	95.81
478.346	98.81
478.564	80.81
478.783	80.81
479.002	91.81
479.22	81.81
479.439	96.81
479.658	74.81
479.876	88.81
480.095	87.81
480.313	86.81
480.532	91.81
480.751	94.81
480.969	94.81
481.188	93.81
481.406	92.81
481.624	79.81
481.843	94.81
482.061	88.81
482.28	95.81
482.498	88.81
482.717	96.81
482.935	86.81
483.153	95.81
483.372	94.81
483.59	116.81
483.808	101.81
484.027	90.81
484.245	88.81
484.463	89.81
484.681	91.81
484.9	93.81
485.118	106.81
485.336	106.81
485.554	93.81
485.772	93.81
485.99	98.81
486.209	99.81
486.427	92.81
486.645	88.81
486.863	103.81
487.081	109.81
487.299	96.81
487.517	107.81
487.735	155.81
487.953	260.81
488.171	204.81
488.389	109.81
488.607	92.81
488.825	84.81
489.043	89.81
489.261	95.81
489.479	93.81
489.696	104.81
489.914	86.81
490.132	98.81
490.35	95.81
490.568	91.81
490.786	86.81
491.003	94.81
491.221	96.81
491.439	89.81
491.657	85.81
491.874	92.81
492.092	98.81
492.31	99.81
492.527	84.81
492.745	86.81
492.963	94.81
493.18	109.81
493.398	107.81
493.615	102.81
493.833	99.81
494.05	83.81
494.268	97.81
494.485	92.81
494.703	100.81
494.92	100.81
495.138	90.81
495.355	101.81
495.573	101.81
495.79	90.81
496.008	104.81
496.225	93.81
496.442	94.81
496.66	87.81
496.877	90.81
497.094	103.81
497.312	106.81
497.529	103.81
497.746	100.81
497.963	93.81
498.181	116.81
498.398	135.81
498.615	101.81
498.832	84.81
499.049	101.81
499.267	121.81
499.484	102.81
499.701	112.81
499.918	82.81
500.135	100.81
500.352	100.81
500.569	89.81
500.786	105.81
501.003	93.81
501.22	90.81
501.437	112.81
501.654	106.81
501.871	96.81
502.088	103.81
502.305	100.81
502.522	99.81
502.739	95.81
502.956	88.81
503.172	98.81
503.389	98.81
503.606	103.81
503.823	114.81
504.04	129.81
504.256	175.81
504.473	188.81
504.69	114.81
504.907	98.81
505.123	95.81
505.34	91.81
505.557	89.81
505.773	89.81
505.99	85.81
506.207	88.81
506.423	98.81
506.64	98.81
506.856	106.81
507.073	88.81
507.289	87.81
507.506	75.81
507.722	82.81
507.939	89.81
508.155	101.81
508.372	96.81
508.588	92.81
508.805	89.81
509.021	88.81
509.238	100.81
509.454	92.81
509.67	88.81
509.887	108.81
510.103	84.81
510.319	90.81
510.536	90.81
510.752	81.81
510.968	78.81
511.184	92.81
511.401	98.81
511.617	89.81
511.833	95.81
512.049	78.81
512.265	103.81
512.481	101.81
512.698	88.81
512.914	101.81
513.13	91.81
513.346	90.81
513.562	90.81
513.778	100.81
513.994	86.81
514.21	96.81
514.426	78.81
514.642	90.81
514.858	86.81
515.074	97.81
515.29	85.81
515.506	108.81
515.721	98.81
