Data from 2145_1_HRD10591_00022.txt Node
Date: Mon Jan 19 14:21:20 EST 2026
User: Yrep
Spectrometer: HR+D1059
Trigger mode: 1
Integration Time (sec): 1.000000E-1
Scans to average: 1
Electric dark correction enabled: true
Nonlinearity correction enabled: false
Boxcar width: 0
XAxis mode: Wavelengths
Number of Pixels in Spectrum: 2048
>>>>>Begin Spectral Data<<<<<
223.165	-25.31
223.4	-25.31
223.635	-25.31
223.869	-12.31
224.104	-28.31
224.338	-10.31
224.573	-16.31
224.808	-13.31
225.042	-4.31
225.277	0.69
225.511	-12.31
225.746	2.69
225.98	3.69
226.215	16.69
226.449	12.69
226.683	24.69
226.918	36.69
227.152	24.69
227.387	25.69
227.621	50.69
227.856	40.69
228.09	46.69
228.324	47.69
228.559	58.69
228.793	61.69
229.027	76.69
229.262	66.69
229.496	64.69
229.73	65.69
229.964	76.69
230.199	76.69
230.433	65.69
230.667	83.69
230.901	80.69
231.136	76.69
231.37	79.69
231.604	80.69
231.838	75.69
232.072	91.69
232.306	88.69
232.541	78.69
232.775	86.69
233.009	71.69
233.243	81.69
233.477	88.69
233.711	73.69
233.945	87.69
234.179	67.69
234.413	70.69
234.647	84.69
234.881	73.69
235.115	67.69
235.349	75.69
235.583	75.69
235.817	74.69
236.051	88.69
236.285	90.69
236.519	73.69
236.753	56.69
236.987	76.69
237.221	70.69
237.455	63.69
237.689	73.69
237.922	82.69
238.156	87.69
238.39	57.69
238.624	81.69
238.858	74.69
239.091	67.69
239.325	65.69
239.559	71.69
239.793	85.69
240.027	70.69
240.26	75.69
240.494	90.69
240.728	70.69
240.961	73.69
241.195	82.69
241.429	75.69
241.662	77.69
241.896	83.69
242.13	61.69
242.363	81.69
242.597	83.69
242.83	84.69
243.064	81.69
243.298	84.69
243.531	58.69
243.765	65.69
243.998	78.69
244.232	85.69
244.465	73.69
244.699	86.69
244.932	77.69
245.166	75.69
245.399	83.69
245.633	77.69
245.866	85.69
246.099	81.69
246.333	77.69
246.566	74.69
246.8	84.69
247.033	89.69
247.266	79.69
247.5	81.69
247.733	89.69
247.966	86.69
248.2	74.69
248.433	88.69
248.666	84.69
248.899	87.69
249.133	73.69
249.366	76.69
249.599	87.69
249.832	74.69
250.066	83.69
250.299	78.69
250.532	90.69
250.765	85.69
250.998	76.69
251.231	83.69
251.465	77.69
251.698	71.69
251.931	71.69
252.164	77.69
252.397	76.69
252.63	90.69
252.863	74.69
253.096	89.69
253.329	67.69
253.562	63.69
253.795	83.69
254.028	73.69
254.261	81.69
254.494	83.69
254.727	83.69
254.96	80.69
255.193	90.69
255.426	84.69
255.659	101.69
255.892	89.69
256.124	77.69
256.357	72.69
256.59	73.69
256.823	73.69
257.056	82.69
257.289	87.69
257.521	81.69
257.754	88.69
257.987	73.69
258.22	77.69
258.452	74.69
258.685	85.69
258.918	65.69
259.151	86.69
259.383	67.69
259.616	74.69
259.849	91.69
260.081	84.69
260.314	75.69
260.547	87.69
260.779	83.69
261.012	82.69
261.244	91.69
261.477	92.69
261.71	76.69
261.942	80.69
262.175	67.69
262.407	74.69
262.64	66.69
262.872	85.69
263.105	74.69
263.337	98.69
263.57	92.69
263.802	94.69
264.035	81.69
264.267	76.69
264.499	91.69
264.732	92.69
264.964	73.69
265.197	95.69
265.429	78.69
265.661	75.69
265.894	89.69
266.126	83.69
266.358	76.69
266.591	67.69
266.823	100.69
267.055	72.69
267.287	81.69
267.52	100.69
267.752	87.69
267.984	89.69
268.216	84.69
268.448	69.69
268.681	82.69
268.913	71.69
269.145	77.69
269.377	73.69
269.609	80.69
269.841	73.69
270.073	79.69
270.306	85.69
270.538	87.69
270.77	71.69
271.002	91.69
271.234	85.69
271.466	92.69
271.698	83.69
271.93	85.69
272.162	92.69
272.394	108.69
272.626	91.69
272.858	92.69
273.09	80.69
273.322	87.69
273.553	68.69
273.785	83.69
274.017	80.69
274.249	85.69
274.481	96.69
274.713	97.69
274.945	75.69
275.176	72.69
275.408	95.69
275.64	93.69
275.872	84.69
276.104	92.69
276.335	83.69
276.567	75.69
276.799	91.69
277.031	70.69
277.262	76.69
277.494	94.69
277.726	81.69
277.957	83.69
278.189	70.69
278.421	81.69
278.652	76.69
278.884	81.69
279.115	100.69
279.347	67.69
279.579	70.69
279.81	84.69
280.042	83.69
280.273	82.69
280.505	94.69
280.736	75.69
280.968	78.69
281.199	89.69
281.431	80.69
281.662	71.69
281.894	83.69
282.125	77.69
282.356	98.69
282.588	76.69
282.819	88.69
283.051	76.69
283.282	85.69
283.513	91.69
283.745	84.69
283.976	83.69
284.207	87.69
284.439	74.69
284.67	95.69
284.901	93.69
285.132	73.69
285.364	97.69
285.595	101.69
285.826	82.69
286.057	88.69
286.288	82.69
286.52	82.69
286.751	81.69
286.982	88.69
287.213	80.69
287.444	78.69
287.675	86.69
287.906	84.69
288.138	71.69
288.369	76.69
288.6	86.69
288.831	84.69
289.062	91.69
289.293	88.69
289.524	76.69
289.755	73.69
289.986	87.69
290.217	71.69
290.448	86.69
290.679	84.69
290.91	85.69
291.141	93.69
291.371	85.69
291.602	99.69
291.833	82.69
292.064	74.69
292.295	89.69
292.526	87.69
292.757	101.69
292.987	78.69
293.218	92.69
293.449	85.69
293.68	76.69
293.91	91.69
294.141	85.69
294.372	84.69
294.603	88.69
294.833	73.69
295.064	85.69
295.295	95.69
295.525	77.69
295.756	86.69
295.987	85.69
296.217	81.69
296.448	87.69
296.679	80.69
296.909	60.69
297.14	83.69
297.37	81.69
297.601	78.69
297.831	82.69
298.062	72.69
298.292	77.69
298.523	102.69
298.753	74.69
298.984	87.69
299.214	81.69
299.445	77.69
299.675	97.69
299.905	99.69
300.136	85.69
300.366	83.69
300.597	94.69
300.827	91.69
301.057	87.69
301.288	95.69
301.518	101.69
301.748	84.69
301.979	101.69
302.209	86.69
302.439	87.69
302.669	83.69
302.9	83.69
303.13	83.69
303.36	86.69
303.59	74.69
303.82	80.69
304.051	77.69
304.281	80.69
304.511	91.69
304.741	75.69
304.971	75.69
305.201	90.69
305.431	84.69
305.661	99.69
305.891	91.69
306.121	84.69
306.352	86.69
306.582	92.69
306.812	92.69
307.042	88.69
307.272	75.69
307.502	83.69
307.731	74.69
307.961	96.69
308.191	93.69
308.421	95.69
308.651	99.69
308.881	101.69
309.111	82.69
309.341	96.69
309.571	103.69
309.8	100.69
310.03	81.69
310.26	80.69
310.49	80.69
310.72	93.69
310.949	85.69
311.179	91.69
311.409	73.69
311.639	81.69
311.868	75.69
312.098	88.69
312.328	85.69
312.557	90.69
312.787	67.69
313.017	89.69
313.246	67.69
313.476	73.69
313.706	82.69
313.935	88.69
314.165	76.69
314.394	95.69
314.624	95.69
314.853	90.69
315.083	94.69
315.312	87.69
315.542	86.69
315.771	96.69
316.001	95.69
316.23	70.69
316.46	93.69
316.689	89.69
316.919	82.69
317.148	90.69
317.377	82.69
317.607	88.69
317.836	79.69
318.065	95.69
318.295	91.69
318.524	86.69
318.753	85.69
318.983	85.69
319.212	90.69
319.441	95.69
319.67	99.69
319.9	102.69
320.129	81.69
320.358	92.69
320.587	89.69
320.816	86.69
321.046	90.69
321.275	92.69
321.504	97.69
321.733	99.69
321.962	94.69
322.191	84.69
322.42	89.69
322.649	91.69
322.878	101.69
323.108	85.69
323.337	83.69
323.566	81.69
323.795	89.69
324.024	84.69
324.253	81.69
324.482	88.69
324.71	90.69
324.939	83.69
325.168	85.69
325.397	87.69
325.626	81.69
325.855	81.69
326.084	90.69
326.313	85.69
326.542	83.69
326.77	91.69
326.999	75.69
327.228	81.69
327.457	105.69
327.686	96.69
327.914	87.69
328.143	84.69
328.372	91.69
328.6	76.69
328.829	95.69
329.058	87.69
329.287	81.69
329.515	90.69
329.744	93.69
329.972	96.69
330.201	87.69
330.43	89.69
330.658	77.69
330.887	97.69
331.115	83.69
331.344	87.69
331.572	97.69
331.801	90.69
332.03	95.69
332.258	91.69
332.486	93.69
332.715	76.69
332.943	92.69
333.172	85.69
333.4	80.69
333.629	87.69
333.857	94.69
334.085	87.69
334.314	74.69
334.542	77.69
334.771	79.69
334.999	92.69
335.227	89.69
335.455	87.69
335.684	89.69
335.912	94.69
336.14	77.69
336.369	86.69
336.597	83.69
336.825	90.69
337.053	83.69
337.281	78.69
337.51	86.69
337.738	93.69
337.966	75.69
338.194	91.69
338.422	89.69
338.65	87.69
338.878	70.69
339.106	85.69
339.334	76.69
339.562	87.69
339.79	81.69
340.018	96.69
340.246	87.69
340.474	83.69
340.702	84.69
340.93	89.69
341.158	89.69
341.386	87.69
341.614	80.69
341.842	79.69
342.07	88.69
342.298	88.69
342.526	77.69
342.754	76.69
342.981	102.69
343.209	97.69
343.437	94.69
343.665	97.69
343.893	91.69
344.12	105.69
344.348	93.69
344.576	102.69
344.804	93.69
345.031	82.69
345.259	101.69
345.487	79.69
345.714	87.69
345.942	77.69
346.17	86.69
346.397	92.69
346.625	87.69
346.853	89.69
347.08	89.69
347.308	90.69
347.535	87.69
347.763	78.69
347.99	90.69
348.218	79.69
348.445	88.69
348.673	101.69
348.9	81.69
349.128	87.69
349.355	81.69
349.583	86.69
349.81	85.69
350.037	92.69
350.265	89.69
350.492	87.69
350.72	83.69
350.947	76.69
351.174	92.69
351.402	74.69
351.629	85.69
351.856	73.69
352.083	83.69
352.311	99.69
352.538	95.69
352.765	86.69
352.992	90.69
353.22	85.69
353.447	89.69
353.674	89.69
353.901	88.69
354.128	81.69
354.355	90.69
354.583	89.69
354.81	81.69
355.037	78.69
355.264	90.69
355.491	86.69
355.718	77.69
355.945	83.69
356.172	85.69
356.399	78.69
356.626	74.69
356.853	75.69
357.08	81.69
357.307	105.69
357.534	89.69
357.761	86.69
357.988	91.69
358.215	87.69
358.441	83.69
358.668	90.69
358.895	69.69
359.122	90.69
359.349	85.69
359.576	73.69
359.802	95.69
360.029	98.69
360.256	71.69
360.483	83.69
360.709	82.69
360.936	100.69
361.163	84.69
361.39	81.69
361.616	85.69
361.843	72.69
362.07	83.69
362.296	85.69
362.523	104.69
362.749	95.69
362.976	111.69
363.203	123.69
363.429	91.69
363.656	81.69
363.882	81.69
364.109	104.69
364.335	100.69
364.562	112.69
364.788	97.69
365.015	89.69
365.241	75.69
365.468	83.69
365.694	77.69
365.92	87.69
366.147	97.69
366.373	85.69
366.599	85.69
366.826	95.69
367.052	82.69
367.278	87.69
367.505	87.69
367.731	89.69
367.957	87.69
368.184	96.69
368.41	95.69
368.636	95.69
368.862	89.69
369.089	85.69
369.315	76.69
369.541	73.69
369.767	74.69
369.993	80.69
370.219	77.69
370.445	81.69
370.672	81.69
370.898	90.69
371.124	80.69
371.35	94.69
371.576	65.69
371.802	77.69
372.028	91.69
372.254	88.69
372.48	86.69
372.706	99.69
372.932	94.69
373.158	85.69
373.384	87.69
373.61	95.69
373.835	95.69
374.061	80.69
374.287	90.69
374.513	82.69
374.739	85.69
374.965	75.69
375.191	81.69
375.416	85.69
375.642	89.69
375.868	88.69
376.094	91.69
376.319	83.69
376.545	93.69
376.771	93.69
376.997	81.69
377.222	77.69
377.448	91.69
377.674	92.69
377.899	76.69
378.125	88.69
378.35	80.69
378.576	94.69
378.802	88.69
379.027	99.69
379.253	107.69
379.478	106.69
379.704	83.69
379.929	94.69
380.155	81.69
380.38	86.69
380.606	87.69
380.831	85.69
381.057	87.69
381.282	91.69
381.507	83.69
381.733	81.69
381.958	98.69
382.184	92.69
382.409	93.69
382.634	99.69
382.86	91.69
383.085	100.69
383.31	77.69
383.535	100.69
383.761	87.69
383.986	102.69
384.211	92.69
384.436	80.69
384.662	85.69
384.887	85.69
385.112	88.69
385.337	94.69
385.562	85.69
385.787	78.69
386.013	89.69
386.238	81.69
386.463	89.69
386.688	97.69
386.913	85.69
387.138	92.69
387.363	110.69
387.588	83.69
387.813	82.69
388.038	87.69
388.263	94.69
388.488	84.69
388.713	87.69
388.938	96.69
389.163	73.69
389.387	88.69
389.612	88.69
389.837	77.69
390.062	98.69
390.287	89.69
390.512	76.69
390.736	81.69
390.961	86.69
391.186	95.69
391.411	91.69
391.636	84.69
391.86	76.69
392.085	88.69
392.31	106.69
392.534	98.69
392.759	102.69
392.984	152.69
393.208	211.69
393.433	297.69
393.658	243.69
393.882	105.69
394.107	103.69
394.331	107.69
394.556	117.69
394.78	86.69
395.005	93.69
395.229	91.69
395.454	89.69
395.678	92.69
395.903	101.69
396.127	117.69
396.352	136.69
396.576	141.69
396.801	229.69
397.025	244.69
397.249	157.69
397.474	111.69
397.698	98.69
397.922	81.69
398.147	81.69
398.371	103.69
398.595	85.69
398.82	90.69
399.044	81.69
399.268	103.69
399.492	90.69
399.717	91.69
399.941	85.69
400.165	80.69
400.389	76.69
400.613	89.69
400.837	80.69
401.062	89.69
401.286	86.69
401.51	98.69
401.734	80.69
401.958	81.69
402.182	86.69
402.406	91.69
402.63	77.69
402.854	84.69
403.078	83.69
403.302	68.69
403.526	88.69
403.75	90.69
403.974	107.69
404.198	116.69
404.422	149.69
404.645	167.69
404.869	166.69
405.093	104.69
405.317	96.69
405.541	92.69
405.765	78.69
405.988	76.69
406.212	91.69
406.436	89.69
406.66	85.69
406.883	89.69
407.107	81.69
407.331	104.69
407.555	98.69
407.778	127.69
408.002	107.69
408.226	95.69
408.449	81.69
408.673	77.69
408.896	68.69
409.12	85.69
409.344	98.69
409.567	91.69
409.791	95.69
410.014	103.69
410.238	95.69
410.461	75.69
410.685	87.69
410.908	101.69
411.132	87.69
411.355	77.69
411.578	77.69
411.802	83.69
412.025	98.69
412.249	75.69
412.472	72.69
412.695	83.69
412.919	78.69
413.142	77.69
413.365	93.69
413.589	88.69
413.812	87.69
414.035	85.69
414.258	85.69
414.482	79.69
414.705	87.69
414.928	73.69
415.151	72.69
415.374	85.69
415.597	83.69
415.821	86.69
416.044	79.69
416.267	90.69
416.49	86.69
416.713	85.69
416.936	85.69
417.159	72.69
417.382	86.69
417.605	81.69
417.828	85.69
418.051	78.69
418.274	92.69
418.497	85.69
418.72	88.69
418.943	79.69
419.166	81.69
419.389	91.69
419.611	92.69
419.834	103.69
420.057	89.69
420.28	90.69
420.503	83.69
420.726	78.69
420.948	90.69
421.171	98.69
421.394	117.69
421.617	108.69
421.839	121.69
422.062	127.69
422.285	171.69
422.507	297.69
422.73	431.69
422.953	403.69
423.175	223.69
423.398	140.69
423.621	108.69
423.843	90.69
424.066	96.69
424.288	79.69
424.511	83.69
424.733	83.69
424.956	73.69
425.178	70.69
425.401	82.69
425.623	90.69
425.846	80.69
426.068	102.69
426.291	77.69
426.513	93.69
426.735	90.69
426.958	98.69
427.18	93.69
427.402	77.69
427.625	89.69
427.847	84.69
428.069	98.69
428.292	125.69
428.514	134.69
428.736	111.69
428.958	124.69
429.181	131.69
429.403	109.69
429.625	84.69
429.847	128.69
430.069	189.69
430.292	200.69
430.514	185.69
430.736	143.69
430.958	132.69
431.18	102.69
431.402	113.69
431.624	93.69
431.846	113.69
432.068	133.69
432.29	89.69
432.512	99.69
432.734	83.69
432.956	86.69
433.178	71.69
433.4	85.69
433.622	76.69
433.844	83.69
434.066	78.69
434.287	83.69
434.509	95.69
434.731	93.69
434.953	63.69
435.175	79.69
435.397	78.69
435.618	91.69
435.84	77.69
436.062	83.69
436.284	90.69
436.505	87.69
436.727	89.69
436.949	74.69
437.17	81.69
437.392	81.69
437.614	91.69
437.835	91.69
438.057	84.69
438.278	80.69
438.5	80.69
438.721	89.69
438.943	87.69
439.165	91.69
439.386	87.69
439.608	83.69
439.829	80.69
440.05	87.69
440.272	68.69
440.493	79.69
440.715	93.69
440.936	90.69
441.158	91.69
441.379	78.69
441.6	87.69
441.822	100.69
442.043	87.69
442.264	97.69
442.486	133.69
442.707	171.69
442.928	117.69
443.149	114.69
443.371	169.69
443.592	257.69
443.813	217.69
444.034	113.69
444.255	87.69
444.476	82.69
444.698	96.69
444.919	102.69
445.14	207.69
445.361	218.69
445.582	318.69
445.803	244.69
446.024	124.69
446.245	97.69
446.466	84.69
446.687	89.69
446.908	83.69
447.129	88.69
447.35	69.69
447.571	81.69
447.792	81.69
448.013	81.69
448.234	96.69
448.455	96.69
448.675	83.69
448.896	78.69
449.117	85.69
449.338	84.69
449.559	98.69
449.779	98.69
450	87.69
450.221	89.69
450.442	74.69
450.662	68.69
450.883	83.69
451.104	89.69
451.324	78.69
451.545	71.69
451.766	88.69
451.986	85.69
452.207	92.69
452.428	76.69
452.648	96.69
452.869	97.69
453.089	87.69
453.31	106.69
453.53	77.69
453.751	85.69
453.971	103.69
454.192	83.69
454.412	98.69
454.633	90.69
454.853	63.69
455.073	81.69
455.294	73.69
455.514	77.69
455.734	91.69
455.955	92.69
456.175	96.69
456.395	95.69
456.616	76.69
456.836	83.69
457.056	99.69
457.276	82.69
457.497	87.69
457.717	91.69
457.937	96.69
458.157	115.69
458.377	105.69
458.598	105.69
458.818	120.69
459.038	83.69
459.258	81.69
459.478	100.69
459.698	84.69
459.918	97.69
460.138	89.69
460.358	106.69
460.578	103.69
460.798	143.69
461.018	121.69
461.238	97.69
461.458	84.69
461.678	73.69
461.898	81.69
462.118	85.69
462.338	88.69
462.558	85.69
462.777	87.69
462.997	83.69
463.217	74.69
463.437	73.69
463.657	85.69
463.876	81.69
464.096	83.69
464.316	85.69
464.536	85.69
464.755	90.69
464.975	60.69
465.195	99.69
465.414	65.69
465.634	72.69
465.854	89.69
466.073	75.69
466.293	79.69
466.512	99.69
466.732	78.69
466.951	86.69
467.171	64.69
467.391	87.69
467.61	67.69
467.829	77.69
468.049	98.69
468.268	97.69
468.488	68.69
468.707	81.69
468.927	79.69
469.146	73.69
469.365	93.69
469.585	77.69
469.804	88.69
470.023	76.69
470.243	91.69
470.462	67.69
470.681	81.69
470.901	85.69
471.12	84.69
471.339	91.69
471.558	73.69
471.777	83.69
471.997	77.69
472.216	78.69
472.435	83.69
472.654	107.69
472.873	89.69
473.092	91.69
473.311	84.69
473.53	91.69
473.749	103.69
473.968	89.69
474.187	75.69
474.406	93.69
474.625	91.69
474.844	97.69
475.063	76.69
475.282	74.69
475.501	84.69
475.72	88.69
475.939	87.69
476.158	80.69
476.377	81.69
476.596	78.69
476.814	70.69
477.033	87.69
477.252	86.69
477.471	85.69
477.69	85.69
477.908	70.69
478.127	76.69
478.346	81.69
478.564	91.69
478.783	76.69
479.002	87.69
479.22	79.69
479.439	74.69
479.658	76.69
479.876	78.69
480.095	91.69
480.313	72.69
480.532	98.69
480.751	80.69
480.969	85.69
481.188	97.69
481.406	82.69
481.624	85.69
481.843	89.69
482.061	80.69
482.28	77.69
482.498	87.69
482.717	84.69
482.935	104.69
483.153	103.69
483.372	87.69
483.59	87.69
483.808	96.69
484.027	98.69
484.245	81.69
484.463	85.69
484.681	101.69
484.9	89.69
485.118	92.69
485.336	84.69
485.554	96.69
485.772	89.69
485.99	89.69
486.209	93.69
486.427	79.69
486.645	79.69
486.863	103.69
487.081	76.69
487.299	92.69
487.517	99.69
487.735	102.69
487.953	143.69
488.171	130.69
488.389	102.69
488.607	85.69
488.825	81.69
489.043	88.69
489.261	92.69
489.479	92.69
489.696	99.69
489.914	75.69
490.132	91.69
490.35	100.69
490.568	98.69
490.786	89.69
491.003	87.69
491.221	84.69
491.439	91.69
491.657	84.69
491.874	92.69
492.092	97.69
492.31	103.69
492.527	70.69
492.745	80.69
492.963	91.69
493.18	83.69
493.398	97.69
493.615	86.69
493.833	99.69
494.05	99.69
494.268	88.69
494.485	81.69
494.703	102.69
494.92	82.69
495.138	97.69
495.355	93.69
495.573	95.69
495.79	95.69
496.008	87.69
496.225	95.69
496.442	100.69
496.66	91.69
496.877	81.69
497.094	101.69
497.312	113.69
497.529	83.69
497.746	100.69
497.963	87.69
498.181	83.69
498.398	95.69
498.615	84.69
498.832	77.69
499.049	86.69
499.267	90.69
499.484	91.69
499.701	95.69
499.918	82.69
500.135	103.69
500.352	92.69
500.569	86.69
500.786	90.69
501.003	99.69
501.22	88.69
501.437	86.69
501.654	103.69
501.871	91.69
502.088	83.69
502.305	88.69
502.522	101.69
502.739	83.69
502.956	88.69
503.172	85.69
503.389	89.69
503.606	79.69
503.823	77.69
504.04	90.69
504.256	102.69
504.473	115.69
504.69	99.69
504.907	105.69
505.123	93.69
505.34	96.69
505.557	97.69
505.773	85.69
505.99	85.69
506.207	86.69
506.423	93.69
506.64	88.69
506.856	86.69
507.073	100.69
507.289	85.69
507.506	97.69
507.722	91.69
507.939	103.69
508.155	84.69
508.372	80.69
508.588	84.69
508.805	85.69
509.021	89.69
509.238	90.69
509.454	80.69
509.67	89.69
509.887	100.69
510.103	97.69
510.319	95.69
510.536	85.69
510.752	95.69
510.968	84.69
511.184	91.69
511.401	102.69
511.617	89.69
511.833	80.69
512.049	84.69
512.265	80.69
512.481	88.69
512.698	78.69
512.914	89.69
513.13	65.69
513.346	87.69
513.562	83.69
513.778	89.69
513.994	89.69
514.21	81.69
514.426	87.69
514.642	94.69
514.858	83.69
515.074	89.69
515.29	89.69
515.506	81.69
515.721	76.69
515.937	74.69
516.153	92.69
516.369	92.69
516.585	89.69
516.801	92.69
517.016	76.69
517.232	103.69
517.448	93.69
517.664	92.69
517.879	95.69
518.095	89.69
