Data from 2145_1_HRD10591_00050.txt Node
Date: Mon Jan 19 14:21:34 EST 2026
User: Yrep
Spectrometer: HR+D1059
Trigger mode: 1
Integration Time (sec): 1.000000E-1
Scans to average: 1
Electric dark correction enabled: true
Nonlinearity correction enabled: false
Boxcar width: 0
XAxis mode: Wavelengths
Number of Pixels in Spectrum: 2048
>>>>>Begin Spectral Data<<<<<
223.165	-16.19
223.4	-16.19
223.635	-16.19
223.869	-6.19
224.104	-21.19
224.338	-27.19
224.573	-18.19
224.808	-9.19
225.042	-18.19
225.277	1.81
225.511	-7.19
225.746	4.81
225.98	5.81
226.215	7.81
226.449	8.81
226.683	31.81
226.918	35.81
227.152	26.81
227.387	32.81
227.621	48.81
227.856	38.81
228.09	42.81
228.324	41.81
228.559	56.81
228.793	53.81
229.027	53.81
229.262	50.81
229.496	63.81
229.73	73.81
229.964	71.81
230.199	70.81
230.433	75.81
230.667	85.81
230.901	76.81
231.136	60.81
231.37	67.81
231.604	85.81
231.838	76.81
232.072	78.81
232.306	90.81
232.541	88.81
232.775	87.81
233.009	73.81
233.243	59.81
233.477	77.81
233.711	72.81
233.945	72.81
234.179	77.81
234.413	67.81
234.647	69.81
234.881	83.81
235.115	76.81
235.349	67.81
235.583	83.81
235.817	92.81
236.051	69.81
236.285	69.81
236.519	73.81
236.753	67.81
236.987	83.81
237.221	83.81
237.455	71.81
237.689	64.81
237.922	73.81
238.156	79.81
238.39	71.81
238.624	74.81
238.858	67.81
239.091	75.81
239.325	87.81
239.559	67.81
239.793	78.81
240.027	75.81
240.26	70.81
240.494	91.81
240.728	90.81
240.961	67.81
241.195	82.81
241.429	78.81
241.662	84.81
241.896	80.81
242.13	65.81
242.363	74.81
242.597	86.81
242.83	75.81
243.064	74.81
243.298	71.81
243.531	62.81
243.765	80.81
243.998	64.81
244.232	78.81
244.465	75.81
244.699	65.81
244.932	86.81
245.166	65.81
245.399	79.81
245.633	84.81
245.866	79.81
246.099	85.81
246.333	81.81
246.566	81.81
246.8	81.81
247.033	83.81
247.266	56.81
247.5	76.81
247.733	78.81
247.966	84.81
248.2	69.81
248.433	79.81
248.666	79.81
248.899	90.81
249.133	87.81
249.366	90.81
249.599	86.81
249.832	74.81
250.066	73.81
250.299	83.81
250.532	72.81
250.765	71.81
250.998	61.81
251.231	99.81
251.465	66.81
251.698	72.81
251.931	76.81
252.164	73.81
252.397	69.81
252.63	68.81
252.863	82.81
253.096	71.81
253.329	83.81
253.562	71.81
253.795	83.81
254.028	67.81
254.261	71.81
254.494	67.81
254.727	68.81
254.96	76.81
255.193	84.81
255.426	79.81
255.659	72.81
255.892	71.81
256.124	78.81
256.357	73.81
256.59	78.81
256.823	58.81
257.056	79.81
257.289	77.81
257.521	84.81
257.754	80.81
257.987	67.81
258.22	80.81
258.452	79.81
258.685	86.81
258.918	58.81
259.151	82.81
259.383	83.81
259.616	77.81
259.849	84.81
260.081	75.81
260.314	77.81
260.547	79.81
260.779	73.81
261.012	74.81
261.244	74.81
261.477	69.81
261.71	82.81
261.942	70.81
262.175	64.81
262.407	67.81
262.64	89.81
262.872	74.81
263.105	79.81
263.337	83.81
263.57	68.81
263.802	85.81
264.035	106.81
264.267	87.81
264.499	90.81
264.732	97.81
264.964	79.81
265.197	80.81
265.429	74.81
265.661	80.81
265.894	70.81
266.126	79.81
266.358	72.81
266.591	77.81
266.823	76.81
267.055	82.81
267.287	88.81
267.52	70.81
267.752	77.81
267.984	75.81
268.216	87.81
268.448	93.81
268.681	96.81
268.913	89.81
269.145	84.81
269.377	90.81
269.609	82.81
269.841	89.81
270.073	84.81
270.306	81.81
270.538	75.81
270.77	83.81
271.002	77.81
271.234	84.81
271.466	79.81
271.698	93.81
271.93	71.81
272.162	79.81
272.394	94.81
272.626	68.81
272.858	75.81
273.09	87.81
273.322	86.81
273.553	91.81
273.785	77.81
274.017	78.81
274.249	79.81
274.481	72.81
274.713	77.81
274.945	65.81
275.176	86.81
275.408	74.81
275.64	72.81
275.872	67.81
276.104	77.81
276.335	67.81
276.567	79.81
276.799	79.81
277.031	64.81
277.262	70.81
277.494	89.81
277.726	77.81
277.957	80.81
278.189	75.81
278.421	76.81
278.652	75.81
278.884	82.81
279.115	80.81
279.347	83.81
279.579	71.81
279.81	79.81
280.042	81.81
280.273	82.81
280.505	79.81
280.736	89.81
280.968	82.81
281.199	76.81
281.431	77.81
281.662	76.81
281.894	91.81
282.125	73.81
282.356	74.81
282.588	76.81
282.819	85.81
283.051	84.81
283.282	82.81
283.513	88.81
283.745	79.81
283.976	66.81
284.207	81.81
284.439	63.81
284.67	95.81
284.901	81.81
285.132	72.81
285.364	95.81
285.595	78.81
285.826	95.81
286.057	78.81
286.288	81.81
286.52	74.81
286.751	75.81
286.982	85.81
287.213	88.81
287.444	85.81
287.675	86.81
287.906	89.81
288.138	74.81
288.369	87.81
288.6	88.81
288.831	87.81
289.062	79.81
289.293	81.81
289.524	86.81
289.755	79.81
289.986	89.81
290.217	88.81
290.448	89.81
290.679	82.81
290.91	98.81
291.141	94.81
291.371	77.81
291.602	77.81
291.833	74.81
292.064	85.81
292.295	73.81
292.526	71.81
292.757	72.81
292.987	83.81
293.218	85.81
293.449	100.81
293.68	90.81
293.91	73.81
294.141	70.81
294.372	78.81
294.603	87.81
294.833	82.81
295.064	83.81
295.295	79.81
295.525	82.81
295.756	94.81
295.987	82.81
296.217	82.81
296.448	74.81
296.679	85.81
296.909	85.81
297.14	91.81
297.37	75.81
297.601	63.81
297.831	81.81
298.062	90.81
298.292	88.81
298.523	102.81
298.753	78.81
298.984	85.81
299.214	72.81
299.445	86.81
299.675	90.81
299.905	83.81
300.136	70.81
300.366	83.81
300.597	88.81
300.827	85.81
301.057	74.81
301.288	95.81
301.518	86.81
301.748	84.81
301.979	100.81
302.209	93.81
302.439	102.81
302.669	97.81
302.9	95.81
303.13	84.81
303.36	90.81
303.59	83.81
303.82	77.81
304.051	67.81
304.281	78.81
304.511	109.81
304.741	82.81
304.971	87.81
305.201	81.81
305.431	83.81
305.661	81.81
305.891	80.81
306.121	90.81
306.352	84.81
306.582	74.81
306.812	77.81
307.042	87.81
307.272	75.81
307.502	73.81
307.731	82.81
307.961	75.81
308.191	79.81
308.421	85.81
308.651	83.81
308.881	98.81
309.111	75.81
309.341	85.81
309.571	77.81
309.8	71.81
310.03	91.81
310.26	82.81
310.49	89.81
310.72	72.81
310.949	87.81
311.179	86.81
311.409	74.81
311.639	82.81
311.868	90.81
312.098	79.81
312.328	85.81
312.557	75.81
312.787	81.81
313.017	87.81
313.246	76.81
313.476	87.81
313.706	82.81
313.935	76.81
314.165	95.81
314.394	72.81
314.624	73.81
314.853	72.81
315.083	84.81
315.312	83.81
315.542	81.81
315.771	87.81
316.001	86.81
316.23	97.81
316.46	66.81
316.689	81.81
316.919	93.81
317.148	90.81
317.377	102.81
317.607	81.81
317.836	79.81
318.065	81.81
318.295	97.81
318.524	91.81
318.753	93.81
318.983	94.81
319.212	74.81
319.441	74.81
319.67	93.81
319.9	88.81
320.129	58.81
320.358	86.81
320.587	83.81
320.816	91.81
321.046	82.81
321.275	86.81
321.504	89.81
321.733	87.81
321.962	89.81
322.191	77.81
322.42	79.81
322.649	86.81
322.878	87.81
323.108	91.81
323.337	87.81
323.566	87.81
323.795	90.81
324.024	82.81
324.253	74.81
324.482	75.81
324.71	90.81
324.939	81.81
325.168	82.81
325.397	93.81
325.626	77.81
325.855	82.81
326.084	95.81
326.313	91.81
326.542	85.81
326.77	84.81
326.999	85.81
327.228	92.81
327.457	83.81
327.686	83.81
327.914	95.81
328.143	90.81
328.372	87.81
328.6	82.81
328.829	82.81
329.058	83.81
329.287	85.81
329.515	79.81
329.744	86.81
329.972	95.81
330.201	79.81
330.43	86.81
330.658	81.81
330.887	94.81
331.115	89.81
331.344	79.81
331.572	86.81
331.801	83.81
332.03	90.81
332.258	89.81
332.486	85.81
332.715	82.81
332.943	76.81
333.172	75.81
333.4	79.81
333.629	97.81
333.857	87.81
334.085	92.81
334.314	90.81
334.542	84.81
334.771	92.81
334.999	82.81
335.227	87.81
335.455	89.81
335.684	81.81
335.912	82.81
336.14	79.81
336.369	86.81
336.597	88.81
336.825	79.81
337.053	81.81
337.281	96.81
337.51	85.81
337.738	89.81
337.966	78.81
338.194	99.81
338.422	97.81
338.65	72.81
338.878	82.81
339.106	88.81
339.334	85.81
339.562	75.81
339.79	80.81
340.018	90.81
340.246	85.81
340.474	84.81
340.702	76.81
340.93	80.81
341.158	64.81
341.386	79.81
341.614	75.81
341.842	89.81
342.07	85.81
342.298	71.81
342.526	77.81
342.754	82.81
342.981	83.81
343.209	96.81
343.437	99.81
343.665	82.81
343.893	84.81
344.12	84.81
344.348	94.81
344.576	77.81
344.804	99.81
345.031	69.81
345.259	83.81
345.487	72.81
345.714	77.81
345.942	94.81
346.17	83.81
346.397	85.81
346.625	84.81
346.853	75.81
347.08	91.81
347.308	74.81
347.535	79.81
347.763	79.81
347.99	89.81
348.218	83.81
348.445	86.81
348.673	77.81
348.9	91.81
349.128	93.81
349.355	87.81
349.583	82.81
349.81	71.81
350.037	77.81
350.265	81.81
350.492	77.81
350.72	82.81
350.947	81.81
351.174	83.81
351.402	81.81
351.629	83.81
351.856	80.81
352.083	81.81
352.311	86.81
352.538	67.81
352.765	91.81
352.992	99.81
353.22	75.81
353.447	78.81
353.674	71.81
353.901	75.81
354.128	82.81
354.355	84.81
354.583	85.81
354.81	89.81
355.037	84.81
355.264	85.81
355.491	74.81
355.718	76.81
355.945	89.81
356.172	69.81
356.399	86.81
356.626	75.81
356.853	90.81
357.08	90.81
357.307	94.81
357.534	83.81
357.761	97.81
357.988	87.81
358.215	82.81
358.441	91.81
358.668	102.81
358.895	83.81
359.122	85.81
359.349	88.81
359.576	77.81
359.802	91.81
360.029	83.81
360.256	83.81
360.483	86.81
360.709	83.81
360.936	75.81
361.163	87.81
361.39	85.81
361.616	79.81
361.843	87.81
362.07	88.81
362.296	96.81
362.523	95.81
362.749	89.81
362.976	87.81
363.203	99.81
363.429	97.81
363.656	83.81
363.882	74.81
364.109	93.81
364.335	116.81
364.562	103.81
364.788	90.81
365.015	75.81
365.241	94.81
365.468	83.81
365.694	72.81
365.92	88.81
366.147	96.81
366.373	86.81
366.599	94.81
366.826	87.81
367.052	74.81
367.278	92.81
367.505	73.81
367.731	76.81
367.957	82.81
368.184	85.81
368.41	77.81
368.636	89.81
368.862	87.81
369.089	86.81
369.315	55.81
369.541	83.81
369.767	78.81
369.993	82.81
370.219	76.81
370.445	89.81
370.672	76.81
370.898	73.81
371.124	81.81
371.35	81.81
371.576	71.81
371.802	83.81
372.028	79.81
372.254	83.81
372.48	77.81
372.706	87.81
372.932	76.81
373.158	77.81
373.384	94.81
373.61	93.81
373.835	88.81
374.061	71.81
374.287	85.81
374.513	82.81
374.739	73.81
374.965	100.81
375.191	93.81
375.416	93.81
375.642	76.81
375.868	90.81
376.094	90.81
376.319	78.81
376.545	78.81
376.771	81.81
376.997	85.81
377.222	79.81
377.448	88.81
377.674	87.81
377.899	81.81
378.125	77.81
378.35	74.81
378.576	69.81
378.802	78.81
379.027	81.81
379.253	89.81
379.478	94.81
379.704	73.81
379.929	81.81
380.155	85.81
380.38	79.81
380.606	81.81
380.831	83.81
381.057	83.81
381.282	81.81
381.507	91.81
381.733	90.81
381.958	76.81
382.184	85.81
382.409	70.81
382.634	95.81
382.86	86.81
383.085	74.81
383.31	82.81
383.535	76.81
383.761	90.81
383.986	79.81
384.211	67.81
384.436	80.81
384.662	83.81
384.887	73.81
385.112	81.81
385.337	83.81
385.562	86.81
385.787	73.81
386.013	84.81
386.238	84.81
386.463	96.81
386.688	89.81
386.913	82.81
387.138	84.81
387.363	97.81
387.588	79.81
387.813	100.81
388.038	92.81
388.263	82.81
388.488	88.81
388.713	84.81
388.938	85.81
389.163	80.81
389.387	85.81
389.612	85.81
389.837	83.81
390.062	83.81
390.287	97.81
390.512	83.81
390.736	79.81
390.961	93.81
391.186	77.81
391.411	84.81
391.636	77.81
391.86	94.81
392.085	82.81
392.31	89.81
392.534	87.81
392.759	98.81
392.984	124.81
393.208	182.81
393.433	243.81
393.658	197.81
393.882	100.81
394.107	102.81
394.331	87.81
394.556	113.81
394.78	99.81
395.005	89.81
395.229	91.81
395.454	80.81
395.678	99.81
395.903	102.81
396.127	117.81
396.352	137.81
396.576	119.81
396.801	160.81
397.025	208.81
397.249	129.81
397.474	109.81
397.698	79.81
397.922	89.81
398.147	84.81
398.371	75.81
398.595	85.81
398.82	88.81
399.044	92.81
399.268	68.81
399.492	93.81
399.717	85.81
399.941	90.81
400.165	89.81
400.389	77.81
400.613	79.81
400.837	86.81
401.062	79.81
401.286	72.81
401.51	83.81
401.734	70.81
401.958	81.81
402.182	82.81
402.406	87.81
402.63	90.81
402.854	89.81
403.078	82.81
403.302	93.81
403.526	79.81
403.75	79.81
403.974	83.81
404.198	87.81
404.422	119.81
404.645	134.81
404.869	117.81
405.093	88.81
405.317	89.81
405.541	97.81
405.765	87.81
405.988	99.81
406.212	93.81
406.436	82.81
406.66	65.81
406.883	76.81
407.107	67.81
407.331	89.81
407.555	82.81
407.778	104.81
408.002	107.81
408.226	92.81
408.449	94.81
408.673	83.81
408.896	70.81
409.12	76.81
409.344	92.81
409.567	105.81
409.791	83.81
410.014	91.81
410.238	84.81
410.461	87.81
410.685	89.81
410.908	76.81
411.132	78.81
411.355	78.81
411.578	81.81
411.802	69.81
412.025	87.81
412.249	77.81
412.472	73.81
412.695	72.81
412.919	79.81
413.142	73.81
413.365	81.81
413.589	86.81
413.812	87.81
414.035	83.81
414.258	87.81
414.482	87.81
414.705	76.81
414.928	81.81
415.151	79.81
415.374	86.81
415.597	82.81
415.821	72.81
416.044	74.81
416.267	90.81
416.49	72.81
416.713	81.81
416.936	85.81
417.159	74.81
417.382	80.81
417.605	87.81
417.828	76.81
418.051	75.81
418.274	87.81
418.497	75.81
418.72	94.81
418.943	97.81
419.166	87.81
419.389	81.81
419.611	75.81
419.834	73.81
420.057	88.81
420.28	82.81
420.503	97.81
420.726	74.81
420.948	88.81
421.171	79.81
421.394	84.81
421.617	116.81
421.839	114.81
422.062	129.81
422.285	149.81
422.507	259.81
422.73	408.81
422.953	369.81
423.175	207.81
423.398	129.81
423.621	94.81
423.843	96.81
424.066	100.81
424.288	86.81
424.511	80.81
424.733	88.81
424.956	74.81
425.178	92.81
425.401	71.81
425.623	91.81
425.846	79.81
426.068	91.81
426.291	84.81
426.513	70.81
426.735	97.81
426.958	98.81
427.18	81.81
427.402	90.81
427.625	73.81
427.847	76.81
428.069	103.81
428.292	117.81
428.514	138.81
428.736	102.81
428.958	110.81
429.181	115.81
429.403	101.81
429.625	97.81
429.847	114.81
430.069	149.81
430.292	166.81
430.514	167.81
430.736	110.81
430.958	134.81
431.18	106.81
431.402	88.81
431.624	86.81
431.846	129.81
432.068	122.81
432.29	89.81
432.512	95.81
432.734	89.81
432.956	70.81
433.178	85.81
433.4	92.81
433.622	83.81
433.844	85.81
434.066	81.81
434.287	81.81
434.509	74.81
434.731	71.81
434.953	79.81
435.175	80.81
435.397	76.81
435.618	73.81
435.84	86.81
436.062	88.81
436.284	94.81
436.505	76.81
436.727	88.81
436.949	76.81
437.17	94.81
437.392	96.81
437.614	89.81
437.835	87.81
438.057	85.81
438.278	75.81
438.5	67.81
438.721	97.81
438.943	95.81
439.165	82.81
439.386	93.81
439.608	74.81
439.829	74.81
440.05	78.81
440.272	79.81
440.493	78.81
440.715	82.81
440.936	87.81
441.158	71.81
441.379	83.81
441.6	87.81
441.822	70.81
442.043	87.81
442.264	88.81
442.486	111.81
442.707	165.81
442.928	104.81
443.149	113.81
443.371	143.81
443.592	207.81
443.813	195.81
444.034	116.81
444.255	85.81
444.476	84.81
444.698	87.81
444.919	90.81
445.14	182.81
445.361	203.81
445.582	243.81
445.803	228.81
446.024	120.81
446.245	87.81
446.466	89.81
446.687	79.81
446.908	81.81
447.129	82.81
447.35	87.81
447.571	76.81
447.792	93.81
448.013	85.81
448.234	78.81
448.455	89.81
448.675	62.81
448.896	68.81
449.117	88.81
449.338	82.81
449.559	99.81
449.779	76.81
450	84.81
450.221	89.81
450.442	75.81
450.662	80.81
450.883	79.81
451.104	84.81
451.324	97.81
451.545	86.81
451.766	67.81
451.986	71.81
452.207	82.81
452.428	73.81
452.648	85.81
452.869	89.81
453.089	90.81
453.31	91.81
453.53	86.81
453.751	86.81
453.971	96.81
454.192	70.81
454.412	83.81
454.633	75.81
454.853	87.81
455.073	66.81
455.294	67.81
455.514	81.81
455.734	69.81
455.955	70.81
456.175	77.81
456.395	87.81
456.616	87.81
456.836	87.81
457.056	85.81
457.276	82.81
457.497	72.81
457.717	88.81
457.937	80.81
458.157	105.81
458.377	112.81
458.598	100.81
458.818	113.81
459.038	97.81
459.258	87.81
459.478	75.81
459.698	81.81
459.918	76.81
460.138	71.81
460.358	83.81
460.578	92.81
460.798	121.81
461.018	120.81
461.238	99.81
461.458	81.81
461.678	81.81
461.898	65.81
462.118	81.81
462.338	88.81
462.558	82.81
462.777	79.81
462.997	83.81
463.217	76.81
463.437	81.81
463.657	79.81
463.876	86.81
464.096	71.81
464.316	74.81
464.536	74.81
464.755	80.81
464.975	70.81
465.195	77.81
465.414	81.81
465.634	81.81
465.854	62.81
466.073	89.81
466.293	87.81
466.512	80.81
466.732	90.81
466.951	71.81
467.171	87.81
467.391	92.81
467.61	79.81
467.829	64.81
468.049	68.81
468.268	91.81
468.488	90.81
468.707	99.81
468.927	92.81
469.146	80.81
469.365	89.81
469.585	71.81
469.804	78.81
470.023	81.81
470.243	69.81
470.462	67.81
470.681	89.81
470.901	89.81
471.12	94.81
471.339	83.81
471.558	80.81
471.777	88.81
471.997	72.81
472.216	90.81
472.435	82.81
472.654	98.81
472.873	89.81
473.092	82.81
473.311	99.81
473.53	73.81
473.749	74.81
473.968	75.81
474.187	65.81
474.406	94.81
474.625	65.81
474.844	71.81
475.063	87.81
475.282	86.81
475.501	78.81
475.72	98.81
475.939	89.81
476.158	79.81
476.377	93.81
476.596	99.81
476.814	85.81
477.033	94.81
477.252	85.81
477.471	87.81
477.69	76.81
477.908	79.81
478.127	90.81
478.346	86.81
478.564	95.81
478.783	83.81
479.002	81.81
479.22	81.81
479.439	90.81
479.658	79.81
479.876	87.81
480.095	82.81
480.313	81.81
480.532	89.81
480.751	88.81
480.969	88.81
481.188	88.81
481.406	87.81
481.624	78.81
481.843	89.81
482.061	71.81
482.28	91.81
482.498	91.81
482.717	83.81
482.935	94.81
483.153	87.81
483.372	86.81
483.59	79.81
483.808	85.81
484.027	86.81
484.245	93.81
484.463	95.81
484.681	95.81
484.9	80.81
485.118	93.81
485.336	83.81
485.554	74.81
485.772	87.81
485.99	87.81
486.209	92.81
486.427	83.81
486.645	80.81
486.863	71.81
487.081	94.81
487.299	86.81
487.517	88.81
487.735	97.81
487.953	148.81
488.171	137.81
488.389	94.81
488.607	98.81
488.825	82.81
489.043	75.81
489.261	86.81
489.479	86.81
489.696	91.81
489.914	98.81
490.132	86.81
490.35	87.81
490.568	83.81
490.786	100.81
491.003	90.81
491.221	92.81
491.439	89.81
491.657	89.81
491.874	91.81
492.092	89.81
492.31	76.81
492.527	101.81
492.745	87.81
492.963	82.81
493.18	80.81
493.398	93.81
493.615	75.81
493.833	84.81
494.05	78.81
494.268	71.81
494.485	79.81
494.703	73.81
494.92	81.81
495.138	72.81
495.355	92.81
495.573	96.81
495.79	72.81
496.008	91.81
496.225	83.81
496.442	81.81
496.66	90.81
496.877	100.81
497.094	86.81
497.312	94.81
497.529	79.81
497.746	80.81
497.963	86.81
498.181	106.81
498.398	86.81
498.615	78.81
498.832	84.81
499.049	79.81
499.267	96.81
499.484	94.81
499.701	85.81
499.918	89.81
500.135	83.81
500.352	84.81
500.569	96.81
500.786	100.81
501.003	80.81
501.22	97.81
501.437	90.81
501.654	71.81
501.871	88.81
502.088	77.81
502.305	100.81
502.522	75.81
502.739	95.81
502.956	83.81
503.172	85.81
503.389	78.81
503.606	68.81
503.823	83.81
504.04	83.81
504.256	108.81
504.473	115.81
504.69	88.81
504.907	81.81
505.123	81.81
505.34	79.81
505.557	81.81
505.773	74.81
505.99	74.81
506.207	84.81
506.423	77.81
506.64	97.81
506.856	89.81
507.073	87.81
507.289	73.81
507.506	78.81
507.722	93.81
507.939	86.81
508.155	84.81
508.372	89.81
508.588	82.81
508.805	86.81
509.021	80.81
509.238	84.81
509.454	74.81
509.67	77.81
509.887	87.81
510.103	87.81
510.319	83.81
510.536	96.81
510.752	74.81
510.968	81.81
511.184	91.81
511.401	83.81
511.617	82.81
511.833	84.81
512.049	98.81
512.265	87.81
512.481	85.81
512.698	97.81
512.914	72.81
513.13	91.81
513.346	82.81
513.562	90.81
513.778	87.81
513.994	70.81
514.21	81.81
514.426	93.81
514.642	74.81
514.858	89.81
515.074	87.81
515.29	81.81
515.506	80.81
515.721	86.81
515.937	79.81
516.153	86.81
516.369	81.81
516.585	81.81
516.801	85.81
517.016	93.81
517.232	78.81
517.448	83.81
517.664	87.81
517.879	94.81
518.095	86.81
518.311	89.81
518.527	100.81
518.742	94.81
518.958	127.81
