Data from 2145_1_HRD10591_00006.txt Node
Date: Mon Jan 19 14:21:12 EST 2026
User: Yrep
Spectrometer: HR+D1059
Trigger mode: 1
Integration Time (sec): 1.000000E-1
Scans to average: 1
Electric dark correction enabled: true
Nonlinearity correction enabled: false
Boxcar width: 0
XAxis mode: Wavelengths
Number of Pixels in Spectrum: 2048
>>>>>Begin Spectral Data<<<<<
223.165	-14.56
223.4	-14.56
223.635	-14.56
223.869	-27.56
224.104	-14.56
224.338	-17.56
224.573	-21.56
224.808	-7.56
225.042	-5.56
225.277	1.44
225.511	7.44
225.746	7.44
225.98	-0.56
226.215	-3.56
226.449	12.44
226.683	20.44
226.918	36.44
227.152	27.44
227.387	42.44
227.621	38.44
227.856	44.44
228.09	35.44
228.324	51.44
228.559	59.44
228.793	52.44
229.027	53.44
229.262	69.44
229.496	62.44
229.73	76.44
229.964	68.44
230.199	76.44
230.433	76.44
230.667	67.44
230.901	71.44
231.136	75.44
231.37	79.44
231.604	58.44
231.838	77.44
232.072	74.44
232.306	63.44
232.541	81.44
232.775	75.44
233.009	80.44
233.243	83.44
233.477	60.44
233.711	79.44
233.945	73.44
234.179	87.44
234.413	73.44
234.647	76.44
234.881	78.44
235.115	63.44
235.349	81.44
235.583	67.44
235.817	80.44
236.051	76.44
236.285	89.44
236.519	70.44
236.753	57.44
236.987	62.44
237.221	79.44
237.455	78.44
237.689	72.44
237.922	78.44
238.156	83.44
238.39	81.44
238.624	83.44
238.858	72.44
239.091	85.44
239.325	71.44
239.559	93.44
239.793	76.44
240.027	89.44
240.26	83.44
240.494	79.44
240.728	77.44
240.961	91.44
241.195	86.44
241.429	71.44
241.662	74.44
241.896	75.44
242.13	76.44
242.363	76.44
242.597	68.44
242.83	71.44
243.064	74.44
243.298	84.44
243.531	80.44
243.765	87.44
243.998	82.44
244.232	69.44
244.465	79.44
244.699	62.44
244.932	61.44
245.166	76.44
245.399	78.44
245.633	68.44
245.866	69.44
246.099	74.44
246.333	76.44
246.566	78.44
246.8	67.44
247.033	83.44
247.266	76.44
247.5	84.44
247.733	87.44
247.966	71.44
248.2	72.44
248.433	67.44
248.666	78.44
248.899	89.44
249.133	85.44
249.366	90.44
249.599	83.44
249.832	84.44
250.066	89.44
250.299	88.44
250.532	63.44
250.765	86.44
250.998	82.44
251.231	73.44
251.465	81.44
251.698	65.44
251.931	77.44
252.164	83.44
252.397	87.44
252.63	68.44
252.863	85.44
253.096	66.44
253.329	75.44
253.562	83.44
253.795	85.44
254.028	69.44
254.261	82.44
254.494	78.44
254.727	73.44
254.96	89.44
255.193	74.44
255.426	79.44
255.659	82.44
255.892	88.44
256.124	89.44
256.357	83.44
256.59	71.44
256.823	67.44
257.056	72.44
257.289	75.44
257.521	73.44
257.754	75.44
257.987	84.44
258.22	85.44
258.452	84.44
258.685	80.44
258.918	63.44
259.151	87.44
259.383	95.44
259.616	95.44
259.849	91.44
260.081	61.44
260.314	65.44
260.547	93.44
260.779	75.44
261.012	78.44
261.244	76.44
261.477	76.44
261.71	87.44
261.942	81.44
262.175	84.44
262.407	78.44
262.64	88.44
262.872	75.44
263.105	83.44
263.337	88.44
263.57	83.44
263.802	82.44
264.035	89.44
264.267	79.44
264.499	92.44
264.732	89.44
264.964	78.44
265.197	74.44
265.429	91.44
265.661	77.44
265.894	91.44
266.126	77.44
266.358	72.44
266.591	71.44
266.823	92.44
267.055	81.44
267.287	87.44
267.52	83.44
267.752	77.44
267.984	81.44
268.216	78.44
268.448	88.44
268.681	87.44
268.913	83.44
269.145	67.44
269.377	99.44
269.609	89.44
269.841	76.44
270.073	92.44
270.306	71.44
270.538	74.44
270.77	86.44
271.002	79.44
271.234	84.44
271.466	93.44
271.698	78.44
271.93	83.44
272.162	88.44
272.394	87.44
272.626	91.44
272.858	75.44
273.09	83.44
273.322	87.44
273.553	75.44
273.785	71.44
274.017	88.44
274.249	73.44
274.481	82.44
274.713	93.44
274.945	74.44
275.176	87.44
275.408	75.44
275.64	83.44
275.872	82.44
276.104	82.44
276.335	82.44
276.567	89.44
276.799	84.44
277.031	85.44
277.262	77.44
277.494	91.44
277.726	88.44
277.957	87.44
278.189	78.44
278.421	75.44
278.652	88.44
278.884	100.44
279.115	87.44
279.347	71.44
279.579	86.44
279.81	86.44
280.042	99.44
280.273	73.44
280.505	81.44
280.736	80.44
280.968	71.44
281.199	92.44
281.431	86.44
281.662	73.44
281.894	85.44
282.125	89.44
282.356	91.44
282.588	78.44
282.819	96.44
283.051	85.44
283.282	91.44
283.513	73.44
283.745	77.44
283.976	88.44
284.207	84.44
284.439	82.44
284.67	91.44
284.901	76.44
285.132	75.44
285.364	91.44
285.595	83.44
285.826	86.44
286.057	88.44
286.288	83.44
286.52	79.44
286.751	77.44
286.982	81.44
287.213	83.44
287.444	88.44
287.675	78.44
287.906	91.44
288.138	94.44
288.369	86.44
288.6	73.44
288.831	89.44
289.062	86.44
289.293	81.44
289.524	81.44
289.755	71.44
289.986	88.44
290.217	72.44
290.448	85.44
290.679	89.44
290.91	89.44
291.141	80.44
291.371	87.44
291.602	87.44
291.833	64.44
292.064	88.44
292.295	83.44
292.526	85.44
292.757	77.44
292.987	88.44
293.218	90.44
293.449	84.44
293.68	71.44
293.91	75.44
294.141	90.44
294.372	84.44
294.603	77.44
294.833	77.44
295.064	86.44
295.295	84.44
295.525	89.44
295.756	95.44
295.987	85.44
296.217	83.44
296.448	83.44
296.679	96.44
296.909	84.44
297.14	108.44
297.37	89.44
297.601	84.44
297.831	88.44
298.062	83.44
298.292	78.44
298.523	84.44
298.753	97.44
298.984	85.44
299.214	93.44
299.445	89.44
299.675	95.44
299.905	87.44
300.136	86.44
300.366	73.44
300.597	83.44
300.827	81.44
301.057	80.44
301.288	98.44
301.518	89.44
301.748	97.44
301.979	95.44
302.209	93.44
302.439	96.44
302.669	100.44
302.9	88.44
303.13	88.44
303.36	76.44
303.59	82.44
303.82	75.44
304.051	90.44
304.281	86.44
304.511	97.44
304.741	78.44
304.971	85.44
305.201	83.44
305.431	84.44
305.661	80.44
305.891	86.44
306.121	90.44
306.352	84.44
306.582	85.44
306.812	89.44
307.042	100.44
307.272	82.44
307.502	88.44
307.731	58.44
307.961	84.44
308.191	89.44
308.421	91.44
308.651	88.44
308.881	81.44
309.111	87.44
309.341	85.44
309.571	94.44
309.8	87.44
310.03	86.44
310.26	90.44
310.49	82.44
310.72	91.44
310.949	89.44
311.179	93.44
311.409	85.44
311.639	82.44
311.868	88.44
312.098	88.44
312.328	86.44
312.557	91.44
312.787	90.44
313.017	84.44
313.246	76.44
313.476	91.44
313.706	82.44
313.935	79.44
314.165	82.44
314.394	82.44
314.624	91.44
314.853	96.44
315.083	85.44
315.312	85.44
315.542	96.44
315.771	83.44
316.001	76.44
316.23	90.44
316.46	77.44
316.689	90.44
316.919	92.44
317.148	91.44
317.377	88.44
317.607	93.44
317.836	98.44
318.065	88.44
318.295	98.44
318.524	95.44
318.753	91.44
318.983	90.44
319.212	83.44
319.441	88.44
319.67	96.44
319.9	101.44
320.129	82.44
320.358	83.44
320.587	74.44
320.816	71.44
321.046	85.44
321.275	95.44
321.504	93.44
321.733	96.44
321.962	88.44
322.191	87.44
322.42	78.44
322.649	96.44
322.878	85.44
323.108	91.44
323.337	88.44
323.566	98.44
323.795	85.44
324.024	90.44
324.253	91.44
324.482	88.44
324.71	66.44
324.939	79.44
325.168	92.44
325.397	92.44
325.626	92.44
325.855	85.44
326.084	90.44
326.313	104.44
326.542	88.44
326.77	87.44
326.999	83.44
327.228	96.44
327.457	81.44
327.686	109.44
327.914	95.44
328.143	86.44
328.372	83.44
328.6	85.44
328.829	84.44
329.058	81.44
329.287	95.44
329.515	76.44
329.744	100.44
329.972	93.44
330.201	95.44
330.43	102.44
330.658	88.44
330.887	76.44
331.115	97.44
331.344	90.44
331.572	87.44
331.801	87.44
332.03	93.44
332.258	101.44
332.486	86.44
332.715	76.44
332.943	89.44
333.172	100.44
333.4	77.44
333.629	88.44
333.857	72.44
334.085	86.44
334.314	83.44
334.542	79.44
334.771	97.44
334.999	87.44
335.227	101.44
335.455	92.44
335.684	99.44
335.912	93.44
336.14	88.44
336.369	103.44
336.597	93.44
336.825	97.44
337.053	88.44
337.281	88.44
337.51	89.44
337.738	97.44
337.966	72.44
338.194	80.44
338.422	79.44
338.65	82.44
338.878	90.44
339.106	65.44
339.334	88.44
339.562	89.44
339.79	90.44
340.018	76.44
340.246	76.44
340.474	77.44
340.702	100.44
340.93	85.44
341.158	76.44
341.386	80.44
341.614	83.44
341.842	86.44
342.07	86.44
342.298	81.44
342.526	75.44
342.754	90.44
342.981	70.44
343.209	96.44
343.437	103.44
343.665	91.44
343.893	77.44
344.12	95.44
344.348	95.44
344.576	85.44
344.804	91.44
345.031	75.44
345.259	80.44
345.487	105.44
345.714	87.44
345.942	84.44
346.17	98.44
346.397	80.44
346.625	81.44
346.853	96.44
347.08	74.44
347.308	75.44
347.535	87.44
347.763	89.44
347.99	86.44
348.218	79.44
348.445	87.44
348.673	81.44
348.9	85.44
349.128	94.44
349.355	93.44
349.583	87.44
349.81	89.44
350.037	88.44
350.265	85.44
350.492	92.44
350.72	79.44
350.947	92.44
351.174	80.44
351.402	92.44
351.629	88.44
351.856	77.44
352.083	93.44
352.311	86.44
352.538	89.44
352.765	87.44
352.992	103.44
353.22	83.44
353.447	75.44
353.674	84.44
353.901	83.44
354.128	95.44
354.355	72.44
354.583	98.44
354.81	91.44
355.037	81.44
355.264	81.44
355.491	87.44
355.718	83.44
355.945	97.44
356.172	93.44
356.399	99.44
356.626	100.44
356.853	99.44
357.08	84.44
357.307	81.44
357.534	94.44
357.761	100.44
357.988	93.44
358.215	83.44
358.441	81.44
358.668	91.44
358.895	84.44
359.122	83.44
359.349	91.44
359.576	91.44
359.802	81.44
360.029	80.44
360.256	86.44
360.483	92.44
360.709	91.44
360.936	87.44
361.163	79.44
361.39	91.44
361.616	80.44
361.843	86.44
362.07	102.44
362.296	102.44
362.523	98.44
362.749	93.44
362.976	115.44
363.203	141.44
363.429	104.44
363.656	104.44
363.882	101.44
364.109	109.44
364.335	133.44
364.562	142.44
364.788	95.44
365.015	99.44
365.241	98.44
365.468	93.44
365.694	86.44
365.92	93.44
366.147	83.44
366.373	93.44
366.599	85.44
366.826	90.44
367.052	90.44
367.278	77.44
367.505	90.44
367.731	89.44
367.957	84.44
368.184	82.44
368.41	87.44
368.636	92.44
368.862	94.44
369.089	85.44
369.315	87.44
369.541	84.44
369.767	92.44
369.993	84.44
370.219	93.44
370.445	78.44
370.672	97.44
370.898	79.44
371.124	87.44
371.35	86.44
371.576	73.44
371.802	78.44
372.028	99.44
372.254	85.44
372.48	77.44
372.706	74.44
372.932	88.44
373.158	92.44
373.384	109.44
373.61	87.44
373.835	84.44
374.061	93.44
374.287	113.44
374.513	103.44
374.739	91.44
374.965	100.44
375.191	107.44
375.416	96.44
375.642	84.44
375.868	82.44
376.094	102.44
376.319	89.44
376.545	94.44
376.771	95.44
376.997	82.44
377.222	97.44
377.448	97.44
377.674	90.44
377.899	86.44
378.125	86.44
378.35	86.44
378.576	84.44
378.802	85.44
379.027	89.44
379.253	105.44
379.478	97.44
379.704	99.44
379.929	101.44
380.155	80.44
380.38	89.44
380.606	80.44
380.831	89.44
381.057	104.44
381.282	86.44
381.507	91.44
381.733	89.44
381.958	96.44
382.184	95.44
382.409	95.44
382.634	95.44
382.86	91.44
383.085	89.44
383.31	85.44
383.535	99.44
383.761	91.44
383.986	98.44
384.211	91.44
384.436	104.44
384.662	86.44
384.887	95.44
385.112	71.44
385.337	101.44
385.562	89.44
385.787	85.44
386.013	98.44
386.238	105.44
386.463	86.44
386.688	90.44
386.913	91.44
387.138	96.44
387.363	77.44
387.588	102.44
387.813	95.44
388.038	100.44
388.263	79.44
388.488	79.44
388.713	89.44
388.938	82.44
389.163	93.44
389.387	91.44
389.612	81.44
389.837	106.44
390.062	89.44
390.287	83.44
390.512	97.44
390.736	76.44
390.961	76.44
391.186	91.44
391.411	86.44
391.636	93.44
391.86	78.44
392.085	101.44
392.31	113.44
392.534	115.44
392.759	99.44
392.984	141.44
393.208	232.44
393.433	310.44
393.658	246.44
393.882	132.44
394.107	112.44
394.331	91.44
394.556	113.44
394.78	119.44
395.005	93.44
395.229	101.44
395.454	103.44
395.678	95.44
395.903	109.44
396.127	124.44
396.352	148.44
396.576	157.44
396.801	233.44
397.025	254.44
397.249	164.44
397.474	113.44
397.698	104.44
397.922	99.44
398.147	98.44
398.371	94.44
398.595	97.44
398.82	80.44
399.044	81.44
399.268	100.44
399.492	86.44
399.717	101.44
399.941	92.44
400.165	97.44
400.389	72.44
400.613	77.44
400.837	78.44
401.062	81.44
401.286	91.44
401.51	81.44
401.734	81.44
401.958	84.44
402.182	86.44
402.406	83.44
402.63	73.44
402.854	101.44
403.078	86.44
403.302	88.44
403.526	87.44
403.75	89.44
403.974	85.44
404.198	97.44
404.422	104.44
404.645	113.44
404.869	103.44
405.093	106.44
405.317	83.44
405.541	71.44
405.765	82.44
405.988	100.44
406.212	99.44
406.436	74.44
406.66	89.44
406.883	104.44
407.107	84.44
407.331	95.44
407.555	105.44
407.778	112.44
408.002	119.44
408.226	92.44
408.449	82.44
408.673	87.44
408.896	102.44
409.12	87.44
409.344	96.44
409.567	84.44
409.791	101.44
410.014	108.44
410.238	90.44
410.461	76.44
410.685	98.44
410.908	88.44
411.132	85.44
411.355	89.44
411.578	95.44
411.802	76.44
412.025	81.44
412.249	85.44
412.472	86.44
412.695	90.44
412.919	85.44
413.142	82.44
413.365	95.44
413.589	84.44
413.812	74.44
414.035	71.44
414.258	76.44
414.482	90.44
414.705	88.44
414.928	87.44
415.151	93.44
415.374	86.44
415.597	75.44
415.821	74.44
416.044	91.44
416.267	90.44
416.49	96.44
416.713	83.44
416.936	80.44
417.159	97.44
417.382	97.44
417.605	83.44
417.828	96.44
418.051	59.44
418.274	71.44
418.497	100.44
418.72	87.44
418.943	83.44
419.166	78.44
419.389	65.44
419.611	83.44
419.834	98.44
420.057	86.44
420.28	91.44
420.503	103.44
420.726	98.44
420.948	99.44
421.171	95.44
421.394	108.44
421.617	115.44
421.839	141.44
422.062	138.44
422.285	192.44
422.507	276.44
422.73	345.44
422.953	334.44
423.175	219.44
423.398	149.44
423.621	123.44
423.843	109.44
424.066	111.44
424.288	107.44
424.511	97.44
424.733	108.44
424.956	101.44
425.178	98.44
425.401	100.44
425.623	78.44
425.846	100.44
426.068	85.44
426.291	88.44
426.513	87.44
426.735	100.44
426.958	93.44
427.18	92.44
427.402	97.44
427.625	87.44
427.847	110.44
428.069	109.44
428.292	123.44
428.514	138.44
428.736	116.44
428.958	125.44
429.181	116.44
429.403	118.44
429.625	96.44
429.847	138.44
430.069	156.44
430.292	168.44
430.514	161.44
430.736	139.44
430.958	145.44
431.18	113.44
431.402	92.44
431.624	101.44
431.846	125.44
432.068	137.44
432.29	114.44
432.512	86.44
432.734	105.44
432.956	89.44
433.178	92.44
433.4	87.44
433.622	94.44
433.844	87.44
434.066	104.44
434.287	74.44
434.509	85.44
434.731	89.44
434.953	91.44
435.175	98.44
435.397	83.44
435.618	88.44
435.84	96.44
436.062	86.44
436.284	92.44
436.505	83.44
436.727	95.44
436.949	87.44
437.17	87.44
437.392	91.44
437.614	96.44
437.835	100.44
438.057	85.44
438.278	87.44
438.5	96.44
438.721	91.44
438.943	88.44
439.165	83.44
439.386	83.44
439.608	89.44
439.829	84.44
440.05	86.44
440.272	104.44
440.493	105.44
440.715	89.44
440.936	97.44
441.158	88.44
441.379	65.44
441.6	84.44
441.822	100.44
442.043	99.44
442.264	90.44
442.486	144.44
442.707	172.44
442.928	131.44
443.149	120.44
443.371	148.44
443.592	256.44
443.813	230.44
444.034	110.44
444.255	98.44
444.476	88.44
444.698	103.44
444.919	87.44
445.14	203.44
445.361	216.44
445.582	285.44
445.803	248.44
446.024	132.44
446.245	97.44
446.466	83.44
446.687	84.44
446.908	87.44
447.129	94.44
447.35	89.44
447.571	75.44
447.792	76.44
448.013	73.44
448.234	95.44
448.455	89.44
448.675	85.44
448.896	86.44
449.117	90.44
449.338	80.44
449.559	82.44
449.779	87.44
450	96.44
450.221	87.44
450.442	71.44
450.662	80.44
450.883	78.44
451.104	93.44
451.324	89.44
451.545	76.44
451.766	82.44
451.986	84.44
452.207	91.44
452.428	93.44
452.648	85.44
452.869	106.44
453.089	96.44
453.31	103.44
453.53	78.44
453.751	92.44
453.971	91.44
454.192	81.44
454.412	84.44
454.633	89.44
454.853	91.44
455.073	93.44
455.294	108.44
455.514	86.44
455.734	78.44
455.955	99.44
456.175	87.44
456.395	90.44
456.616	81.44
456.836	83.44
457.056	90.44
457.276	83.44
457.497	87.44
457.717	96.44
457.937	112.44
458.157	146.44
458.377	127.44
458.598	137.44
458.818	135.44
459.038	94.44
459.258	76.44
459.478	85.44
459.698	98.44
459.918	84.44
460.138	81.44
460.358	91.44
460.578	93.44
460.798	140.44
461.018	132.44
461.238	90.44
461.458	87.44
461.678	90.44
461.898	84.44
462.118	88.44
462.338	87.44
462.558	71.44
462.777	88.44
462.997	77.44
463.217	81.44
463.437	93.44
463.657	90.44
463.876	76.44
464.096	91.44
464.316	84.44
464.536	69.44
464.755	73.44
464.975	89.44
465.195	90.44
465.414	84.44
465.634	93.44
465.854	80.44
466.073	81.44
466.293	88.44
466.512	98.44
466.732	77.44
466.951	91.44
467.171	89.44
467.391	92.44
467.61	96.44
467.829	81.44
468.049	79.44
468.268	81.44
468.488	96.44
468.707	101.44
468.927	83.44
469.146	77.44
469.365	80.44
469.585	72.44
469.804	65.44
470.023	92.44
470.243	95.44
470.462	87.44
470.681	89.44
470.901	85.44
471.12	82.44
471.339	73.44
471.558	84.44
471.777	83.44
471.997	84.44
472.216	90.44
472.435	95.44
472.654	81.44
472.873	80.44
473.092	84.44
473.311	89.44
473.53	73.44
473.749	90.44
473.968	86.44
474.187	77.44
474.406	81.44
474.625	93.44
474.844	92.44
475.063	81.44
475.282	99.44
475.501	85.44
475.72	91.44
475.939	88.44
476.158	92.44
476.377	80.44
476.596	96.44
476.814	94.44
477.033	98.44
477.252	92.44
477.471	99.44
477.69	84.44
477.908	95.44
478.127	91.44
478.346	81.44
478.564	101.44
478.783	81.44
479.002	80.44
479.22	93.44
479.439	86.44
479.658	79.44
479.876	85.44
480.095	81.44
480.313	89.44
480.532	79.44
480.751	95.44
480.969	95.44
481.188	82.44
481.406	89.44
481.624	91.44
481.843	105.44
482.061	78.44
482.28	95.44
482.498	91.44
482.717	91.44
482.935	96.44
483.153	89.44
483.372	93.44
483.59	89.44
483.808	98.44
484.027	92.44
484.245	84.44
484.463	76.44
484.681	96.44
484.9	107.44
485.118	81.44
485.336	89.44
485.554	98.44
485.772	101.44
485.99	90.44
486.209	94.44
486.427	91.44
486.645	92.44
486.863	64.44
487.081	101.44
487.299	97.44
487.517	108.44
487.735	116.44
487.953	191.44
488.171	159.44
488.389	103.44
488.607	84.44
488.825	91.44
489.043	95.44
489.261	99.44
489.479	92.44
489.696	93.44
489.914	80.44
490.132	80.44
490.35	93.44
490.568	69.44
490.786	78.44
491.003	101.44
491.221	77.44
491.439	98.44
491.657	83.44
491.874	67.44
492.092	95.44
492.31	87.44
492.527	89.44
492.745	81.44
492.963	98.44
493.18	92.44
493.398	90.44
493.615	85.44
493.833	70.44
494.05	99.44
494.268	99.44
494.485	78.44
494.703	92.44
494.92	92.44
495.138	91.44
495.355	76.44
495.573	98.44
495.79	80.44
496.008	83.44
496.225	109.44
496.442	101.44
496.66	83.44
496.877	80.44
497.094	99.44
497.312	81.44
497.529	93.44
497.746	84.44
497.963	92.44
498.181	102.44
498.398	109.44
498.615	87.44
498.832	91.44
499.049	87.44
499.267	99.44
499.484	73.44
499.701	87.44
499.918	85.44
500.135	89.44
500.352	92.44
500.569	93.44
500.786	89.44
501.003	85.44
501.22	83.44
501.437	83.44
501.654	91.44
501.871	95.44
502.088	104.44
502.305	98.44
502.522	74.44
502.739	74.44
502.956	95.44
503.172	80.44
503.389	92.44
503.606	99.44
503.823	93.44
504.04	101.44
504.256	147.44
504.473	129.44
504.69	101.44
504.907	96.44
505.123	99.44
505.34	91.44
505.557	84.44
505.773	87.44
505.99	91.44
506.207	91.44
506.423	91.44
506.64	83.44
506.856	82.44
507.073	89.44
507.289	85.44
507.506	83.44
507.722	68.44
507.939	78.44
508.155	91.44
508.372	96.44
508.588	87.44
508.805	106.44
509.021	84.44
509.238	85.44
509.454	106.44
509.67	76.44
509.887	97.44
510.103	91.44
510.319	92.44
510.536	95.44
510.752	68.44
510.968	84.44
511.184	97.44
511.401	91.44
511.617	85.44
511.833	97.44
512.049	86.44
512.265	97.44
512.481	90.44
512.698	103.44
512.914	87.44
513.13	90.44
513.346	85.44
513.562	89.44
513.778	90.44
513.994	89.44
514.21	80.44
514.426	85.44
514.642	92.44
514.858	98.44
515.074	92.44
515.29	89.44
515.506	94.44
515.721	99.44
515.937	98.44
516.153	97.44
516.369	90.44
516.585	83.44
516.801	104.44
517.016	93.44
517.232	113.44
517.448	112.44
517.664	79.44
517.879	96.44
