Data from 2145_1_HRD10591_00035.txt Node
Date: Mon Jan 19 14:21:26 EST 2026
User: Yrep
Spectrometer: HR+D1059
Trigger mode: 1
Integration Time (sec): 1.000000E-1
Scans to average: 1
Electric dark correction enabled: true
Nonlinearity correction enabled: false
Boxcar width: 0
XAxis mode: Wavelengths
Number of Pixels in Spectrum: 2048
>>>>>Begin Spectral Data<<<<<
223.165	-21.12
223.4	-21.12
223.635	-21.12
223.869	-26.12
224.104	-26.12
224.338	-25.12
224.573	-8.12
224.808	-1.12
225.042	-5.12
225.277	-8.12
225.511	0.88
225.746	5.88
225.98	6.88
226.215	27.88
226.449	13.88
226.683	23.88
226.918	-0.12
227.152	41.88
227.387	29.88
227.621	39.88
227.856	45.88
228.09	58.88
228.324	55.88
228.559	49.88
228.793	63.88
229.027	56.88
229.262	69.88
229.496	61.88
229.73	84.88
229.964	69.88
230.199	69.88
230.433	84.88
230.667	75.88
230.901	84.88
231.136	69.88
231.37	81.88
231.604	79.88
231.838	79.88
232.072	74.88
232.306	76.88
232.541	74.88
232.775	84.88
233.009	83.88
233.243	81.88
233.477	67.88
233.711	89.88
233.945	74.88
234.179	88.88
234.413	84.88
234.647	85.88
234.881	91.88
235.115	86.88
235.349	72.88
235.583	81.88
235.817	91.88
236.051	95.88
236.285	84.88
236.519	73.88
236.753	75.88
236.987	79.88
237.221	83.88
237.455	71.88
237.689	82.88
237.922	81.88
238.156	70.88
238.39	75.88
238.624	71.88
238.858	85.88
239.091	82.88
239.325	73.88
239.559	88.88
239.793	69.88
240.027	88.88
240.26	81.88
240.494	85.88
240.728	76.88
240.961	69.88
241.195	72.88
241.429	59.88
241.662	79.88
241.896	70.88
242.13	86.88
242.363	83.88
242.597	74.88
242.83	74.88
243.064	75.88
243.298	80.88
243.531	67.88
243.765	78.88
243.998	70.88
244.232	90.88
244.465	73.88
244.699	88.88
244.932	75.88
245.166	85.88
245.399	95.88
245.633	84.88
245.866	73.88
246.099	91.88
246.333	79.88
246.566	76.88
246.8	83.88
247.033	82.88
247.266	70.88
247.5	75.88
247.733	83.88
247.966	89.88
248.2	74.88
248.433	70.88
248.666	79.88
248.899	77.88
249.133	79.88
249.366	75.88
249.599	78.88
249.832	92.88
250.066	87.88
250.299	92.88
250.532	77.88
250.765	80.88
250.998	80.88
251.231	62.88
251.465	68.88
251.698	81.88
251.931	67.88
252.164	76.88
252.397	61.88
252.63	90.88
252.863	80.88
253.096	79.88
253.329	74.88
253.562	86.88
253.795	86.88
254.028	69.88
254.261	77.88
254.494	83.88
254.727	71.88
254.96	76.88
255.193	87.88
255.426	78.88
255.659	80.88
255.892	86.88
256.124	89.88
256.357	83.88
256.59	86.88
256.823	88.88
257.056	77.88
257.289	78.88
257.521	83.88
257.754	87.88
257.987	74.88
258.22	94.88
258.452	86.88
258.685	86.88
258.918	91.88
259.151	89.88
259.383	70.88
259.616	93.88
259.849	82.88
260.081	72.88
260.314	91.88
260.547	89.88
260.779	87.88
261.012	86.88
261.244	93.88
261.477	75.88
261.71	71.88
261.942	98.88
262.175	87.88
262.407	84.88
262.64	85.88
262.872	61.88
263.105	68.88
263.337	69.88
263.57	86.88
263.802	69.88
264.035	81.88
264.267	67.88
264.499	94.88
264.732	87.88
264.964	85.88
265.197	93.88
265.429	94.88
265.661	85.88
265.894	86.88
266.126	85.88
266.358	89.88
266.591	77.88
266.823	68.88
267.055	85.88
267.287	80.88
267.52	81.88
267.752	93.88
267.984	67.88
268.216	77.88
268.448	70.88
268.681	74.88
268.913	78.88
269.145	70.88
269.377	87.88
269.609	85.88
269.841	89.88
270.073	84.88
270.306	81.88
270.538	67.88
270.77	82.88
271.002	80.88
271.234	92.88
271.466	85.88
271.698	74.88
271.93	89.88
272.162	96.88
272.394	92.88
272.626	89.88
272.858	77.88
273.09	81.88
273.322	93.88
273.553	82.88
273.785	97.88
274.017	79.88
274.249	69.88
274.481	85.88
274.713	81.88
274.945	81.88
275.176	83.88
275.408	84.88
275.64	92.88
275.872	94.88
276.104	90.88
276.335	91.88
276.567	81.88
276.799	80.88
277.031	69.88
277.262	87.88
277.494	90.88
277.726	87.88
277.957	103.88
278.189	83.88
278.421	92.88
278.652	87.88
278.884	93.88
279.115	74.88
279.347	82.88
279.579	83.88
279.81	91.88
280.042	88.88
280.273	86.88
280.505	90.88
280.736	90.88
280.968	79.88
281.199	79.88
281.431	68.88
281.662	70.88
281.894	71.88
282.125	87.88
282.356	82.88
282.588	81.88
282.819	90.88
283.051	80.88
283.282	88.88
283.513	74.88
283.745	85.88
283.976	87.88
284.207	80.88
284.439	85.88
284.67	101.88
284.901	79.88
285.132	88.88
285.364	88.88
285.595	95.88
285.826	89.88
286.057	97.88
286.288	89.88
286.52	89.88
286.751	79.88
286.982	73.88
287.213	89.88
287.444	73.88
287.675	89.88
287.906	77.88
288.138	82.88
288.369	81.88
288.6	89.88
288.831	96.88
289.062	81.88
289.293	90.88
289.524	85.88
289.755	85.88
289.986	84.88
290.217	75.88
290.448	87.88
290.679	85.88
290.91	100.88
291.141	88.88
291.371	90.88
291.602	84.88
291.833	85.88
292.064	82.88
292.295	74.88
292.526	76.88
292.757	80.88
292.987	88.88
293.218	93.88
293.449	92.88
293.68	86.88
293.91	78.88
294.141	105.88
294.372	87.88
294.603	98.88
294.833	83.88
295.064	88.88
295.295	90.88
295.525	90.88
295.756	95.88
295.987	85.88
296.217	85.88
296.448	78.88
296.679	89.88
296.909	73.88
297.14	91.88
297.37	89.88
297.601	98.88
297.831	75.88
298.062	89.88
298.292	82.88
298.523	89.88
298.753	87.88
298.984	91.88
299.214	95.88
299.445	81.88
299.675	93.88
299.905	89.88
300.136	89.88
300.366	91.88
300.597	87.88
300.827	97.88
301.057	92.88
301.288	76.88
301.518	85.88
301.748	98.88
301.979	109.88
302.209	86.88
302.439	93.88
302.669	92.88
302.9	88.88
303.13	83.88
303.36	79.88
303.59	85.88
303.82	94.88
304.051	88.88
304.281	103.88
304.511	101.88
304.741	85.88
304.971	89.88
305.201	93.88
305.431	84.88
305.661	82.88
305.891	101.88
306.121	85.88
306.352	85.88
306.582	76.88
306.812	100.88
307.042	94.88
307.272	99.88
307.502	80.88
307.731	99.88
307.961	95.88
308.191	89.88
308.421	91.88
308.651	84.88
308.881	87.88
309.111	92.88
309.341	97.88
309.571	95.88
309.8	87.88
310.03	74.88
310.26	93.88
310.49	85.88
310.72	77.88
310.949	89.88
311.179	89.88
311.409	84.88
311.639	89.88
311.868	91.88
312.098	88.88
312.328	87.88
312.557	93.88
312.787	100.88
313.017	89.88
313.246	83.88
313.476	72.88
313.706	78.88
313.935	86.88
314.165	92.88
314.394	91.88
314.624	91.88
314.853	98.88
315.083	81.88
315.312	99.88
315.542	84.88
315.771	82.88
316.001	81.88
316.23	89.88
316.46	85.88
316.689	82.88
316.919	92.88
317.148	83.88
317.377	85.88
317.607	104.88
317.836	93.88
318.065	91.88
318.295	87.88
318.524	79.88
318.753	84.88
318.983	93.88
319.212	87.88
319.441	82.88
319.67	75.88
319.9	78.88
320.129	88.88
320.358	87.88
320.587	97.88
320.816	75.88
321.046	92.88
321.275	90.88
321.504	97.88
321.733	103.88
321.962	90.88
322.191	78.88
322.42	97.88
322.649	85.88
322.878	105.88
323.108	79.88
323.337	76.88
323.566	87.88
323.795	87.88
324.024	82.88
324.253	77.88
324.482	107.88
324.71	90.88
324.939	88.88
325.168	77.88
325.397	77.88
325.626	88.88
325.855	79.88
326.084	85.88
326.313	91.88
326.542	79.88
326.77	86.88
326.999	85.88
327.228	95.88
327.457	80.88
327.686	89.88
327.914	87.88
328.143	87.88
328.372	80.88
328.6	82.88
328.829	79.88
329.058	80.88
329.287	97.88
329.515	92.88
329.744	83.88
329.972	98.88
330.201	87.88
330.43	85.88
330.658	95.88
330.887	78.88
331.115	86.88
331.344	87.88
331.572	77.88
331.801	80.88
332.03	88.88
332.258	86.88
332.486	84.88
332.715	90.88
332.943	91.88
333.172	107.88
333.4	86.88
333.629	87.88
333.857	90.88
334.085	95.88
334.314	94.88
334.542	102.88
334.771	77.88
334.999	91.88
335.227	97.88
335.455	92.88
335.684	101.88
335.912	99.88
336.14	93.88
336.369	93.88
336.597	105.88
336.825	82.88
337.053	83.88
337.281	87.88
337.51	86.88
337.738	99.88
337.966	87.88
338.194	88.88
338.422	85.88
338.65	94.88
338.878	93.88
339.106	86.88
339.334	98.88
339.562	82.88
339.79	86.88
340.018	80.88
340.246	91.88
340.474	104.88
340.702	92.88
340.93	87.88
341.158	92.88
341.386	90.88
341.614	93.88
341.842	87.88
342.07	83.88
342.298	87.88
342.526	85.88
342.754	93.88
342.981	81.88
343.209	83.88
343.437	110.88
343.665	88.88
343.893	93.88
344.12	91.88
344.348	89.88
344.576	92.88
344.804	93.88
345.031	86.88
345.259	103.88
345.487	106.88
345.714	91.88
345.942	99.88
346.17	91.88
346.397	82.88
346.625	86.88
346.853	87.88
347.08	99.88
347.308	90.88
347.535	87.88
347.763	87.88
347.99	88.88
348.218	90.88
348.445	75.88
348.673	93.88
348.9	97.88
349.128	101.88
349.355	80.88
349.583	92.88
349.81	80.88
350.037	91.88
350.265	85.88
350.492	86.88
350.72	90.88
350.947	89.88
351.174	84.88
351.402	99.88
351.629	95.88
351.856	101.88
352.083	81.88
352.311	90.88
352.538	84.88
352.765	84.88
352.992	91.88
353.22	91.88
353.447	77.88
353.674	103.88
353.901	99.88
354.128	98.88
354.355	82.88
354.583	76.88
354.81	101.88
355.037	89.88
355.264	92.88
355.491	98.88
355.718	78.88
355.945	81.88
356.172	95.88
356.399	79.88
356.626	84.88
356.853	92.88
357.08	99.88
357.307	108.88
357.534	94.88
357.761	91.88
357.988	98.88
358.215	88.88
358.441	94.88
358.668	82.88
358.895	87.88
359.122	80.88
359.349	91.88
359.576	87.88
359.802	100.88
360.029	77.88
360.256	84.88
360.483	89.88
360.709	93.88
360.936	92.88
361.163	95.88
361.39	96.88
361.616	89.88
361.843	79.88
362.07	89.88
362.296	95.88
362.523	111.88
362.749	103.88
362.976	107.88
363.203	108.88
363.429	103.88
363.656	105.88
363.882	94.88
364.109	110.88
364.335	130.88
364.562	108.88
364.788	107.88
365.015	80.88
365.241	87.88
365.468	99.88
365.694	87.88
365.92	91.88
366.147	87.88
366.373	99.88
366.599	85.88
366.826	68.88
367.052	79.88
367.278	93.88
367.505	100.88
367.731	94.88
367.957	80.88
368.184	75.88
368.41	106.88
368.636	98.88
368.862	86.88
369.089	87.88
369.315	89.88
369.541	80.88
369.767	78.88
369.993	89.88
370.219	93.88
370.445	88.88
370.672	87.88
370.898	93.88
371.124	79.88
371.35	91.88
371.576	77.88
371.802	85.88
372.028	83.88
372.254	84.88
372.48	84.88
372.706	91.88
372.932	93.88
373.158	82.88
373.384	99.88
373.61	87.88
373.835	109.88
374.061	97.88
374.287	87.88
374.513	89.88
374.739	87.88
374.965	87.88
375.191	91.88
375.416	79.88
375.642	91.88
375.868	83.88
376.094	96.88
376.319	93.88
376.545	97.88
376.771	88.88
376.997	74.88
377.222	82.88
377.448	104.88
377.674	91.88
377.899	83.88
378.125	82.88
378.35	96.88
378.576	86.88
378.802	87.88
379.027	89.88
379.253	83.88
379.478	88.88
379.704	80.88
379.929	90.88
380.155	86.88
380.38	89.88
380.606	84.88
380.831	86.88
381.057	77.88
381.282	90.88
381.507	88.88
381.733	93.88
381.958	74.88
382.184	74.88
382.409	91.88
382.634	105.88
382.86	83.88
383.085	88.88
383.31	100.88
383.535	101.88
383.761	84.88
383.986	88.88
384.211	86.88
384.436	100.88
384.662	94.88
384.887	92.88
385.112	88.88
385.337	87.88
385.562	88.88
385.787	79.88
386.013	99.88
386.238	93.88
386.463	86.88
386.688	106.88
386.913	93.88
387.138	108.88
387.363	84.88
387.588	101.88
387.813	90.88
388.038	86.88
388.263	87.88
388.488	95.88
388.713	93.88
388.938	92.88
389.163	78.88
389.387	89.88
389.612	87.88
389.837	97.88
390.062	92.88
390.287	97.88
390.512	109.88
390.736	84.88
390.961	84.88
391.186	85.88
391.411	90.88
391.636	89.88
391.86	93.88
392.085	99.88
392.31	89.88
392.534	103.88
392.759	117.88
392.984	160.88
393.208	253.88
393.433	325.88
393.658	266.88
393.882	135.88
394.107	106.88
394.331	109.88
394.556	116.88
394.78	117.88
395.005	88.88
395.229	97.88
395.454	113.88
395.678	106.88
395.903	113.88
396.127	130.88
396.352	140.88
396.576	166.88
396.801	247.88
397.025	280.88
397.249	168.88
397.474	105.88
397.698	102.88
397.922	97.88
398.147	80.88
398.371	75.88
398.595	97.88
398.82	85.88
399.044	74.88
399.268	98.88
399.492	87.88
399.717	79.88
399.941	89.88
400.165	86.88
400.389	86.88
400.613	74.88
400.837	98.88
401.062	93.88
401.286	97.88
401.51	105.88
401.734	85.88
401.958	85.88
402.182	80.88
402.406	90.88
402.63	83.88
402.854	102.88
403.078	105.88
403.302	99.88
403.526	92.88
403.75	98.88
403.974	111.88
404.198	152.88
404.422	220.88
404.645	253.88
404.869	195.88
405.093	132.88
405.317	100.88
405.541	86.88
405.765	84.88
405.988	87.88
406.212	89.88
406.436	91.88
406.66	92.88
406.883	101.88
407.107	82.88
407.331	92.88
407.555	93.88
407.778	99.88
408.002	111.88
408.226	77.88
408.449	86.88
408.673	82.88
408.896	105.88
409.12	72.88
409.344	93.88
409.567	87.88
409.791	97.88
410.014	108.88
410.238	105.88
410.461	92.88
410.685	103.88
410.908	89.88
411.132	93.88
411.355	97.88
411.578	93.88
411.802	79.88
412.025	82.88
412.249	79.88
412.472	85.88
412.695	76.88
412.919	87.88
413.142	83.88
413.365	78.88
413.589	91.88
413.812	100.88
414.035	93.88
414.258	90.88
414.482	91.88
414.705	95.88
414.928	94.88
415.151	84.88
415.374	103.88
415.597	73.88
415.821	87.88
416.044	87.88
416.267	72.88
416.49	91.88
416.713	86.88
416.936	83.88
417.159	93.88
417.382	78.88
417.605	68.88
417.828	90.88
418.051	87.88
418.274	85.88
418.497	92.88
418.72	85.88
418.943	74.88
419.166	87.88
419.389	84.88
419.611	95.88
419.834	90.88
420.057	83.88
420.28	92.88
420.503	92.88
420.726	97.88
420.948	92.88
421.171	90.88
421.394	97.88
421.617	115.88
421.839	117.88
422.062	139.88
422.285	210.88
422.507	334.88
422.73	543.88
422.953	488.88
423.175	259.88
423.398	140.88
423.621	109.88
423.843	93.88
424.066	89.88
424.288	99.88
424.511	85.88
424.733	90.88
424.956	83.88
425.178	92.88
425.401	92.88
425.623	90.88
425.846	83.88
426.068	99.88
426.291	79.88
426.513	82.88
426.735	73.88
426.958	89.88
427.18	91.88
427.402	91.88
427.625	101.88
427.847	95.88
428.069	90.88
428.292	130.88
428.514	162.88
428.736	132.88
428.958	146.88
429.181	157.88
429.403	116.88
429.625	104.88
429.847	151.88
430.069	193.88
430.292	237.88
430.514	217.88
430.736	156.88
430.958	150.88
431.18	104.88
431.402	87.88
431.624	107.88
431.846	157.88
432.068	157.88
432.29	89.88
432.512	92.88
432.734	74.88
432.956	92.88
433.178	85.88
433.4	92.88
433.622	87.88
433.844	91.88
434.066	85.88
434.287	80.88
434.509	78.88
434.731	74.88
434.953	87.88
435.175	79.88
435.397	102.88
435.618	106.88
435.84	85.88
436.062	89.88
436.284	87.88
436.505	89.88
436.727	91.88
436.949	102.88
437.17	94.88
437.392	68.88
437.614	93.88
437.835	89.88
438.057	80.88
438.278	98.88
438.5	90.88
438.721	73.88
438.943	85.88
439.165	83.88
439.386	90.88
439.608	86.88
439.829	92.88
440.05	77.88
440.272	86.88
440.493	88.88
440.715	102.88
440.936	102.88
441.158	95.88
441.379	75.88
441.6	83.88
441.822	91.88
442.043	93.88
442.264	107.88
442.486	140.88
442.707	183.88
442.928	134.88
443.149	122.88
443.371	183.88
443.592	299.88
443.813	257.88
444.034	107.88
444.255	94.88
444.476	105.88
444.698	103.88
444.919	108.88
445.14	220.88
445.361	256.88
445.582	369.88
445.803	309.88
446.024	154.88
446.245	99.88
446.466	89.88
446.687	95.88
446.908	78.88
447.129	95.88
447.35	95.88
447.571	94.88
447.792	87.88
448.013	91.88
448.234	95.88
448.455	89.88
448.675	90.88
448.896	91.88
449.117	97.88
449.338	87.88
449.559	93.88
449.779	94.88
450	82.88
450.221	75.88
450.442	100.88
450.662	90.88
450.883	87.88
451.104	85.88
451.324	80.88
451.545	75.88
451.766	87.88
451.986	93.88
452.207	92.88
452.428	90.88
452.648	99.88
452.869	90.88
453.089	97.88
453.31	91.88
453.53	76.88
453.751	87.88
453.971	81.88
454.192	93.88
454.412	92.88
454.633	93.88
454.853	84.88
455.073	86.88
455.294	84.88
455.514	93.88
455.734	91.88
455.955	82.88
456.175	93.88
456.395	75.88
456.616	93.88
456.836	77.88
457.056	95.88
457.276	85.88
457.497	97.88
457.717	93.88
457.937	106.88
458.157	114.88
458.377	102.88
458.598	125.88
458.818	122.88
459.038	111.88
459.258	82.88
459.478	103.88
459.698	92.88
459.918	84.88
460.138	85.88
460.358	86.88
460.578	106.88
460.798	141.88
461.018	123.88
461.238	100.88
461.458	73.88
461.678	82.88
461.898	85.88
462.118	105.88
462.338	97.88
462.558	95.88
462.777	79.88
462.997	89.88
463.217	89.88
463.437	91.88
463.657	86.88
463.876	82.88
464.096	90.88
464.316	82.88
464.536	88.88
464.755	91.88
464.975	86.88
465.195	92.88
465.414	77.88
465.634	78.88
465.854	93.88
466.073	83.88
466.293	83.88
466.512	86.88
466.732	94.88
466.951	81.88
467.171	89.88
467.391	84.88
467.61	86.88
467.829	84.88
468.049	79.88
468.268	71.88
468.488	90.88
468.707	95.88
468.927	87.88
469.146	90.88
469.365	85.88
469.585	83.88
469.804	77.88
470.023	89.88
470.243	87.88
470.462	87.88
470.681	84.88
470.901	97.88
471.12	84.88
471.339	89.88
471.558	81.88
471.777	86.88
471.997	99.88
472.216	96.88
472.435	94.88
472.654	97.88
472.873	74.88
473.092	81.88
473.311	93.88
473.53	87.88
473.749	99.88
473.968	85.88
474.187	90.88
474.406	90.88
474.625	82.88
474.844	87.88
475.063	93.88
475.282	98.88
475.501	76.88
475.72	89.88
475.939	81.88
476.158	75.88
476.377	101.88
476.596	84.88
476.814	85.88
477.033	98.88
477.252	98.88
477.471	90.88
477.69	82.88
477.908	82.88
478.127	94.88
478.346	97.88
478.564	97.88
478.783	89.88
479.002	78.88
479.22	95.88
479.439	81.88
479.658	88.88
479.876	98.88
480.095	75.88
480.313	101.88
480.532	78.88
480.751	82.88
480.969	101.88
481.188	86.88
481.406	95.88
481.624	81.88
481.843	89.88
482.061	75.88
482.28	73.88
482.498	99.88
482.717	87.88
482.935	81.88
483.153	88.88
483.372	80.88
483.59	93.88
483.808	102.88
484.027	84.88
484.245	103.88
484.463	90.88
484.681	85.88
484.9	85.88
485.118	89.88
485.336	100.88
485.554	90.88
485.772	93.88
485.99	90.88
486.209	93.88
486.427	77.88
486.645	98.88
486.863	75.88
487.081	81.88
487.299	101.88
487.517	97.88
487.735	108.88
487.953	138.88
488.171	145.88
488.389	97.88
488.607	90.88
488.825	88.88
489.043	93.88
489.261	93.88
489.479	88.88
489.696	101.88
489.914	94.88
490.132	96.88
490.35	103.88
490.568	101.88
490.786	93.88
491.003	78.88
491.221	80.88
491.439	90.88
491.657	93.88
491.874	87.88
492.092	86.88
492.31	88.88
492.527	93.88
492.745	86.88
492.963	89.88
493.18	88.88
493.398	94.88
493.615	93.88
493.833	95.88
494.05	88.88
494.268	104.88
494.485	94.88
494.703	89.88
494.92	90.88
495.138	74.88
495.355	88.88
495.573	86.88
495.79	96.88
496.008	79.88
496.225	83.88
496.442	83.88
496.66	91.88
496.877	93.88
497.094	106.88
497.312	90.88
497.529	100.88
497.746	99.88
497.963	92.88
498.181	84.88
498.398	90.88
498.615	100.88
498.832	79.88
499.049	82.88
499.267	95.88
499.484	100.88
499.701	95.88
499.918	99.88
500.135	88.88
500.352	92.88
500.569	89.88
500.786	99.88
501.003	86.88
501.22	97.88
501.437	92.88
501.654	95.88
501.871	90.88
502.088	95.88
502.305	89.88
502.522	91.88
502.739	91.88
502.956	91.88
503.172	98.88
503.389	84.88
503.606	88.88
503.823	94.88
504.04	103.88
504.256	121.88
504.473	118.88
504.69	116.88
504.907	99.88
505.123	77.88
505.34	83.88
505.557	88.88
505.773	86.88
505.99	88.88
506.207	99.88
506.423	87.88
506.64	96.88
506.856	85.88
507.073	93.88
507.289	72.88
507.506	82.88
507.722	96.88
507.939	93.88
508.155	97.88
508.372	97.88
508.588	98.88
508.805	104.88
509.021	75.88
509.238	92.88
509.454	87.88
509.67	84.88
509.887	83.88
510.103	90.88
510.319	90.88
510.536	91.88
510.752	100.88
510.968	89.88
511.184	87.88
511.401	91.88
511.617	90.88
511.833	87.88
512.049	104.88
512.265	85.88
512.481	97.88
512.698	87.88
512.914	90.88
513.13	88.88
513.346	97.88
513.562	103.88
513.778	92.88
513.994	90.88
514.21	90.88
514.426	91.88
514.642	98.88
514.858	89.88
515.074	79.88
515.29	93.88
515.506	89.88
515.721	78.88
515.937	88.88
516.153	105.88
516.369	95.88
516.585	91.88
516.801	81.88
517.016	92.88
517.232	96.88
517.448	95.88
517.664	95.88
