Data from 2145_1_HRD10591_00044.txt Node
Date: Mon Jan 19 14:21:31 EST 2026
User: Yrep
Spectrometer: HR+D1059
Trigger mode: 1
Integration Time (sec): 1.000000E-1
Scans to average: 1
Electric dark correction enabled: true
Nonlinearity correction enabled: false
Boxcar width: 0
XAxis mode: Wavelengths
Number of Pixels in Spectrum: 2048
>>>>>Begin Spectral Data<<<<<
223.165	-11.94
223.4	-11.94
223.635	-11.94
223.869	-13.94
224.104	-10.94
224.338	-15.94
224.573	-12.94
224.808	-14.94
225.042	2.06
225.277	-4.94
225.511	1.06
225.746	-14.94
225.98	-0.94
226.215	12.06
226.449	23.06
226.683	10.06
226.918	20.06
227.152	33.06
227.387	31.06
227.621	22.06
227.856	45.06
228.09	46.06
228.324	37.06
228.559	61.06
228.793	58.06
229.027	74.06
229.262	78.06
229.496	54.06
229.73	60.06
229.964	64.06
230.199	68.06
230.433	79.06
230.667	81.06
230.901	76.06
231.136	74.06
231.37	71.06
231.604	78.06
231.838	72.06
232.072	86.06
232.306	71.06
232.541	84.06
232.775	90.06
233.009	68.06
233.243	90.06
233.477	84.06
233.711	83.06
233.945	84.06
234.179	73.06
234.413	70.06
234.647	60.06
234.881	80.06
235.115	83.06
235.349	82.06
235.583	58.06
235.817	67.06
236.051	65.06
236.285	85.06
236.519	73.06
236.753	78.06
236.987	63.06
237.221	71.06
237.455	77.06
237.689	68.06
237.922	71.06
238.156	67.06
238.39	71.06
238.624	84.06
238.858	82.06
239.091	65.06
239.325	69.06
239.559	82.06
239.793	76.06
240.027	84.06
240.26	80.06
240.494	80.06
240.728	74.06
240.961	94.06
241.195	87.06
241.429	68.06
241.662	73.06
241.896	85.06
242.13	88.06
242.363	55.06
242.597	61.06
242.83	75.06
243.064	71.06
243.298	77.06
243.531	70.06
243.765	82.06
243.998	75.06
244.232	77.06
244.465	78.06
244.699	56.06
244.932	68.06
245.166	76.06
245.399	83.06
245.633	77.06
245.866	90.06
246.099	82.06
246.333	67.06
246.566	71.06
246.8	71.06
247.033	82.06
247.266	64.06
247.5	70.06
247.733	81.06
247.966	70.06
248.2	80.06
248.433	78.06
248.666	76.06
248.899	85.06
249.133	90.06
249.366	86.06
249.599	82.06
249.832	71.06
250.066	73.06
250.299	79.06
250.532	60.06
250.765	74.06
250.998	68.06
251.231	83.06
251.465	70.06
251.698	66.06
251.931	71.06
252.164	82.06
252.397	78.06
252.63	83.06
252.863	86.06
253.096	72.06
253.329	81.06
253.562	75.06
253.795	82.06
254.028	100.06
254.261	75.06
254.494	81.06
254.727	90.06
254.96	83.06
255.193	67.06
255.426	90.06
255.659	78.06
255.892	73.06
256.124	79.06
256.357	84.06
256.59	81.06
256.823	86.06
257.056	82.06
257.289	79.06
257.521	84.06
257.754	91.06
257.987	77.06
258.22	91.06
258.452	78.06
258.685	67.06
258.918	89.06
259.151	86.06
259.383	73.06
259.616	82.06
259.849	74.06
260.081	91.06
260.314	77.06
260.547	92.06
260.779	59.06
261.012	88.06
261.244	85.06
261.477	66.06
261.71	62.06
261.942	91.06
262.175	78.06
262.407	66.06
262.64	67.06
262.872	84.06
263.105	70.06
263.337	85.06
263.57	86.06
263.802	79.06
264.035	90.06
264.267	82.06
264.499	76.06
264.732	87.06
264.964	72.06
265.197	86.06
265.429	82.06
265.661	82.06
265.894	76.06
266.126	96.06
266.358	72.06
266.591	94.06
266.823	81.06
267.055	84.06
267.287	90.06
267.52	79.06
267.752	91.06
267.984	76.06
268.216	70.06
268.448	86.06
268.681	86.06
268.913	84.06
269.145	88.06
269.377	87.06
269.609	78.06
269.841	85.06
270.073	75.06
270.306	75.06
270.538	72.06
270.77	80.06
271.002	84.06
271.234	86.06
271.466	86.06
271.698	87.06
271.93	72.06
272.162	92.06
272.394	88.06
272.626	70.06
272.858	89.06
273.09	81.06
273.322	77.06
273.553	79.06
273.785	81.06
274.017	77.06
274.249	75.06
274.481	70.06
274.713	72.06
274.945	75.06
275.176	83.06
275.408	84.06
275.64	86.06
275.872	79.06
276.104	88.06
276.335	80.06
276.567	70.06
276.799	82.06
277.031	80.06
277.262	95.06
277.494	87.06
277.726	83.06
277.957	94.06
278.189	81.06
278.421	76.06
278.652	70.06
278.884	76.06
279.115	73.06
279.347	80.06
279.579	70.06
279.81	92.06
280.042	97.06
280.273	94.06
280.505	82.06
280.736	84.06
280.968	99.06
281.199	98.06
281.431	89.06
281.662	86.06
281.894	78.06
282.125	90.06
282.356	95.06
282.588	80.06
282.819	75.06
283.051	82.06
283.282	79.06
283.513	98.06
283.745	77.06
283.976	77.06
284.207	72.06
284.439	99.06
284.67	94.06
284.901	84.06
285.132	82.06
285.364	91.06
285.595	88.06
285.826	85.06
286.057	97.06
286.288	86.06
286.52	77.06
286.751	84.06
286.982	98.06
287.213	92.06
287.444	84.06
287.675	88.06
287.906	87.06
288.138	103.06
288.369	76.06
288.6	86.06
288.831	89.06
289.062	82.06
289.293	72.06
289.524	81.06
289.755	80.06
289.986	88.06
290.217	93.06
290.448	75.06
290.679	86.06
290.91	80.06
291.141	87.06
291.371	79.06
291.602	88.06
291.833	90.06
292.064	68.06
292.295	92.06
292.526	87.06
292.757	92.06
292.987	86.06
293.218	93.06
293.449	87.06
293.68	94.06
293.91	90.06
294.141	84.06
294.372	90.06
294.603	82.06
294.833	72.06
295.064	82.06
295.295	66.06
295.525	65.06
295.756	91.06
295.987	87.06
296.217	88.06
296.448	85.06
296.679	95.06
296.909	76.06
297.14	95.06
297.37	82.06
297.601	79.06
297.831	88.06
298.062	95.06
298.292	85.06
298.523	87.06
298.753	97.06
298.984	88.06
299.214	83.06
299.445	90.06
299.675	92.06
299.905	79.06
300.136	85.06
300.366	89.06
300.597	77.06
300.827	96.06
301.057	99.06
301.288	82.06
301.518	86.06
301.748	98.06
301.979	89.06
302.209	85.06
302.439	90.06
302.669	81.06
302.9	86.06
303.13	89.06
303.36	81.06
303.59	78.06
303.82	82.06
304.051	94.06
304.281	68.06
304.511	80.06
304.741	78.06
304.971	85.06
305.201	96.06
305.431	92.06
305.661	88.06
305.891	92.06
306.121	90.06
306.352	87.06
306.582	87.06
306.812	95.06
307.042	94.06
307.272	78.06
307.502	76.06
307.731	82.06
307.961	82.06
308.191	79.06
308.421	78.06
308.651	102.06
308.881	83.06
309.111	93.06
309.341	94.06
309.571	85.06
309.8	82.06
310.03	89.06
310.26	61.06
310.49	80.06
310.72	72.06
310.949	96.06
311.179	90.06
311.409	76.06
311.639	76.06
311.868	98.06
312.098	81.06
312.328	94.06
312.557	95.06
312.787	85.06
313.017	84.06
313.246	77.06
313.476	88.06
313.706	73.06
313.935	91.06
314.165	85.06
314.394	80.06
314.624	98.06
314.853	85.06
315.083	79.06
315.312	77.06
315.542	72.06
315.771	66.06
316.001	102.06
316.23	86.06
316.46	85.06
316.689	96.06
316.919	90.06
317.148	74.06
317.377	91.06
317.607	76.06
317.836	94.06
318.065	98.06
318.295	87.06
318.524	84.06
318.753	88.06
318.983	87.06
319.212	86.06
319.441	84.06
319.67	83.06
319.9	78.06
320.129	86.06
320.358	86.06
320.587	70.06
320.816	84.06
321.046	86.06
321.275	92.06
321.504	92.06
321.733	90.06
321.962	70.06
322.191	77.06
322.42	90.06
322.649	86.06
322.878	95.06
323.108	87.06
323.337	84.06
323.566	90.06
323.795	77.06
324.024	76.06
324.253	97.06
324.482	84.06
324.71	75.06
324.939	103.06
325.168	87.06
325.397	80.06
325.626	80.06
325.855	83.06
326.084	98.06
326.313	91.06
326.542	88.06
326.77	83.06
326.999	92.06
327.228	80.06
327.457	82.06
327.686	85.06
327.914	80.06
328.143	83.06
328.372	86.06
328.6	71.06
328.829	82.06
329.058	71.06
329.287	78.06
329.515	91.06
329.744	78.06
329.972	88.06
330.201	88.06
330.43	92.06
330.658	85.06
330.887	95.06
331.115	78.06
331.344	82.06
331.572	83.06
331.801	82.06
332.03	77.06
332.258	92.06
332.486	84.06
332.715	79.06
332.943	77.06
333.172	79.06
333.4	74.06
333.629	83.06
333.857	76.06
334.085	84.06
334.314	94.06
334.542	89.06
334.771	71.06
334.999	76.06
335.227	86.06
335.455	80.06
335.684	78.06
335.912	79.06
336.14	83.06
336.369	79.06
336.597	86.06
336.825	89.06
337.053	92.06
337.281	76.06
337.51	101.06
337.738	87.06
337.966	79.06
338.194	76.06
338.422	82.06
338.65	84.06
338.878	86.06
339.106	80.06
339.334	91.06
339.562	86.06
339.79	78.06
340.018	61.06
340.246	75.06
340.474	84.06
340.702	90.06
340.93	80.06
341.158	87.06
341.386	75.06
341.614	76.06
341.842	86.06
342.07	74.06
342.298	75.06
342.526	73.06
342.754	89.06
342.981	79.06
343.209	93.06
343.437	98.06
343.665	70.06
343.893	95.06
344.12	88.06
344.348	86.06
344.576	96.06
344.804	78.06
345.031	92.06
345.259	79.06
345.487	75.06
345.714	75.06
345.942	92.06
346.17	80.06
346.397	97.06
346.625	84.06
346.853	91.06
347.08	87.06
347.308	86.06
347.535	83.06
347.763	85.06
347.99	77.06
348.218	79.06
348.445	78.06
348.673	105.06
348.9	95.06
349.128	88.06
349.355	86.06
349.583	87.06
349.81	79.06
350.037	89.06
350.265	79.06
350.492	80.06
350.72	85.06
350.947	96.06
351.174	90.06
351.402	76.06
351.629	62.06
351.856	90.06
352.083	89.06
352.311	77.06
352.538	79.06
352.765	81.06
352.992	76.06
353.22	92.06
353.447	83.06
353.674	89.06
353.901	77.06
354.128	90.06
354.355	76.06
354.583	87.06
354.81	95.06
355.037	96.06
355.264	94.06
355.491	80.06
355.718	81.06
355.945	82.06
356.172	82.06
356.399	71.06
356.626	74.06
356.853	84.06
357.08	82.06
357.307	73.06
357.534	80.06
357.761	90.06
357.988	97.06
358.215	84.06
358.441	84.06
358.668	89.06
358.895	75.06
359.122	80.06
359.349	90.06
359.576	83.06
359.802	75.06
360.029	82.06
360.256	72.06
360.483	93.06
360.709	89.06
360.936	89.06
361.163	84.06
361.39	92.06
361.616	82.06
361.843	86.06
362.07	86.06
362.296	99.06
362.523	86.06
362.749	78.06
362.976	87.06
363.203	98.06
363.429	86.06
363.656	87.06
363.882	70.06
364.109	92.06
364.335	92.06
364.562	101.06
364.788	70.06
365.015	85.06
365.241	90.06
365.468	84.06
365.694	80.06
365.92	94.06
366.147	87.06
366.373	86.06
366.599	82.06
366.826	83.06
367.052	75.06
367.278	88.06
367.505	90.06
367.731	96.06
367.957	96.06
368.184	72.06
368.41	75.06
368.636	89.06
368.862	92.06
369.089	69.06
369.315	74.06
369.541	84.06
369.767	86.06
369.993	73.06
370.219	81.06
370.445	93.06
370.672	85.06
370.898	76.06
371.124	75.06
371.35	79.06
371.576	86.06
371.802	79.06
372.028	95.06
372.254	86.06
372.48	75.06
372.706	77.06
372.932	75.06
373.158	85.06
373.384	90.06
373.61	83.06
373.835	84.06
374.061	113.06
374.287	84.06
374.513	75.06
374.739	83.06
374.965	73.06
375.191	96.06
375.416	91.06
375.642	98.06
375.868	89.06
376.094	76.06
376.319	80.06
376.545	75.06
376.771	70.06
376.997	79.06
377.222	72.06
377.448	85.06
377.674	77.06
377.899	82.06
378.125	69.06
378.35	76.06
378.576	82.06
378.802	98.06
379.027	95.06
379.253	94.06
379.478	77.06
379.704	98.06
379.929	96.06
380.155	94.06
380.38	82.06
380.606	77.06
380.831	61.06
381.057	81.06
381.282	91.06
381.507	80.06
381.733	99.06
381.958	85.06
382.184	86.06
382.409	85.06
382.634	84.06
382.86	83.06
383.085	89.06
383.31	84.06
383.535	93.06
383.761	86.06
383.986	87.06
384.211	80.06
384.436	78.06
384.662	79.06
384.887	81.06
385.112	81.06
385.337	84.06
385.562	83.06
385.787	78.06
386.013	80.06
386.238	85.06
386.463	77.06
386.688	88.06
386.913	85.06
387.138	98.06
387.363	91.06
387.588	82.06
387.813	92.06
388.038	81.06
388.263	76.06
388.488	81.06
388.713	65.06
388.938	76.06
389.163	86.06
389.387	73.06
389.612	90.06
389.837	102.06
390.062	86.06
390.287	95.06
390.512	79.06
390.736	94.06
390.961	76.06
391.186	76.06
391.411	77.06
391.636	88.06
391.86	89.06
392.085	92.06
392.31	90.06
392.534	94.06
392.759	93.06
392.984	106.06
393.208	130.06
393.433	164.06
393.658	130.06
393.882	94.06
394.107	95.06
394.331	82.06
394.556	82.06
394.78	79.06
395.005	84.06
395.229	84.06
395.454	76.06
395.678	76.06
395.903	100.06
396.127	106.06
396.352	112.06
396.576	112.06
396.801	113.06
397.025	163.06
397.249	101.06
397.474	83.06
397.698	80.06
397.922	80.06
398.147	80.06
398.371	84.06
398.595	77.06
398.82	84.06
399.044	89.06
399.268	85.06
399.492	91.06
399.717	80.06
399.941	76.06
400.165	82.06
400.389	85.06
400.613	86.06
400.837	81.06
401.062	82.06
401.286	81.06
401.51	95.06
401.734	86.06
401.958	90.06
402.182	71.06
402.406	77.06
402.63	90.06
402.854	76.06
403.078	87.06
403.302	78.06
403.526	81.06
403.75	83.06
403.974	101.06
404.198	93.06
404.422	133.06
404.645	144.06
404.869	126.06
405.093	95.06
405.317	95.06
405.541	81.06
405.765	95.06
405.988	71.06
406.212	80.06
406.436	103.06
406.66	84.06
406.883	82.06
407.107	76.06
407.331	91.06
407.555	88.06
407.778	85.06
408.002	86.06
408.226	91.06
408.449	83.06
408.673	78.06
408.896	93.06
409.12	82.06
409.344	77.06
409.567	78.06
409.791	80.06
410.014	76.06
410.238	84.06
410.461	73.06
410.685	82.06
410.908	70.06
411.132	71.06
411.355	75.06
411.578	85.06
411.802	82.06
412.025	89.06
412.249	86.06
412.472	76.06
412.695	81.06
412.919	91.06
413.142	82.06
413.365	82.06
413.589	86.06
413.812	80.06
414.035	89.06
414.258	82.06
414.482	102.06
414.705	102.06
414.928	79.06
415.151	70.06
415.374	88.06
415.597	71.06
415.821	82.06
416.044	80.06
416.267	87.06
416.49	83.06
416.713	80.06
416.936	97.06
417.159	83.06
417.382	70.06
417.605	78.06
417.828	85.06
418.051	76.06
418.274	82.06
418.497	98.06
418.72	82.06
418.943	79.06
419.166	86.06
419.389	88.06
419.611	80.06
419.834	88.06
420.057	85.06
420.28	93.06
420.503	97.06
420.726	81.06
420.948	65.06
421.171	76.06
421.394	86.06
421.617	84.06
421.839	87.06
422.062	90.06
422.285	99.06
422.507	170.06
422.73	255.06
422.953	222.06
423.175	122.06
423.398	91.06
423.621	89.06
423.843	72.06
424.066	72.06
424.288	97.06
424.511	84.06
424.733	78.06
424.956	92.06
425.178	74.06
425.401	72.06
425.623	91.06
425.846	88.06
426.068	70.06
426.291	84.06
426.513	88.06
426.735	87.06
426.958	104.06
427.18	73.06
427.402	92.06
427.625	76.06
427.847	75.06
428.069	87.06
428.292	103.06
428.514	109.06
428.736	88.06
428.958	112.06
429.181	111.06
429.403	89.06
429.625	84.06
429.847	101.06
430.069	112.06
430.292	120.06
430.514	128.06
430.736	100.06
430.958	90.06
431.18	91.06
431.402	96.06
431.624	91.06
431.846	96.06
432.068	95.06
432.29	81.06
432.512	85.06
432.734	70.06
432.956	78.06
433.178	79.06
433.4	112.06
433.622	70.06
433.844	82.06
434.066	84.06
434.287	95.06
434.509	82.06
434.731	83.06
434.953	90.06
435.175	80.06
435.397	86.06
435.618	79.06
435.84	80.06
436.062	74.06
436.284	88.06
436.505	100.06
436.727	82.06
436.949	80.06
437.17	71.06
437.392	93.06
437.614	80.06
437.835	78.06
438.057	73.06
438.278	80.06
438.5	85.06
438.721	81.06
438.943	81.06
439.165	87.06
439.386	73.06
439.608	103.06
439.829	82.06
440.05	84.06
440.272	84.06
440.493	83.06
440.715	76.06
440.936	68.06
441.158	86.06
441.379	68.06
441.6	77.06
441.822	82.06
442.043	66.06
442.264	75.06
442.486	104.06
442.707	113.06
442.928	97.06
443.149	91.06
443.371	103.06
443.592	147.06
443.813	128.06
444.034	111.06
444.255	93.06
444.476	91.06
444.698	82.06
444.919	80.06
445.14	199.06
445.361	178.06
445.582	169.06
445.803	157.06
446.024	90.06
446.245	71.06
446.466	80.06
446.687	76.06
446.908	87.06
447.129	78.06
447.35	78.06
447.571	92.06
447.792	76.06
448.013	85.06
448.234	86.06
448.455	84.06
448.675	81.06
448.896	92.06
449.117	70.06
449.338	80.06
449.559	88.06
449.779	79.06
450	79.06
450.221	86.06
450.442	66.06
450.662	82.06
450.883	74.06
451.104	86.06
451.324	83.06
451.545	80.06
451.766	85.06
451.986	78.06
452.207	77.06
452.428	71.06
452.648	76.06
452.869	62.06
453.089	78.06
453.31	80.06
453.53	72.06
453.751	83.06
453.971	82.06
454.192	86.06
454.412	83.06
454.633	90.06
454.853	84.06
455.073	67.06
455.294	84.06
455.514	90.06
455.734	83.06
455.955	84.06
456.175	87.06
456.395	68.06
456.616	94.06
456.836	90.06
457.056	75.06
457.276	81.06
457.497	76.06
457.717	80.06
457.937	84.06
458.157	99.06
458.377	89.06
458.598	92.06
458.818	98.06
459.038	77.06
459.258	84.06
459.478	87.06
459.698	89.06
459.918	83.06
460.138	82.06
460.358	81.06
460.578	94.06
460.798	99.06
461.018	101.06
461.238	92.06
461.458	71.06
461.678	68.06
461.898	94.06
462.118	88.06
462.338	75.06
462.558	82.06
462.777	92.06
462.997	80.06
463.217	82.06
463.437	88.06
463.657	70.06
463.876	62.06
464.096	83.06
464.316	65.06
464.536	91.06
464.755	82.06
464.975	76.06
465.195	67.06
465.414	88.06
465.634	91.06
465.854	87.06
466.073	86.06
466.293	77.06
466.512	72.06
466.732	94.06
466.951	86.06
467.171	88.06
467.391	77.06
467.61	86.06
467.829	80.06
468.049	92.06
468.268	83.06
468.488	90.06
468.707	80.06
468.927	73.06
469.146	78.06
469.365	68.06
469.585	73.06
469.804	87.06
470.023	90.06
470.243	72.06
470.462	82.06
470.681	96.06
470.901	77.06
471.12	80.06
471.339	86.06
471.558	80.06
471.777	97.06
471.997	88.06
472.216	70.06
472.435	66.06
472.654	82.06
472.873	80.06
473.092	87.06
473.311	71.06
473.53	83.06
473.749	88.06
473.968	83.06
474.187	80.06
474.406	75.06
474.625	93.06
474.844	77.06
475.063	70.06
475.282	81.06
475.501	80.06
475.72	76.06
475.939	74.06
476.158	73.06
476.377	76.06
476.596	78.06
476.814	79.06
477.033	81.06
477.252	67.06
477.471	92.06
477.69	80.06
477.908	74.06
478.127	84.06
478.346	94.06
478.564	100.06
478.783	78.06
479.002	84.06
479.22	91.06
479.439	87.06
479.658	82.06
479.876	80.06
480.095	84.06
480.313	73.06
480.532	84.06
480.751	80.06
480.969	92.06
481.188	80.06
481.406	90.06
481.624	82.06
481.843	81.06
482.061	67.06
482.28	89.06
482.498	72.06
482.717	89.06
482.935	81.06
483.153	88.06
483.372	86.06
483.59	76.06
483.808	90.06
484.027	84.06
484.245	90.06
484.463	88.06
484.681	91.06
484.9	87.06
485.118	75.06
485.336	68.06
485.554	92.06
485.772	87.06
485.99	78.06
486.209	87.06
486.427	68.06
486.645	88.06
486.863	82.06
487.081	68.06
487.299	95.06
487.517	85.06
487.735	90.06
487.953	111.06
488.171	100.06
488.389	86.06
488.607	88.06
488.825	84.06
489.043	92.06
489.261	96.06
489.479	77.06
489.696	69.06
489.914	76.06
490.132	62.06
490.35	83.06
490.568	72.06
490.786	75.06
491.003	83.06
491.221	68.06
491.439	73.06
491.657	82.06
491.874	82.06
492.092	81.06
492.31	96.06
492.527	68.06
492.745	85.06
492.963	87.06
493.18	98.06
493.398	68.06
493.615	66.06
493.833	79.06
494.05	96.06
494.268	69.06
494.485	84.06
494.703	91.06
494.92	92.06
495.138	80.06
495.355	92.06
495.573	66.06
495.79	83.06
496.008	77.06
496.225	77.06
496.442	71.06
496.66	81.06
496.877	81.06
497.094	79.06
497.312	83.06
497.529	82.06
497.746	87.06
497.963	75.06
498.181	82.06
498.398	88.06
498.615	85.06
498.832	86.06
499.049	85.06
499.267	84.06
499.484	70.06
499.701	72.06
499.918	92.06
500.135	80.06
500.352	80.06
500.569	76.06
500.786	94.06
501.003	77.06
501.22	91.06
501.437	88.06
501.654	76.06
501.871	70.06
502.088	76.06
502.305	82.06
502.522	96.06
502.739	96.06
502.956	84.06
503.172	70.06
503.389	76.06
503.606	79.06
503.823	87.06
504.04	86.06
504.256	89.06
504.473	80.06
504.69	79.06
504.907	77.06
505.123	84.06
505.34	80.06
505.557	102.06
505.773	82.06
505.99	84.06
506.207	90.06
506.423	83.06
506.64	87.06
506.856	88.06
507.073	69.06
507.289	76.06
507.506	87.06
507.722	90.06
507.939	91.06
508.155	89.06
508.372	84.06
508.588	71.06
508.805	86.06
509.021	86.06
509.238	79.06
509.454	96.06
509.67	89.06
509.887	95.06
510.103	80.06
510.319	80.06
510.536	84.06
510.752	79.06
510.968	77.06
511.184	75.06
511.401	77.06
511.617	94.06
511.833	87.06
512.049	94.06
512.265	80.06
512.481	70.06
512.698	84.06
512.914	90.06
513.13	95.06
513.346	92.06
513.562	90.06
513.778	77.06
513.994	74.06
514.21	90.06
514.426	82.06
514.642	77.06
514.858	88.06
515.074	80.06
515.29	110.06
515.506	73.06
515.721	83.06
515.937	85.06
516.153	79.06
516.369	83.06
516.585	91.06
516.801	98.06
517.016	76.06
517.232	86.06
517.448	84.06
517.664	90.06
517.879	102.06
518.095	80.06
518.311	75.06
518.527	86.06
518.742	92.06
518.958	106.06
519.173	107.06
519.389	90.06
