Data from 2145_1_HRD10591_00020.txt Node
Date: Mon Jan 19 14:21:19 EST 2026
User: Yrep
Spectrometer: HR+D1059
Trigger mode: 1
Integration Time (sec): 1.000000E-1
Scans to average: 1
Electric dark correction enabled: true
Nonlinearity correction enabled: false
Boxcar width: 0
XAxis mode: Wavelengths
Number of Pixels in Spectrum: 2048
>>>>>Begin Spectral Data<<<<<
223.165	-8.19
223.4	-8.19
223.635	-8.19
223.869	-26.19
224.104	-17.19
224.338	-18.19
224.573	-12.19
224.808	-23.19
225.042	-12.19
225.277	0.81
225.511	4.81
225.746	14.81
225.98	18.81
226.215	2.81
226.449	16.81
226.683	25.81
226.918	13.81
227.152	18.81
227.387	31.81
227.621	41.81
227.856	40.81
228.09	48.81
228.324	44.81
228.559	50.81
228.793	65.81
229.027	72.81
229.262	72.81
229.496	56.81
229.73	48.81
229.964	69.81
230.199	72.81
230.433	71.81
230.667	73.81
230.901	88.81
231.136	76.81
231.37	85.81
231.604	79.81
231.838	82.81
232.072	89.81
232.306	83.81
232.541	72.81
232.775	85.81
233.009	87.81
233.243	67.81
233.477	69.81
233.711	90.81
233.945	91.81
234.179	74.81
234.413	78.81
234.647	78.81
234.881	82.81
235.115	79.81
235.349	80.81
235.583	73.81
235.817	80.81
236.051	82.81
236.285	81.81
236.519	68.81
236.753	79.81
236.987	76.81
237.221	77.81
237.455	75.81
237.689	66.81
237.922	71.81
238.156	78.81
238.39	67.81
238.624	61.81
238.858	72.81
239.091	76.81
239.325	90.81
239.559	75.81
239.793	67.81
240.027	62.81
240.26	74.81
240.494	87.81
240.728	66.81
240.961	76.81
241.195	69.81
241.429	77.81
241.662	83.81
241.896	76.81
242.13	74.81
242.363	69.81
242.597	66.81
242.83	81.81
243.064	65.81
243.298	78.81
243.531	84.81
243.765	83.81
243.998	85.81
244.232	63.81
244.465	73.81
244.699	80.81
244.932	71.81
245.166	67.81
245.399	54.81
245.633	78.81
245.866	87.81
246.099	76.81
246.333	73.81
246.566	55.81
246.8	71.81
247.033	62.81
247.266	92.81
247.5	66.81
247.733	77.81
247.966	72.81
248.2	75.81
248.433	78.81
248.666	75.81
248.899	69.81
249.133	75.81
249.366	77.81
249.599	65.81
249.832	86.81
250.066	83.81
250.299	65.81
250.532	85.81
250.765	66.81
250.998	86.81
251.231	91.81
251.465	81.81
251.698	86.81
251.931	82.81
252.164	63.81
252.397	68.81
252.63	79.81
252.863	79.81
253.096	91.81
253.329	74.81
253.562	61.81
253.795	69.81
254.028	84.81
254.261	76.81
254.494	73.81
254.727	71.81
254.96	72.81
255.193	69.81
255.426	71.81
255.659	77.81
255.892	79.81
256.124	83.81
256.357	73.81
256.59	92.81
256.823	76.81
257.056	75.81
257.289	72.81
257.521	79.81
257.754	83.81
257.987	76.81
258.22	71.81
258.452	80.81
258.685	82.81
258.918	67.81
259.151	75.81
259.383	85.81
259.616	83.81
259.849	83.81
260.081	77.81
260.314	73.81
260.547	76.81
260.779	70.81
261.012	80.81
261.244	78.81
261.477	75.81
261.71	87.81
261.942	75.81
262.175	82.81
262.407	85.81
262.64	83.81
262.872	83.81
263.105	67.81
263.337	70.81
263.57	83.81
263.802	78.81
264.035	77.81
264.267	73.81
264.499	74.81
264.732	81.81
264.964	77.81
265.197	82.81
265.429	89.81
265.661	75.81
265.894	90.81
266.126	106.81
266.358	79.81
266.591	67.81
266.823	81.81
267.055	84.81
267.287	59.81
267.52	72.81
267.752	69.81
267.984	84.81
268.216	80.81
268.448	97.81
268.681	77.81
268.913	76.81
269.145	74.81
269.377	82.81
269.609	81.81
269.841	76.81
270.073	78.81
270.306	79.81
270.538	89.81
270.77	79.81
271.002	83.81
271.234	79.81
271.466	74.81
271.698	83.81
271.93	79.81
272.162	73.81
272.394	87.81
272.626	79.81
272.858	77.81
273.09	83.81
273.322	80.81
273.553	73.81
273.785	86.81
274.017	72.81
274.249	76.81
274.481	82.81
274.713	83.81
274.945	71.81
275.176	68.81
275.408	92.81
275.64	88.81
275.872	92.81
276.104	89.81
276.335	89.81
276.567	96.81
276.799	83.81
277.031	88.81
277.262	83.81
277.494	88.81
277.726	83.81
277.957	71.81
278.189	66.81
278.421	70.81
278.652	80.81
278.884	77.81
279.115	72.81
279.347	83.81
279.579	76.81
279.81	78.81
280.042	83.81
280.273	95.81
280.505	87.81
280.736	92.81
280.968	88.81
281.199	85.81
281.431	96.81
281.662	83.81
281.894	83.81
282.125	87.81
282.356	79.81
282.588	65.81
282.819	79.81
283.051	74.81
283.282	90.81
283.513	84.81
283.745	92.81
283.976	92.81
284.207	91.81
284.439	90.81
284.67	71.81
284.901	85.81
285.132	87.81
285.364	98.81
285.595	107.81
285.826	85.81
286.057	71.81
286.288	78.81
286.52	81.81
286.751	85.81
286.982	75.81
287.213	79.81
287.444	81.81
287.675	91.81
287.906	81.81
288.138	93.81
288.369	86.81
288.6	83.81
288.831	96.81
289.062	97.81
289.293	77.81
289.524	90.81
289.755	77.81
289.986	57.81
290.217	83.81
290.448	89.81
290.679	89.81
290.91	82.81
291.141	79.81
291.371	75.81
291.602	75.81
291.833	75.81
292.064	90.81
292.295	79.81
292.526	65.81
292.757	86.81
292.987	87.81
293.218	80.81
293.449	86.81
293.68	85.81
293.91	89.81
294.141	80.81
294.372	89.81
294.603	80.81
294.833	79.81
295.064	85.81
295.295	76.81
295.525	83.81
295.756	72.81
295.987	97.81
296.217	74.81
296.448	86.81
296.679	79.81
296.909	80.81
297.14	74.81
297.37	91.81
297.601	97.81
297.831	96.81
298.062	71.81
298.292	87.81
298.523	92.81
298.753	88.81
298.984	76.81
299.214	81.81
299.445	87.81
299.675	74.81
299.905	90.81
300.136	78.81
300.366	72.81
300.597	97.81
300.827	72.81
301.057	89.81
301.288	76.81
301.518	79.81
301.748	101.81
301.979	97.81
302.209	89.81
302.439	84.81
302.669	95.81
302.9	88.81
303.13	87.81
303.36	87.81
303.59	76.81
303.82	81.81
304.051	81.81
304.281	98.81
304.511	72.81
304.741	84.81
304.971	87.81
305.201	89.81
305.431	87.81
305.661	83.81
305.891	76.81
306.121	86.81
306.352	101.81
306.582	92.81
306.812	77.81
307.042	72.81
307.272	76.81
307.502	76.81
307.731	84.81
307.961	81.81
308.191	91.81
308.421	96.81
308.651	99.81
308.881	100.81
309.111	80.81
309.341	78.81
309.571	86.81
309.8	93.81
310.03	68.81
310.26	79.81
310.49	89.81
310.72	84.81
310.949	98.81
311.179	81.81
311.409	79.81
311.639	91.81
311.868	84.81
312.098	87.81
312.328	85.81
312.557	85.81
312.787	73.81
313.017	97.81
313.246	92.81
313.476	100.81
313.706	76.81
313.935	82.81
314.165	70.81
314.394	87.81
314.624	79.81
314.853	83.81
315.083	91.81
315.312	83.81
315.542	87.81
315.771	84.81
316.001	76.81
316.23	92.81
316.46	78.81
316.689	78.81
316.919	96.81
317.148	78.81
317.377	91.81
317.607	88.81
317.836	91.81
318.065	91.81
318.295	78.81
318.524	73.81
318.753	86.81
318.983	84.81
319.212	79.81
319.441	104.81
319.67	71.81
319.9	87.81
320.129	90.81
320.358	89.81
320.587	91.81
320.816	94.81
321.046	81.81
321.275	87.81
321.504	82.81
321.733	80.81
321.962	87.81
322.191	88.81
322.42	89.81
322.649	74.81
322.878	74.81
323.108	84.81
323.337	79.81
323.566	87.81
323.795	95.81
324.024	90.81
324.253	91.81
324.482	88.81
324.71	87.81
324.939	92.81
325.168	95.81
325.397	81.81
325.626	85.81
325.855	74.81
326.084	88.81
326.313	75.81
326.542	65.81
326.77	97.81
326.999	87.81
327.228	99.81
327.457	87.81
327.686	89.81
327.914	76.81
328.143	77.81
328.372	103.81
328.6	79.81
328.829	80.81
329.058	85.81
329.287	75.81
329.515	86.81
329.744	79.81
329.972	86.81
330.201	99.81
330.43	99.81
330.658	103.81
330.887	88.81
331.115	74.81
331.344	80.81
331.572	100.81
331.801	76.81
332.03	77.81
332.258	73.81
332.486	83.81
332.715	93.81
332.943	87.81
333.172	71.81
333.4	87.81
333.629	74.81
333.857	84.81
334.085	98.81
334.314	84.81
334.542	82.81
334.771	89.81
334.999	88.81
335.227	85.81
335.455	93.81
335.684	97.81
335.912	83.81
336.14	93.81
336.369	101.81
336.597	73.81
336.825	95.81
337.053	93.81
337.281	71.81
337.51	91.81
337.738	85.81
337.966	88.81
338.194	69.81
338.422	88.81
338.65	80.81
338.878	87.81
339.106	81.81
339.334	95.81
339.562	74.81
339.79	82.81
340.018	92.81
340.246	83.81
340.474	91.81
340.702	98.81
340.93	75.81
341.158	82.81
341.386	84.81
341.614	80.81
341.842	88.81
342.07	86.81
342.298	78.81
342.526	85.81
342.754	90.81
342.981	75.81
343.209	72.81
343.437	89.81
343.665	77.81
343.893	93.81
344.12	93.81
344.348	91.81
344.576	97.81
344.804	84.81
345.031	77.81
345.259	80.81
345.487	85.81
345.714	85.81
345.942	68.81
346.17	90.81
346.397	72.81
346.625	92.81
346.853	76.81
347.08	69.81
347.308	91.81
347.535	97.81
347.763	82.81
347.99	83.81
348.218	97.81
348.445	80.81
348.673	83.81
348.9	97.81
349.128	93.81
349.355	101.81
349.583	92.81
349.81	78.81
350.037	88.81
350.265	84.81
350.492	77.81
350.72	89.81
350.947	82.81
351.174	82.81
351.402	88.81
351.629	89.81
351.856	93.81
352.083	71.81
352.311	101.81
352.538	81.81
352.765	88.81
352.992	103.81
353.22	85.81
353.447	82.81
353.674	93.81
353.901	98.81
354.128	83.81
354.355	88.81
354.583	90.81
354.81	84.81
355.037	90.81
355.264	85.81
355.491	80.81
355.718	98.81
355.945	100.81
356.172	84.81
356.399	83.81
356.626	87.81
356.853	87.81
357.08	92.81
357.307	89.81
357.534	85.81
357.761	95.81
357.988	104.81
358.215	83.81
358.441	92.81
358.668	82.81
358.895	86.81
359.122	85.81
359.349	96.81
359.576	90.81
359.802	84.81
360.029	87.81
360.256	78.81
360.483	83.81
360.709	82.81
360.936	87.81
361.163	90.81
361.39	92.81
361.616	84.81
361.843	90.81
362.07	79.81
362.296	98.81
362.523	102.81
362.749	104.81
362.976	102.81
363.203	107.81
363.429	97.81
363.656	84.81
363.882	98.81
364.109	112.81
364.335	107.81
364.562	113.81
364.788	99.81
365.015	87.81
365.241	85.81
365.468	88.81
365.694	103.81
365.92	96.81
366.147	84.81
366.373	87.81
366.599	78.81
366.826	99.81
367.052	94.81
367.278	91.81
367.505	108.81
367.731	84.81
367.957	90.81
368.184	85.81
368.41	87.81
368.636	89.81
368.862	87.81
369.089	88.81
369.315	74.81
369.541	83.81
369.767	73.81
369.993	85.81
370.219	92.81
370.445	78.81
370.672	87.81
370.898	99.81
371.124	89.81
371.35	67.81
371.576	96.81
371.802	79.81
372.028	82.81
372.254	95.81
372.48	93.81
372.706	77.81
372.932	76.81
373.158	80.81
373.384	83.81
373.61	91.81
373.835	88.81
374.061	99.81
374.287	87.81
374.513	81.81
374.739	104.81
374.965	103.81
375.191	91.81
375.416	87.81
375.642	75.81
375.868	89.81
376.094	97.81
376.319	82.81
376.545	102.81
376.771	81.81
376.997	88.81
377.222	77.81
377.448	86.81
377.674	70.81
377.899	71.81
378.125	89.81
378.35	84.81
378.576	83.81
378.802	83.81
379.027	83.81
379.253	84.81
379.478	92.81
379.704	83.81
379.929	79.81
380.155	90.81
380.38	76.81
380.606	95.81
380.831	85.81
381.057	88.81
381.282	97.81
381.507	85.81
381.733	84.81
381.958	98.81
382.184	93.81
382.409	97.81
382.634	97.81
382.86	96.81
383.085	103.81
383.31	81.81
383.535	92.81
383.761	80.81
383.986	84.81
384.211	87.81
384.436	81.81
384.662	77.81
384.887	106.81
385.112	96.81
385.337	77.81
385.562	86.81
385.787	90.81
386.013	91.81
386.238	93.81
386.463	85.81
386.688	96.81
386.913	86.81
387.138	85.81
387.363	89.81
387.588	102.81
387.813	97.81
388.038	85.81
388.263	93.81
388.488	73.81
388.713	96.81
388.938	91.81
389.163	84.81
389.387	95.81
389.612	77.81
389.837	83.81
390.062	93.81
390.287	95.81
390.512	84.81
390.736	87.81
390.961	82.81
391.186	81.81
391.411	95.81
391.636	88.81
391.86	83.81
392.085	84.81
392.31	89.81
392.534	87.81
392.759	95.81
392.984	131.81
393.208	211.81
393.433	281.81
393.658	233.81
393.882	117.81
394.107	102.81
394.331	105.81
394.556	111.81
394.78	114.81
395.005	90.81
395.229	72.81
395.454	91.81
395.678	109.81
395.903	93.81
396.127	112.81
396.352	139.81
396.576	143.81
396.801	211.81
397.025	242.81
397.249	155.81
397.474	133.81
397.698	106.81
397.922	97.81
398.147	89.81
398.371	88.81
398.595	77.81
398.82	77.81
399.044	88.81
399.268	81.81
399.492	76.81
399.717	91.81
399.941	71.81
400.165	101.81
400.389	89.81
400.613	78.81
400.837	92.81
401.062	82.81
401.286	80.81
401.51	79.81
401.734	83.81
401.958	91.81
402.182	90.81
402.406	85.81
402.63	81.81
402.854	95.81
403.078	81.81
403.302	86.81
403.526	87.81
403.75	90.81
403.974	91.81
404.198	111.81
404.422	151.81
404.645	183.81
404.869	147.81
405.093	107.81
405.317	98.81
405.541	88.81
405.765	85.81
405.988	90.81
406.212	82.81
406.436	80.81
406.66	85.81
406.883	83.81
407.107	94.81
407.331	88.81
407.555	97.81
407.778	91.81
408.002	95.81
408.226	97.81
408.449	86.81
408.673	67.81
408.896	91.81
409.12	84.81
409.344	99.81
409.567	91.81
409.791	97.81
410.014	98.81
410.238	98.81
410.461	80.81
410.685	97.81
410.908	99.81
411.132	87.81
411.355	85.81
411.578	93.81
411.802	95.81
412.025	91.81
412.249	91.81
412.472	98.81
412.695	88.81
412.919	84.81
413.142	82.81
413.365	82.81
413.589	92.81
413.812	74.81
414.035	92.81
414.258	71.81
414.482	80.81
414.705	70.81
414.928	84.81
415.151	79.81
415.374	85.81
415.597	72.81
415.821	82.81
416.044	83.81
416.267	87.81
416.49	99.81
416.713	88.81
416.936	81.81
417.159	84.81
417.382	90.81
417.605	85.81
417.828	91.81
418.051	85.81
418.274	89.81
418.497	90.81
418.72	85.81
418.943	93.81
419.166	100.81
419.389	97.81
419.611	83.81
419.834	95.81
420.057	89.81
420.28	85.81
420.503	82.81
420.726	82.81
420.948	90.81
421.171	111.81
421.394	102.81
421.617	111.81
421.839	117.81
422.062	135.81
422.285	193.81
422.507	328.81
422.73	534.81
422.953	485.81
423.175	247.81
423.398	132.81
423.621	116.81
423.843	108.81
424.066	106.81
424.288	99.81
424.511	89.81
424.733	101.81
424.956	94.81
425.178	91.81
425.401	94.81
425.623	88.81
425.846	76.81
426.068	91.81
426.291	77.81
426.513	84.81
426.735	91.81
426.958	76.81
427.18	89.81
427.402	86.81
427.625	95.81
427.847	69.81
428.069	91.81
428.292	130.81
428.514	148.81
428.736	123.81
428.958	135.81
429.181	134.81
429.403	96.81
429.625	109.81
429.847	121.81
430.069	168.81
430.292	212.81
430.514	182.81
430.736	141.81
430.958	147.81
431.18	95.81
431.402	90.81
431.624	99.81
431.846	140.81
432.068	131.81
432.29	92.81
432.512	97.81
432.734	83.81
432.956	89.81
433.178	97.81
433.4	71.81
433.622	92.81
433.844	82.81
434.066	79.81
434.287	81.81
434.509	92.81
434.731	87.81
434.953	76.81
435.175	81.81
435.397	92.81
435.618	91.81
435.84	89.81
436.062	82.81
436.284	79.81
436.505	95.81
436.727	86.81
436.949	80.81
437.17	72.81
437.392	85.81
437.614	90.81
437.835	84.81
438.057	71.81
438.278	69.81
438.5	98.81
438.721	87.81
438.943	103.81
439.165	82.81
439.386	88.81
439.608	80.81
439.829	73.81
440.05	80.81
440.272	69.81
440.493	81.81
440.715	87.81
440.936	82.81
441.158	94.81
441.379	87.81
441.6	91.81
441.822	81.81
442.043	90.81
442.264	104.81
442.486	139.81
442.707	186.81
442.928	115.81
443.149	115.81
443.371	162.81
443.592	266.81
443.813	227.81
444.034	122.81
444.255	100.81
444.476	99.81
444.698	89.81
444.919	88.81
445.14	199.81
445.361	207.81
445.582	323.81
445.803	247.81
446.024	115.81
446.245	113.81
446.466	96.81
446.687	82.81
446.908	85.81
447.129	84.81
447.35	91.81
447.571	98.81
447.792	74.81
448.013	88.81
448.234	86.81
448.455	91.81
448.675	91.81
448.896	91.81
449.117	73.81
449.338	83.81
449.559	89.81
449.779	76.81
450	80.81
450.221	92.81
450.442	85.81
450.662	85.81
450.883	72.81
451.104	83.81
451.324	85.81
451.545	80.81
451.766	90.81
451.986	99.81
452.207	70.81
452.428	101.81
452.648	68.81
452.869	85.81
453.089	100.81
453.31	98.81
453.53	80.81
453.751	92.81
453.971	86.81
454.192	90.81
454.412	96.81
454.633	99.81
454.853	90.81
455.073	84.81
455.294	105.81
455.514	90.81
455.734	94.81
455.955	91.81
456.175	72.81
456.395	79.81
456.616	80.81
456.836	84.81
457.056	83.81
457.276	81.81
457.497	85.81
457.717	97.81
457.937	104.81
458.157	116.81
458.377	119.81
458.598	113.81
458.818	101.81
459.038	97.81
459.258	98.81
459.478	80.81
459.698	99.81
459.918	92.81
460.138	85.81
460.358	83.81
460.578	95.81
460.798	140.81
461.018	153.81
461.238	99.81
461.458	80.81
461.678	99.81
461.898	96.81
462.118	87.81
462.338	76.81
462.558	72.81
462.777	80.81
462.997	87.81
463.217	95.81
463.437	80.81
463.657	87.81
463.876	84.81
464.096	81.81
464.316	87.81
464.536	89.81
464.755	82.81
464.975	81.81
465.195	91.81
465.414	86.81
465.634	86.81
465.854	86.81
466.073	84.81
466.293	89.81
466.512	70.81
466.732	84.81
466.951	92.81
467.171	88.81
467.391	77.81
467.61	81.81
467.829	90.81
468.049	73.81
468.268	79.81
468.488	83.81
468.707	93.81
468.927	79.81
469.146	81.81
469.365	87.81
469.585	89.81
469.804	85.81
470.023	76.81
470.243	101.81
470.462	97.81
470.681	84.81
470.901	91.81
471.12	73.81
471.339	95.81
471.558	87.81
471.777	72.81
471.997	84.81
472.216	89.81
472.435	87.81
472.654	91.81
472.873	89.81
473.092	88.81
473.311	77.81
473.53	91.81
473.749	99.81
473.968	107.81
474.187	89.81
474.406	76.81
474.625	79.81
474.844	81.81
475.063	85.81
475.282	61.81
475.501	95.81
475.72	93.81
475.939	85.81
476.158	90.81
476.377	95.81
476.596	86.81
476.814	78.81
477.033	93.81
477.252	70.81
477.471	89.81
477.69	106.81
477.908	92.81
478.127	97.81
478.346	79.81
478.564	98.81
478.783	84.81
479.002	71.81
479.22	77.81
479.439	91.81
479.658	79.81
479.876	81.81
480.095	73.81
480.313	78.81
480.532	84.81
480.751	80.81
480.969	80.81
481.188	86.81
481.406	98.81
481.624	107.81
481.843	98.81
482.061	97.81
482.28	85.81
482.498	81.81
482.717	88.81
482.935	71.81
483.153	81.81
483.372	95.81
483.59	69.81
483.808	81.81
484.027	82.81
484.245	103.81
484.463	87.81
484.681	95.81
484.9	96.81
485.118	90.81
485.336	90.81
485.554	103.81
485.772	86.81
485.99	85.81
486.209	95.81
486.427	99.81
486.645	89.81
486.863	93.81
487.081	91.81
487.299	95.81
487.517	86.81
487.735	116.81
487.953	147.81
488.171	140.81
488.389	91.81
488.607	85.81
488.825	85.81
489.043	87.81
489.261	89.81
489.479	97.81
489.696	89.81
489.914	92.81
490.132	75.81
490.35	81.81
490.568	91.81
490.786	90.81
491.003	108.81
491.221	92.81
491.439	83.81
491.657	83.81
491.874	91.81
492.092	92.81
492.31	92.81
492.527	96.81
492.745	87.81
492.963	93.81
493.18	106.81
493.398	92.81
493.615	85.81
493.833	92.81
494.05	88.81
494.268	87.81
494.485	90.81
494.703	93.81
494.92	87.81
495.138	85.81
495.355	77.81
495.573	88.81
495.79	92.81
496.008	83.81
496.225	92.81
496.442	99.81
496.66	94.81
496.877	103.81
497.094	93.81
497.312	81.81
497.529	106.81
497.746	105.81
497.963	92.81
498.181	84.81
498.398	93.81
498.615	81.81
498.832	93.81
499.049	97.81
499.267	84.81
499.484	77.81
499.701	93.81
499.918	97.81
500.135	81.81
500.352	90.81
500.569	83.81
500.786	91.81
501.003	104.81
501.22	79.81
501.437	99.81
501.654	96.81
501.871	84.81
502.088	95.81
502.305	99.81
502.522	99.81
502.739	97.81
502.956	72.81
503.172	89.81
503.389	90.81
503.606	89.81
503.823	89.81
504.04	88.81
504.256	115.81
504.473	119.81
504.69	91.81
504.907	88.81
505.123	76.81
505.34	81.81
505.557	84.81
505.773	91.81
505.99	79.81
506.207	89.81
506.423	84.81
506.64	87.81
506.856	107.81
507.073	83.81
507.289	83.81
507.506	73.81
507.722	75.81
507.939	76.81
508.155	87.81
508.372	91.81
508.588	85.81
508.805	69.81
509.021	87.81
509.238	94.81
509.454	78.81
509.67	93.81
509.887	91.81
510.103	98.81
510.319	89.81
510.536	81.81
510.752	78.81
510.968	84.81
511.184	84.81
511.401	92.81
511.617	91.81
511.833	89.81
512.049	80.81
512.265	89.81
512.481	76.81
512.698	82.81
512.914	85.81
513.13	104.81
513.346	92.81
513.562	91.81
513.778	81.81
513.994	82.81
514.21	91.81
514.426	85.81
514.642	75.81
514.858	99.81
515.074	96.81
515.29	86.81
515.506	79.81
515.721	93.81
515.937	73.81
516.153	83.81
516.369	95.81
516.585	79.81
516.801	92.81
517.016	91.81
517.232	84.81
517.448	106.81
517.664	84.81
517.879	90.81
518.095	88.81
518.311	108.81
518.527	104.81
