Data from 2145_1_HRD10591_00041.txt Node
Date: Mon Jan 19 14:21:29 EST 2026
User: Yrep
Spectrometer: HR+D1059
Trigger mode: 1
Integration Time (sec): 1.000000E-1
Scans to average: 1
Electric dark correction enabled: true
Nonlinearity correction enabled: false
Boxcar width: 0
XAxis mode: Wavelengths
Number of Pixels in Spectrum: 2048
>>>>>Begin Spectral Data<<<<<
223.165	-21.62
223.4	-21.62
223.635	-21.62
223.869	-28.62
224.104	-18.62
224.338	-8.62
224.573	-19.62
224.808	-4.62
225.042	-5.62
225.277	-4.62
225.511	-5.62
225.746	5.38
225.98	5.38
226.215	2.38
226.449	12.38
226.683	24.38
226.918	31.38
227.152	36.38
227.387	25.38
227.621	40.38
227.856	45.38
228.09	55.38
228.324	56.38
228.559	45.38
228.793	65.38
229.027	56.38
229.262	78.38
229.496	72.38
229.73	59.38
229.964	62.38
230.199	70.38
230.433	84.38
230.667	78.38
230.901	72.38
231.136	88.38
231.37	80.38
231.604	90.38
231.838	89.38
232.072	84.38
232.306	89.38
232.541	84.38
232.775	87.38
233.009	73.38
233.243	94.38
233.477	84.38
233.711	95.38
233.945	66.38
234.179	90.38
234.413	97.38
234.647	70.38
234.881	69.38
235.115	79.38
235.349	87.38
235.583	88.38
235.817	74.38
236.051	71.38
236.285	80.38
236.519	66.38
236.753	85.38
236.987	72.38
237.221	74.38
237.455	81.38
237.689	84.38
237.922	67.38
238.156	87.38
238.39	74.38
238.624	84.38
238.858	88.38
239.091	76.38
239.325	71.38
239.559	77.38
239.793	79.38
240.027	94.38
240.26	81.38
240.494	79.38
240.728	88.38
240.961	78.38
241.195	84.38
241.429	98.38
241.662	89.38
241.896	73.38
242.13	84.38
242.363	63.38
242.597	77.38
242.83	89.38
243.064	90.38
243.298	61.38
243.531	80.38
243.765	84.38
243.998	93.38
244.232	76.38
244.465	81.38
244.699	72.38
244.932	84.38
245.166	81.38
245.399	67.38
245.633	71.38
245.866	84.38
246.099	85.38
246.333	78.38
246.566	76.38
246.8	80.38
247.033	84.38
247.266	82.38
247.5	90.38
247.733	77.38
247.966	69.38
248.2	75.38
248.433	68.38
248.666	81.38
248.899	82.38
249.133	60.38
249.366	66.38
249.599	77.38
249.832	86.38
250.066	105.38
250.299	85.38
250.532	79.38
250.765	82.38
250.998	86.38
251.231	77.38
251.465	79.38
251.698	84.38
251.931	75.38
252.164	94.38
252.397	96.38
252.63	94.38
252.863	76.38
253.096	82.38
253.329	81.38
253.562	86.38
253.795	84.38
254.028	79.38
254.261	80.38
254.494	69.38
254.727	84.38
254.96	78.38
255.193	68.38
255.426	88.38
255.659	75.38
255.892	84.38
256.124	87.38
256.357	91.38
256.59	103.38
256.823	75.38
257.056	83.38
257.289	69.38
257.521	78.38
257.754	84.38
257.987	86.38
258.22	71.38
258.452	79.38
258.685	87.38
258.918	72.38
259.151	76.38
259.383	77.38
259.616	85.38
259.849	90.38
260.081	86.38
260.314	84.38
260.547	76.38
260.779	82.38
261.012	84.38
261.244	81.38
261.477	90.38
261.71	76.38
261.942	80.38
262.175	78.38
262.407	76.38
262.64	76.38
262.872	86.38
263.105	81.38
263.337	98.38
263.57	75.38
263.802	101.38
264.035	70.38
264.267	84.38
264.499	82.38
264.732	95.38
264.964	82.38
265.197	90.38
265.429	86.38
265.661	83.38
265.894	62.38
266.126	87.38
266.358	95.38
266.591	93.38
266.823	91.38
267.055	88.38
267.287	90.38
267.52	88.38
267.752	83.38
267.984	80.38
268.216	71.38
268.448	84.38
268.681	68.38
268.913	83.38
269.145	103.38
269.377	77.38
269.609	88.38
269.841	92.38
270.073	88.38
270.306	93.38
270.538	87.38
270.77	74.38
271.002	80.38
271.234	98.38
271.466	85.38
271.698	82.38
271.93	98.38
272.162	83.38
272.394	85.38
272.626	79.38
272.858	78.38
273.09	85.38
273.322	80.38
273.553	82.38
273.785	78.38
274.017	84.38
274.249	87.38
274.481	83.38
274.713	88.38
274.945	87.38
275.176	89.38
275.408	90.38
275.64	78.38
275.872	96.38
276.104	90.38
276.335	96.38
276.567	91.38
276.799	72.38
277.031	95.38
277.262	95.38
277.494	71.38
277.726	84.38
277.957	90.38
278.189	76.38
278.421	95.38
278.652	86.38
278.884	77.38
279.115	81.38
279.347	85.38
279.579	72.38
279.81	79.38
280.042	79.38
280.273	73.38
280.505	87.38
280.736	76.38
280.968	67.38
281.199	86.38
281.431	90.38
281.662	79.38
281.894	76.38
282.125	84.38
282.356	80.38
282.588	91.38
282.819	80.38
283.051	75.38
283.282	93.38
283.513	96.38
283.745	89.38
283.976	76.38
284.207	86.38
284.439	104.38
284.67	88.38
284.901	87.38
285.132	81.38
285.364	87.38
285.595	88.38
285.826	93.38
286.057	80.38
286.288	73.38
286.52	86.38
286.751	93.38
286.982	90.38
287.213	80.38
287.444	94.38
287.675	74.38
287.906	84.38
288.138	72.38
288.369	83.38
288.6	75.38
288.831	87.38
289.062	93.38
289.293	83.38
289.524	75.38
289.755	78.38
289.986	86.38
290.217	100.38
290.448	79.38
290.679	87.38
290.91	92.38
291.141	98.38
291.371	92.38
291.602	94.38
291.833	89.38
292.064	95.38
292.295	82.38
292.526	95.38
292.757	95.38
292.987	90.38
293.218	85.38
293.449	95.38
293.68	95.38
293.91	82.38
294.141	90.38
294.372	87.38
294.603	77.38
294.833	84.38
295.064	96.38
295.295	80.38
295.525	88.38
295.756	79.38
295.987	84.38
296.217	84.38
296.448	72.38
296.679	81.38
296.909	94.38
297.14	84.38
297.37	89.38
297.601	81.38
297.831	85.38
298.062	93.38
298.292	111.38
298.523	102.38
298.753	90.38
298.984	70.38
299.214	93.38
299.445	94.38
299.675	106.38
299.905	97.38
300.136	71.38
300.366	79.38
300.597	77.38
300.827	86.38
301.057	98.38
301.288	94.38
301.518	83.38
301.748	83.38
301.979	102.38
302.209	101.38
302.439	98.38
302.669	104.38
302.9	92.38
303.13	76.38
303.36	80.38
303.59	91.38
303.82	86.38
304.051	79.38
304.281	91.38
304.511	79.38
304.741	75.38
304.971	93.38
305.201	85.38
305.431	99.38
305.661	71.38
305.891	78.38
306.121	101.38
306.352	79.38
306.582	86.38
306.812	92.38
307.042	67.38
307.272	76.38
307.502	91.38
307.731	82.38
307.961	83.38
308.191	91.38
308.421	69.38
308.651	94.38
308.881	73.38
309.111	89.38
309.341	81.38
309.571	98.38
309.8	99.38
310.03	98.38
310.26	92.38
310.49	76.38
310.72	92.38
310.949	89.38
311.179	90.38
311.409	80.38
311.639	84.38
311.868	96.38
312.098	91.38
312.328	93.38
312.557	77.38
312.787	88.38
313.017	91.38
313.246	86.38
313.476	94.38
313.706	94.38
313.935	76.38
314.165	85.38
314.394	103.38
314.624	103.38
314.853	87.38
315.083	102.38
315.312	93.38
315.542	84.38
315.771	91.38
316.001	85.38
316.23	92.38
316.46	76.38
316.689	88.38
316.919	101.38
317.148	88.38
317.377	96.38
317.607	83.38
317.836	89.38
318.065	99.38
318.295	94.38
318.524	86.38
318.753	84.38
318.983	102.38
319.212	81.38
319.441	88.38
319.67	87.38
319.9	93.38
320.129	89.38
320.358	101.38
320.587	79.38
320.816	92.38
321.046	80.38
321.275	88.38
321.504	95.38
321.733	93.38
321.962	88.38
322.191	88.38
322.42	87.38
322.649	89.38
322.878	94.38
323.108	83.38
323.337	89.38
323.566	93.38
323.795	101.38
324.024	92.38
324.253	77.38
324.482	89.38
324.71	83.38
324.939	94.38
325.168	81.38
325.397	93.38
325.626	85.38
325.855	85.38
326.084	86.38
326.313	92.38
326.542	79.38
326.77	85.38
326.999	77.38
327.228	91.38
327.457	107.38
327.686	87.38
327.914	94.38
328.143	83.38
328.372	90.38
328.6	81.38
328.829	88.38
329.058	85.38
329.287	88.38
329.515	90.38
329.744	86.38
329.972	93.38
330.201	79.38
330.43	72.38
330.658	93.38
330.887	96.38
331.115	97.38
331.344	88.38
331.572	90.38
331.801	94.38
332.03	94.38
332.258	95.38
332.486	90.38
332.715	86.38
332.943	89.38
333.172	80.38
333.4	89.38
333.629	83.38
333.857	101.38
334.085	85.38
334.314	85.38
334.542	101.38
334.771	96.38
334.999	102.38
335.227	90.38
335.455	93.38
335.684	73.38
335.912	90.38
336.14	88.38
336.369	95.38
336.597	75.38
336.825	76.38
337.053	81.38
337.281	89.38
337.51	88.38
337.738	95.38
337.966	98.38
338.194	87.38
338.422	86.38
338.65	85.38
338.878	80.38
339.106	103.38
339.334	88.38
339.562	71.38
339.79	91.38
340.018	78.38
340.246	74.38
340.474	90.38
340.702	89.38
340.93	98.38
341.158	87.38
341.386	86.38
341.614	90.38
341.842	94.38
342.07	96.38
342.298	90.38
342.526	90.38
342.754	95.38
342.981	72.38
343.209	83.38
343.437	110.38
343.665	90.38
343.893	87.38
344.12	94.38
344.348	90.38
344.576	80.38
344.804	86.38
345.031	99.38
345.259	80.38
345.487	93.38
345.714	95.38
345.942	82.38
346.17	92.38
346.397	79.38
346.625	86.38
346.853	84.38
347.08	81.38
347.308	79.38
347.535	88.38
347.763	68.38
347.99	86.38
348.218	87.38
348.445	83.38
348.673	93.38
348.9	74.38
349.128	96.38
349.355	93.38
349.583	96.38
349.81	81.38
350.037	86.38
350.265	88.38
350.492	79.38
350.72	83.38
350.947	85.38
351.174	91.38
351.402	77.38
351.629	89.38
351.856	101.38
352.083	101.38
352.311	90.38
352.538	94.38
352.765	91.38
352.992	96.38
353.22	87.38
353.447	69.38
353.674	91.38
353.901	84.38
354.128	80.38
354.355	91.38
354.583	90.38
354.81	92.38
355.037	81.38
355.264	95.38
355.491	92.38
355.718	91.38
355.945	94.38
356.172	89.38
356.399	79.38
356.626	86.38
356.853	76.38
357.08	78.38
357.307	87.38
357.534	72.38
357.761	100.38
357.988	89.38
358.215	83.38
358.441	89.38
358.668	90.38
358.895	93.38
359.122	94.38
359.349	90.38
359.576	84.38
359.802	91.38
360.029	87.38
360.256	96.38
360.483	78.38
360.709	77.38
360.936	105.38
361.163	79.38
361.39	83.38
361.616	93.38
361.843	80.38
362.07	94.38
362.296	85.38
362.523	86.38
362.749	91.38
362.976	95.38
363.203	93.38
363.429	97.38
363.656	98.38
363.882	80.38
364.109	100.38
364.335	94.38
364.562	90.38
364.788	81.38
365.015	99.38
365.241	87.38
365.468	74.38
365.694	84.38
365.92	81.38
366.147	87.38
366.373	85.38
366.599	83.38
366.826	69.38
367.052	92.38
367.278	87.38
367.505	101.38
367.731	100.38
367.957	89.38
368.184	76.38
368.41	87.38
368.636	82.38
368.862	77.38
369.089	94.38
369.315	82.38
369.541	80.38
369.767	98.38
369.993	72.38
370.219	73.38
370.445	85.38
370.672	71.38
370.898	77.38
371.124	82.38
371.35	85.38
371.576	66.38
371.802	90.38
372.028	89.38
372.254	71.38
372.48	84.38
372.706	92.38
372.932	82.38
373.158	75.38
373.384	105.38
373.61	80.38
373.835	93.38
374.061	98.38
374.287	88.38
374.513	80.38
374.739	78.38
374.965	95.38
375.191	88.38
375.416	69.38
375.642	99.38
375.868	98.38
376.094	90.38
376.319	81.38
376.545	84.38
376.771	77.38
376.997	85.38
377.222	86.38
377.448	71.38
377.674	74.38
377.899	90.38
378.125	86.38
378.35	90.38
378.576	80.38
378.802	92.38
379.027	96.38
379.253	93.38
379.478	80.38
379.704	72.38
379.929	86.38
380.155	89.38
380.38	72.38
380.606	84.38
380.831	94.38
381.057	90.38
381.282	76.38
381.507	87.38
381.733	74.38
381.958	82.38
382.184	76.38
382.409	90.38
382.634	94.38
382.86	96.38
383.085	82.38
383.31	89.38
383.535	79.38
383.761	76.38
383.986	96.38
384.211	87.38
384.436	83.38
384.662	92.38
384.887	91.38
385.112	93.38
385.337	88.38
385.562	74.38
385.787	90.38
386.013	70.38
386.238	78.38
386.463	87.38
386.688	107.38
386.913	70.38
387.138	84.38
387.363	87.38
387.588	87.38
387.813	78.38
388.038	95.38
388.263	84.38
388.488	70.38
388.713	74.38
388.938	89.38
389.163	81.38
389.387	88.38
389.612	75.38
389.837	71.38
390.062	95.38
390.287	72.38
390.512	88.38
390.736	95.38
390.961	81.38
391.186	88.38
391.411	89.38
391.636	76.38
391.86	79.38
392.085	78.38
392.31	92.38
392.534	84.38
392.759	103.38
392.984	131.38
393.208	151.38
393.433	229.38
393.658	178.38
393.882	120.38
394.107	100.38
394.331	98.38
394.556	119.38
394.78	108.38
395.005	69.38
395.229	66.38
395.454	78.38
395.678	98.38
395.903	110.38
396.127	111.38
396.352	124.38
396.576	138.38
396.801	145.38
397.025	186.38
397.249	122.38
397.474	94.38
397.698	90.38
397.922	73.38
398.147	83.38
398.371	85.38
398.595	89.38
398.82	99.38
399.044	76.38
399.268	84.38
399.492	88.38
399.717	92.38
399.941	85.38
400.165	81.38
400.389	91.38
400.613	80.38
400.837	86.38
401.062	80.38
401.286	90.38
401.51	86.38
401.734	78.38
401.958	94.38
402.182	83.38
402.406	95.38
402.63	79.38
402.854	75.38
403.078	95.38
403.302	91.38
403.526	81.38
403.75	74.38
403.974	96.38
404.198	95.38
404.422	115.38
404.645	142.38
404.869	117.38
405.093	88.38
405.317	95.38
405.541	93.38
405.765	92.38
405.988	86.38
406.212	82.38
406.436	88.38
406.66	78.38
406.883	81.38
407.107	94.38
407.331	94.38
407.555	94.38
407.778	85.38
408.002	103.38
408.226	87.38
408.449	94.38
408.673	82.38
408.896	94.38
409.12	84.38
409.344	85.38
409.567	77.38
409.791	79.38
410.014	100.38
410.238	87.38
410.461	79.38
410.685	98.38
410.908	78.38
411.132	98.38
411.355	96.38
411.578	104.38
411.802	94.38
412.025	81.38
412.249	83.38
412.472	84.38
412.695	76.38
412.919	72.38
413.142	86.38
413.365	90.38
413.589	85.38
413.812	68.38
414.035	80.38
414.258	93.38
414.482	71.38
414.705	90.38
414.928	96.38
415.151	88.38
415.374	77.38
415.597	101.38
415.821	81.38
416.044	91.38
416.267	84.38
416.49	90.38
416.713	86.38
416.936	92.38
417.159	97.38
417.382	76.38
417.605	92.38
417.828	78.38
418.051	100.38
418.274	86.38
418.497	86.38
418.72	81.38
418.943	79.38
419.166	100.38
419.389	100.38
419.611	90.38
419.834	85.38
420.057	78.38
420.28	84.38
420.503	89.38
420.726	78.38
420.948	95.38
421.171	98.38
421.394	90.38
421.617	100.38
421.839	103.38
422.062	100.38
422.285	125.38
422.507	196.38
422.73	294.38
422.953	252.38
423.175	140.38
423.398	116.38
423.621	105.38
423.843	99.38
424.066	100.38
424.288	89.38
424.511	88.38
424.733	71.38
424.956	99.38
425.178	78.38
425.401	76.38
425.623	87.38
425.846	86.38
426.068	75.38
426.291	81.38
426.513	84.38
426.735	84.38
426.958	74.38
427.18	86.38
427.402	98.38
427.625	85.38
427.847	94.38
428.069	91.38
428.292	83.38
428.514	120.38
428.736	104.38
428.958	101.38
429.181	121.38
429.403	91.38
429.625	93.38
429.847	95.38
430.069	131.38
430.292	135.38
430.514	135.38
430.736	118.38
430.958	120.38
431.18	101.38
431.402	86.38
431.624	105.38
431.846	108.38
432.068	120.38
432.29	86.38
432.512	87.38
432.734	85.38
432.956	79.38
433.178	86.38
433.4	84.38
433.622	88.38
433.844	80.38
434.066	88.38
434.287	80.38
434.509	66.38
434.731	90.38
434.953	76.38
435.175	81.38
435.397	91.38
435.618	79.38
435.84	80.38
436.062	78.38
436.284	80.38
436.505	88.38
436.727	80.38
436.949	79.38
437.17	96.38
437.392	77.38
437.614	80.38
437.835	81.38
438.057	78.38
438.278	85.38
438.5	102.38
438.721	87.38
438.943	78.38
439.165	79.38
439.386	79.38
439.608	79.38
439.829	74.38
440.05	72.38
440.272	84.38
440.493	82.38
440.715	89.38
440.936	74.38
441.158	87.38
441.379	92.38
441.6	70.38
441.822	88.38
442.043	76.38
442.264	88.38
442.486	114.38
442.707	122.38
442.928	102.38
443.149	103.38
443.371	119.38
443.592	164.38
443.813	151.38
444.034	101.38
444.255	75.38
444.476	87.38
444.698	101.38
444.919	88.38
445.14	181.38
445.361	187.38
445.582	200.38
445.803	182.38
446.024	106.38
446.245	98.38
446.466	79.38
446.687	88.38
446.908	77.38
447.129	81.38
447.35	75.38
447.571	74.38
447.792	82.38
448.013	70.38
448.234	75.38
448.455	79.38
448.675	83.38
448.896	76.38
449.117	95.38
449.338	94.38
449.559	84.38
449.779	94.38
450	81.38
450.221	77.38
450.442	85.38
450.662	84.38
450.883	82.38
451.104	81.38
451.324	91.38
451.545	94.38
451.766	98.38
451.986	95.38
452.207	93.38
452.428	96.38
452.648	83.38
452.869	100.38
453.089	77.38
453.31	77.38
453.53	85.38
453.751	93.38
453.971	78.38
454.192	87.38
454.412	66.38
454.633	77.38
454.853	88.38
455.073	88.38
455.294	87.38
455.514	86.38
455.734	80.38
455.955	86.38
456.175	79.38
456.395	92.38
456.616	78.38
456.836	85.38
457.056	93.38
457.276	77.38
457.497	72.38
457.717	85.38
457.937	105.38
458.157	100.38
458.377	107.38
458.598	95.38
458.818	90.38
459.038	85.38
459.258	79.38
459.478	84.38
459.698	85.38
459.918	83.38
460.138	96.38
460.358	86.38
460.578	77.38
460.798	97.38
461.018	105.38
461.238	85.38
461.458	76.38
461.678	82.38
461.898	84.38
462.118	103.38
462.338	86.38
462.558	78.38
462.777	79.38
462.997	73.38
463.217	78.38
463.437	81.38
463.657	85.38
463.876	91.38
464.096	89.38
464.316	85.38
464.536	89.38
464.755	75.38
464.975	85.38
465.195	86.38
465.414	75.38
465.634	94.38
465.854	91.38
466.073	69.38
466.293	85.38
466.512	81.38
466.732	79.38
466.951	80.38
467.171	91.38
467.391	95.38
467.61	80.38
467.829	87.38
468.049	79.38
468.268	82.38
468.488	79.38
468.707	88.38
468.927	91.38
469.146	85.38
469.365	86.38
469.585	88.38
469.804	86.38
470.023	80.38
470.243	77.38
470.462	66.38
470.681	77.38
470.901	86.38
471.12	90.38
471.339	84.38
471.558	80.38
471.777	83.38
471.997	81.38
472.216	82.38
472.435	94.38
472.654	102.38
472.873	86.38
473.092	104.38
473.311	94.38
473.53	84.38
473.749	85.38
473.968	98.38
474.187	92.38
474.406	90.38
474.625	87.38
474.844	75.38
475.063	84.38
475.282	80.38
475.501	85.38
475.72	104.38
475.939	92.38
476.158	82.38
476.377	85.38
476.596	76.38
476.814	76.38
477.033	92.38
477.252	99.38
477.471	81.38
477.69	90.38
477.908	81.38
478.127	86.38
478.346	81.38
478.564	100.38
478.783	95.38
479.002	88.38
479.22	99.38
479.439	84.38
479.658	87.38
479.876	87.38
480.095	76.38
480.313	92.38
480.532	95.38
480.751	92.38
480.969	86.38
481.188	85.38
481.406	88.38
481.624	87.38
481.843	81.38
482.061	83.38
482.28	84.38
482.498	83.38
482.717	94.38
482.935	94.38
483.153	93.38
483.372	88.38
483.59	85.38
483.808	101.38
484.027	92.38
484.245	90.38
484.463	85.38
484.681	89.38
484.9	83.38
485.118	80.38
485.336	86.38
485.554	109.38
485.772	80.38
485.99	91.38
486.209	85.38
486.427	93.38
486.645	88.38
486.863	89.38
487.081	84.38
487.299	87.38
487.517	93.38
487.735	110.38
487.953	107.38
488.171	106.38
488.389	84.38
488.607	100.38
488.825	90.38
489.043	84.38
489.261	103.38
489.479	84.38
489.696	93.38
489.914	82.38
490.132	96.38
490.35	82.38
490.568	105.38
490.786	85.38
491.003	92.38
491.221	87.38
491.439	83.38
491.657	93.38
491.874	83.38
492.092	98.38
492.31	90.38
492.527	62.38
492.745	88.38
492.963	89.38
493.18	80.38
493.398	83.38
493.615	82.38
493.833	94.38
494.05	84.38
494.268	88.38
494.485	72.38
494.703	99.38
494.92	95.38
495.138	86.38
495.355	94.38
495.573	91.38
495.79	79.38
496.008	86.38
496.225	93.38
496.442	78.38
496.66	92.38
496.877	83.38
497.094	93.38
497.312	87.38
497.529	74.38
497.746	78.38
497.963	98.38
498.181	81.38
498.398	90.38
498.615	80.38
498.832	72.38
499.049	80.38
499.267	83.38
499.484	80.38
499.701	84.38
499.918	83.38
500.135	89.38
500.352	77.38
500.569	86.38
500.786	86.38
501.003	82.38
501.22	83.38
501.437	83.38
501.654	84.38
501.871	86.38
502.088	83.38
502.305	80.38
502.522	79.38
502.739	82.38
502.956	74.38
503.172	94.38
503.389	78.38
503.606	90.38
503.823	86.38
504.04	89.38
504.256	106.38
504.473	98.38
504.69	88.38
504.907	81.38
505.123	84.38
505.34	93.38
505.557	81.38
505.773	95.38
505.99	94.38
506.207	81.38
506.423	92.38
506.64	66.38
506.856	78.38
507.073	92.38
507.289	84.38
507.506	86.38
507.722	80.38
507.939	80.38
508.155	93.38
508.372	86.38
508.588	84.38
508.805	75.38
509.021	84.38
509.238	99.38
509.454	90.38
509.67	88.38
509.887	94.38
510.103	76.38
510.319	94.38
510.536	88.38
510.752	83.38
510.968	71.38
511.184	85.38
511.401	81.38
511.617	88.38
511.833	82.38
512.049	91.38
512.265	89.38
512.481	79.38
512.698	91.38
512.914	77.38
513.13	81.38
513.346	88.38
513.562	85.38
513.778	77.38
513.994	86.38
514.21	99.38
514.426	83.38
514.642	91.38
514.858	89.38
515.074	95.38
515.29	89.38
515.506	91.38
515.721	74.38
515.937	84.38
516.153	92.38
516.369	80.38
516.585	82.38
516.801	87.38
517.016	89.38
517.232	94.38
517.448	85.38
517.664	88.38
517.879	93.38
518.095	85.38
518.311	71.38
518.527	87.38
