Data from Circ_2005_H10_HRD10591_00052.txt Node
Date: Wed Jan 03 10:30:01 EST 2024
User: Yrep
Spectrometer: HR+D1059
Trigger mode: 1
Integration Time (sec): 1.000000E-1
Scans to average: 1
Electric dark correction enabled: true
Nonlinearity correction enabled: false
Boxcar width: 0
XAxis mode: Wavelengths
Number of Pixels in Spectrum: 2048
>>>>>Begin Spectral Data<<<<<
223.165	-12.12
223.4	-12.12
223.635	-12.12
223.869	-24.12
224.104	-19.12
224.338	-16.12
224.573	-3.12
224.808	-5.12
225.042	-8.12
225.277	4.88
225.511	8.88
225.746	-4.12
225.98	1.88
226.215	15.88
226.449	3.88
226.683	11.88
226.918	22.88
227.152	21.88
227.387	36.88
227.621	32.88
227.856	50.88
228.09	51.88
228.324	47.88
228.559	33.88
228.793	46.88
229.027	64.88
229.262	68.88
229.496	84.88
229.73	96.88
229.964	80.88
230.199	69.88
230.433	72.88
230.667	67.88
230.901	81.88
231.136	88.88
231.37	79.88
231.604	74.88
231.838	77.88
232.072	81.88
232.306	73.88
232.541	92.88
232.775	82.88
233.009	69.88
233.243	79.88
233.477	91.88
233.711	91.88
233.945	72.88
234.179	70.88
234.413	78.88
234.647	61.88
234.881	74.88
235.115	72.88
235.349	93.88
235.583	78.88
235.817	81.88
236.051	82.88
236.285	81.88
236.519	79.88
236.753	75.88
236.987	68.88
237.221	61.88
237.455	73.88
237.689	72.88
237.922	67.88
238.156	59.88
238.39	63.88
238.624	67.88
238.858	79.88
239.091	78.88
239.325	62.88
239.559	80.88
239.793	91.88
240.027	61.88
240.26	63.88
240.494	85.88
240.728	80.88
240.961	73.88
241.195	73.88
241.429	79.88
241.662	71.88
241.896	80.88
242.13	71.88
242.363	75.88
242.597	71.88
242.83	61.88
243.064	77.88
243.298	71.88
243.531	70.88
243.765	82.88
243.998	67.88
244.232	78.88
244.465	89.88
244.699	80.88
244.932	76.88
245.166	62.88
245.399	90.88
245.633	71.88
245.866	71.88
246.099	74.88
246.333	59.88
246.566	68.88
246.8	79.88
247.033	84.88
247.266	64.88
247.5	65.88
247.733	86.88
247.966	77.88
248.2	69.88
248.433	73.88
248.666	74.88
248.899	82.88
249.133	80.88
249.366	90.88
249.599	80.88
249.832	83.88
250.066	80.88
250.299	75.88
250.532	80.88
250.765	90.88
250.998	66.88
251.231	80.88
251.465	77.88
251.698	87.88
251.931	77.88
252.164	75.88
252.397	87.88
252.63	94.88
252.863	79.88
253.096	86.88
253.329	82.88
253.562	73.88
253.795	83.88
254.028	73.88
254.261	69.88
254.494	76.88
254.727	82.88
254.96	74.88
255.193	74.88
255.426	67.88
255.659	67.88
255.892	84.88
256.124	81.88
256.357	88.88
256.59	79.88
256.823	80.88
257.056	87.88
257.289	67.88
257.521	80.88
257.754	91.88
257.987	65.88
258.22	78.88
258.452	85.88
258.685	75.88
258.918	59.88
259.151	76.88
259.383	71.88
259.616	91.88
259.849	76.88
260.081	86.88
260.314	89.88
260.547	95.88
260.779	83.88
261.012	71.88
261.244	91.88
261.477	76.88
261.71	89.88
261.942	109.88
262.175	99.88
262.407	82.88
262.64	83.88
262.872	65.88
263.105	88.88
263.337	72.88
263.57	68.88
263.802	69.88
264.035	72.88
264.267	82.88
264.499	65.88
264.732	90.88
264.964	94.88
265.197	78.88
265.429	79.88
265.661	76.88
265.894	76.88
266.126	89.88
266.358	80.88
266.591	74.88
266.823	84.88
267.055	83.88
267.287	77.88
267.52	69.88
267.752	65.88
267.984	83.88
268.216	79.88
268.448	98.88
268.681	78.88
268.913	83.88
269.145	83.88
269.377	72.88
269.609	74.88
269.841	98.88
270.073	80.88
270.306	84.88
270.538	63.88
270.77	77.88
271.002	80.88
271.234	74.88
271.466	71.88
271.698	78.88
271.93	80.88
272.162	90.88
272.394	88.88
272.626	74.88
272.858	92.88
273.09	79.88
273.322	95.88
273.553	91.88
273.785	68.88
274.017	89.88
274.249	75.88
274.481	66.88
274.713	75.88
274.945	91.88
275.176	83.88
275.408	78.88
275.64	77.88
275.872	73.88
276.104	67.88
276.335	96.88
276.567	88.88
276.799	107.88
277.031	105.88
277.262	95.88
277.494	85.88
277.726	84.88
277.957	81.88
278.189	79.88
278.421	84.88
278.652	88.88
278.884	83.88
279.115	93.88
279.347	71.88
279.579	82.88
279.81	99.88
280.042	91.88
280.273	87.88
280.505	82.88
280.736	77.88
280.968	89.88
281.199	74.88
281.431	87.88
281.662	81.88
281.894	86.88
282.125	91.88
282.356	100.88
282.588	122.88
282.819	106.88
283.051	80.88
283.282	82.88
283.513	86.88
283.745	82.88
283.976	88.88
284.207	87.88
284.439	89.88
284.67	86.88
284.901	93.88
285.132	86.88
285.364	75.88
285.595	82.88
285.826	96.88
286.057	77.88
286.288	91.88
286.52	73.88
286.751	82.88
286.982	73.88
287.213	91.88
287.444	84.88
287.675	93.88
287.906	92.88
288.138	81.88
288.369	88.88
288.6	98.88
288.831	77.88
289.062	95.88
289.293	94.88
289.524	96.88
289.755	80.88
289.986	77.88
290.217	88.88
290.448	84.88
290.679	97.88
290.91	97.88
291.141	97.88
291.371	73.88
291.602	84.88
291.833	91.88
292.064	84.88
292.295	78.88
292.526	82.88
292.757	81.88
292.987	91.88
293.218	81.88
293.449	98.88
293.68	79.88
293.91	76.88
294.141	97.88
294.372	84.88
294.603	91.88
294.833	95.88
295.064	89.88
295.295	73.88
295.525	83.88
295.756	87.88
295.987	116.88
296.217	138.88
296.448	114.88
296.679	97.88
296.909	81.88
297.14	83.88
297.37	88.88
297.601	83.88
297.831	78.88
298.062	92.88
298.292	83.88
298.523	90.88
298.753	79.88
298.984	68.88
299.214	73.88
299.445	81.88
299.675	86.88
299.905	85.88
300.136	73.88
300.366	80.88
300.597	88.88
300.827	94.88
301.057	96.88
301.288	102.88
301.518	89.88
301.748	92.88
301.979	95.88
302.209	76.88
302.439	85.88
302.669	93.88
302.9	92.88
303.13	96.88
303.36	99.88
303.59	95.88
303.82	100.88
304.051	89.88
304.281	100.88
304.511	81.88
304.741	91.88
304.971	86.88
305.201	82.88
305.431	64.88
305.661	85.88
305.891	89.88
306.121	91.88
306.352	99.88
306.582	111.88
306.812	82.88
307.042	85.88
307.272	82.88
307.502	91.88
307.731	79.88
307.961	94.88
308.191	89.88
308.421	85.88
308.651	82.88
308.881	85.88
309.111	86.88
309.341	92.88
309.571	98.88
309.8	91.88
310.03	99.88
310.26	92.88
310.49	88.88
310.72	107.88
310.949	88.88
311.179	92.88
311.409	75.88
311.639	84.88
311.868	97.88
312.098	93.88
312.328	95.88
312.557	97.88
312.787	102.88
313.017	91.88
313.246	84.88
313.476	93.88
313.706	80.88
313.935	88.88
314.165	109.88
314.394	100.88
314.624	77.88
314.853	101.88
315.083	82.88
315.312	96.88
315.542	82.88
315.771	92.88
316.001	91.88
316.23	87.88
316.46	75.88
316.689	80.88
316.919	98.88
317.148	88.88
317.377	82.88
317.607	103.88
317.836	87.88
318.065	87.88
318.295	64.88
318.524	85.88
318.753	82.88
318.983	91.88
319.212	100.88
319.441	83.88
319.67	90.88
319.9	90.88
320.129	90.88
320.358	101.88
320.587	91.88
320.816	92.88
321.046	104.88
321.275	107.88
321.504	90.88
321.733	92.88
321.962	100.88
322.191	98.88
322.42	100.88
322.649	107.88
322.878	107.88
323.108	100.88
323.337	114.88
323.566	123.88
323.795	125.88
324.024	179.88
324.253	363.88
324.482	754.88
324.71	1480.88
324.939	1937.88
325.168	715.88
325.397	229.88
325.626	139.88
325.855	110.88
326.084	116.88
326.313	119.88
326.542	145.88
326.77	216.88
326.999	420.88
327.228	839.88
327.457	1519.88
327.686	1201.88
327.914	331.88
328.143	172.88
328.372	167.88
328.6	131.88
328.829	110.88
329.058	115.88
329.287	117.88
329.515	109.88
329.744	96.88
329.972	114.88
330.201	119.88
330.43	141.88
330.658	127.88
330.887	116.88
331.115	112.88
331.344	92.88
331.572	103.88
331.801	109.88
332.03	85.88
332.258	93.88
332.486	99.88
332.715	85.88
332.943	99.88
333.172	83.88
333.4	92.88
333.629	103.88
333.857	110.88
334.085	97.88
334.314	132.88
334.542	171.88
334.771	151.88
334.999	103.88
335.227	115.88
335.455	96.88
335.684	84.88
335.912	97.88
336.14	92.88
336.369	87.88
336.597	96.88
336.825	90.88
337.053	71.88
337.281	98.88
337.51	93.88
337.738	88.88
337.966	95.88
338.194	92.88
338.422	91.88
338.65	86.88
338.878	84.88
339.106	77.88
339.334	95.88
339.562	86.88
339.79	85.88
340.018	96.88
340.246	98.88
340.474	95.88
340.702	78.88
340.93	88.88
341.158	86.88
341.386	91.88
341.614	98.88
341.842	76.88
342.07	83.88
342.298	90.88
342.526	84.88
342.754	80.88
342.981	89.88
343.209	84.88
343.437	88.88
343.665	87.88
343.893	91.88
344.12	99.88
344.348	88.88
344.576	92.88
344.804	90.88
345.031	86.88
345.259	100.88
345.487	92.88
345.714	67.88
345.942	80.88
346.17	73.88
346.397	93.88
346.625	97.88
346.853	93.88
347.08	89.88
347.308	96.88
347.535	83.88
347.763	100.88
347.99	94.88
348.218	98.88
348.445	121.88
348.673	86.88
348.9	74.88
349.128	85.88
349.355	69.88
349.583	91.88
349.81	104.88
350.037	104.88
350.265	81.88
350.492	97.88
350.72	78.88
350.947	96.88
351.174	91.88
351.402	112.88
351.629	104.88
351.856	96.88
352.083	109.88
352.311	113.88
352.538	95.88
352.765	103.88
352.992	112.88
353.22	104.88
353.447	96.88
353.674	100.88
353.901	97.88
354.128	88.88
354.355	75.88
354.583	83.88
354.81	94.88
355.037	101.88
355.264	91.88
355.491	92.88
355.718	98.88
355.945	83.88
356.172	101.88
356.399	91.88
356.626	84.88
356.853	78.88
357.08	90.88
357.307	80.88
357.534	111.88
357.761	87.88
357.988	92.88
358.215	93.88
358.441	90.88
358.668	94.88
358.895	64.88
359.122	89.88
359.349	97.88
359.576	102.88
359.802	103.88
360.029	91.88
360.256	109.88
360.483	99.88
360.709	92.88
360.936	86.88
361.163	97.88
361.39	91.88
361.616	93.88
361.843	93.88
362.07	86.88
362.296	103.88
362.523	99.88
362.749	84.88
362.976	83.88
363.203	69.88
363.429	96.88
363.656	81.88
363.882	98.88
364.109	85.88
364.335	98.88
364.562	94.88
364.788	84.88
365.015	98.88
365.241	101.88
365.468	111.88
365.694	100.88
365.92	90.88
366.147	82.88
366.373	89.88
366.599	82.88
366.826	82.88
367.052	84.88
367.278	85.88
367.505	87.88
367.731	98.88
367.957	86.88
368.184	81.88
368.41	90.88
368.636	93.88
368.862	102.88
369.089	108.88
369.315	81.88
369.541	94.88
369.767	75.88
369.993	90.88
370.219	96.88
370.445	94.88
370.672	92.88
370.898	80.88
371.124	82.88
371.35	80.88
371.576	82.88
371.802	84.88
372.028	90.88
372.254	85.88
372.48	72.88
372.706	91.88
372.932	84.88
373.158	80.88
373.384	90.88
373.61	101.88
373.835	80.88
374.061	81.88
374.287	89.88
374.513	88.88
374.739	82.88
374.965	75.88
375.191	73.88
375.416	77.88
375.642	79.88
375.868	92.88
376.094	85.88
376.319	80.88
376.545	79.88
376.771	84.88
376.997	83.88
377.222	85.88
377.448	81.88
377.674	78.88
377.899	88.88
378.125	86.88
378.35	96.88
378.576	78.88
378.802	89.88
379.027	81.88
379.253	89.88
379.478	81.88
379.704	93.88
379.929	87.88
380.155	72.88
380.38	84.88
380.606	92.88
380.831	105.88
381.057	100.88
381.282	98.88
381.507	92.88
381.733	93.88
381.958	84.88
382.184	84.88
382.409	84.88
382.634	85.88
382.86	91.88
383.085	95.88
383.31	92.88
383.535	80.88
383.761	94.88
383.986	97.88
384.211	83.88
384.436	96.88
384.662	103.88
384.887	93.88
385.112	89.88
385.337	106.88
385.562	83.88
385.787	105.88
386.013	107.88
386.238	110.88
386.463	100.88
386.688	93.88
386.913	104.88
387.138	105.88
387.363	98.88
387.588	95.88
387.813	104.88
388.038	108.88
388.263	115.88
388.488	98.88
388.713	98.88
388.938	84.88
389.163	93.88
389.387	104.88
389.612	86.88
389.837	98.88
390.062	89.88
390.287	94.88
390.512	80.88
390.736	97.88
390.961	93.88
391.186	89.88
391.411	85.88
391.636	83.88
391.86	63.88
392.085	69.88
392.31	76.88
392.534	76.88
392.759	94.88
392.984	75.88
393.208	95.88
393.433	80.88
393.658	72.88
393.882	81.88
394.107	82.88
394.331	85.88
394.556	87.88
394.78	72.88
395.005	89.88
395.229	73.88
395.454	70.88
395.678	85.88
395.903	84.88
396.127	83.88
396.352	80.88
396.576	83.88
396.801	96.88
397.025	98.88
397.249	104.88
397.474	74.88
397.698	76.88
397.922	76.88
398.147	75.88
398.371	85.88
398.595	80.88
398.82	57.88
399.044	87.88
399.268	85.88
399.492	83.88
399.717	82.88
399.941	87.88
400.165	87.88
400.389	85.88
400.613	73.88
400.837	84.88
401.062	78.88
401.286	84.88
401.51	84.88
401.734	76.88
401.958	86.88
402.182	94.88
402.406	153.88
402.63	109.88
402.854	79.88
403.078	70.88
403.302	85.88
403.526	75.88
403.75	89.88
403.974	71.88
404.198	73.88
404.422	92.88
404.645	93.88
404.869	101.88
405.093	98.88
405.317	88.88
405.541	85.88
405.765	98.88
405.988	99.88
406.212	164.88
406.436	201.88
406.66	132.88
406.883	89.88
407.107	82.88
407.331	82.88
407.555	91.88
407.778	81.88
408.002	89.88
408.226	92.88
408.449	89.88
408.673	92.88
408.896	85.88
409.12	94.88
409.344	89.88
409.567	80.88
409.791	76.88
410.014	76.88
410.238	101.88
410.461	90.88
410.685	90.88
410.908	78.88
411.132	92.88
411.355	88.88
411.578	74.88
411.802	85.88
412.025	77.88
412.249	92.88
412.472	84.88
412.695	91.88
412.919	102.88
413.142	109.88
413.365	88.88
413.589	82.88
413.812	78.88
414.035	77.88
414.258	87.88
414.482	106.88
414.705	82.88
414.928	95.88
415.151	73.88
415.374	100.88
415.597	89.88
415.821	75.88
416.044	83.88
416.267	85.88
416.49	85.88
416.713	89.88
416.936	72.88
417.159	70.88
417.382	90.88
417.605	89.88
417.828	89.88
418.051	74.88
418.274	83.88
418.497	92.88
418.72	73.88
418.943	85.88
419.166	73.88
419.389	88.88
419.611	76.88
419.834	90.88
420.057	81.88
420.28	96.88
420.503	79.88
420.726	87.88
420.948	93.88
421.171	84.88
421.394	89.88
421.617	68.88
421.839	91.88
422.062	86.88
422.285	89.88
422.507	107.88
422.73	100.88
422.953	86.88
423.175	83.88
423.398	86.88
423.621	68.88
423.843	84.88
424.066	74.88
424.288	81.88
424.511	85.88
424.733	81.88
424.956	87.88
425.178	86.88
425.401	95.88
425.623	108.88
425.846	91.88
426.068	68.88
426.291	88.88
426.513	86.88
426.735	78.88
426.958	82.88
427.18	97.88
427.402	120.88
427.625	140.88
427.847	123.88
428.069	101.88
428.292	93.88
428.514	97.88
428.736	89.88
428.958	87.88
429.181	82.88
429.403	86.88
429.625	66.88
429.847	90.88
430.069	96.88
430.292	88.88
430.514	75.88
430.736	89.88
430.958	64.88
431.18	76.88
431.402	75.88
431.624	85.88
431.846	85.88
432.068	87.88
432.29	91.88
432.512	83.88
432.734	79.88
432.956	89.88
433.178	90.88
433.4	82.88
433.622	104.88
433.844	99.88
434.066	94.88
434.287	79.88
434.509	79.88
434.731	84.88
434.953	79.88
435.175	93.88
435.397	90.88
435.618	96.88
435.84	112.88
436.062	102.88
436.284	114.88
436.505	75.88
436.727	90.88
436.949	88.88
437.17	85.88
437.392	83.88
437.614	81.88
437.835	97.88
438.057	103.88
438.278	89.88
438.5	103.88
438.721	108.88
438.943	98.88
439.165	85.88
439.386	79.88
439.608	82.88
439.829	87.88
440.05	93.88
440.272	139.88
440.493	98.88
440.715	81.88
440.936	87.88
441.158	96.88
441.379	96.88
441.6	94.88
441.822	99.88
442.043	98.88
442.264	98.88
442.486	90.88
442.707	81.88
442.928	81.88
443.149	112.88
443.371	117.88
443.592	109.88
443.813	90.88
444.034	115.88
444.255	84.88
444.476	89.88
444.698	83.88
444.919	88.88
445.14	127.88
445.361	106.88
445.582	111.88
445.803	128.88
446.024	106.88
446.245	114.88
446.466	96.88
446.687	71.88
446.908	71.88
447.129	89.88
447.35	79.88
447.571	83.88
447.792	94.88
448.013	94.88
448.234	84.88
448.455	104.88
448.675	107.88
448.896	107.88
449.117	103.88
449.338	96.88
449.559	120.88
449.779	128.88
450	103.88
450.221	85.88
450.442	86.88
450.662	85.88
450.883	89.88
451.104	90.88
451.324	83.88
451.545	73.88
451.766	68.88
451.986	73.88
452.207	84.88
452.428	94.88
452.648	102.88
452.869	97.88
453.089	104.88
453.31	110.88
453.53	87.88
453.751	91.88
453.971	80.88
454.192	99.88
454.412	91.88
454.633	86.88
454.853	83.88
455.073	74.88
455.294	88.88
455.514	91.88
455.734	81.88
455.955	79.88
456.175	74.88
456.395	76.88
456.616	85.88
456.836	83.88
457.056	91.88
457.276	75.88
457.497	80.88
457.717	84.88
457.937	86.88
458.157	85.88
458.377	91.88
458.598	92.88
458.818	137.88
459.038	140.88
459.258	95.88
459.478	87.88
459.698	82.88
459.918	89.88
460.138	71.88
460.358	86.88
460.578	82.88
460.798	75.88
461.018	80.88
461.238	65.88
461.458	89.88
461.678	71.88
461.898	85.88
462.118	88.88
462.338	81.88
462.558	72.88
462.777	71.88
462.997	95.88
463.217	62.88
463.437	71.88
463.657	88.88
463.876	85.88
464.096	86.88
464.316	93.88
464.536	86.88
464.755	88.88
464.975	93.88
465.195	140.88
465.414	147.88
465.634	99.88
465.854	92.88
466.073	94.88
466.293	80.88
466.512	80.88
466.732	79.88
466.951	84.88
467.171	96.88
467.391	91.88
467.61	89.88
467.829	87.88
468.049	94.88
468.268	108.88
468.488	79.88
468.707	81.88
468.927	90.88
469.146	88.88
469.365	73.88
469.585	88.88
469.804	92.88
470.023	87.88
470.243	87.88
470.462	89.88
470.681	84.88
470.901	88.88
471.12	65.88
471.339	76.88
471.558	95.88
471.777	82.88
471.997	88.88
472.216	136.88
472.435	172.88
472.654	93.88
472.873	76.88
473.092	76.88
473.311	84.88
473.53	92.88
473.749	85.88
473.968	92.88
474.187	111.88
474.406	84.88
474.625	75.88
474.844	77.88
475.063	78.88
475.282	86.88
475.501	77.88
475.72	79.88
475.939	78.88
476.158	80.88
476.377	82.88
476.596	91.88
476.814	96.88
477.033	88.88
477.252	82.88
477.471	84.88
477.69	80.88
477.908	86.88
478.127	80.88
478.346	78.88
478.564	62.88
478.783	81.88
479.002	97.88
479.22	84.88
479.439	82.88
479.658	96.88
479.876	80.88
480.095	88.88
480.313	85.88
480.532	89.88
480.751	101.88
480.969	130.88
481.188	309.88
481.406	204.88
481.624	100.88
481.843	75.88
482.061	94.88
482.28	79.88
482.498	84.88
482.717	90.88
482.935	77.88
483.153	79.88
483.372	80.88
483.59	88.88
483.808	100.88
484.027	92.88
484.245	86.88
484.463	91.88
484.681	99.88
484.9	79.88
485.118	79.88
485.336	85.88
485.554	102.88
485.772	95.88
485.99	103.88
486.209	92.88
486.427	93.88
486.645	101.88
486.863	96.88
487.081	83.88
487.299	87.88
487.517	95.88
487.735	79.88
487.953	85.88
488.171	82.88
488.389	86.88
488.607	85.88
488.825	90.88
489.043	85.88
489.261	90.88
489.479	80.88
489.696	72.88
489.914	83.88
490.132	75.88
490.35	80.88
490.568	83.88
490.786	95.88
491.003	79.88
491.221	87.88
491.439	73.88
491.657	91.88
491.874	87.88
492.092	72.88
492.31	96.88
492.527	85.88
492.745	76.88
492.963	94.88
493.18	81.88
493.398	67.88
493.615	74.88
493.833	85.88
494.05	88.88
494.268	96.88
494.485	78.88
494.703	79.88
494.92	80.88
495.138	93.88
495.355	86.88
495.573	91.88
495.79	87.88
496.008	90.88
496.225	79.88
496.442	91.88
496.66	86.88
496.877	94.88
497.094	110.88
497.312	99.88
497.529	90.88
497.746	78.88
497.963	77.88
498.181	98.88
498.398	92.88
498.615	108.88
498.832	100.88
499.049	100.88
499.267	80.88
499.484	83.88
499.701	90.88
499.918	95.88
500.135	71.88
500.352	91.88
500.569	84.88
500.786	80.88
501.003	77.88
501.22	90.88
501.437	90.88
501.654	89.88
501.871	96.88
502.088	67.88
502.305	91.88
502.522	96.88
502.739	76.88
502.956	85.88
503.172	89.88
503.389	87.88
503.606	103.88
503.823	89.88
504.04	86.88
504.256	80.88
504.473	79.88
504.69	79.88
504.907	95.88
505.123	86.88
505.34	90.88
505.557	91.88
505.773	76.88
505.99	89.88
506.207	74.88
506.423	89.88
506.64	80.88
506.856	90.88
507.073	89.88
507.289	101.88
507.506	85.88
507.722	100.88
507.939	97.88
508.155	88.88
508.372	76.88
508.588	97.88
508.805	97.88
509.021	103.88
509.238	99.88
509.454	100.88
509.67	97.88
509.887	98.88
510.103	120.88
510.319	196.88
510.536	661.88
510.752	2170.88
510.968	614.88
511.184	146.88
511.401	113.88
511.617	91.88
511.833	107.88
512.049	89.88
512.265	82.88
512.481	94.88
512.698	90.88
512.914	90.88
513.13	99.88
513.346	89.88
513.562	85.88
513.778	99.88
513.994	103.88
514.21	107.88
514.426	109.88
514.642	139.88
514.858	133.88
515.074	160.88
515.29	383.88
515.506	1288.88
515.721	497.88
515.937	125.88
516.153	108.88
516.369	88.88
516.585	82.88
516.801	84.88
517.016	83.88
517.232	93.88
