Data from Circ_2005_H10_HRD10591_00084.txt Node
Date: Wed Jan 03 10:30:07 EST 2024
User: Yrep
Spectrometer: HR+D1059
Trigger mode: 1
Integration Time (sec): 1.000000E-1
Scans to average: 1
Electric dark correction enabled: true
Nonlinearity correction enabled: false
Boxcar width: 0
XAxis mode: Wavelengths
Number of Pixels in Spectrum: 2048
>>>>>Begin Spectral Data<<<<<
223.165	-11.75
223.4	-11.75
223.635	-11.75
223.869	-14.75
224.104	-9.75
224.338	-17.75
224.573	-5.75
224.808	-15.75
225.042	-11.75
225.277	-2.75
225.511	-15.75
225.746	-4.75
225.98	11.25
226.215	11.25
226.449	20.25
226.683	19.25
226.918	16.25
227.152	32.25
227.387	41.25
227.621	58.25
227.856	57.25
228.09	44.25
228.324	60.25
228.559	60.25
228.793	52.25
229.027	63.25
229.262	60.25
229.496	50.25
229.73	74.25
229.964	96.25
230.199	79.25
230.433	77.25
230.667	77.25
230.901	70.25
231.136	63.25
231.37	65.25
231.604	76.25
231.838	84.25
232.072	68.25
232.306	92.25
232.541	86.25
232.775	78.25
233.009	59.25
233.243	79.25
233.477	75.25
233.711	66.25
233.945	68.25
234.179	80.25
234.413	78.25
234.647	77.25
234.881	61.25
235.115	78.25
235.349	65.25
235.583	73.25
235.817	77.25
236.051	75.25
236.285	69.25
236.519	84.25
236.753	76.25
236.987	66.25
237.221	80.25
237.455	76.25
237.689	79.25
237.922	76.25
238.156	64.25
238.39	67.25
238.624	82.25
238.858	68.25
239.091	62.25
239.325	71.25
239.559	74.25
239.793	69.25
240.027	90.25
240.26	69.25
240.494	64.25
240.728	67.25
240.961	71.25
241.195	80.25
241.429	80.25
241.662	77.25
241.896	69.25
242.13	74.25
242.363	76.25
242.597	81.25
242.83	78.25
243.064	80.25
243.298	85.25
243.531	76.25
243.765	83.25
243.998	77.25
244.232	72.25
244.465	67.25
244.699	72.25
244.932	79.25
245.166	70.25
245.399	80.25
245.633	71.25
245.866	67.25
246.099	66.25
246.333	76.25
246.566	91.25
246.8	70.25
247.033	78.25
247.266	67.25
247.5	66.25
247.733	79.25
247.966	81.25
248.2	78.25
248.433	83.25
248.666	86.25
248.899	89.25
249.133	84.25
249.366	78.25
249.599	84.25
249.832	85.25
250.066	73.25
250.299	84.25
250.532	72.25
250.765	83.25
250.998	78.25
251.231	78.25
251.465	87.25
251.698	61.25
251.931	81.25
252.164	84.25
252.397	87.25
252.63	76.25
252.863	65.25
253.096	74.25
253.329	88.25
253.562	77.25
253.795	67.25
254.028	77.25
254.261	89.25
254.494	77.25
254.727	75.25
254.96	83.25
255.193	76.25
255.426	75.25
255.659	69.25
255.892	78.25
256.124	73.25
256.357	92.25
256.59	85.25
256.823	81.25
257.056	64.25
257.289	73.25
257.521	89.25
257.754	85.25
257.987	74.25
258.22	75.25
258.452	76.25
258.685	75.25
258.918	84.25
259.151	77.25
259.383	92.25
259.616	72.25
259.849	84.25
260.081	82.25
260.314	93.25
260.547	83.25
260.779	77.25
261.012	83.25
261.244	76.25
261.477	92.25
261.71	73.25
261.942	94.25
262.175	106.25
262.407	81.25
262.64	77.25
262.872	71.25
263.105	67.25
263.337	88.25
263.57	78.25
263.802	79.25
264.035	92.25
264.267	78.25
264.499	80.25
264.732	79.25
264.964	91.25
265.197	82.25
265.429	68.25
265.661	70.25
265.894	83.25
266.126	81.25
266.358	90.25
266.591	89.25
266.823	81.25
267.055	80.25
267.287	81.25
267.52	72.25
267.752	70.25
267.984	81.25
268.216	84.25
268.448	84.25
268.681	77.25
268.913	79.25
269.145	76.25
269.377	77.25
269.609	92.25
269.841	80.25
270.073	73.25
270.306	76.25
270.538	84.25
270.77	80.25
271.002	84.25
271.234	81.25
271.466	89.25
271.698	73.25
271.93	83.25
272.162	80.25
272.394	69.25
272.626	83.25
272.858	68.25
273.09	99.25
273.322	70.25
273.553	89.25
273.785	109.25
274.017	70.25
274.249	77.25
274.481	74.25
274.713	80.25
274.945	96.25
275.176	82.25
275.408	78.25
275.64	93.25
275.872	75.25
276.104	91.25
276.335	85.25
276.567	102.25
276.799	90.25
277.031	103.25
277.262	94.25
277.494	96.25
277.726	81.25
277.957	88.25
278.189	77.25
278.421	77.25
278.652	88.25
278.884	92.25
279.115	85.25
279.347	77.25
279.579	78.25
279.81	90.25
280.042	96.25
280.273	87.25
280.505	71.25
280.736	77.25
280.968	82.25
281.199	98.25
281.431	90.25
281.662	69.25
281.894	84.25
282.125	95.25
282.356	94.25
282.588	136.25
282.819	104.25
283.051	94.25
283.282	94.25
283.513	86.25
283.745	81.25
283.976	90.25
284.207	84.25
284.439	82.25
284.67	79.25
284.901	76.25
285.132	102.25
285.364	89.25
285.595	96.25
285.826	83.25
286.057	86.25
286.288	83.25
286.52	93.25
286.751	74.25
286.982	82.25
287.213	70.25
287.444	94.25
287.675	87.25
287.906	88.25
288.138	85.25
288.369	93.25
288.6	91.25
288.831	84.25
289.062	111.25
289.293	91.25
289.524	85.25
289.755	81.25
289.986	88.25
290.217	78.25
290.448	86.25
290.679	92.25
290.91	90.25
291.141	82.25
291.371	62.25
291.602	78.25
291.833	74.25
292.064	74.25
292.295	90.25
292.526	86.25
292.757	83.25
292.987	84.25
293.218	95.25
293.449	108.25
293.68	88.25
293.91	93.25
294.141	92.25
294.372	82.25
294.603	78.25
294.833	89.25
295.064	89.25
295.295	73.25
295.525	81.25
295.756	102.25
295.987	100.25
296.217	136.25
296.448	119.25
296.679	84.25
296.909	82.25
297.14	78.25
297.37	81.25
297.601	90.25
297.831	96.25
298.062	86.25
298.292	94.25
298.523	100.25
298.753	80.25
298.984	76.25
299.214	83.25
299.445	77.25
299.675	99.25
299.905	88.25
300.136	84.25
300.366	75.25
300.597	92.25
300.827	85.25
301.057	96.25
301.288	87.25
301.518	94.25
301.748	96.25
301.979	88.25
302.209	79.25
302.439	78.25
302.669	94.25
302.9	77.25
303.13	74.25
303.36	99.25
303.59	94.25
303.82	94.25
304.051	76.25
304.281	83.25
304.511	92.25
304.741	91.25
304.971	73.25
305.201	78.25
305.431	92.25
305.661	82.25
305.891	91.25
306.121	84.25
306.352	84.25
306.582	90.25
306.812	93.25
307.042	90.25
307.272	87.25
307.502	93.25
307.731	99.25
307.961	82.25
308.191	69.25
308.421	85.25
308.651	89.25
308.881	77.25
309.111	71.25
309.341	83.25
309.571	90.25
309.8	91.25
310.03	97.25
310.26	97.25
310.49	93.25
310.72	81.25
310.949	110.25
311.179	97.25
311.409	95.25
311.639	84.25
311.868	89.25
312.098	91.25
312.328	99.25
312.557	80.25
312.787	97.25
313.017	83.25
313.246	106.25
313.476	85.25
313.706	94.25
313.935	88.25
314.165	90.25
314.394	105.25
314.624	100.25
314.853	86.25
315.083	87.25
315.312	92.25
315.542	85.25
315.771	89.25
316.001	90.25
316.23	89.25
316.46	81.25
316.689	79.25
316.919	96.25
317.148	78.25
317.377	97.25
317.607	97.25
317.836	87.25
318.065	92.25
318.295	97.25
318.524	80.25
318.753	87.25
318.983	86.25
319.212	87.25
319.441	97.25
319.67	102.25
319.9	97.25
320.129	74.25
320.358	83.25
320.587	94.25
320.816	95.25
321.046	97.25
321.275	85.25
321.504	94.25
321.733	87.25
321.962	83.25
322.191	99.25
322.42	96.25
322.649	105.25
322.878	97.25
323.108	96.25
323.337	102.25
323.566	113.25
323.795	146.25
324.024	186.25
324.253	331.25
324.482	733.25
324.71	1492.25
324.939	1984.25
325.168	720.25
325.397	203.25
325.626	143.25
325.855	110.25
326.084	112.25
326.313	117.25
326.542	132.25
326.77	216.25
326.999	417.25
327.228	860.25
327.457	1521.25
327.686	1240.25
327.914	336.25
328.143	198.25
328.372	172.25
328.6	130.25
328.829	118.25
329.058	120.25
329.287	113.25
329.515	106.25
329.744	120.25
329.972	128.25
330.201	161.25
330.43	192.25
330.658	145.25
330.887	128.25
331.115	119.25
331.344	91.25
331.572	97.25
331.801	96.25
332.03	93.25
332.258	95.25
332.486	75.25
332.715	90.25
332.943	97.25
333.172	78.25
333.4	104.25
333.629	100.25
333.857	116.25
334.085	137.25
334.314	163.25
334.542	242.25
334.771	239.25
334.999	106.25
335.227	93.25
335.455	91.25
335.684	87.25
335.912	103.25
336.14	82.25
336.369	86.25
336.597	101.25
336.825	91.25
337.053	93.25
337.281	98.25
337.51	75.25
337.738	87.25
337.966	94.25
338.194	95.25
338.422	110.25
338.65	86.25
338.878	89.25
339.106	90.25
339.334	96.25
339.562	87.25
339.79	90.25
340.018	83.25
340.246	88.25
340.474	88.25
340.702	80.25
340.93	84.25
341.158	80.25
341.386	95.25
341.614	88.25
341.842	102.25
342.07	82.25
342.298	72.25
342.526	89.25
342.754	91.25
342.981	72.25
343.209	86.25
343.437	86.25
343.665	96.25
343.893	93.25
344.12	104.25
344.348	79.25
344.576	92.25
344.804	87.25
345.031	90.25
345.259	93.25
345.487	95.25
345.714	90.25
345.942	83.25
346.17	84.25
346.397	99.25
346.625	101.25
346.853	88.25
347.08	77.25
347.308	75.25
347.535	101.25
347.763	92.25
347.99	93.25
348.218	107.25
348.445	113.25
348.673	86.25
348.9	82.25
349.128	97.25
349.355	105.25
349.583	85.25
349.81	80.25
350.037	91.25
350.265	106.25
350.492	97.25
350.72	96.25
350.947	90.25
351.174	98.25
351.402	94.25
351.629	99.25
351.856	92.25
352.083	97.25
352.311	100.25
352.538	97.25
352.765	89.25
352.992	99.25
353.22	93.25
353.447	83.25
353.674	101.25
353.901	95.25
354.128	85.25
354.355	100.25
354.583	89.25
354.81	98.25
355.037	88.25
355.264	101.25
355.491	97.25
355.718	96.25
355.945	85.25
356.172	93.25
356.399	84.25
356.626	82.25
356.853	91.25
357.08	102.25
357.307	89.25
357.534	73.25
357.761	83.25
357.988	83.25
358.215	104.25
358.441	97.25
358.668	90.25
358.895	84.25
359.122	77.25
359.349	78.25
359.576	85.25
359.802	84.25
360.029	112.25
360.256	95.25
360.483	63.25
360.709	86.25
360.936	95.25
361.163	88.25
361.39	93.25
361.616	90.25
361.843	84.25
362.07	85.25
362.296	92.25
362.523	85.25
362.749	77.25
362.976	77.25
363.203	100.25
363.429	86.25
363.656	95.25
363.882	87.25
364.109	86.25
364.335	89.25
364.562	98.25
364.788	93.25
365.015	106.25
365.241	81.25
365.468	100.25
365.694	95.25
365.92	105.25
366.147	90.25
366.373	90.25
366.599	64.25
366.826	95.25
367.052	70.25
367.278	96.25
367.505	103.25
367.731	86.25
367.957	68.25
368.184	90.25
368.41	106.25
368.636	104.25
368.862	103.25
369.089	96.25
369.315	83.25
369.541	95.25
369.767	92.25
369.993	91.25
370.219	82.25
370.445	90.25
370.672	78.25
370.898	76.25
371.124	75.25
371.35	72.25
371.576	90.25
371.802	85.25
372.028	82.25
372.254	79.25
372.48	77.25
372.706	85.25
372.932	78.25
373.158	85.25
373.384	94.25
373.61	82.25
373.835	94.25
374.061	78.25
374.287	77.25
374.513	98.25
374.739	84.25
374.965	95.25
375.191	99.25
375.416	78.25
375.642	92.25
375.868	97.25
376.094	76.25
376.319	72.25
376.545	88.25
376.771	75.25
376.997	93.25
377.222	89.25
377.448	91.25
377.674	76.25
377.899	85.25
378.125	98.25
378.35	83.25
378.576	103.25
378.802	88.25
379.027	88.25
379.253	84.25
379.478	86.25
379.704	87.25
379.929	88.25
380.155	85.25
380.38	99.25
380.606	93.25
380.831	92.25
381.057	96.25
381.282	92.25
381.507	104.25
381.733	78.25
381.958	102.25
382.184	94.25
382.409	92.25
382.634	98.25
382.86	104.25
383.085	96.25
383.31	90.25
383.535	89.25
383.761	95.25
383.986	92.25
384.211	85.25
384.436	94.25
384.662	92.25
384.887	110.25
385.112	94.25
385.337	100.25
385.562	100.25
385.787	99.25
386.013	95.25
386.238	111.25
386.463	109.25
386.688	117.25
386.913	94.25
387.138	97.25
387.363	106.25
387.588	97.25
387.813	101.25
388.038	96.25
388.263	99.25
388.488	109.25
388.713	92.25
388.938	96.25
389.163	98.25
389.387	79.25
389.612	83.25
389.837	82.25
390.062	86.25
390.287	98.25
390.512	85.25
390.736	93.25
390.961	94.25
391.186	90.25
391.411	86.25
391.636	95.25
391.86	84.25
392.085	82.25
392.31	77.25
392.534	92.25
392.759	83.25
392.984	82.25
393.208	88.25
393.433	95.25
393.658	81.25
393.882	88.25
394.107	70.25
394.331	75.25
394.556	86.25
394.78	88.25
395.005	85.25
395.229	77.25
395.454	76.25
395.678	69.25
395.903	86.25
396.127	71.25
396.352	73.25
396.576	87.25
396.801	84.25
397.025	86.25
397.249	80.25
397.474	85.25
397.698	88.25
397.922	84.25
398.147	70.25
398.371	86.25
398.595	85.25
398.82	76.25
399.044	88.25
399.268	93.25
399.492	97.25
399.717	69.25
399.941	82.25
400.165	82.25
400.389	74.25
400.613	95.25
400.837	88.25
401.062	80.25
401.286	74.25
401.51	74.25
401.734	87.25
401.958	92.25
402.182	112.25
402.406	144.25
402.63	115.25
402.854	98.25
403.078	82.25
403.302	90.25
403.526	86.25
403.75	69.25
403.974	89.25
404.198	91.25
404.422	79.25
404.645	83.25
404.869	85.25
405.093	87.25
405.317	90.25
405.541	115.25
405.765	82.25
405.988	103.25
406.212	140.25
406.436	186.25
406.66	133.25
406.883	93.25
407.107	103.25
407.331	99.25
407.555	88.25
407.778	99.25
408.002	89.25
408.226	83.25
408.449	65.25
408.673	87.25
408.896	86.25
409.12	94.25
409.344	84.25
409.567	107.25
409.791	75.25
410.014	86.25
410.238	81.25
410.461	99.25
410.685	86.25
410.908	96.25
411.132	99.25
411.355	91.25
411.578	97.25
411.802	80.25
412.025	87.25
412.249	83.25
412.472	91.25
412.695	97.25
412.919	91.25
413.142	86.25
413.365	90.25
413.589	88.25
413.812	72.25
414.035	88.25
414.258	92.25
414.482	88.25
414.705	88.25
414.928	86.25
415.151	83.25
415.374	88.25
415.597	95.25
415.821	86.25
416.044	86.25
416.267	85.25
416.49	79.25
416.713	91.25
416.936	83.25
417.159	98.25
417.382	79.25
417.605	92.25
417.828	93.25
418.051	92.25
418.274	88.25
418.497	85.25
418.72	83.25
418.943	93.25
419.166	94.25
419.389	80.25
419.611	95.25
419.834	81.25
420.057	77.25
420.28	78.25
420.503	76.25
420.726	77.25
420.948	89.25
421.171	94.25
421.394	85.25
421.617	94.25
421.839	96.25
422.062	86.25
422.285	85.25
422.507	91.25
422.73	93.25
422.953	75.25
423.175	90.25
423.398	82.25
423.621	98.25
423.843	89.25
424.066	84.25
424.288	82.25
424.511	77.25
424.733	93.25
424.956	90.25
425.178	88.25
425.401	97.25
425.623	108.25
425.846	106.25
426.068	99.25
426.291	74.25
426.513	85.25
426.735	81.25
426.958	76.25
427.18	101.25
427.402	120.25
427.625	143.25
427.847	121.25
428.069	126.25
428.292	77.25
428.514	88.25
428.736	84.25
428.958	76.25
429.181	82.25
429.403	79.25
429.625	74.25
429.847	86.25
430.069	89.25
430.292	85.25
430.514	73.25
430.736	96.25
430.958	96.25
431.18	90.25
431.402	85.25
431.624	84.25
431.846	72.25
432.068	80.25
432.29	94.25
432.512	87.25
432.734	80.25
432.956	93.25
433.178	90.25
433.4	85.25
433.622	83.25
433.844	83.25
434.066	82.25
434.287	85.25
434.509	79.25
434.731	98.25
434.953	69.25
435.175	72.25
435.397	94.25
435.618	99.25
435.84	86.25
436.062	102.25
436.284	107.25
436.505	85.25
436.727	100.25
436.949	85.25
437.17	88.25
437.392	73.25
437.614	80.25
437.835	105.25
438.057	100.25
438.278	93.25
438.5	100.25
438.721	107.25
438.943	101.25
439.165	92.25
439.386	85.25
439.608	91.25
439.829	89.25
440.05	113.25
440.272	121.25
440.493	108.25
440.715	74.25
440.936	76.25
441.158	83.25
441.379	90.25
441.6	86.25
441.822	74.25
442.043	78.25
442.264	96.25
442.486	88.25
442.707	92.25
442.928	84.25
443.149	101.25
443.371	116.25
443.592	95.25
443.813	96.25
444.034	94.25
444.255	91.25
444.476	86.25
444.698	80.25
444.919	81.25
445.14	133.25
445.361	103.25
445.582	104.25
445.803	121.25
446.024	111.25
446.245	122.25
446.466	102.25
446.687	84.25
446.908	78.25
447.129	76.25
447.35	84.25
447.571	90.25
447.792	83.25
448.013	91.25
448.234	102.25
448.455	89.25
448.675	111.25
448.896	114.25
449.117	90.25
449.338	101.25
449.559	116.25
449.779	122.25
450	92.25
450.221	91.25
450.442	94.25
450.662	94.25
450.883	101.25
451.104	96.25
451.324	102.25
451.545	84.25
451.766	80.25
451.986	81.25
452.207	87.25
452.428	96.25
452.648	100.25
452.869	105.25
453.089	97.25
453.31	108.25
453.53	77.25
453.751	81.25
453.971	96.25
454.192	103.25
454.412	80.25
454.633	78.25
454.853	77.25
455.073	86.25
455.294	87.25
455.514	76.25
455.734	85.25
455.955	81.25
456.175	93.25
456.395	85.25
456.616	77.25
456.836	67.25
457.056	93.25
457.276	82.25
457.497	82.25
457.717	77.25
457.937	70.25
458.157	96.25
458.377	88.25
458.598	83.25
458.818	149.25
459.038	125.25
459.258	112.25
459.478	88.25
459.698	81.25
459.918	86.25
460.138	73.25
460.358	88.25
460.578	93.25
460.798	86.25
461.018	69.25
461.238	83.25
461.458	89.25
461.678	78.25
461.898	82.25
462.118	83.25
462.338	94.25
462.558	75.25
462.777	79.25
462.997	90.25
463.217	91.25
463.437	86.25
463.657	88.25
463.876	101.25
464.096	83.25
464.316	72.25
464.536	79.25
464.755	82.25
464.975	97.25
465.195	144.25
465.414	132.25
465.634	98.25
465.854	100.25
466.073	90.25
466.293	78.25
466.512	79.25
466.732	84.25
466.951	78.25
467.171	88.25
467.391	86.25
467.61	93.25
467.829	108.25
468.049	133.25
468.268	142.25
468.488	95.25
468.707	85.25
468.927	72.25
469.146	96.25
469.365	80.25
469.585	99.25
469.804	100.25
470.023	94.25
470.243	74.25
470.462	105.25
470.681	98.25
470.901	89.25
471.12	82.25
471.339	85.25
471.558	86.25
471.777	83.25
471.997	103.25
472.216	180.25
472.435	293.25
472.654	132.25
472.873	89.25
473.092	78.25
473.311	85.25
473.53	77.25
473.749	81.25
473.968	81.25
474.187	98.25
474.406	94.25
474.625	92.25
474.844	93.25
475.063	91.25
475.282	82.25
475.501	84.25
475.72	69.25
475.939	77.25
476.158	86.25
476.377	76.25
476.596	75.25
476.814	96.25
477.033	91.25
477.252	95.25
477.471	96.25
477.69	94.25
477.908	99.25
478.127	87.25
478.346	89.25
478.564	77.25
478.783	79.25
479.002	81.25
479.22	89.25
479.439	84.25
479.658	93.25
479.876	90.25
480.095	94.25
480.313	90.25
480.532	112.25
480.751	102.25
480.969	190.25
481.188	512.25
481.406	323.25
481.624	114.25
481.843	84.25
482.061	94.25
482.28	81.25
482.498	82.25
482.717	81.25
482.935	87.25
483.153	82.25
483.372	88.25
483.59	96.25
483.808	92.25
484.027	94.25
484.245	90.25
484.463	102.25
484.681	100.25
484.9	93.25
485.118	106.25
485.336	105.25
485.554	101.25
485.772	89.25
485.99	99.25
486.209	81.25
486.427	98.25
486.645	94.25
486.863	104.25
487.081	94.25
487.299	91.25
487.517	91.25
487.735	85.25
487.953	87.25
488.171	77.25
488.389	92.25
488.607	92.25
488.825	93.25
489.043	77.25
489.261	87.25
489.479	83.25
489.696	82.25
489.914	89.25
490.132	83.25
490.35	91.25
490.568	86.25
490.786	91.25
491.003	76.25
491.221	81.25
491.439	91.25
491.657	88.25
491.874	86.25
492.092	75.25
492.31	101.25
492.527	70.25
492.745	92.25
492.963	84.25
493.18	98.25
493.398	99.25
493.615	94.25
493.833	96.25
494.05	90.25
494.268	83.25
494.485	80.25
494.703	89.25
494.92	83.25
495.138	98.25
495.355	92.25
495.573	91.25
495.79	93.25
496.008	80.25
496.225	88.25
496.442	84.25
496.66	91.25
496.877	94.25
497.094	76.25
497.312	88.25
497.529	75.25
497.746	73.25
497.963	88.25
498.181	86.25
498.398	95.25
498.615	80.25
498.832	92.25
499.049	76.25
499.267	80.25
499.484	83.25
499.701	88.25
499.918	88.25
500.135	67.25
500.352	100.25
500.569	96.25
500.786	89.25
501.003	102.25
501.22	97.25
501.437	84.25
501.654	93.25
501.871	86.25
502.088	92.25
502.305	88.25
502.522	82.25
502.739	84.25
502.956	84.25
503.172	96.25
503.389	83.25
503.606	88.25
503.823	101.25
504.04	90.25
504.256	74.25
504.473	80.25
504.69	92.25
504.907	65.25
505.123	76.25
505.34	105.25
505.557	96.25
505.773	85.25
505.99	104.25
506.207	98.25
506.423	85.25
506.64	75.25
506.856	86.25
507.073	85.25
507.289	94.25
507.506	89.25
507.722	96.25
507.939	110.25
508.155	93.25
508.372	88.25
508.588	86.25
508.805	90.25
509.021	100.25
509.238	91.25
509.454	92.25
509.67	92.25
509.887	89.25
510.103	106.25
510.319	190.25
510.536	641.25
510.752	1962.25
510.968	586.25
511.184	152.25
511.401	108.25
511.617	91.25
511.833	91.25
512.049	105.25
512.265	87.25
512.481	82.25
512.698	92.25
512.914	98.25
513.13	87.25
513.346	102.25
513.562	100.25
513.778	92.25
513.994	87.25
514.21	90.25
514.426	98.25
514.642	116.25
514.858	145.25
515.074	156.25
515.29	358.25
515.506	1168.25
515.721	452.25
515.937	142.25
516.153	123.25
516.369	104.25
516.585	92.25
516.801	99.25
517.016	93.25
517.232	81.25
