Data from Circ_2005_H10_HRD10591_00055.txt Node
Date: Wed Jan 03 10:30:02 EST 2024
User: Yrep
Spectrometer: HR+D1059
Trigger mode: 1
Integration Time (sec): 1.000000E-1
Scans to average: 1
Electric dark correction enabled: true
Nonlinearity correction enabled: false
Boxcar width: 0
XAxis mode: Wavelengths
Number of Pixels in Spectrum: 2048
>>>>>Begin Spectral Data<<<<<
223.165	-16.69
223.4	-16.69
223.635	-16.69
223.869	-21.69
224.104	-11.69
224.338	-23.69
224.573	-6.69
224.808	-13.69
225.042	-4.69
225.277	1.31
225.511	-5.69
225.746	-0.69
225.98	-5.69
226.215	18.31
226.449	8.31
226.683	17.31
226.918	32.31
227.152	33.31
227.387	38.31
227.621	41.31
227.856	51.31
228.09	50.31
228.324	46.31
228.559	46.31
228.793	66.31
229.027	80.31
229.262	62.31
229.496	78.31
229.73	93.31
229.964	76.31
230.199	80.31
230.433	71.31
230.667	81.31
230.901	78.31
231.136	66.31
231.37	85.31
231.604	81.31
231.838	75.31
232.072	73.31
232.306	72.31
232.541	95.31
232.775	78.31
233.009	75.31
233.243	92.31
233.477	75.31
233.711	77.31
233.945	83.31
234.179	76.31
234.413	83.31
234.647	67.31
234.881	76.31
235.115	74.31
235.349	79.31
235.583	76.31
235.817	79.31
236.051	97.31
236.285	77.31
236.519	79.31
236.753	75.31
236.987	65.31
237.221	74.31
237.455	77.31
237.689	84.31
237.922	80.31
238.156	81.31
238.39	64.31
238.624	50.31
238.858	76.31
239.091	64.31
239.325	67.31
239.559	80.31
239.793	93.31
240.027	93.31
240.26	70.31
240.494	52.31
240.728	75.31
240.961	69.31
241.195	76.31
241.429	76.31
241.662	93.31
241.896	84.31
242.13	82.31
242.363	84.31
242.597	84.31
242.83	78.31
243.064	74.31
243.298	75.31
243.531	79.31
243.765	79.31
243.998	86.31
244.232	76.31
244.465	79.31
244.699	74.31
244.932	83.31
245.166	81.31
245.399	91.31
245.633	70.31
245.866	87.31
246.099	79.31
246.333	84.31
246.566	78.31
246.8	66.31
247.033	83.31
247.266	71.31
247.5	71.31
247.733	71.31
247.966	64.31
248.2	69.31
248.433	91.31
248.666	79.31
248.899	78.31
249.133	82.31
249.366	94.31
249.599	90.31
249.832	80.31
250.066	88.31
250.299	77.31
250.532	83.31
250.765	77.31
250.998	93.31
251.231	77.31
251.465	88.31
251.698	86.31
251.931	81.31
252.164	70.31
252.397	73.31
252.63	67.31
252.863	87.31
253.096	96.31
253.329	71.31
253.562	71.31
253.795	89.31
254.028	75.31
254.261	83.31
254.494	70.31
254.727	77.31
254.96	87.31
255.193	60.31
255.426	79.31
255.659	66.31
255.892	71.31
256.124	88.31
256.357	82.31
256.59	82.31
256.823	87.31
257.056	79.31
257.289	82.31
257.521	89.31
257.754	82.31
257.987	86.31
258.22	88.31
258.452	79.31
258.685	85.31
258.918	82.31
259.151	63.31
259.383	71.31
259.616	91.31
259.849	90.31
260.081	81.31
260.314	94.31
260.547	74.31
260.779	91.31
261.012	103.31
261.244	96.31
261.477	82.31
261.71	100.31
261.942	119.31
262.175	117.31
262.407	85.31
262.64	74.31
262.872	77.31
263.105	81.31
263.337	82.31
263.57	82.31
263.802	88.31
264.035	79.31
264.267	83.31
264.499	92.31
264.732	86.31
264.964	86.31
265.197	86.31
265.429	73.31
265.661	83.31
265.894	84.31
266.126	79.31
266.358	83.31
266.591	69.31
266.823	77.31
267.055	77.31
267.287	76.31
267.52	70.31
267.752	86.31
267.984	92.31
268.216	92.31
268.448	83.31
268.681	81.31
268.913	83.31
269.145	78.31
269.377	89.31
269.609	86.31
269.841	80.31
270.073	79.31
270.306	96.31
270.538	89.31
270.77	90.31
271.002	88.31
271.234	79.31
271.466	95.31
271.698	87.31
271.93	87.31
272.162	77.31
272.394	91.31
272.626	73.31
272.858	68.31
273.09	82.31
273.322	94.31
273.553	91.31
273.785	86.31
274.017	76.31
274.249	88.31
274.481	75.31
274.713	85.31
274.945	77.31
275.176	87.31
275.408	87.31
275.64	85.31
275.872	76.31
276.104	78.31
276.335	88.31
276.567	93.31
276.799	114.31
277.031	103.31
277.262	101.31
277.494	90.31
277.726	88.31
277.957	76.31
278.189	80.31
278.421	71.31
278.652	71.31
278.884	79.31
279.115	81.31
279.347	82.31
279.579	100.31
279.81	76.31
280.042	92.31
280.273	96.31
280.505	90.31
280.736	94.31
280.968	73.31
281.199	85.31
281.431	82.31
281.662	98.31
281.894	82.31
282.125	96.31
282.356	126.31
282.588	123.31
282.819	87.31
283.051	74.31
283.282	94.31
283.513	100.31
283.745	94.31
283.976	95.31
284.207	101.31
284.439	91.31
284.67	84.31
284.901	81.31
285.132	82.31
285.364	90.31
285.595	67.31
285.826	83.31
286.057	79.31
286.288	83.31
286.52	91.31
286.751	91.31
286.982	82.31
287.213	75.31
287.444	76.31
287.675	83.31
287.906	106.31
288.138	93.31
288.369	82.31
288.6	77.31
288.831	77.31
289.062	82.31
289.293	75.31
289.524	94.31
289.755	93.31
289.986	83.31
290.217	75.31
290.448	98.31
290.679	73.31
290.91	77.31
291.141	80.31
291.371	94.31
291.602	85.31
291.833	86.31
292.064	84.31
292.295	93.31
292.526	94.31
292.757	88.31
292.987	85.31
293.218	83.31
293.449	81.31
293.68	89.31
293.91	90.31
294.141	97.31
294.372	92.31
294.603	77.31
294.833	96.31
295.064	77.31
295.295	100.31
295.525	88.31
295.756	102.31
295.987	129.31
296.217	117.31
296.448	124.31
296.679	94.31
296.909	84.31
297.14	78.31
297.37	87.31
297.601	84.31
297.831	93.31
298.062	87.31
298.292	92.31
298.523	92.31
298.753	88.31
298.984	81.31
299.214	88.31
299.445	83.31
299.675	111.31
299.905	89.31
300.136	92.31
300.366	85.31
300.597	89.31
300.827	101.31
301.057	96.31
301.288	110.31
301.518	95.31
301.748	84.31
301.979	101.31
302.209	84.31
302.439	86.31
302.669	93.31
302.9	90.31
303.13	89.31
303.36	92.31
303.59	98.31
303.82	115.31
304.051	88.31
304.281	83.31
304.511	84.31
304.741	84.31
304.971	88.31
305.201	102.31
305.431	80.31
305.661	88.31
305.891	82.31
306.121	93.31
306.352	96.31
306.582	104.31
306.812	96.31
307.042	88.31
307.272	96.31
307.502	84.31
307.731	94.31
307.961	100.31
308.191	86.31
308.421	91.31
308.651	87.31
308.881	93.31
309.111	79.31
309.341	93.31
309.571	90.31
309.8	96.31
310.03	104.31
310.26	85.31
310.49	95.31
310.72	90.31
310.949	103.31
311.179	106.31
311.409	88.31
311.639	74.31
311.868	93.31
312.098	96.31
312.328	102.31
312.557	99.31
312.787	102.31
313.017	82.31
313.246	94.31
313.476	89.31
313.706	94.31
313.935	91.31
314.165	93.31
314.394	95.31
314.624	91.31
314.853	103.31
315.083	82.31
315.312	73.31
315.542	102.31
315.771	76.31
316.001	92.31
316.23	82.31
316.46	83.31
316.689	109.31
316.919	82.31
317.148	89.31
317.377	86.31
317.607	107.31
317.836	103.31
318.065	98.31
318.295	100.31
318.524	82.31
318.753	95.31
318.983	97.31
319.212	110.31
319.441	104.31
319.67	107.31
319.9	95.31
320.129	86.31
320.358	105.31
320.587	83.31
320.816	88.31
321.046	107.31
321.275	99.31
321.504	104.31
321.733	96.31
321.962	98.31
322.191	86.31
322.42	95.31
322.649	102.31
322.878	95.31
323.108	111.31
323.337	118.31
323.566	123.31
323.795	144.31
324.024	193.31
324.253	356.31
324.482	776.31
324.71	1563.31
324.939	2051.31
325.168	780.31
325.397	230.31
325.626	141.31
325.855	125.31
326.084	131.31
326.313	124.31
326.542	151.31
326.77	222.31
326.999	414.31
327.228	883.31
327.457	1623.31
327.686	1292.31
327.914	359.31
328.143	199.31
328.372	150.31
328.6	132.31
328.829	114.31
329.058	126.31
329.287	117.31
329.515	124.31
329.744	109.31
329.972	111.31
330.201	140.31
330.43	171.31
330.658	125.31
330.887	127.31
331.115	107.31
331.344	93.31
331.572	90.31
331.801	100.31
332.03	90.31
332.258	84.31
332.486	97.31
332.715	89.31
332.943	97.31
333.172	97.31
333.4	95.31
333.629	107.31
333.857	111.31
334.085	130.31
334.314	145.31
334.542	185.31
334.771	192.31
334.999	111.31
335.227	101.31
335.455	96.31
335.684	105.31
335.912	96.31
336.14	87.31
336.369	100.31
336.597	104.31
336.825	101.31
337.053	100.31
337.281	85.31
337.51	93.31
337.738	100.31
337.966	99.31
338.194	100.31
338.422	101.31
338.65	96.31
338.878	85.31
339.106	82.31
339.334	97.31
339.562	88.31
339.79	85.31
340.018	97.31
340.246	84.31
340.474	97.31
340.702	96.31
340.93	89.31
341.158	85.31
341.386	91.31
341.614	80.31
341.842	79.31
342.07	88.31
342.298	85.31
342.526	84.31
342.754	84.31
342.981	89.31
343.209	93.31
343.437	94.31
343.665	86.31
343.893	85.31
344.12	87.31
344.348	95.31
344.576	89.31
344.804	80.31
345.031	79.31
345.259	98.31
345.487	87.31
345.714	90.31
345.942	97.31
346.17	95.31
346.397	93.31
346.625	108.31
346.853	98.31
347.08	93.31
347.308	89.31
347.535	87.31
347.763	101.31
347.99	103.31
348.218	111.31
348.445	91.31
348.673	87.31
348.9	85.31
349.128	103.31
349.355	93.31
349.583	94.31
349.81	96.31
350.037	87.31
350.265	95.31
350.492	93.31
350.72	91.31
350.947	92.31
351.174	102.31
351.402	107.31
351.629	113.31
351.856	101.31
352.083	103.31
352.311	95.31
352.538	106.31
352.765	90.31
352.992	110.31
353.22	112.31
353.447	99.31
353.674	91.31
353.901	88.31
354.128	116.31
354.355	86.31
354.583	83.31
354.81	102.31
355.037	96.31
355.264	102.31
355.491	97.31
355.718	103.31
355.945	82.31
356.172	106.31
356.399	80.31
356.626	99.31
356.853	93.31
357.08	81.31
357.307	90.31
357.534	85.31
357.761	94.31
357.988	99.31
358.215	98.31
358.441	92.31
358.668	90.31
358.895	92.31
359.122	93.31
359.349	101.31
359.576	99.31
359.802	105.31
360.029	110.31
360.256	104.31
360.483	86.31
360.709	97.31
360.936	99.31
361.163	90.31
361.39	98.31
361.616	99.31
361.843	92.31
362.07	106.31
362.296	100.31
362.523	105.31
362.749	100.31
362.976	87.31
363.203	92.31
363.429	76.31
363.656	79.31
363.882	100.31
364.109	81.31
364.335	86.31
364.562	90.31
364.788	82.31
365.015	91.31
365.241	90.31
365.468	109.31
365.694	87.31
365.92	103.31
366.147	75.31
366.373	87.31
366.599	85.31
366.826	100.31
367.052	93.31
367.278	93.31
367.505	83.31
367.731	98.31
367.957	87.31
368.184	81.31
368.41	89.31
368.636	113.31
368.862	119.31
369.089	107.31
369.315	86.31
369.541	90.31
369.767	98.31
369.993	91.31
370.219	87.31
370.445	82.31
370.672	92.31
370.898	88.31
371.124	80.31
371.35	100.31
371.576	93.31
371.802	98.31
372.028	84.31
372.254	91.31
372.48	82.31
372.706	92.31
372.932	102.31
373.158	100.31
373.384	85.31
373.61	103.31
373.835	76.31
374.061	86.31
374.287	78.31
374.513	84.31
374.739	92.31
374.965	101.31
375.191	93.31
375.416	87.31
375.642	90.31
375.868	96.31
376.094	86.31
376.319	92.31
376.545	84.31
376.771	99.31
376.997	77.31
377.222	100.31
377.448	97.31
377.674	81.31
377.899	85.31
378.125	88.31
378.35	97.31
378.576	86.31
378.802	96.31
379.027	79.31
379.253	91.31
379.478	87.31
379.704	105.31
379.929	85.31
380.155	95.31
380.38	77.31
380.606	91.31
380.831	92.31
381.057	92.31
381.282	77.31
381.507	87.31
381.733	86.31
381.958	94.31
382.184	94.31
382.409	95.31
382.634	104.31
382.86	104.31
383.085	105.31
383.31	102.31
383.535	113.31
383.761	103.31
383.986	88.31
384.211	100.31
384.436	99.31
384.662	103.31
384.887	99.31
385.112	102.31
385.337	106.31
385.562	92.31
385.787	102.31
386.013	93.31
386.238	106.31
386.463	117.31
386.688	118.31
386.913	94.31
387.138	112.31
387.363	95.31
387.588	86.31
387.813	102.31
388.038	112.31
388.263	112.31
388.488	110.31
388.713	93.31
388.938	110.31
389.163	96.31
389.387	88.31
389.612	93.31
389.837	94.31
390.062	95.31
390.287	107.31
390.512	109.31
390.736	96.31
390.961	85.31
391.186	86.31
391.411	83.31
391.636	102.31
391.86	90.31
392.085	87.31
392.31	87.31
392.534	82.31
392.759	88.31
392.984	91.31
393.208	80.31
393.433	87.31
393.658	91.31
393.882	81.31
394.107	79.31
394.331	76.31
394.556	78.31
394.78	103.31
395.005	101.31
395.229	79.31
395.454	88.31
395.678	94.31
395.903	100.31
396.127	89.31
396.352	90.31
396.576	83.31
396.801	86.31
397.025	81.31
397.249	81.31
397.474	78.31
397.698	72.31
397.922	82.31
398.147	90.31
398.371	88.31
398.595	79.31
398.82	82.31
399.044	79.31
399.268	81.31
399.492	85.31
399.717	87.31
399.941	83.31
400.165	80.31
400.389	100.31
400.613	80.31
400.837	75.31
401.062	98.31
401.286	91.31
401.51	84.31
401.734	104.31
401.958	99.31
402.182	122.31
402.406	154.31
402.63	110.31
402.854	88.31
403.078	85.31
403.302	83.31
403.526	92.31
403.75	91.31
403.974	90.31
404.198	88.31
404.422	83.31
404.645	83.31
404.869	92.31
405.093	101.31
405.317	96.31
405.541	94.31
405.765	101.31
405.988	114.31
406.212	153.31
406.436	225.31
406.66	137.31
406.883	95.31
407.107	84.31
407.331	96.31
407.555	104.31
407.778	91.31
408.002	103.31
408.226	89.31
408.449	86.31
408.673	87.31
408.896	85.31
409.12	102.31
409.344	90.31
409.567	98.31
409.791	93.31
410.014	105.31
410.238	94.31
410.461	85.31
410.685	90.31
410.908	89.31
411.132	108.31
411.355	99.31
411.578	89.31
411.802	92.31
412.025	80.31
412.249	93.31
412.472	101.31
412.695	102.31
412.919	91.31
413.142	94.31
413.365	102.31
413.589	85.31
413.812	87.31
414.035	108.31
414.258	87.31
414.482	95.31
414.705	95.31
414.928	76.31
415.151	68.31
415.374	88.31
415.597	93.31
415.821	92.31
416.044	100.31
416.267	96.31
416.49	88.31
416.713	93.31
416.936	84.31
417.159	82.31
417.382	81.31
417.605	87.31
417.828	98.31
418.051	78.31
418.274	85.31
418.497	96.31
418.72	87.31
418.943	80.31
419.166	86.31
419.389	88.31
419.611	79.31
419.834	91.31
420.057	86.31
420.28	81.31
420.503	87.31
420.726	87.31
420.948	90.31
421.171	83.31
421.394	84.31
421.617	94.31
421.839	99.31
422.062	86.31
422.285	93.31
422.507	97.31
422.73	93.31
422.953	86.31
423.175	88.31
423.398	90.31
423.621	87.31
423.843	83.31
424.066	79.31
424.288	91.31
424.511	93.31
424.733	78.31
424.956	98.31
425.178	94.31
425.401	87.31
425.623	96.31
425.846	93.31
426.068	90.31
426.291	90.31
426.513	101.31
426.735	95.31
426.958	91.31
427.18	95.31
427.402	135.31
427.625	154.31
427.847	139.31
428.069	108.31
428.292	84.31
428.514	88.31
428.736	91.31
428.958	80.31
429.181	79.31
429.403	69.31
429.625	90.31
429.847	87.31
430.069	80.31
430.292	110.31
430.514	88.31
430.736	80.31
430.958	80.31
431.18	85.31
431.402	80.31
431.624	76.31
431.846	82.31
432.068	85.31
432.29	95.31
432.512	85.31
432.734	70.31
432.956	86.31
433.178	81.31
433.4	98.31
433.622	86.31
433.844	84.31
434.066	81.31
434.287	95.31
434.509	84.31
434.731	85.31
434.953	96.31
435.175	83.31
435.397	94.31
435.618	92.31
435.84	105.31
436.062	105.31
436.284	111.31
436.505	102.31
436.727	114.31
436.949	79.31
437.17	86.31
437.392	97.31
437.614	95.31
437.835	93.31
438.057	114.31
438.278	92.31
438.5	111.31
438.721	120.31
438.943	109.31
439.165	93.31
439.386	104.31
439.608	92.31
439.829	90.31
440.05	124.31
440.272	145.31
440.493	92.31
440.715	82.31
440.936	98.31
441.158	84.31
441.379	74.31
441.6	96.31
441.822	80.31
442.043	91.31
442.264	107.31
442.486	107.31
442.707	106.31
442.928	94.31
443.149	118.31
443.371	128.31
443.592	101.31
443.813	101.31
444.034	113.31
444.255	80.31
444.476	108.31
444.698	82.31
444.919	96.31
445.14	138.31
445.361	117.31
445.582	114.31
445.803	119.31
446.024	125.31
446.245	136.31
446.466	104.31
446.687	91.31
446.908	84.31
447.129	94.31
447.35	85.31
447.571	92.31
447.792	88.31
448.013	98.31
448.234	97.31
448.455	96.31
448.675	124.31
448.896	114.31
449.117	94.31
449.338	103.31
449.559	128.31
449.779	122.31
450	85.31
450.221	79.31
450.442	87.31
450.662	90.31
450.883	113.31
451.104	91.31
451.324	95.31
451.545	87.31
451.766	88.31
451.986	92.31
452.207	93.31
452.428	79.31
452.648	93.31
452.869	98.31
453.089	101.31
453.31	119.31
453.53	87.31
453.751	85.31
453.971	99.31
454.192	98.31
454.412	94.31
454.633	93.31
454.853	89.31
455.073	94.31
455.294	84.31
455.514	87.31
455.734	80.31
455.955	88.31
456.175	91.31
456.395	79.31
456.616	84.31
456.836	95.31
457.056	75.31
457.276	87.31
457.497	85.31
457.717	96.31
457.937	87.31
458.157	88.31
458.377	98.31
458.598	96.31
458.818	131.31
459.038	146.31
459.258	102.31
459.478	94.31
459.698	88.31
459.918	80.31
460.138	72.31
460.358	75.31
460.578	90.31
460.798	81.31
461.018	77.31
461.238	78.31
461.458	83.31
461.678	78.31
461.898	75.31
462.118	95.31
462.338	76.31
462.558	87.31
462.777	86.31
462.997	92.31
463.217	93.31
463.437	79.31
463.657	94.31
463.876	89.31
464.096	94.31
464.316	76.31
464.536	108.31
464.755	94.31
464.975	96.31
465.195	146.31
465.414	153.31
465.634	102.31
465.854	81.31
466.073	93.31
466.293	73.31
466.512	85.31
466.732	90.31
466.951	80.31
467.171	86.31
467.391	90.31
467.61	88.31
467.829	94.31
468.049	104.31
468.268	131.31
468.488	85.31
468.707	84.31
468.927	69.31
469.146	83.31
469.365	87.31
469.585	90.31
469.804	101.31
470.023	92.31
470.243	93.31
470.462	98.31
470.681	106.31
470.901	82.31
471.12	83.31
471.339	93.31
471.558	88.31
471.777	99.31
471.997	94.31
472.216	137.31
472.435	210.31
472.654	115.31
472.873	85.31
473.092	79.31
473.311	88.31
473.53	83.31
473.749	82.31
473.968	86.31
474.187	99.31
474.406	94.31
474.625	79.31
474.844	86.31
475.063	87.31
475.282	101.31
475.501	70.31
475.72	85.31
475.939	75.31
476.158	58.31
476.377	75.31
476.596	91.31
476.814	92.31
477.033	83.31
477.252	94.31
477.471	90.31
477.69	87.31
477.908	89.31
478.127	86.31
478.346	79.31
478.564	89.31
478.783	91.31
479.002	95.31
479.22	96.31
479.439	90.31
479.658	95.31
479.876	84.31
480.095	104.31
480.313	95.31
480.532	95.31
480.751	107.31
480.969	151.31
481.188	332.31
481.406	220.31
481.624	101.31
481.843	96.31
482.061	83.31
482.28	99.31
482.498	93.31
482.717	103.31
482.935	82.31
483.153	86.31
483.372	85.31
483.59	78.31
483.808	79.31
484.027	79.31
484.245	84.31
484.463	86.31
484.681	86.31
484.9	99.31
485.118	97.31
485.336	91.31
485.554	95.31
485.772	97.31
485.99	105.31
486.209	112.31
486.427	101.31
486.645	104.31
486.863	106.31
487.081	102.31
487.299	93.31
487.517	102.31
487.735	95.31
487.953	86.31
488.171	88.31
488.389	103.31
488.607	99.31
488.825	86.31
489.043	87.31
489.261	101.31
489.479	93.31
489.696	86.31
489.914	92.31
490.132	94.31
490.35	98.31
490.568	99.31
490.786	77.31
491.003	88.31
491.221	86.31
491.439	84.31
491.657	104.31
491.874	84.31
492.092	78.31
492.31	95.31
492.527	82.31
492.745	86.31
492.963	86.31
493.18	83.31
493.398	93.31
493.615	92.31
493.833	103.31
494.05	91.31
494.268	83.31
494.485	81.31
494.703	83.31
494.92	91.31
495.138	75.31
495.355	91.31
495.573	95.31
495.79	82.31
496.008	92.31
496.225	87.31
496.442	95.31
496.66	106.31
496.877	82.31
497.094	87.31
497.312	87.31
497.529	87.31
497.746	86.31
497.963	99.31
498.181	78.31
498.398	92.31
498.615	110.31
498.832	104.31
499.049	84.31
499.267	99.31
499.484	97.31
499.701	95.31
499.918	81.31
500.135	101.31
500.352	92.31
500.569	97.31
500.786	74.31
501.003	82.31
501.22	96.31
501.437	92.31
501.654	88.31
501.871	92.31
502.088	85.31
502.305	99.31
502.522	83.31
502.739	84.31
502.956	83.31
503.172	96.31
503.389	101.31
503.606	102.31
503.823	108.31
504.04	96.31
504.256	84.31
504.473	83.31
504.69	102.31
504.907	86.31
505.123	84.31
505.34	97.31
505.557	96.31
505.773	82.31
505.99	74.31
506.207	93.31
506.423	77.31
506.64	93.31
506.856	97.31
507.073	103.31
507.289	97.31
507.506	94.31
507.722	98.31
507.939	103.31
508.155	90.31
508.372	94.31
508.588	92.31
508.805	112.31
509.021	106.31
509.238	91.31
509.454	104.31
509.67	100.31
509.887	108.31
510.103	129.31
510.319	203.31
510.536	690.31
510.752	2229.31
510.968	635.31
511.184	148.31
511.401	102.31
511.617	102.31
511.833	68.31
512.049	94.31
512.265	96.31
512.481	101.31
512.698	98.31
512.914	83.31
513.13	93.31
513.346	84.31
513.562	86.31
513.778	91.31
513.994	110.31
514.21	95.31
514.426	117.31
514.642	111.31
514.858	129.31
515.074	154.31
515.29	410.31
515.506	1383.31
515.721	526.31
515.937	146.31
