Data from Circ_2005_H10_HRD10591_00090.txt Node
Date: Wed Jan 03 10:30:09 EST 2024
User: Yrep
Spectrometer: HR+D1059
Trigger mode: 1
Integration Time (sec): 1.000000E-1
Scans to average: 1
Electric dark correction enabled: true
Nonlinearity correction enabled: false
Boxcar width: 0
XAxis mode: Wavelengths
Number of Pixels in Spectrum: 2048
>>>>>Begin Spectral Data<<<<<
223.165	-20.88
223.4	-20.88
223.635	-20.88
223.869	-12.88
224.104	-17.88
224.338	-14.88
224.573	-11.88
224.808	-0.88
225.042	-3.88
225.277	-9.88
225.511	4.12
225.746	-11.88
225.98	10.12
226.215	10.12
226.449	16.12
226.683	19.12
226.918	21.12
227.152	24.12
227.387	31.12
227.621	36.12
227.856	50.12
228.09	36.12
228.324	44.12
228.559	54.12
228.793	61.12
229.027	53.12
229.262	60.12
229.496	69.12
229.73	78.12
229.964	80.12
230.199	82.12
230.433	58.12
230.667	91.12
230.901	64.12
231.136	62.12
231.37	69.12
231.604	83.12
231.838	66.12
232.072	70.12
232.306	74.12
232.541	71.12
232.775	74.12
233.009	85.12
233.243	81.12
233.477	88.12
233.711	81.12
233.945	65.12
234.179	82.12
234.413	91.12
234.647	79.12
234.881	88.12
235.115	89.12
235.349	81.12
235.583	75.12
235.817	80.12
236.051	70.12
236.285	78.12
236.519	67.12
236.753	72.12
236.987	68.12
237.221	83.12
237.455	70.12
237.689	71.12
237.922	82.12
238.156	77.12
238.39	80.12
238.624	83.12
238.858	76.12
239.091	81.12
239.325	67.12
239.559	85.12
239.793	86.12
240.027	71.12
240.26	82.12
240.494	76.12
240.728	67.12
240.961	76.12
241.195	70.12
241.429	66.12
241.662	84.12
241.896	66.12
242.13	62.12
242.363	77.12
242.597	75.12
242.83	68.12
243.064	60.12
243.298	86.12
243.531	67.12
243.765	76.12
243.998	74.12
244.232	71.12
244.465	74.12
244.699	87.12
244.932	75.12
245.166	77.12
245.399	76.12
245.633	92.12
245.866	72.12
246.099	78.12
246.333	76.12
246.566	84.12
246.8	77.12
247.033	81.12
247.266	79.12
247.5	86.12
247.733	66.12
247.966	82.12
248.2	68.12
248.433	79.12
248.666	76.12
248.899	85.12
249.133	82.12
249.366	92.12
249.599	92.12
249.832	82.12
250.066	94.12
250.299	68.12
250.532	92.12
250.765	82.12
250.998	83.12
251.231	79.12
251.465	91.12
251.698	82.12
251.931	79.12
252.164	78.12
252.397	82.12
252.63	80.12
252.863	79.12
253.096	86.12
253.329	79.12
253.562	85.12
253.795	84.12
254.028	83.12
254.261	90.12
254.494	73.12
254.727	84.12
254.96	82.12
255.193	94.12
255.426	80.12
255.659	83.12
255.892	92.12
256.124	85.12
256.357	86.12
256.59	84.12
256.823	86.12
257.056	86.12
257.289	83.12
257.521	83.12
257.754	86.12
257.987	86.12
258.22	84.12
258.452	67.12
258.685	74.12
258.918	75.12
259.151	94.12
259.383	78.12
259.616	75.12
259.849	64.12
260.081	78.12
260.314	79.12
260.547	103.12
260.779	86.12
261.012	80.12
261.244	83.12
261.477	95.12
261.71	97.12
261.942	91.12
262.175	101.12
262.407	77.12
262.64	85.12
262.872	85.12
263.105	71.12
263.337	78.12
263.57	82.12
263.802	82.12
264.035	84.12
264.267	92.12
264.499	82.12
264.732	87.12
264.964	71.12
265.197	83.12
265.429	83.12
265.661	64.12
265.894	95.12
266.126	67.12
266.358	92.12
266.591	70.12
266.823	78.12
267.055	80.12
267.287	89.12
267.52	90.12
267.752	87.12
267.984	92.12
268.216	74.12
268.448	81.12
268.681	79.12
268.913	81.12
269.145	88.12
269.377	94.12
269.609	84.12
269.841	85.12
270.073	92.12
270.306	82.12
270.538	83.12
270.77	94.12
271.002	81.12
271.234	75.12
271.466	88.12
271.698	83.12
271.93	69.12
272.162	92.12
272.394	80.12
272.626	88.12
272.858	79.12
273.09	77.12
273.322	78.12
273.553	82.12
273.785	90.12
274.017	96.12
274.249	83.12
274.481	76.12
274.713	98.12
274.945	109.12
275.176	81.12
275.408	88.12
275.64	90.12
275.872	79.12
276.104	80.12
276.335	76.12
276.567	98.12
276.799	103.12
277.031	89.12
277.262	94.12
277.494	88.12
277.726	94.12
277.957	82.12
278.189	65.12
278.421	82.12
278.652	96.12
278.884	94.12
279.115	82.12
279.347	84.12
279.579	83.12
279.81	75.12
280.042	84.12
280.273	108.12
280.505	82.12
280.736	88.12
280.968	92.12
281.199	89.12
281.431	99.12
281.662	98.12
281.894	85.12
282.125	99.12
282.356	106.12
282.588	122.12
282.819	101.12
283.051	96.12
283.282	100.12
283.513	91.12
283.745	83.12
283.976	70.12
284.207	89.12
284.439	88.12
284.67	80.12
284.901	92.12
285.132	100.12
285.364	81.12
285.595	79.12
285.826	73.12
286.057	86.12
286.288	95.12
286.52	74.12
286.751	77.12
286.982	100.12
287.213	82.12
287.444	91.12
287.675	98.12
287.906	97.12
288.138	98.12
288.369	88.12
288.6	87.12
288.831	85.12
289.062	84.12
289.293	88.12
289.524	89.12
289.755	83.12
289.986	83.12
290.217	99.12
290.448	83.12
290.679	86.12
290.91	88.12
291.141	85.12
291.371	87.12
291.602	91.12
291.833	82.12
292.064	92.12
292.295	81.12
292.526	63.12
292.757	82.12
292.987	94.12
293.218	77.12
293.449	87.12
293.68	78.12
293.91	91.12
294.141	96.12
294.372	81.12
294.603	91.12
294.833	94.12
295.064	96.12
295.295	86.12
295.525	93.12
295.756	111.12
295.987	123.12
296.217	125.12
296.448	128.12
296.679	90.12
296.909	102.12
297.14	95.12
297.37	101.12
297.601	93.12
297.831	90.12
298.062	77.12
298.292	80.12
298.523	75.12
298.753	94.12
298.984	83.12
299.214	106.12
299.445	101.12
299.675	87.12
299.905	98.12
300.136	83.12
300.366	82.12
300.597	77.12
300.827	86.12
301.057	107.12
301.288	89.12
301.518	92.12
301.748	80.12
301.979	84.12
302.209	87.12
302.439	87.12
302.669	76.12
302.9	89.12
303.13	83.12
303.36	87.12
303.59	91.12
303.82	116.12
304.051	101.12
304.281	80.12
304.511	90.12
304.741	87.12
304.971	92.12
305.201	81.12
305.431	83.12
305.661	85.12
305.891	93.12
306.121	89.12
306.352	104.12
306.582	95.12
306.812	100.12
307.042	91.12
307.272	97.12
307.502	108.12
307.731	98.12
307.961	84.12
308.191	81.12
308.421	70.12
308.651	87.12
308.881	93.12
309.111	104.12
309.341	99.12
309.571	99.12
309.8	102.12
310.03	94.12
310.26	94.12
310.49	87.12
310.72	107.12
310.949	110.12
311.179	96.12
311.409	93.12
311.639	94.12
311.868	99.12
312.098	111.12
312.328	92.12
312.557	113.12
312.787	100.12
313.017	94.12
313.246	81.12
313.476	91.12
313.706	90.12
313.935	102.12
314.165	95.12
314.394	90.12
314.624	103.12
314.853	100.12
315.083	113.12
315.312	86.12
315.542	99.12
315.771	85.12
316.001	93.12
316.23	83.12
316.46	92.12
316.689	89.12
316.919	100.12
317.148	99.12
317.377	95.12
317.607	73.12
317.836	81.12
318.065	90.12
318.295	91.12
318.524	92.12
318.753	103.12
318.983	86.12
319.212	105.12
319.441	88.12
319.67	102.12
319.9	99.12
320.129	86.12
320.358	85.12
320.587	94.12
320.816	117.12
321.046	88.12
321.275	101.12
321.504	97.12
321.733	99.12
321.962	84.12
322.191	102.12
322.42	91.12
322.649	117.12
322.878	116.12
323.108	110.12
323.337	116.12
323.566	131.12
323.795	140.12
324.024	183.12
324.253	364.12
324.482	752.12
324.71	1519.12
324.939	1941.12
325.168	760.12
325.397	222.12
325.626	147.12
325.855	119.12
326.084	134.12
326.313	126.12
326.542	145.12
326.77	220.12
326.999	431.12
327.228	875.12
327.457	1592.12
327.686	1206.12
327.914	355.12
328.143	213.12
328.372	163.12
328.6	145.12
328.829	95.12
329.058	112.12
329.287	112.12
329.515	116.12
329.744	120.12
329.972	129.12
330.201	189.12
330.43	232.12
330.658	159.12
330.887	138.12
331.115	114.12
331.344	99.12
331.572	91.12
331.801	106.12
332.03	97.12
332.258	82.12
332.486	98.12
332.715	96.12
332.943	88.12
333.172	91.12
333.4	92.12
333.629	111.12
333.857	131.12
334.085	136.12
334.314	196.12
334.542	283.12
334.771	270.12
334.999	126.12
335.227	97.12
335.455	92.12
335.684	96.12
335.912	92.12
336.14	88.12
336.369	107.12
336.597	103.12
336.825	104.12
337.053	95.12
337.281	92.12
337.51	88.12
337.738	105.12
337.966	95.12
338.194	96.12
338.422	91.12
338.65	98.12
338.878	99.12
339.106	75.12
339.334	78.12
339.562	75.12
339.79	86.12
340.018	80.12
340.246	83.12
340.474	107.12
340.702	86.12
340.93	99.12
341.158	98.12
341.386	103.12
341.614	100.12
341.842	76.12
342.07	91.12
342.298	79.12
342.526	95.12
342.754	94.12
342.981	85.12
343.209	90.12
343.437	101.12
343.665	82.12
343.893	88.12
344.12	85.12
344.348	75.12
344.576	94.12
344.804	93.12
345.031	99.12
345.259	97.12
345.487	93.12
345.714	84.12
345.942	95.12
346.17	97.12
346.397	96.12
346.625	104.12
346.853	96.12
347.08	98.12
347.308	77.12
347.535	94.12
347.763	95.12
347.99	85.12
348.218	99.12
348.445	106.12
348.673	90.12
348.9	95.12
349.128	100.12
349.355	95.12
349.583	98.12
349.81	102.12
350.037	90.12
350.265	90.12
350.492	94.12
350.72	95.12
350.947	99.12
351.174	102.12
351.402	110.12
351.629	102.12
351.856	90.12
352.083	95.12
352.311	97.12
352.538	97.12
352.765	101.12
352.992	111.12
353.22	110.12
353.447	98.12
353.674	107.12
353.901	104.12
354.128	88.12
354.355	93.12
354.583	87.12
354.81	111.12
355.037	95.12
355.264	95.12
355.491	78.12
355.718	86.12
355.945	99.12
356.172	101.12
356.399	99.12
356.626	87.12
356.853	83.12
357.08	93.12
357.307	87.12
357.534	94.12
357.761	96.12
357.988	88.12
358.215	82.12
358.441	100.12
358.668	95.12
358.895	97.12
359.122	84.12
359.349	97.12
359.576	84.12
359.802	90.12
360.029	108.12
360.256	96.12
360.483	91.12
360.709	81.12
360.936	80.12
361.163	100.12
361.39	87.12
361.616	91.12
361.843	83.12
362.07	78.12
362.296	95.12
362.523	83.12
362.749	88.12
362.976	99.12
363.203	93.12
363.429	96.12
363.656	99.12
363.882	93.12
364.109	92.12
364.335	85.12
364.562	95.12
364.788	90.12
365.015	90.12
365.241	96.12
365.468	98.12
365.694	92.12
365.92	92.12
366.147	104.12
366.373	94.12
366.599	96.12
366.826	95.12
367.052	87.12
367.278	84.12
367.505	94.12
367.731	90.12
367.957	88.12
368.184	91.12
368.41	86.12
368.636	96.12
368.862	119.12
369.089	112.12
369.315	83.12
369.541	100.12
369.767	93.12
369.993	94.12
370.219	88.12
370.445	78.12
370.672	75.12
370.898	84.12
371.124	93.12
371.35	86.12
371.576	92.12
371.802	84.12
372.028	88.12
372.254	83.12
372.48	96.12
372.706	82.12
372.932	83.12
373.158	85.12
373.384	84.12
373.61	72.12
373.835	91.12
374.061	79.12
374.287	94.12
374.513	94.12
374.739	78.12
374.965	92.12
375.191	85.12
375.416	94.12
375.642	92.12
375.868	102.12
376.094	86.12
376.319	92.12
376.545	92.12
376.771	81.12
376.997	89.12
377.222	93.12
377.448	88.12
377.674	87.12
377.899	90.12
378.125	96.12
378.35	97.12
378.576	94.12
378.802	85.12
379.027	76.12
379.253	92.12
379.478	102.12
379.704	86.12
379.929	84.12
380.155	86.12
380.38	95.12
380.606	105.12
380.831	107.12
381.057	102.12
381.282	90.12
381.507	78.12
381.733	90.12
381.958	98.12
382.184	97.12
382.409	102.12
382.634	110.12
382.86	83.12
383.085	89.12
383.31	93.12
383.535	81.12
383.761	102.12
383.986	90.12
384.211	95.12
384.436	100.12
384.662	106.12
384.887	106.12
385.112	86.12
385.337	108.12
385.562	104.12
385.787	99.12
386.013	111.12
386.238	118.12
386.463	93.12
386.688	107.12
386.913	99.12
387.138	97.12
387.363	101.12
387.588	106.12
387.813	105.12
388.038	97.12
388.263	111.12
388.488	103.12
388.713	87.12
388.938	89.12
389.163	89.12
389.387	87.12
389.612	94.12
389.837	92.12
390.062	88.12
390.287	83.12
390.512	85.12
390.736	80.12
390.961	100.12
391.186	102.12
391.411	89.12
391.636	88.12
391.86	89.12
392.085	83.12
392.31	99.12
392.534	96.12
392.759	84.12
392.984	83.12
393.208	98.12
393.433	84.12
393.658	91.12
393.882	92.12
394.107	76.12
394.331	79.12
394.556	94.12
394.78	86.12
395.005	94.12
395.229	77.12
395.454	90.12
395.678	84.12
395.903	88.12
396.127	89.12
396.352	72.12
396.576	91.12
396.801	79.12
397.025	76.12
397.249	79.12
397.474	81.12
397.698	86.12
397.922	97.12
398.147	79.12
398.371	85.12
398.595	94.12
398.82	70.12
399.044	69.12
399.268	83.12
399.492	87.12
399.717	74.12
399.941	92.12
400.165	96.12
400.389	85.12
400.613	90.12
400.837	81.12
401.062	86.12
401.286	85.12
401.51	98.12
401.734	83.12
401.958	101.12
402.182	119.12
402.406	138.12
402.63	108.12
402.854	97.12
403.078	91.12
403.302	83.12
403.526	90.12
403.75	84.12
403.974	82.12
404.198	95.12
404.422	97.12
404.645	88.12
404.869	95.12
405.093	91.12
405.317	98.12
405.541	87.12
405.765	104.12
405.988	115.12
406.212	164.12
406.436	196.12
406.66	132.12
406.883	83.12
407.107	90.12
407.331	92.12
407.555	104.12
407.778	110.12
408.002	93.12
408.226	84.12
408.449	90.12
408.673	92.12
408.896	85.12
409.12	88.12
409.344	89.12
409.567	93.12
409.791	82.12
410.014	100.12
410.238	86.12
410.461	81.12
410.685	94.12
410.908	91.12
411.132	92.12
411.355	106.12
411.578	91.12
411.802	79.12
412.025	85.12
412.249	92.12
412.472	98.12
412.695	100.12
412.919	107.12
413.142	86.12
413.365	71.12
413.589	77.12
413.812	89.12
414.035	80.12
414.258	87.12
414.482	107.12
414.705	90.12
414.928	88.12
415.151	97.12
415.374	98.12
415.597	92.12
415.821	79.12
416.044	82.12
416.267	94.12
416.49	86.12
416.713	93.12
416.936	98.12
417.159	73.12
417.382	86.12
417.605	79.12
417.828	86.12
418.051	90.12
418.274	97.12
418.497	105.12
418.72	78.12
418.943	80.12
419.166	91.12
419.389	94.12
419.611	78.12
419.834	86.12
420.057	89.12
420.28	74.12
420.503	96.12
420.726	83.12
420.948	92.12
421.171	80.12
421.394	101.12
421.617	86.12
421.839	95.12
422.062	93.12
422.285	99.12
422.507	110.12
422.73	95.12
422.953	93.12
423.175	84.12
423.398	92.12
423.621	83.12
423.843	80.12
424.066	72.12
424.288	80.12
424.511	98.12
424.733	85.12
424.956	91.12
425.178	101.12
425.401	75.12
425.623	91.12
425.846	89.12
426.068	76.12
426.291	89.12
426.513	95.12
426.735	94.12
426.958	89.12
427.18	103.12
427.402	150.12
427.625	155.12
427.847	136.12
428.069	134.12
428.292	87.12
428.514	80.12
428.736	82.12
428.958	89.12
429.181	85.12
429.403	75.12
429.625	85.12
429.847	92.12
430.069	100.12
430.292	94.12
430.514	83.12
430.736	98.12
430.958	80.12
431.18	78.12
431.402	75.12
431.624	94.12
431.846	86.12
432.068	100.12
432.29	90.12
432.512	82.12
432.734	90.12
432.956	84.12
433.178	85.12
433.4	104.12
433.622	98.12
433.844	91.12
434.066	87.12
434.287	81.12
434.509	70.12
434.731	94.12
434.953	81.12
435.175	91.12
435.397	82.12
435.618	88.12
435.84	98.12
436.062	123.12
436.284	102.12
436.505	94.12
436.727	111.12
436.949	96.12
437.17	85.12
437.392	88.12
437.614	89.12
437.835	95.12
438.057	96.12
438.278	93.12
438.5	86.12
438.721	121.12
438.943	93.12
439.165	70.12
439.386	97.12
439.608	94.12
439.829	99.12
440.05	106.12
440.272	118.12
440.493	72.12
440.715	72.12
440.936	83.12
441.158	73.12
441.379	90.12
441.6	90.12
441.822	94.12
442.043	86.12
442.264	92.12
442.486	81.12
442.707	85.12
442.928	100.12
443.149	119.12
443.371	144.12
443.592	98.12
443.813	108.12
444.034	90.12
444.255	86.12
444.476	83.12
444.698	87.12
444.919	90.12
445.14	130.12
445.361	125.12
445.582	117.12
445.803	123.12
446.024	111.12
446.245	112.12
446.466	110.12
446.687	92.12
446.908	83.12
447.129	91.12
447.35	75.12
447.571	92.12
447.792	91.12
448.013	78.12
448.234	101.12
448.455	87.12
448.675	104.12
448.896	108.12
449.117	90.12
449.338	95.12
449.559	121.12
449.779	115.12
450	76.12
450.221	78.12
450.442	87.12
450.662	107.12
450.883	97.12
451.104	100.12
451.324	81.12
451.545	85.12
451.766	74.12
451.986	86.12
452.207	74.12
452.428	97.12
452.648	83.12
452.869	88.12
453.089	108.12
453.31	106.12
453.53	80.12
453.751	94.12
453.971	83.12
454.192	97.12
454.412	93.12
454.633	72.12
454.853	79.12
455.073	85.12
455.294	84.12
455.514	102.12
455.734	78.12
455.955	80.12
456.175	76.12
456.395	79.12
456.616	78.12
456.836	86.12
457.056	80.12
457.276	75.12
457.497	83.12
457.717	78.12
457.937	77.12
458.157	76.12
458.377	87.12
458.598	108.12
458.818	134.12
459.038	140.12
459.258	109.12
459.478	76.12
459.698	78.12
459.918	80.12
460.138	91.12
460.358	72.12
460.578	87.12
460.798	84.12
461.018	85.12
461.238	80.12
461.458	86.12
461.678	71.12
461.898	78.12
462.118	87.12
462.338	78.12
462.558	76.12
462.777	63.12
462.997	64.12
463.217	83.12
463.437	88.12
463.657	84.12
463.876	93.12
464.096	76.12
464.316	80.12
464.536	99.12
464.755	103.12
464.975	111.12
465.195	144.12
465.414	130.12
465.634	87.12
465.854	87.12
466.073	85.12
466.293	78.12
466.512	85.12
466.732	75.12
466.951	86.12
467.171	98.12
467.391	93.12
467.61	100.12
467.829	104.12
468.049	142.12
468.268	158.12
468.488	103.12
468.707	92.12
468.927	97.12
469.146	88.12
469.365	79.12
469.585	72.12
469.804	93.12
470.023	83.12
470.243	78.12
470.462	99.12
470.681	99.12
470.901	85.12
471.12	97.12
471.339	94.12
471.558	84.12
471.777	96.12
471.997	106.12
472.216	199.12
472.435	365.12
472.654	148.12
472.873	99.12
473.092	78.12
473.311	85.12
473.53	69.12
473.749	83.12
473.968	73.12
474.187	99.12
474.406	84.12
474.625	94.12
474.844	68.12
475.063	70.12
475.282	84.12
475.501	86.12
475.72	79.12
475.939	85.12
476.158	78.12
476.377	87.12
476.596	80.12
476.814	93.12
477.033	91.12
477.252	85.12
477.471	78.12
477.69	78.12
477.908	84.12
478.127	79.12
478.346	88.12
478.564	91.12
478.783	102.12
479.002	93.12
479.22	89.12
479.439	99.12
479.658	91.12
479.876	110.12
480.095	95.12
480.313	102.12
480.532	104.12
480.751	125.12
480.969	204.12
481.188	561.12
481.406	370.12
481.624	108.12
481.843	87.12
482.061	94.12
482.28	93.12
482.498	67.12
482.717	84.12
482.935	80.12
483.153	80.12
483.372	95.12
483.59	76.12
483.808	82.12
484.027	99.12
484.245	72.12
484.463	75.12
484.681	100.12
484.9	94.12
485.118	85.12
485.336	93.12
485.554	93.12
485.772	103.12
485.99	102.12
486.209	117.12
486.427	92.12
486.645	103.12
486.863	110.12
487.081	95.12
487.299	85.12
487.517	90.12
487.735	88.12
487.953	85.12
488.171	107.12
488.389	86.12
488.607	103.12
488.825	95.12
489.043	87.12
489.261	101.12
489.479	68.12
489.696	82.12
489.914	80.12
490.132	87.12
490.35	98.12
490.568	87.12
490.786	83.12
491.003	87.12
491.221	90.12
491.439	92.12
491.657	94.12
491.874	97.12
492.092	85.12
492.31	88.12
492.527	88.12
492.745	82.12
492.963	74.12
493.18	69.12
493.398	98.12
493.615	84.12
493.833	94.12
494.05	90.12
494.268	73.12
494.485	88.12
494.703	79.12
494.92	86.12
495.138	90.12
495.355	90.12
495.573	104.12
495.79	84.12
496.008	90.12
496.225	83.12
496.442	94.12
496.66	96.12
496.877	97.12
497.094	103.12
497.312	90.12
497.529	86.12
497.746	90.12
497.963	70.12
498.181	86.12
498.398	96.12
498.615	115.12
498.832	86.12
499.049	85.12
499.267	87.12
499.484	74.12
499.701	80.12
499.918	96.12
500.135	87.12
500.352	85.12
500.569	86.12
500.786	80.12
501.003	73.12
501.22	92.12
501.437	84.12
501.654	82.12
501.871	100.12
502.088	83.12
502.305	87.12
502.522	82.12
502.739	93.12
502.956	90.12
503.172	86.12
503.389	101.12
503.606	88.12
503.823	108.12
504.04	88.12
504.256	100.12
504.473	93.12
504.69	81.12
504.907	91.12
505.123	90.12
505.34	80.12
505.557	93.12
505.773	96.12
505.99	87.12
506.207	67.12
506.423	87.12
506.64	91.12
506.856	87.12
507.073	92.12
507.289	96.12
507.506	72.12
507.722	98.12
507.939	106.12
508.155	93.12
508.372	81.12
508.588	102.12
508.805	98.12
509.021	94.12
509.238	87.12
509.454	83.12
509.67	106.12
509.887	103.12
510.103	140.12
510.319	198.12
510.536	663.12
510.752	2152.12
510.968	619.12
511.184	148.12
511.401	112.12
511.617	96.12
511.833	101.12
512.049	99.12
512.265	96.12
512.481	106.12
512.698	95.12
512.914	79.12
513.13	92.12
513.346	81.12
513.562	102.12
513.778	100.12
513.994	99.12
514.21	95.12
514.426	107.12
514.642	129.12
514.858	116.12
515.074	143.12
515.29	382.12
515.506	1314.12
515.721	468.12
515.937	151.12
516.153	105.12
516.369	96.12
