Data from Circ_2005_H10_HRD10591_00007.txt Node
Date: Wed Jan 03 10:29:52 EST 2024
User: Yrep
Spectrometer: HR+D1059
Trigger mode: 1
Integration Time (sec): 1.000000E-1
Scans to average: 1
Electric dark correction enabled: true
Nonlinearity correction enabled: false
Boxcar width: 0
XAxis mode: Wavelengths
Number of Pixels in Spectrum: 2048
>>>>>Begin Spectral Data<<<<<
223.165	-15.56
223.4	-15.56
223.635	-15.56
223.869	-23.56
224.104	-25.56
224.338	-12.56
224.573	-20.56
224.808	-13.56
225.042	-6.56
225.277	-2.56
225.511	3.44
225.746	10.44
225.98	11.44
226.215	15.44
226.449	25.44
226.683	10.44
226.918	24.44
227.152	19.44
227.387	35.44
227.621	36.44
227.856	30.44
228.09	28.44
228.324	56.44
228.559	52.44
228.793	63.44
229.027	68.44
229.262	58.44
229.496	75.44
229.73	81.44
229.964	72.44
230.199	70.44
230.433	68.44
230.667	82.44
230.901	75.44
231.136	68.44
231.37	82.44
231.604	81.44
231.838	79.44
232.072	85.44
232.306	74.44
232.541	89.44
232.775	83.44
233.009	72.44
233.243	75.44
233.477	80.44
233.711	78.44
233.945	78.44
234.179	80.44
234.413	85.44
234.647	78.44
234.881	86.44
235.115	68.44
235.349	83.44
235.583	81.44
235.817	77.44
236.051	76.44
236.285	75.44
236.519	82.44
236.753	83.44
236.987	72.44
237.221	74.44
237.455	73.44
237.689	84.44
237.922	74.44
238.156	83.44
238.39	88.44
238.624	79.44
238.858	74.44
239.091	72.44
239.325	76.44
239.559	73.44
239.793	80.44
240.027	73.44
240.26	81.44
240.494	74.44
240.728	82.44
240.961	74.44
241.195	86.44
241.429	67.44
241.662	65.44
241.896	69.44
242.13	70.44
242.363	80.44
242.597	83.44
242.83	74.44
243.064	73.44
243.298	60.44
243.531	66.44
243.765	61.44
243.998	65.44
244.232	84.44
244.465	80.44
244.699	77.44
244.932	82.44
245.166	77.44
245.399	89.44
245.633	86.44
245.866	84.44
246.099	82.44
246.333	79.44
246.566	78.44
246.8	74.44
247.033	72.44
247.266	63.44
247.5	89.44
247.733	65.44
247.966	86.44
248.2	86.44
248.433	80.44
248.666	81.44
248.899	76.44
249.133	75.44
249.366	63.44
249.599	84.44
249.832	84.44
250.066	88.44
250.299	77.44
250.532	81.44
250.765	70.44
250.998	77.44
251.231	79.44
251.465	91.44
251.698	80.44
251.931	81.44
252.164	82.44
252.397	83.44
252.63	81.44
252.863	76.44
253.096	81.44
253.329	76.44
253.562	76.44
253.795	70.44
254.028	70.44
254.261	74.44
254.494	78.44
254.727	82.44
254.96	90.44
255.193	81.44
255.426	69.44
255.659	69.44
255.892	90.44
256.124	83.44
256.357	82.44
256.59	70.44
256.823	90.44
257.056	69.44
257.289	60.44
257.521	84.44
257.754	79.44
257.987	78.44
258.22	81.44
258.452	85.44
258.685	82.44
258.918	65.44
259.151	68.44
259.383	80.44
259.616	79.44
259.849	83.44
260.081	91.44
260.314	75.44
260.547	68.44
260.779	81.44
261.012	95.44
261.244	73.44
261.477	99.44
261.71	83.44
261.942	90.44
262.175	97.44
262.407	81.44
262.64	71.44
262.872	90.44
263.105	86.44
263.337	94.44
263.57	86.44
263.802	75.44
264.035	80.44
264.267	93.44
264.499	83.44
264.732	88.44
264.964	77.44
265.197	84.44
265.429	65.44
265.661	73.44
265.894	77.44
266.126	78.44
266.358	78.44
266.591	82.44
266.823	89.44
267.055	80.44
267.287	76.44
267.52	82.44
267.752	85.44
267.984	68.44
268.216	75.44
268.448	82.44
268.681	73.44
268.913	85.44
269.145	84.44
269.377	76.44
269.609	86.44
269.841	70.44
270.073	82.44
270.306	89.44
270.538	97.44
270.77	74.44
271.002	76.44
271.234	70.44
271.466	90.44
271.698	92.44
271.93	89.44
272.162	90.44
272.394	95.44
272.626	85.44
272.858	61.44
273.09	84.44
273.322	92.44
273.553	94.44
273.785	76.44
274.017	59.44
274.249	78.44
274.481	87.44
274.713	91.44
274.945	73.44
275.176	71.44
275.408	93.44
275.64	84.44
275.872	70.44
276.104	84.44
276.335	83.44
276.567	99.44
276.799	92.44
277.031	82.44
277.262	80.44
277.494	94.44
277.726	74.44
277.957	79.44
278.189	81.44
278.421	81.44
278.652	86.44
278.884	77.44
279.115	93.44
279.347	78.44
279.579	68.44
279.81	66.44
280.042	77.44
280.273	83.44
280.505	83.44
280.736	85.44
280.968	92.44
281.199	75.44
281.431	77.44
281.662	81.44
281.894	82.44
282.125	102.44
282.356	102.44
282.588	139.44
282.819	97.44
283.051	97.44
283.282	79.44
283.513	71.44
283.745	77.44
283.976	74.44
284.207	80.44
284.439	84.44
284.67	92.44
284.901	74.44
285.132	84.44
285.364	82.44
285.595	88.44
285.826	89.44
286.057	91.44
286.288	76.44
286.52	86.44
286.751	74.44
286.982	73.44
287.213	71.44
287.444	84.44
287.675	93.44
287.906	78.44
288.138	101.44
288.369	84.44
288.6	89.44
288.831	84.44
289.062	99.44
289.293	93.44
289.524	88.44
289.755	72.44
289.986	93.44
290.217	85.44
290.448	96.44
290.679	100.44
290.91	86.44
291.141	72.44
291.371	100.44
291.602	62.44
291.833	84.44
292.064	79.44
292.295	76.44
292.526	90.44
292.757	94.44
292.987	94.44
293.218	85.44
293.449	88.44
293.68	85.44
293.91	77.44
294.141	85.44
294.372	79.44
294.603	86.44
294.833	81.44
295.064	90.44
295.295	76.44
295.525	91.44
295.756	90.44
295.987	111.44
296.217	122.44
296.448	98.44
296.679	87.44
296.909	86.44
297.14	93.44
297.37	89.44
297.601	84.44
297.831	86.44
298.062	89.44
298.292	81.44
298.523	84.44
298.753	74.44
298.984	77.44
299.214	79.44
299.445	96.44
299.675	77.44
299.905	82.44
300.136	96.44
300.366	93.44
300.597	86.44
300.827	72.44
301.057	93.44
301.288	93.44
301.518	94.44
301.748	83.44
301.979	97.44
302.209	99.44
302.439	92.44
302.669	85.44
302.9	81.44
303.13	90.44
303.36	86.44
303.59	93.44
303.82	90.44
304.051	87.44
304.281	93.44
304.511	90.44
304.741	93.44
304.971	81.44
305.201	69.44
305.431	101.44
305.661	82.44
305.891	80.44
306.121	96.44
306.352	87.44
306.582	95.44
306.812	84.44
307.042	100.44
307.272	85.44
307.502	85.44
307.731	88.44
307.961	76.44
308.191	90.44
308.421	89.44
308.651	75.44
308.881	93.44
309.111	91.44
309.341	84.44
309.571	100.44
309.8	92.44
310.03	93.44
310.26	103.44
310.49	101.44
310.72	89.44
310.949	97.44
311.179	81.44
311.409	85.44
311.639	101.44
311.868	107.44
312.098	116.44
312.328	98.44
312.557	85.44
312.787	102.44
313.017	81.44
313.246	85.44
313.476	96.44
313.706	94.44
313.935	85.44
314.165	93.44
314.394	94.44
314.624	99.44
314.853	91.44
315.083	92.44
315.312	83.44
315.542	93.44
315.771	93.44
316.001	83.44
316.23	97.44
316.46	90.44
316.689	85.44
316.919	94.44
317.148	85.44
317.377	83.44
317.607	88.44
317.836	80.44
318.065	93.44
318.295	80.44
318.524	72.44
318.753	96.44
318.983	93.44
319.212	91.44
319.441	102.44
319.67	107.44
319.9	90.44
320.129	82.44
320.358	91.44
320.587	90.44
320.816	90.44
321.046	105.44
321.275	81.44
321.504	89.44
321.733	93.44
321.962	87.44
322.191	85.44
322.42	101.44
322.649	101.44
322.878	105.44
323.108	106.44
323.337	108.44
323.566	114.44
323.795	148.44
324.024	193.44
324.253	344.44
324.482	754.44
324.71	1464.44
324.939	1954.44
325.168	729.44
325.397	232.44
325.626	147.44
325.855	113.44
326.084	111.44
326.313	140.44
326.542	158.44
326.77	210.44
326.999	412.44
327.228	850.44
327.457	1497.44
327.686	1222.44
327.914	321.44
328.143	172.44
328.372	140.44
328.6	112.44
328.829	106.44
329.058	107.44
329.287	106.44
329.515	108.44
329.744	90.44
329.972	97.44
330.201	96.44
330.43	96.44
330.658	107.44
330.887	116.44
331.115	110.44
331.344	92.44
331.572	100.44
331.801	82.44
332.03	102.44
332.258	82.44
332.486	85.44
332.715	101.44
332.943	100.44
333.172	92.44
333.4	94.44
333.629	98.44
333.857	109.44
334.085	95.44
334.314	90.44
334.542	86.44
334.771	98.44
334.999	89.44
335.227	88.44
335.455	101.44
335.684	87.44
335.912	91.44
336.14	91.44
336.369	93.44
336.597	97.44
336.825	89.44
337.053	92.44
337.281	84.44
337.51	92.44
337.738	91.44
337.966	85.44
338.194	87.44
338.422	93.44
338.65	85.44
338.878	84.44
339.106	88.44
339.334	83.44
339.562	87.44
339.79	99.44
340.018	80.44
340.246	82.44
340.474	100.44
340.702	81.44
340.93	92.44
341.158	96.44
341.386	82.44
341.614	97.44
341.842	104.44
342.07	98.44
342.298	93.44
342.526	82.44
342.754	89.44
342.981	80.44
343.209	90.44
343.437	98.44
343.665	81.44
343.893	85.44
344.12	90.44
344.348	93.44
344.576	89.44
344.804	93.44
345.031	101.44
345.259	92.44
345.487	94.44
345.714	83.44
345.942	89.44
346.17	91.44
346.397	74.44
346.625	91.44
346.853	84.44
347.08	78.44
347.308	92.44
347.535	103.44
347.763	98.44
347.99	95.44
348.218	104.44
348.445	104.44
348.673	79.44
348.9	92.44
349.128	84.44
349.355	94.44
349.583	91.44
349.81	95.44
350.037	112.44
350.265	104.44
350.492	89.44
350.72	90.44
350.947	97.44
351.174	90.44
351.402	100.44
351.629	84.44
351.856	80.44
352.083	104.44
352.311	99.44
352.538	97.44
352.765	107.44
352.992	114.44
353.22	82.44
353.447	110.44
353.674	101.44
353.901	108.44
354.128	92.44
354.355	87.44
354.583	105.44
354.81	97.44
355.037	97.44
355.264	94.44
355.491	90.44
355.718	87.44
355.945	88.44
356.172	97.44
356.399	94.44
356.626	80.44
356.853	81.44
357.08	102.44
357.307	108.44
357.534	91.44
357.761	89.44
357.988	92.44
358.215	96.44
358.441	102.44
358.668	87.44
358.895	82.44
359.122	89.44
359.349	87.44
359.576	96.44
359.802	86.44
360.029	96.44
360.256	99.44
360.483	93.44
360.709	85.44
360.936	100.44
361.163	90.44
361.39	92.44
361.616	93.44
361.843	81.44
362.07	83.44
362.296	103.44
362.523	86.44
362.749	93.44
362.976	89.44
363.203	86.44
363.429	92.44
363.656	92.44
363.882	89.44
364.109	104.44
364.335	99.44
364.562	84.44
364.788	95.44
365.015	83.44
365.241	87.44
365.468	105.44
365.694	103.44
365.92	80.44
366.147	90.44
366.373	92.44
366.599	99.44
366.826	85.44
367.052	80.44
367.278	90.44
367.505	91.44
367.731	87.44
367.957	92.44
368.184	82.44
368.41	97.44
368.636	113.44
368.862	102.44
369.089	84.44
369.315	91.44
369.541	75.44
369.767	87.44
369.993	85.44
370.219	86.44
370.445	86.44
370.672	90.44
370.898	90.44
371.124	94.44
371.35	78.44
371.576	81.44
371.802	83.44
372.028	83.44
372.254	86.44
372.48	96.44
372.706	91.44
372.932	90.44
373.158	73.44
373.384	93.44
373.61	82.44
373.835	87.44
374.061	100.44
374.287	87.44
374.513	83.44
374.739	87.44
374.965	94.44
375.191	89.44
375.416	93.44
375.642	93.44
375.868	94.44
376.094	73.44
376.319	75.44
376.545	81.44
376.771	86.44
376.997	77.44
377.222	86.44
377.448	102.44
377.674	96.44
377.899	87.44
378.125	94.44
378.35	100.44
378.576	90.44
378.802	94.44
379.027	101.44
379.253	85.44
379.478	86.44
379.704	83.44
379.929	83.44
380.155	102.44
380.38	99.44
380.606	109.44
380.831	95.44
381.057	100.44
381.282	106.44
381.507	110.44
381.733	103.44
381.958	95.44
382.184	102.44
382.409	97.44
382.634	100.44
382.86	103.44
383.085	97.44
383.31	105.44
383.535	111.44
383.761	98.44
383.986	110.44
384.211	100.44
384.436	93.44
384.662	105.44
384.887	112.44
385.112	121.44
385.337	126.44
385.562	134.44
385.787	129.44
386.013	119.44
386.238	120.44
386.463	110.44
386.688	113.44
386.913	110.44
387.138	117.44
387.363	105.44
387.588	98.44
387.813	114.44
388.038	104.44
388.263	112.44
388.488	125.44
388.713	95.44
388.938	91.44
389.163	87.44
389.387	101.44
389.612	86.44
389.837	92.44
390.062	95.44
390.287	78.44
390.512	90.44
390.736	89.44
390.961	99.44
391.186	86.44
391.411	91.44
391.636	96.44
391.86	97.44
392.085	78.44
392.31	88.44
392.534	84.44
392.759	98.44
392.984	92.44
393.208	81.44
393.433	96.44
393.658	88.44
393.882	101.44
394.107	72.44
394.331	83.44
394.556	94.44
394.78	113.44
395.005	81.44
395.229	92.44
395.454	89.44
395.678	80.44
395.903	92.44
396.127	84.44
396.352	81.44
396.576	88.44
396.801	81.44
397.025	86.44
397.249	94.44
397.474	77.44
397.698	84.44
397.922	88.44
398.147	83.44
398.371	82.44
398.595	93.44
398.82	100.44
399.044	92.44
399.268	89.44
399.492	85.44
399.717	93.44
399.941	82.44
400.165	94.44
400.389	96.44
400.613	77.44
400.837	93.44
401.062	82.44
401.286	106.44
401.51	86.44
401.734	79.44
401.958	88.44
402.182	108.44
402.406	145.44
402.63	105.44
402.854	92.44
403.078	91.44
403.302	67.44
403.526	77.44
403.75	84.44
403.974	72.44
404.198	80.44
404.422	85.44
404.645	78.44
404.869	104.44
405.093	85.44
405.317	85.44
405.541	81.44
405.765	88.44
405.988	108.44
406.212	137.44
406.436	188.44
406.66	122.44
406.883	86.44
407.107	89.44
407.331	95.44
407.555	99.44
407.778	89.44
408.002	98.44
408.226	90.44
408.449	90.44
408.673	88.44
408.896	101.44
409.12	84.44
409.344	93.44
409.567	98.44
409.791	91.44
410.014	102.44
410.238	86.44
410.461	99.44
410.685	91.44
410.908	105.44
411.132	113.44
411.355	93.44
411.578	97.44
411.802	77.44
412.025	86.44
412.249	89.44
412.472	81.44
412.695	81.44
412.919	91.44
413.142	78.44
413.365	86.44
413.589	96.44
413.812	86.44
414.035	87.44
414.258	95.44
414.482	101.44
414.705	76.44
414.928	80.44
415.151	85.44
415.374	90.44
415.597	80.44
415.821	89.44
416.044	86.44
416.267	92.44
416.49	86.44
416.713	86.44
416.936	92.44
417.159	85.44
417.382	95.44
417.605	88.44
417.828	86.44
418.051	77.44
418.274	98.44
418.497	75.44
418.72	85.44
418.943	75.44
419.166	77.44
419.389	95.44
419.611	82.44
419.834	69.44
420.057	98.44
420.28	82.44
420.503	90.44
420.726	83.44
420.948	92.44
421.171	81.44
421.394	97.44
421.617	74.44
421.839	86.44
422.062	101.44
422.285	81.44
422.507	91.44
422.73	93.44
422.953	72.44
423.175	90.44
423.398	94.44
423.621	93.44
423.843	91.44
424.066	85.44
424.288	86.44
424.511	84.44
424.733	92.44
424.956	90.44
425.178	102.44
425.401	101.44
425.623	108.44
425.846	92.44
426.068	90.44
426.291	85.44
426.513	97.44
426.735	90.44
426.958	90.44
427.18	112.44
427.402	131.44
427.625	150.44
427.847	120.44
428.069	98.44
428.292	88.44
428.514	82.44
428.736	86.44
428.958	72.44
429.181	75.44
429.403	90.44
429.625	93.44
429.847	88.44
430.069	93.44
430.292	97.44
430.514	76.44
430.736	94.44
430.958	73.44
431.18	80.44
431.402	100.44
431.624	103.44
431.846	76.44
432.068	106.44
432.29	83.44
432.512	82.44
432.734	74.44
432.956	95.44
433.178	96.44
433.4	90.44
433.622	98.44
433.844	78.44
434.066	111.44
434.287	78.44
434.509	90.44
434.731	80.44
434.953	85.44
435.175	110.44
435.397	86.44
435.618	94.44
435.84	90.44
436.062	109.44
436.284	96.44
436.505	91.44
436.727	93.44
436.949	86.44
437.17	81.44
437.392	80.44
437.614	92.44
437.835	100.44
438.057	95.44
438.278	98.44
438.5	96.44
438.721	107.44
438.943	97.44
439.165	88.44
439.386	79.44
439.608	71.44
439.829	87.44
440.05	93.44
440.272	130.44
440.493	92.44
440.715	79.44
440.936	78.44
441.158	83.44
441.379	85.44
441.6	96.44
441.822	84.44
442.043	89.44
442.264	74.44
442.486	91.44
442.707	81.44
442.928	102.44
443.149	111.44
443.371	110.44
443.592	98.44
443.813	106.44
444.034	104.44
444.255	90.44
444.476	100.44
444.698	77.44
444.919	90.44
445.14	142.44
445.361	124.44
445.582	106.44
445.803	117.44
446.024	127.44
446.245	123.44
446.466	110.44
446.687	90.44
446.908	82.44
447.129	88.44
447.35	76.44
447.571	108.44
447.792	96.44
448.013	81.44
448.234	92.44
448.455	93.44
448.675	94.44
448.896	113.44
449.117	104.44
449.338	91.44
449.559	107.44
449.779	110.44
450	94.44
450.221	88.44
450.442	86.44
450.662	99.44
450.883	95.44
451.104	104.44
451.324	89.44
451.545	59.44
451.766	74.44
451.986	78.44
452.207	96.44
452.428	83.44
452.648	89.44
452.869	109.44
453.089	114.44
453.31	97.44
453.53	78.44
453.751	91.44
453.971	92.44
454.192	94.44
454.412	87.44
454.633	98.44
454.853	93.44
455.073	88.44
455.294	85.44
455.514	96.44
455.734	78.44
455.955	74.44
456.175	85.44
456.395	93.44
456.616	92.44
456.836	84.44
457.056	83.44
457.276	79.44
457.497	89.44
457.717	72.44
457.937	79.44
458.157	78.44
458.377	89.44
458.598	89.44
458.818	129.44
459.038	145.44
459.258	89.44
459.478	97.44
459.698	85.44
459.918	81.44
460.138	86.44
460.358	83.44
460.578	82.44
460.798	83.44
461.018	86.44
461.238	73.44
461.458	90.44
461.678	92.44
461.898	80.44
462.118	85.44
462.338	78.44
462.558	104.44
462.777	91.44
462.997	84.44
463.217	89.44
463.437	90.44
463.657	90.44
463.876	92.44
464.096	93.44
464.316	93.44
464.536	97.44
464.755	97.44
464.975	94.44
465.195	145.44
465.414	154.44
465.634	104.44
465.854	73.44
466.073	80.44
466.293	64.44
466.512	74.44
466.732	88.44
466.951	92.44
467.171	77.44
467.391	100.44
467.61	70.44
467.829	89.44
468.049	94.44
468.268	93.44
468.488	82.44
468.707	75.44
468.927	83.44
469.146	84.44
469.365	70.44
469.585	83.44
469.804	79.44
470.023	96.44
470.243	80.44
470.462	89.44
470.681	100.44
470.901	78.44
471.12	86.44
471.339	80.44
471.558	88.44
471.777	85.44
471.997	80.44
472.216	98.44
472.435	85.44
472.654	84.44
472.873	87.44
473.092	81.44
473.311	89.44
473.53	69.44
473.749	91.44
473.968	91.44
474.187	104.44
474.406	77.44
474.625	82.44
474.844	86.44
475.063	88.44
475.282	90.44
475.501	79.44
475.72	86.44
475.939	81.44
476.158	83.44
476.377	89.44
476.596	83.44
476.814	82.44
477.033	80.44
477.252	88.44
477.471	80.44
477.69	78.44
477.908	89.44
478.127	79.44
478.346	89.44
478.564	74.44
478.783	87.44
479.002	87.44
479.22	86.44
479.439	91.44
479.658	98.44
479.876	92.44
480.095	87.44
480.313	90.44
480.532	101.44
480.751	83.44
480.969	91.44
481.188	103.44
481.406	94.44
481.624	87.44
481.843	89.44
482.061	92.44
482.28	77.44
482.498	60.44
482.717	58.44
482.935	98.44
483.153	89.44
483.372	99.44
483.59	92.44
483.808	79.44
484.027	90.44
484.245	104.44
484.463	82.44
484.681	79.44
484.9	89.44
485.118	89.44
485.336	112.44
485.554	101.44
485.772	92.44
485.99	106.44
486.209	113.44
486.427	93.44
486.645	99.44
486.863	100.44
487.081	99.44
487.299	99.44
487.517	93.44
487.735	85.44
487.953	95.44
488.171	95.44
488.389	98.44
488.607	92.44
488.825	93.44
489.043	78.44
489.261	88.44
489.479	92.44
489.696	92.44
489.914	78.44
490.132	86.44
490.35	84.44
490.568	86.44
490.786	86.44
491.003	76.44
491.221	82.44
491.439	93.44
491.657	92.44
491.874	94.44
492.092	86.44
492.31	99.44
492.527	80.44
492.745	92.44
492.963	96.44
493.18	85.44
493.398	94.44
493.615	97.44
493.833	87.44
494.05	91.44
494.268	81.44
494.485	83.44
494.703	88.44
494.92	73.44
495.138	99.44
495.355	83.44
495.573	95.44
495.79	86.44
496.008	82.44
496.225	77.44
496.442	93.44
496.66	93.44
496.877	91.44
497.094	71.44
497.312	72.44
497.529	89.44
497.746	90.44
497.963	92.44
498.181	94.44
498.398	114.44
498.615	87.44
498.832	104.44
499.049	78.44
499.267	90.44
499.484	93.44
499.701	90.44
499.918	80.44
500.135	89.44
500.352	96.44
500.569	87.44
500.786	88.44
501.003	91.44
501.22	72.44
501.437	77.44
501.654	77.44
501.871	89.44
502.088	92.44
502.305	100.44
502.522	94.44
502.739	96.44
502.956	100.44
503.172	94.44
503.389	83.44
503.606	96.44
503.823	102.44
504.04	87.44
504.256	84.44
504.473	90.44
504.69	89.44
504.907	88.44
505.123	83.44
505.34	88.44
505.557	94.44
505.773	85.44
505.99	89.44
506.207	87.44
506.423	88.44
506.64	78.44
506.856	86.44
507.073	83.44
507.289	83.44
507.506	97.44
507.722	104.44
507.939	90.44
508.155	95.44
508.372	95.44
508.588	88.44
508.805	98.44
509.021	103.44
509.238	93.44
509.454	100.44
509.67	95.44
509.887	95.44
510.103	120.44
510.319	180.44
510.536	585.44
510.752	1887.44
510.968	542.44
511.184	140.44
511.401	99.44
511.617	97.44
511.833	92.44
512.049	100.44
512.265	104.44
512.481	100.44
512.698	99.44
512.914	86.44
513.13	93.44
513.346	92.44
513.562	94.44
513.778	98.44
513.994	101.44
514.21	87.44
514.426	93.44
514.642	141.44
514.858	125.44
515.074	144.44
515.29	360.44
515.506	1130.44
515.721	432.44
515.937	128.44
516.153	86.44
516.369	99.44
516.585	90.44
516.801	98.44
517.016	96.44
