Data from Circ_2005_H10_HRD10591_00070.txt Node
Date: Wed Jan 03 10:30:05 EST 2024
User: Yrep
Spectrometer: HR+D1059
Trigger mode: 1
Integration Time (sec): 1.000000E-1
Scans to average: 1
Electric dark correction enabled: true
Nonlinearity correction enabled: false
Boxcar width: 0
XAxis mode: Wavelengths
Number of Pixels in Spectrum: 2048
>>>>>Begin Spectral Data<<<<<
223.165	-17.88
223.4	-17.88
223.635	-17.88
223.869	-28.88
224.104	-8.88
224.338	-26.88
224.573	-9.88
224.808	-15.88
225.042	-7.88
225.277	-6.88
225.511	-4.88
225.746	4.12
225.98	7.12
226.215	13.12
226.449	22.12
226.683	28.12
226.918	28.12
227.152	25.12
227.387	24.12
227.621	41.12
227.856	44.12
228.09	49.12
228.324	53.12
228.559	64.12
228.793	54.12
229.027	59.12
229.262	70.12
229.496	72.12
229.73	72.12
229.964	83.12
230.199	78.12
230.433	73.12
230.667	80.12
230.901	84.12
231.136	71.12
231.37	68.12
231.604	70.12
231.838	76.12
232.072	88.12
232.306	74.12
232.541	90.12
232.775	95.12
233.009	74.12
233.243	81.12
233.477	93.12
233.711	81.12
233.945	87.12
234.179	76.12
234.413	88.12
234.647	88.12
234.881	76.12
235.115	66.12
235.349	67.12
235.583	80.12
235.817	80.12
236.051	79.12
236.285	89.12
236.519	88.12
236.753	77.12
236.987	87.12
237.221	77.12
237.455	83.12
237.689	77.12
237.922	75.12
238.156	74.12
238.39	81.12
238.624	76.12
238.858	78.12
239.091	81.12
239.325	80.12
239.559	79.12
239.793	77.12
240.027	76.12
240.26	79.12
240.494	82.12
240.728	92.12
240.961	72.12
241.195	88.12
241.429	83.12
241.662	67.12
241.896	86.12
242.13	77.12
242.363	71.12
242.597	79.12
242.83	89.12
243.064	77.12
243.298	80.12
243.531	78.12
243.765	80.12
243.998	72.12
244.232	88.12
244.465	91.12
244.699	71.12
244.932	74.12
245.166	87.12
245.399	80.12
245.633	93.12
245.866	77.12
246.099	84.12
246.333	64.12
246.566	85.12
246.8	84.12
247.033	77.12
247.266	69.12
247.5	86.12
247.733	76.12
247.966	78.12
248.2	84.12
248.433	76.12
248.666	85.12
248.899	76.12
249.133	86.12
249.366	88.12
249.599	104.12
249.832	73.12
250.066	75.12
250.299	66.12
250.532	73.12
250.765	73.12
250.998	76.12
251.231	90.12
251.465	83.12
251.698	73.12
251.931	87.12
252.164	69.12
252.397	78.12
252.63	92.12
252.863	78.12
253.096	80.12
253.329	90.12
253.562	74.12
253.795	76.12
254.028	80.12
254.261	79.12
254.494	99.12
254.727	84.12
254.96	84.12
255.193	94.12
255.426	71.12
255.659	82.12
255.892	93.12
256.124	90.12
256.357	64.12
256.59	77.12
256.823	85.12
257.056	81.12
257.289	88.12
257.521	85.12
257.754	96.12
257.987	81.12
258.22	78.12
258.452	94.12
258.685	105.12
258.918	89.12
259.151	83.12
259.383	86.12
259.616	76.12
259.849	87.12
260.081	77.12
260.314	78.12
260.547	98.12
260.779	87.12
261.012	84.12
261.244	97.12
261.477	83.12
261.71	90.12
261.942	102.12
262.175	114.12
262.407	74.12
262.64	80.12
262.872	80.12
263.105	84.12
263.337	80.12
263.57	81.12
263.802	79.12
264.035	81.12
264.267	74.12
264.499	74.12
264.732	89.12
264.964	85.12
265.197	88.12
265.429	86.12
265.661	77.12
265.894	77.12
266.126	93.12
266.358	87.12
266.591	84.12
266.823	77.12
267.055	70.12
267.287	87.12
267.52	78.12
267.752	95.12
267.984	82.12
268.216	85.12
268.448	93.12
268.681	86.12
268.913	91.12
269.145	107.12
269.377	89.12
269.609	87.12
269.841	77.12
270.073	90.12
270.306	88.12
270.538	89.12
270.77	94.12
271.002	82.12
271.234	73.12
271.466	78.12
271.698	78.12
271.93	75.12
272.162	79.12
272.394	84.12
272.626	87.12
272.858	80.12
273.09	98.12
273.322	86.12
273.553	92.12
273.785	81.12
274.017	93.12
274.249	83.12
274.481	89.12
274.713	87.12
274.945	98.12
275.176	85.12
275.408	81.12
275.64	92.12
275.872	91.12
276.104	84.12
276.335	87.12
276.567	106.12
276.799	113.12
277.031	103.12
277.262	92.12
277.494	80.12
277.726	94.12
277.957	79.12
278.189	100.12
278.421	89.12
278.652	86.12
278.884	69.12
279.115	94.12
279.347	79.12
279.579	89.12
279.81	93.12
280.042	86.12
280.273	96.12
280.505	98.12
280.736	79.12
280.968	83.12
281.199	103.12
281.431	95.12
281.662	73.12
281.894	98.12
282.125	88.12
282.356	105.12
282.588	135.12
282.819	107.12
283.051	84.12
283.282	96.12
283.513	87.12
283.745	83.12
283.976	85.12
284.207	85.12
284.439	84.12
284.67	93.12
284.901	94.12
285.132	94.12
285.364	80.12
285.595	89.12
285.826	92.12
286.057	94.12
286.288	91.12
286.52	79.12
286.751	87.12
286.982	95.12
287.213	90.12
287.444	75.12
287.675	85.12
287.906	89.12
288.138	97.12
288.369	91.12
288.6	77.12
288.831	82.12
289.062	85.12
289.293	95.12
289.524	102.12
289.755	90.12
289.986	91.12
290.217	100.12
290.448	87.12
290.679	89.12
290.91	94.12
291.141	93.12
291.371	96.12
291.602	91.12
291.833	79.12
292.064	76.12
292.295	93.12
292.526	90.12
292.757	87.12
292.987	89.12
293.218	93.12
293.449	86.12
293.68	88.12
293.91	85.12
294.141	84.12
294.372	94.12
294.603	84.12
294.833	90.12
295.064	86.12
295.295	100.12
295.525	98.12
295.756	93.12
295.987	108.12
296.217	125.12
296.448	115.12
296.679	92.12
296.909	79.12
297.14	81.12
297.37	90.12
297.601	86.12
297.831	68.12
298.062	76.12
298.292	87.12
298.523	97.12
298.753	85.12
298.984	96.12
299.214	86.12
299.445	84.12
299.675	94.12
299.905	87.12
300.136	79.12
300.366	91.12
300.597	102.12
300.827	89.12
301.057	84.12
301.288	90.12
301.518	92.12
301.748	85.12
301.979	92.12
302.209	97.12
302.439	83.12
302.669	94.12
302.9	88.12
303.13	93.12
303.36	82.12
303.59	105.12
303.82	106.12
304.051	89.12
304.281	89.12
304.511	91.12
304.741	95.12
304.971	79.12
305.201	100.12
305.431	91.12
305.661	100.12
305.891	99.12
306.121	93.12
306.352	95.12
306.582	85.12
306.812	82.12
307.042	94.12
307.272	101.12
307.502	90.12
307.731	98.12
307.961	81.12
308.191	94.12
308.421	88.12
308.651	99.12
308.881	70.12
309.111	85.12
309.341	94.12
309.571	111.12
309.8	92.12
310.03	86.12
310.26	102.12
310.49	102.12
310.72	98.12
310.949	112.12
311.179	100.12
311.409	108.12
311.639	93.12
311.868	90.12
312.098	78.12
312.328	89.12
312.557	86.12
312.787	111.12
313.017	108.12
313.246	108.12
313.476	96.12
313.706	89.12
313.935	96.12
314.165	103.12
314.394	103.12
314.624	97.12
314.853	95.12
315.083	82.12
315.312	85.12
315.542	97.12
315.771	84.12
316.001	94.12
316.23	85.12
316.46	100.12
316.689	88.12
316.919	87.12
317.148	94.12
317.377	79.12
317.607	87.12
317.836	102.12
318.065	98.12
318.295	108.12
318.524	100.12
318.753	85.12
318.983	98.12
319.212	96.12
319.441	103.12
319.67	102.12
319.9	95.12
320.129	97.12
320.358	81.12
320.587	100.12
320.816	94.12
321.046	95.12
321.275	98.12
321.504	87.12
321.733	98.12
321.962	105.12
322.191	97.12
322.42	101.12
322.649	103.12
322.878	107.12
323.108	107.12
323.337	123.12
323.566	143.12
323.795	157.12
324.024	196.12
324.253	357.12
324.482	786.12
324.71	1532.12
324.939	2116.12
325.168	767.12
325.397	239.12
325.626	147.12
325.855	126.12
326.084	108.12
326.313	137.12
326.542	144.12
326.77	232.12
326.999	458.12
327.228	939.12
327.457	1622.12
327.686	1313.12
327.914	344.12
328.143	192.12
328.372	172.12
328.6	139.12
328.829	132.12
329.058	120.12
329.287	126.12
329.515	111.12
329.744	125.12
329.972	120.12
330.201	160.12
330.43	197.12
330.658	157.12
330.887	144.12
331.115	121.12
331.344	100.12
331.572	99.12
331.801	106.12
332.03	117.12
332.258	91.12
332.486	89.12
332.715	105.12
332.943	87.12
333.172	93.12
333.4	100.12
333.629	94.12
333.857	105.12
334.085	135.12
334.314	158.12
334.542	233.12
334.771	226.12
334.999	123.12
335.227	96.12
335.455	89.12
335.684	110.12
335.912	94.12
336.14	93.12
336.369	100.12
336.597	80.12
336.825	102.12
337.053	95.12
337.281	92.12
337.51	96.12
337.738	86.12
337.966	95.12
338.194	95.12
338.422	89.12
338.65	100.12
338.878	96.12
339.106	96.12
339.334	87.12
339.562	108.12
339.79	95.12
340.018	78.12
340.246	89.12
340.474	124.12
340.702	94.12
340.93	89.12
341.158	80.12
341.386	89.12
341.614	90.12
341.842	90.12
342.07	83.12
342.298	97.12
342.526	93.12
342.754	103.12
342.981	87.12
343.209	85.12
343.437	94.12
343.665	88.12
343.893	69.12
344.12	98.12
344.348	85.12
344.576	92.12
344.804	89.12
345.031	100.12
345.259	109.12
345.487	100.12
345.714	83.12
345.942	99.12
346.17	92.12
346.397	82.12
346.625	80.12
346.853	94.12
347.08	84.12
347.308	90.12
347.535	96.12
347.763	88.12
347.99	94.12
348.218	97.12
348.445	87.12
348.673	108.12
348.9	104.12
349.128	85.12
349.355	100.12
349.583	82.12
349.81	93.12
350.037	105.12
350.265	104.12
350.492	96.12
350.72	109.12
350.947	104.12
351.174	96.12
351.402	106.12
351.629	99.12
351.856	102.12
352.083	110.12
352.311	97.12
352.538	110.12
352.765	114.12
352.992	109.12
353.22	101.12
353.447	100.12
353.674	98.12
353.901	104.12
354.128	102.12
354.355	89.12
354.583	86.12
354.81	99.12
355.037	89.12
355.264	95.12
355.491	94.12
355.718	92.12
355.945	93.12
356.172	101.12
356.399	98.12
356.626	90.12
356.853	93.12
357.08	86.12
357.307	90.12
357.534	87.12
357.761	95.12
357.988	101.12
358.215	115.12
358.441	93.12
358.668	98.12
358.895	80.12
359.122	96.12
359.349	95.12
359.576	101.12
359.802	97.12
360.029	120.12
360.256	97.12
360.483	96.12
360.709	95.12
360.936	108.12
361.163	93.12
361.39	82.12
361.616	93.12
361.843	93.12
362.07	96.12
362.296	104.12
362.523	97.12
362.749	88.12
362.976	87.12
363.203	85.12
363.429	85.12
363.656	92.12
363.882	87.12
364.109	94.12
364.335	94.12
364.562	94.12
364.788	96.12
365.015	88.12
365.241	95.12
365.468	106.12
365.694	93.12
365.92	106.12
366.147	85.12
366.373	91.12
366.599	101.12
366.826	108.12
367.052	66.12
367.278	88.12
367.505	86.12
367.731	77.12
367.957	94.12
368.184	105.12
368.41	95.12
368.636	101.12
368.862	107.12
369.089	86.12
369.315	77.12
369.541	101.12
369.767	89.12
369.993	107.12
370.219	93.12
370.445	100.12
370.672	95.12
370.898	80.12
371.124	109.12
371.35	79.12
371.576	99.12
371.802	95.12
372.028	99.12
372.254	100.12
372.48	102.12
372.706	89.12
372.932	89.12
373.158	80.12
373.384	87.12
373.61	95.12
373.835	84.12
374.061	84.12
374.287	94.12
374.513	90.12
374.739	98.12
374.965	94.12
375.191	94.12
375.416	101.12
375.642	87.12
375.868	81.12
376.094	88.12
376.319	81.12
376.545	94.12
376.771	83.12
376.997	85.12
377.222	89.12
377.448	83.12
377.674	93.12
377.899	87.12
378.125	99.12
378.35	86.12
378.576	96.12
378.802	78.12
379.027	99.12
379.253	92.12
379.478	91.12
379.704	105.12
379.929	86.12
380.155	98.12
380.38	91.12
380.606	94.12
380.831	93.12
381.057	97.12
381.282	85.12
381.507	92.12
381.733	113.12
381.958	103.12
382.184	83.12
382.409	110.12
382.634	98.12
382.86	93.12
383.085	96.12
383.31	98.12
383.535	93.12
383.761	89.12
383.986	97.12
384.211	90.12
384.436	106.12
384.662	100.12
384.887	99.12
385.112	114.12
385.337	105.12
385.562	96.12
385.787	103.12
386.013	116.12
386.238	129.12
386.463	89.12
386.688	111.12
386.913	109.12
387.138	121.12
387.363	97.12
387.588	112.12
387.813	97.12
388.038	111.12
388.263	105.12
388.488	112.12
388.713	100.12
388.938	95.12
389.163	97.12
389.387	101.12
389.612	107.12
389.837	95.12
390.062	93.12
390.287	93.12
390.512	81.12
390.736	96.12
390.961	97.12
391.186	91.12
391.411	86.12
391.636	88.12
391.86	96.12
392.085	76.12
392.31	76.12
392.534	90.12
392.759	78.12
392.984	85.12
393.208	74.12
393.433	94.12
393.658	98.12
393.882	98.12
394.107	97.12
394.331	84.12
394.556	94.12
394.78	86.12
395.005	89.12
395.229	80.12
395.454	97.12
395.678	95.12
395.903	90.12
396.127	91.12
396.352	97.12
396.576	90.12
396.801	86.12
397.025	92.12
397.249	100.12
397.474	85.12
397.698	88.12
397.922	95.12
398.147	78.12
398.371	86.12
398.595	85.12
398.82	93.12
399.044	97.12
399.268	87.12
399.492	84.12
399.717	82.12
399.941	88.12
400.165	79.12
400.389	88.12
400.613	87.12
400.837	83.12
401.062	100.12
401.286	109.12
401.51	86.12
401.734	86.12
401.958	98.12
402.182	116.12
402.406	148.12
402.63	108.12
402.854	82.12
403.078	95.12
403.302	83.12
403.526	90.12
403.75	90.12
403.974	93.12
404.198	78.12
404.422	78.12
404.645	87.12
404.869	87.12
405.093	78.12
405.317	107.12
405.541	110.12
405.765	107.12
405.988	133.12
406.212	164.12
406.436	208.12
406.66	155.12
406.883	92.12
407.107	88.12
407.331	115.12
407.555	89.12
407.778	105.12
408.002	90.12
408.226	85.12
408.449	90.12
408.673	101.12
408.896	100.12
409.12	104.12
409.344	103.12
409.567	90.12
409.791	88.12
410.014	85.12
410.238	87.12
410.461	72.12
410.685	98.12
410.908	100.12
411.132	105.12
411.355	97.12
411.578	81.12
411.802	84.12
412.025	94.12
412.249	104.12
412.472	94.12
412.695	105.12
412.919	87.12
413.142	109.12
413.365	88.12
413.589	85.12
413.812	86.12
414.035	99.12
414.258	87.12
414.482	96.12
414.705	90.12
414.928	93.12
415.151	91.12
415.374	108.12
415.597	88.12
415.821	91.12
416.044	72.12
416.267	97.12
416.49	86.12
416.713	88.12
416.936	82.12
417.159	89.12
417.382	79.12
417.605	96.12
417.828	84.12
418.051	93.12
418.274	95.12
418.497	89.12
418.72	97.12
418.943	88.12
419.166	94.12
419.389	86.12
419.611	81.12
419.834	88.12
420.057	82.12
420.28	96.12
420.503	83.12
420.726	87.12
420.948	90.12
421.171	86.12
421.394	81.12
421.617	97.12
421.839	89.12
422.062	80.12
422.285	93.12
422.507	95.12
422.73	87.12
422.953	88.12
423.175	86.12
423.398	86.12
423.621	94.12
423.843	96.12
424.066	96.12
424.288	81.12
424.511	96.12
424.733	96.12
424.956	109.12
425.178	108.12
425.401	96.12
425.623	94.12
425.846	82.12
426.068	106.12
426.291	77.12
426.513	89.12
426.735	88.12
426.958	101.12
427.18	94.12
427.402	136.12
427.625	156.12
427.847	124.12
428.069	127.12
428.292	103.12
428.514	106.12
428.736	90.12
428.958	90.12
429.181	89.12
429.403	80.12
429.625	96.12
429.847	88.12
430.069	102.12
430.292	104.12
430.514	99.12
430.736	93.12
430.958	92.12
431.18	86.12
431.402	66.12
431.624	90.12
431.846	92.12
432.068	95.12
432.29	95.12
432.512	103.12
432.734	96.12
432.956	86.12
433.178	85.12
433.4	103.12
433.622	102.12
433.844	106.12
434.066	95.12
434.287	98.12
434.509	87.12
434.731	85.12
434.953	81.12
435.175	87.12
435.397	92.12
435.618	90.12
435.84	92.12
436.062	117.12
436.284	122.12
436.505	93.12
436.727	96.12
436.949	89.12
437.17	94.12
437.392	85.12
437.614	97.12
437.835	113.12
438.057	118.12
438.278	110.12
438.5	94.12
438.721	119.12
438.943	113.12
439.165	87.12
439.386	89.12
439.608	87.12
439.829	97.12
440.05	127.12
440.272	142.12
440.493	99.12
440.715	98.12
440.936	78.12
441.158	90.12
441.379	105.12
441.6	103.12
441.822	96.12
442.043	104.12
442.264	102.12
442.486	110.12
442.707	88.12
442.928	109.12
443.149	113.12
443.371	132.12
443.592	120.12
443.813	102.12
444.034	113.12
444.255	92.12
444.476	93.12
444.698	77.12
444.919	87.12
445.14	124.12
445.361	127.12
445.582	109.12
445.803	136.12
446.024	124.12
446.245	136.12
446.466	86.12
446.687	76.12
446.908	76.12
447.129	84.12
447.35	90.12
447.571	105.12
447.792	94.12
448.013	83.12
448.234	89.12
448.455	107.12
448.675	104.12
448.896	119.12
449.117	95.12
449.338	105.12
449.559	136.12
449.779	128.12
450	85.12
450.221	94.12
450.442	71.12
450.662	101.12
450.883	104.12
451.104	110.12
451.324	84.12
451.545	88.12
451.766	96.12
451.986	93.12
452.207	94.12
452.428	90.12
452.648	107.12
452.869	128.12
453.089	106.12
453.31	116.12
453.53	88.12
453.751	93.12
453.971	90.12
454.192	112.12
454.412	101.12
454.633	102.12
454.853	105.12
455.073	92.12
455.294	105.12
455.514	100.12
455.734	81.12
455.955	89.12
456.175	82.12
456.395	86.12
456.616	92.12
456.836	89.12
457.056	87.12
457.276	75.12
457.497	94.12
457.717	88.12
457.937	82.12
458.157	95.12
458.377	90.12
458.598	105.12
458.818	120.12
459.038	143.12
459.258	109.12
459.478	89.12
459.698	94.12
459.918	92.12
460.138	93.12
460.358	93.12
460.578	90.12
460.798	103.12
461.018	104.12
461.238	79.12
461.458	82.12
461.678	88.12
461.898	86.12
462.118	94.12
462.338	82.12
462.558	99.12
462.777	70.12
462.997	78.12
463.217	86.12
463.437	94.12
463.657	86.12
463.876	80.12
464.096	87.12
464.316	105.12
464.536	86.12
464.755	82.12
464.975	98.12
465.195	151.12
465.414	146.12
465.634	106.12
465.854	92.12
466.073	96.12
466.293	104.12
466.512	84.12
466.732	111.12
466.951	91.12
467.171	76.12
467.391	91.12
467.61	111.12
467.829	103.12
468.049	112.12
468.268	126.12
468.488	84.12
468.707	85.12
468.927	92.12
469.146	86.12
469.365	72.12
469.585	94.12
469.804	86.12
470.023	101.12
470.243	83.12
470.462	99.12
470.681	109.12
470.901	90.12
471.12	91.12
471.339	86.12
471.558	84.12
471.777	96.12
471.997	96.12
472.216	185.12
472.435	292.12
472.654	129.12
472.873	98.12
473.092	78.12
473.311	86.12
473.53	77.12
473.749	85.12
473.968	92.12
474.187	112.12
474.406	114.12
474.625	75.12
474.844	74.12
475.063	87.12
475.282	85.12
475.501	78.12
475.72	103.12
475.939	77.12
476.158	98.12
476.377	89.12
476.596	95.12
476.814	89.12
477.033	99.12
477.252	91.12
477.471	85.12
477.69	105.12
477.908	105.12
478.127	95.12
478.346	92.12
478.564	93.12
478.783	86.12
479.002	102.12
479.22	95.12
479.439	93.12
479.658	93.12
479.876	93.12
480.095	99.12
480.313	102.12
480.532	102.12
480.751	103.12
480.969	171.12
481.188	431.12
481.406	305.12
481.624	127.12
481.843	87.12
482.061	82.12
482.28	82.12
482.498	88.12
482.717	78.12
482.935	94.12
483.153	83.12
483.372	95.12
483.59	97.12
483.808	93.12
484.027	77.12
484.245	83.12
484.463	87.12
484.681	104.12
484.9	86.12
485.118	94.12
485.336	86.12
485.554	95.12
485.772	96.12
485.99	93.12
486.209	112.12
486.427	95.12
486.645	107.12
486.863	108.12
487.081	102.12
487.299	96.12
487.517	104.12
487.735	82.12
487.953	88.12
488.171	99.12
488.389	103.12
488.607	106.12
488.825	103.12
489.043	104.12
489.261	81.12
489.479	81.12
489.696	90.12
489.914	97.12
490.132	88.12
490.35	79.12
490.568	92.12
490.786	94.12
491.003	94.12
491.221	96.12
491.439	93.12
491.657	87.12
491.874	87.12
492.092	77.12
492.31	98.12
492.527	83.12
492.745	89.12
492.963	84.12
493.18	97.12
493.398	94.12
493.615	101.12
493.833	89.12
494.05	91.12
494.268	95.12
494.485	89.12
494.703	99.12
494.92	79.12
495.138	84.12
495.355	85.12
495.573	90.12
495.79	89.12
496.008	94.12
496.225	99.12
496.442	73.12
496.66	84.12
496.877	94.12
497.094	86.12
497.312	82.12
497.529	99.12
497.746	88.12
497.963	91.12
498.181	82.12
498.398	101.12
498.615	105.12
498.832	101.12
499.049	86.12
499.267	94.12
499.484	82.12
499.701	97.12
499.918	86.12
500.135	87.12
500.352	85.12
500.569	91.12
500.786	87.12
501.003	83.12
501.22	103.12
501.437	72.12
501.654	95.12
501.871	95.12
502.088	100.12
502.305	85.12
502.522	93.12
502.739	95.12
502.956	96.12
503.172	105.12
503.389	90.12
503.606	97.12
503.823	93.12
504.04	110.12
504.256	82.12
504.473	87.12
504.69	88.12
504.907	97.12
505.123	98.12
505.34	98.12
505.557	82.12
505.773	88.12
505.99	84.12
506.207	106.12
506.423	92.12
506.64	89.12
506.856	93.12
507.073	101.12
507.289	103.12
507.506	84.12
507.722	96.12
507.939	94.12
508.155	86.12
508.372	90.12
508.588	101.12
508.805	97.12
509.021	97.12
509.238	91.12
509.454	90.12
509.67	101.12
509.887	100.12
510.103	137.12
510.319	206.12
510.536	676.12
510.752	2226.12
510.968	617.12
511.184	156.12
511.401	114.12
511.617	104.12
511.833	93.12
512.049	101.12
512.265	89.12
512.481	107.12
512.698	93.12
512.914	88.12
513.13	97.12
513.346	88.12
513.562	88.12
513.778	99.12
513.994	97.12
514.21	114.12
514.426	120.12
514.642	117.12
514.858	116.12
515.074	158.12
515.29	405.12
515.506	1335.12
