Data from Circ_2005_H10_HRD10591_00054.txt Node
Date: Wed Jan 03 10:30:01 EST 2024
User: Yrep
Spectrometer: HR+D1059
Trigger mode: 1
Integration Time (sec): 1.000000E-1
Scans to average: 1
Electric dark correction enabled: true
Nonlinearity correction enabled: false
Boxcar width: 0
XAxis mode: Wavelengths
Number of Pixels in Spectrum: 2048
>>>>>Begin Spectral Data<<<<<
223.165	-10.12
223.4	-10.12
223.635	-10.12
223.869	-30.12
224.104	-31.12
224.338	-15.12
224.573	-19.12
224.808	-5.12
225.042	-0.12
225.277	-7.12
225.511	3.88
225.746	-4.12
225.98	15.88
226.215	3.88
226.449	24.88
226.683	19.88
226.918	25.88
227.152	27.88
227.387	29.88
227.621	44.88
227.856	59.88
228.09	59.88
228.324	41.88
228.559	46.88
228.793	57.88
229.027	66.88
229.262	55.88
229.496	71.88
229.73	70.88
229.964	85.88
230.199	79.88
230.433	69.88
230.667	75.88
230.901	81.88
231.136	69.88
231.37	66.88
231.604	86.88
231.838	97.88
232.072	88.88
232.306	81.88
232.541	71.88
232.775	84.88
233.009	99.88
233.243	95.88
233.477	83.88
233.711	76.88
233.945	85.88
234.179	83.88
234.413	102.88
234.647	85.88
234.881	94.88
235.115	76.88
235.349	81.88
235.583	90.88
235.817	87.88
236.051	73.88
236.285	69.88
236.519	84.88
236.753	84.88
236.987	79.88
237.221	74.88
237.455	88.88
237.689	82.88
237.922	78.88
238.156	77.88
238.39	71.88
238.624	80.88
238.858	83.88
239.091	66.88
239.325	71.88
239.559	78.88
239.793	70.88
240.027	82.88
240.26	89.88
240.494	79.88
240.728	81.88
240.961	85.88
241.195	84.88
241.429	84.88
241.662	56.88
241.896	77.88
242.13	77.88
242.363	67.88
242.597	55.88
242.83	83.88
243.064	75.88
243.298	89.88
243.531	83.88
243.765	74.88
243.998	80.88
244.232	80.88
244.465	95.88
244.699	74.88
244.932	81.88
245.166	73.88
245.399	76.88
245.633	81.88
245.866	80.88
246.099	76.88
246.333	89.88
246.566	81.88
246.8	79.88
247.033	71.88
247.266	78.88
247.5	90.88
247.733	81.88
247.966	89.88
248.2	78.88
248.433	82.88
248.666	68.88
248.899	77.88
249.133	95.88
249.366	100.88
249.599	90.88
249.832	86.88
250.066	76.88
250.299	85.88
250.532	82.88
250.765	94.88
250.998	77.88
251.231	86.88
251.465	77.88
251.698	72.88
251.931	81.88
252.164	88.88
252.397	77.88
252.63	70.88
252.863	87.88
253.096	85.88
253.329	83.88
253.562	78.88
253.795	85.88
254.028	82.88
254.261	84.88
254.494	88.88
254.727	75.88
254.96	89.88
255.193	62.88
255.426	79.88
255.659	97.88
255.892	83.88
256.124	93.88
256.357	88.88
256.59	74.88
256.823	80.88
257.056	86.88
257.289	78.88
257.521	81.88
257.754	79.88
257.987	91.88
258.22	80.88
258.452	78.88
258.685	85.88
258.918	71.88
259.151	87.88
259.383	82.88
259.616	75.88
259.849	84.88
260.081	63.88
260.314	75.88
260.547	87.88
260.779	85.88
261.012	76.88
261.244	76.88
261.477	93.88
261.71	96.88
261.942	105.88
262.175	129.88
262.407	87.88
262.64	92.88
262.872	80.88
263.105	72.88
263.337	91.88
263.57	80.88
263.802	80.88
264.035	95.88
264.267	68.88
264.499	88.88
264.732	68.88
264.964	90.88
265.197	84.88
265.429	95.88
265.661	85.88
265.894	87.88
266.126	85.88
266.358	97.88
266.591	68.88
266.823	60.88
267.055	86.88
267.287	70.88
267.52	84.88
267.752	84.88
267.984	92.88
268.216	88.88
268.448	103.88
268.681	93.88
268.913	90.88
269.145	87.88
269.377	72.88
269.609	77.88
269.841	73.88
270.073	83.88
270.306	90.88
270.538	84.88
270.77	75.88
271.002	75.88
271.234	78.88
271.466	83.88
271.698	91.88
271.93	66.88
272.162	85.88
272.394	89.88
272.626	89.88
272.858	67.88
273.09	82.88
273.322	87.88
273.553	92.88
273.785	91.88
274.017	88.88
274.249	89.88
274.481	87.88
274.713	89.88
274.945	93.88
275.176	79.88
275.408	99.88
275.64	97.88
275.872	78.88
276.104	88.88
276.335	107.88
276.567	91.88
276.799	94.88
277.031	101.88
277.262	95.88
277.494	99.88
277.726	96.88
277.957	101.88
278.189	82.88
278.421	84.88
278.652	83.88
278.884	83.88
279.115	77.88
279.347	88.88
279.579	89.88
279.81	89.88
280.042	86.88
280.273	94.88
280.505	88.88
280.736	79.88
280.968	92.88
281.199	85.88
281.431	75.88
281.662	79.88
281.894	108.88
282.125	93.88
282.356	109.88
282.588	137.88
282.819	120.88
283.051	86.88
283.282	95.88
283.513	74.88
283.745	79.88
283.976	83.88
284.207	84.88
284.439	90.88
284.67	81.88
284.901	90.88
285.132	79.88
285.364	79.88
285.595	90.88
285.826	99.88
286.057	91.88
286.288	95.88
286.52	83.88
286.751	87.88
286.982	89.88
287.213	82.88
287.444	87.88
287.675	86.88
287.906	89.88
288.138	89.88
288.369	89.88
288.6	92.88
288.831	86.88
289.062	80.88
289.293	96.88
289.524	95.88
289.755	82.88
289.986	82.88
290.217	87.88
290.448	83.88
290.679	84.88
290.91	93.88
291.141	86.88
291.371	83.88
291.602	89.88
291.833	92.88
292.064	86.88
292.295	84.88
292.526	86.88
292.757	87.88
292.987	75.88
293.218	94.88
293.449	90.88
293.68	89.88
293.91	85.88
294.141	90.88
294.372	78.88
294.603	94.88
294.833	92.88
295.064	87.88
295.295	93.88
295.525	99.88
295.756	94.88
295.987	122.88
296.217	149.88
296.448	123.88
296.679	95.88
296.909	92.88
297.14	88.88
297.37	110.88
297.601	97.88
297.831	110.88
298.062	100.88
298.292	99.88
298.523	89.88
298.753	79.88
298.984	79.88
299.214	79.88
299.445	95.88
299.675	107.88
299.905	89.88
300.136	96.88
300.366	94.88
300.597	98.88
300.827	71.88
301.057	95.88
301.288	96.88
301.518	86.88
301.748	92.88
301.979	84.88
302.209	84.88
302.439	99.88
302.669	96.88
302.9	90.88
303.13	91.88
303.36	104.88
303.59	100.88
303.82	107.88
304.051	93.88
304.281	99.88
304.511	115.88
304.741	88.88
304.971	99.88
305.201	97.88
305.431	80.88
305.661	86.88
305.891	87.88
306.121	97.88
306.352	101.88
306.582	101.88
306.812	105.88
307.042	97.88
307.272	93.88
307.502	85.88
307.731	109.88
307.961	80.88
308.191	90.88
308.421	100.88
308.651	86.88
308.881	91.88
309.111	87.88
309.341	98.88
309.571	104.88
309.8	103.88
310.03	112.88
310.26	95.88
310.49	87.88
310.72	93.88
310.949	105.88
311.179	93.88
311.409	89.88
311.639	92.88
311.868	93.88
312.098	88.88
312.328	92.88
312.557	101.88
312.787	101.88
313.017	93.88
313.246	93.88
313.476	89.88
313.706	91.88
313.935	92.88
314.165	88.88
314.394	103.88
314.624	102.88
314.853	93.88
315.083	95.88
315.312	96.88
315.542	95.88
315.771	86.88
316.001	101.88
316.23	104.88
316.46	89.88
316.689	84.88
316.919	91.88
317.148	86.88
317.377	95.88
317.607	81.88
317.836	77.88
318.065	96.88
318.295	89.88
318.524	95.88
318.753	92.88
318.983	92.88
319.212	99.88
319.441	117.88
319.67	117.88
319.9	104.88
320.129	86.88
320.358	86.88
320.587	97.88
320.816	100.88
321.046	99.88
321.275	100.88
321.504	92.88
321.733	100.88
321.962	85.88
322.191	102.88
322.42	111.88
322.649	103.88
322.878	103.88
323.108	117.88
323.337	109.88
323.566	115.88
323.795	131.88
324.024	180.88
324.253	344.88
324.482	741.88
324.71	1505.88
324.939	1981.88
325.168	742.88
325.397	256.88
325.626	161.88
325.855	116.88
326.084	127.88
326.313	125.88
326.542	146.88
326.77	225.88
326.999	418.88
327.228	850.88
327.457	1531.88
327.686	1245.88
327.914	347.88
328.143	191.88
328.372	143.88
328.6	149.88
328.829	109.88
329.058	124.88
329.287	112.88
329.515	119.88
329.744	94.88
329.972	110.88
330.201	137.88
330.43	164.88
330.658	145.88
330.887	127.88
331.115	113.88
331.344	96.88
331.572	83.88
331.801	101.88
332.03	107.88
332.258	103.88
332.486	108.88
332.715	88.88
332.943	86.88
333.172	85.88
333.4	105.88
333.629	113.88
333.857	114.88
334.085	129.88
334.314	143.88
334.542	182.88
334.771	176.88
334.999	116.88
335.227	104.88
335.455	103.88
335.684	84.88
335.912	98.88
336.14	96.88
336.369	96.88
336.597	107.88
336.825	100.88
337.053	96.88
337.281	86.88
337.51	93.88
337.738	93.88
337.966	88.88
338.194	88.88
338.422	88.88
338.65	108.88
338.878	94.88
339.106	95.88
339.334	93.88
339.562	84.88
339.79	100.88
340.018	95.88
340.246	105.88
340.474	84.88
340.702	92.88
340.93	79.88
341.158	83.88
341.386	86.88
341.614	101.88
341.842	99.88
342.07	96.88
342.298	94.88
342.526	83.88
342.754	81.88
342.981	87.88
343.209	90.88
343.437	95.88
343.665	87.88
343.893	87.88
344.12	99.88
344.348	96.88
344.576	86.88
344.804	93.88
345.031	94.88
345.259	86.88
345.487	89.88
345.714	97.88
345.942	88.88
346.17	107.88
346.397	97.88
346.625	91.88
346.853	93.88
347.08	105.88
347.308	97.88
347.535	90.88
347.763	86.88
347.99	91.88
348.218	95.88
348.445	89.88
348.673	99.88
348.9	93.88
349.128	94.88
349.355	99.88
349.583	99.88
349.81	98.88
350.037	89.88
350.265	100.88
350.492	104.88
350.72	107.88
350.947	111.88
351.174	103.88
351.402	84.88
351.629	104.88
351.856	95.88
352.083	100.88
352.311	98.88
352.538	105.88
352.765	103.88
352.992	113.88
353.22	99.88
353.447	102.88
353.674	117.88
353.901	95.88
354.128	108.88
354.355	101.88
354.583	93.88
354.81	103.88
355.037	93.88
355.264	97.88
355.491	99.88
355.718	89.88
355.945	92.88
356.172	101.88
356.399	85.88
356.626	101.88
356.853	84.88
357.08	103.88
357.307	103.88
357.534	80.88
357.761	103.88
357.988	95.88
358.215	96.88
358.441	96.88
358.668	101.88
358.895	79.88
359.122	89.88
359.349	86.88
359.576	95.88
359.802	105.88
360.029	104.88
360.256	90.88
360.483	101.88
360.709	83.88
360.936	94.88
361.163	86.88
361.39	89.88
361.616	105.88
361.843	98.88
362.07	83.88
362.296	85.88
362.523	93.88
362.749	102.88
362.976	86.88
363.203	100.88
363.429	93.88
363.656	104.88
363.882	79.88
364.109	79.88
364.335	93.88
364.562	92.88
364.788	83.88
365.015	76.88
365.241	75.88
365.468	116.88
365.694	103.88
365.92	87.88
366.147	99.88
366.373	84.88
366.599	102.88
366.826	92.88
367.052	87.88
367.278	84.88
367.505	91.88
367.731	89.88
367.957	89.88
368.184	92.88
368.41	89.88
368.636	123.88
368.862	123.88
369.089	101.88
369.315	87.88
369.541	93.88
369.767	77.88
369.993	85.88
370.219	94.88
370.445	97.88
370.672	94.88
370.898	92.88
371.124	72.88
371.35	86.88
371.576	95.88
371.802	70.88
372.028	68.88
372.254	87.88
372.48	84.88
372.706	86.88
372.932	94.88
373.158	102.88
373.384	100.88
373.61	99.88
373.835	99.88
374.061	76.88
374.287	78.88
374.513	88.88
374.739	98.88
374.965	89.88
375.191	78.88
375.416	76.88
375.642	90.88
375.868	88.88
376.094	86.88
376.319	88.88
376.545	97.88
376.771	92.88
376.997	93.88
377.222	83.88
377.448	89.88
377.674	81.88
377.899	88.88
378.125	100.88
378.35	95.88
378.576	99.88
378.802	100.88
379.027	92.88
379.253	100.88
379.478	101.88
379.704	101.88
379.929	100.88
380.155	89.88
380.38	96.88
380.606	88.88
380.831	86.88
381.057	108.88
381.282	94.88
381.507	93.88
381.733	89.88
381.958	95.88
382.184	102.88
382.409	98.88
382.634	105.88
382.86	74.88
383.085	111.88
383.31	106.88
383.535	106.88
383.761	102.88
383.986	104.88
384.211	84.88
384.436	104.88
384.662	115.88
384.887	95.88
385.112	109.88
385.337	99.88
385.562	93.88
385.787	106.88
386.013	109.88
386.238	114.88
386.463	107.88
386.688	112.88
386.913	102.88
387.138	104.88
387.363	113.88
387.588	101.88
387.813	85.88
388.038	103.88
388.263	103.88
388.488	100.88
388.713	107.88
388.938	101.88
389.163	98.88
389.387	97.88
389.612	92.88
389.837	92.88
390.062	108.88
390.287	85.88
390.512	108.88
390.736	83.88
390.961	84.88
391.186	94.88
391.411	90.88
391.636	92.88
391.86	97.88
392.085	107.88
392.31	94.88
392.534	85.88
392.759	99.88
392.984	85.88
393.208	88.88
393.433	88.88
393.658	84.88
393.882	81.88
394.107	85.88
394.331	100.88
394.556	88.88
394.78	98.88
395.005	98.88
395.229	78.88
395.454	76.88
395.678	78.88
395.903	91.88
396.127	85.88
396.352	111.88
396.576	100.88
396.801	80.88
397.025	98.88
397.249	84.88
397.474	91.88
397.698	88.88
397.922	92.88
398.147	87.88
398.371	92.88
398.595	81.88
398.82	86.88
399.044	85.88
399.268	92.88
399.492	80.88
399.717	84.88
399.941	86.88
400.165	96.88
400.389	79.88
400.613	86.88
400.837	92.88
401.062	76.88
401.286	85.88
401.51	87.88
401.734	101.88
401.958	103.88
402.182	117.88
402.406	153.88
402.63	114.88
402.854	82.88
403.078	93.88
403.302	85.88
403.526	88.88
403.75	88.88
403.974	88.88
404.198	89.88
404.422	89.88
404.645	95.88
404.869	75.88
405.093	94.88
405.317	89.88
405.541	95.88
405.765	95.88
405.988	109.88
406.212	156.88
406.436	198.88
406.66	142.88
406.883	98.88
407.107	82.88
407.331	98.88
407.555	75.88
407.778	95.88
408.002	80.88
408.226	78.88
408.449	82.88
408.673	88.88
408.896	100.88
409.12	88.88
409.344	92.88
409.567	92.88
409.791	72.88
410.014	93.88
410.238	81.88
410.461	94.88
410.685	96.88
410.908	96.88
411.132	105.88
411.355	100.88
411.578	91.88
411.802	92.88
412.025	88.88
412.249	91.88
412.472	90.88
412.695	101.88
412.919	83.88
413.142	74.88
413.365	98.88
413.589	99.88
413.812	85.88
414.035	89.88
414.258	90.88
414.482	90.88
414.705	96.88
414.928	103.88
415.151	87.88
415.374	96.88
415.597	71.88
415.821	96.88
416.044	88.88
416.267	92.88
416.49	93.88
416.713	99.88
416.936	88.88
417.159	89.88
417.382	88.88
417.605	92.88
417.828	91.88
418.051	78.88
418.274	100.88
418.497	89.88
418.72	80.88
418.943	81.88
419.166	96.88
419.389	89.88
419.611	86.88
419.834	87.88
420.057	82.88
420.28	81.88
420.503	94.88
420.726	88.88
420.948	88.88
421.171	93.88
421.394	88.88
421.617	95.88
421.839	81.88
422.062	103.88
422.285	104.88
422.507	92.88
422.73	103.88
422.953	87.88
423.175	86.88
423.398	87.88
423.621	97.88
423.843	75.88
424.066	87.88
424.288	80.88
424.511	88.88
424.733	78.88
424.956	100.88
425.178	77.88
425.401	89.88
425.623	87.88
425.846	102.88
426.068	89.88
426.291	96.88
426.513	88.88
426.735	101.88
426.958	102.88
427.18	100.88
427.402	128.88
427.625	155.88
427.847	126.88
428.069	109.88
428.292	87.88
428.514	91.88
428.736	95.88
428.958	81.88
429.181	80.88
429.403	86.88
429.625	87.88
429.847	97.88
430.069	100.88
430.292	103.88
430.514	89.88
430.736	79.88
430.958	101.88
431.18	79.88
431.402	102.88
431.624	93.88
431.846	78.88
432.068	86.88
432.29	93.88
432.512	78.88
432.734	87.88
432.956	89.88
433.178	94.88
433.4	106.88
433.622	96.88
433.844	82.88
434.066	92.88
434.287	84.88
434.509	80.88
434.731	93.88
434.953	87.88
435.175	89.88
435.397	99.88
435.618	113.88
435.84	101.88
436.062	117.88
436.284	110.88
436.505	88.88
436.727	93.88
436.949	100.88
437.17	89.88
437.392	71.88
437.614	89.88
437.835	80.88
438.057	101.88
438.278	112.88
438.5	96.88
438.721	114.88
438.943	113.88
439.165	75.88
439.386	75.88
439.608	97.88
439.829	101.88
440.05	120.88
440.272	136.88
440.493	99.88
440.715	92.88
440.936	90.88
441.158	69.88
441.379	81.88
441.6	92.88
441.822	86.88
442.043	99.88
442.264	99.88
442.486	86.88
442.707	82.88
442.928	104.88
443.149	123.88
443.371	112.88
443.592	108.88
443.813	92.88
444.034	111.88
444.255	85.88
444.476	88.88
444.698	89.88
444.919	100.88
445.14	152.88
445.361	128.88
445.582	117.88
445.803	127.88
446.024	121.88
446.245	120.88
446.466	102.88
446.687	89.88
446.908	81.88
447.129	84.88
447.35	80.88
447.571	95.88
447.792	78.88
448.013	102.88
448.234	106.88
448.455	93.88
448.675	119.88
448.896	114.88
449.117	103.88
449.338	104.88
449.559	135.88
449.779	113.88
450	95.88
450.221	75.88
450.442	98.88
450.662	96.88
450.883	88.88
451.104	112.88
451.324	84.88
451.545	82.88
451.766	99.88
451.986	78.88
452.207	92.88
452.428	101.88
452.648	91.88
452.869	108.88
453.089	93.88
453.31	113.88
453.53	94.88
453.751	92.88
453.971	82.88
454.192	92.88
454.412	88.88
454.633	83.88
454.853	86.88
455.073	81.88
455.294	71.88
455.514	94.88
455.734	96.88
455.955	89.88
456.175	83.88
456.395	87.88
456.616	77.88
456.836	81.88
457.056	87.88
457.276	75.88
457.497	85.88
457.717	83.88
457.937	87.88
458.157	80.88
458.377	102.88
458.598	107.88
458.818	142.88
459.038	160.88
459.258	96.88
459.478	95.88
459.698	82.88
459.918	95.88
460.138	82.88
460.358	95.88
460.578	96.88
460.798	72.88
461.018	86.88
461.238	78.88
461.458	94.88
461.678	87.88
461.898	87.88
462.118	81.88
462.338	89.88
462.558	88.88
462.777	71.88
462.997	76.88
463.217	79.88
463.437	73.88
463.657	87.88
463.876	89.88
464.096	93.88
464.316	102.88
464.536	100.88
464.755	107.88
464.975	108.88
465.195	144.88
465.414	150.88
465.634	88.88
465.854	97.88
466.073	89.88
466.293	91.88
466.512	77.88
466.732	85.88
466.951	87.88
467.171	91.88
467.391	101.88
467.61	87.88
467.829	104.88
468.049	102.88
468.268	119.88
468.488	79.88
468.707	97.88
468.927	87.88
469.146	94.88
469.365	86.88
469.585	103.88
469.804	93.88
470.023	93.88
470.243	83.88
470.462	96.88
470.681	99.88
470.901	104.88
471.12	90.88
471.339	88.88
471.558	91.88
471.777	81.88
471.997	97.88
472.216	151.88
472.435	206.88
472.654	106.88
472.873	87.88
473.092	77.88
473.311	80.88
473.53	73.88
473.749	88.88
473.968	96.88
474.187	111.88
474.406	100.88
474.625	82.88
474.844	94.88
475.063	86.88
475.282	75.88
475.501	74.88
475.72	89.88
475.939	92.88
476.158	86.88
476.377	88.88
476.596	85.88
476.814	84.88
477.033	90.88
477.252	85.88
477.471	84.88
477.69	89.88
477.908	83.88
478.127	93.88
478.346	85.88
478.564	97.88
478.783	93.88
479.002	92.88
479.22	88.88
479.439	91.88
479.658	114.88
479.876	89.88
480.095	83.88
480.313	98.88
480.532	84.88
480.751	100.88
480.969	145.88
481.188	295.88
481.406	221.88
481.624	115.88
481.843	93.88
482.061	85.88
482.28	89.88
482.498	100.88
482.717	93.88
482.935	92.88
483.153	89.88
483.372	98.88
483.59	98.88
483.808	77.88
484.027	97.88
484.245	104.88
484.463	104.88
484.681	103.88
484.9	94.88
485.118	67.88
485.336	103.88
485.554	92.88
485.772	101.88
485.99	96.88
486.209	119.88
486.427	100.88
486.645	107.88
486.863	103.88
487.081	96.88
487.299	95.88
487.517	103.88
487.735	88.88
487.953	100.88
488.171	79.88
488.389	93.88
488.607	94.88
488.825	98.88
489.043	113.88
489.261	90.88
489.479	91.88
489.696	78.88
489.914	86.88
490.132	92.88
490.35	78.88
490.568	89.88
490.786	96.88
491.003	79.88
491.221	96.88
491.439	96.88
491.657	97.88
491.874	84.88
492.092	96.88
492.31	102.88
492.527	98.88
492.745	89.88
492.963	99.88
493.18	89.88
493.398	101.88
493.615	99.88
493.833	107.88
494.05	94.88
494.268	86.88
494.485	94.88
494.703	97.88
494.92	83.88
495.138	103.88
495.355	84.88
495.573	95.88
495.79	92.88
496.008	101.88
496.225	99.88
496.442	72.88
496.66	94.88
496.877	81.88
497.094	80.88
497.312	93.88
497.529	91.88
497.746	96.88
497.963	92.88
498.181	89.88
498.398	92.88
498.615	94.88
498.832	103.88
499.049	80.88
499.267	88.88
499.484	88.88
499.701	84.88
499.918	100.88
500.135	84.88
500.352	76.88
500.569	85.88
500.786	79.88
501.003	87.88
501.22	103.88
501.437	94.88
501.654	97.88
501.871	104.88
502.088	85.88
502.305	79.88
502.522	92.88
502.739	97.88
502.956	92.88
503.172	78.88
503.389	83.88
503.606	93.88
503.823	88.88
504.04	94.88
504.256	86.88
504.473	74.88
504.69	81.88
504.907	89.88
505.123	84.88
505.34	86.88
505.557	89.88
505.773	100.88
505.99	90.88
506.207	92.88
506.423	92.88
506.64	96.88
506.856	97.88
507.073	99.88
507.289	95.88
507.506	89.88
507.722	96.88
507.939	113.88
508.155	101.88
508.372	102.88
508.588	107.88
508.805	91.88
509.021	88.88
509.238	88.88
509.454	94.88
509.67	102.88
509.887	105.88
510.103	123.88
510.319	193.88
510.536	691.88
510.752	2141.88
510.968	618.88
511.184	159.88
511.401	100.88
511.617	95.88
511.833	81.88
512.049	89.88
512.265	98.88
512.481	86.88
512.698	81.88
512.914	87.88
513.13	89.88
513.346	101.88
513.562	99.88
513.778	83.88
513.994	81.88
514.21	91.88
514.426	124.88
514.642	125.88
514.858	124.88
515.074	153.88
515.29	389.88
515.506	1318.88
