Data from Circ_2005_H10_HRD10591_00019.txt Node
Date: Wed Jan 03 10:29:54 EST 2024
User: Yrep
Spectrometer: HR+D1059
Trigger mode: 1
Integration Time (sec): 1.000000E-1
Scans to average: 1
Electric dark correction enabled: true
Nonlinearity correction enabled: false
Boxcar width: 0
XAxis mode: Wavelengths
Number of Pixels in Spectrum: 2048
>>>>>Begin Spectral Data<<<<<
223.165	-17.75
223.4	-17.75
223.635	-17.75
223.869	-20.75
224.104	-16.75
224.338	-14.75
224.573	-32.75
224.808	-10.75
225.042	0.25
225.277	-4.75
225.511	-12.75
225.746	-8.75
225.98	20.25
226.215	10.25
226.449	21.25
226.683	24.25
226.918	28.25
227.152	35.25
227.387	34.25
227.621	60.25
227.856	35.25
228.09	46.25
228.324	59.25
228.559	61.25
228.793	63.25
229.027	77.25
229.262	64.25
229.496	71.25
229.73	87.25
229.964	91.25
230.199	88.25
230.433	68.25
230.667	77.25
230.901	74.25
231.136	74.25
231.37	86.25
231.604	68.25
231.838	79.25
232.072	83.25
232.306	80.25
232.541	83.25
232.775	88.25
233.009	61.25
233.243	92.25
233.477	78.25
233.711	79.25
233.945	80.25
234.179	63.25
234.413	79.25
234.647	79.25
234.881	85.25
235.115	82.25
235.349	72.25
235.583	84.25
235.817	86.25
236.051	75.25
236.285	76.25
236.519	80.25
236.753	88.25
236.987	85.25
237.221	100.25
237.455	98.25
237.689	98.25
237.922	84.25
238.156	66.25
238.39	79.25
238.624	81.25
238.858	89.25
239.091	72.25
239.325	67.25
239.559	72.25
239.793	78.25
240.027	68.25
240.26	93.25
240.494	73.25
240.728	68.25
240.961	78.25
241.195	73.25
241.429	69.25
241.662	77.25
241.896	72.25
242.13	71.25
242.363	89.25
242.597	88.25
242.83	77.25
243.064	81.25
243.298	85.25
243.531	87.25
243.765	84.25
243.998	82.25
244.232	83.25
244.465	81.25
244.699	87.25
244.932	83.25
245.166	78.25
245.399	73.25
245.633	91.25
245.866	71.25
246.099	68.25
246.333	71.25
246.566	86.25
246.8	86.25
247.033	73.25
247.266	84.25
247.5	85.25
247.733	69.25
247.966	73.25
248.2	88.25
248.433	72.25
248.666	78.25
248.899	88.25
249.133	88.25
249.366	101.25
249.599	103.25
249.832	87.25
250.066	91.25
250.299	74.25
250.532	85.25
250.765	71.25
250.998	86.25
251.231	78.25
251.465	78.25
251.698	78.25
251.931	63.25
252.164	81.25
252.397	77.25
252.63	89.25
252.863	88.25
253.096	89.25
253.329	83.25
253.562	80.25
253.795	97.25
254.028	80.25
254.261	72.25
254.494	81.25
254.727	81.25
254.96	76.25
255.193	83.25
255.426	84.25
255.659	75.25
255.892	84.25
256.124	71.25
256.357	75.25
256.59	73.25
256.823	84.25
257.056	87.25
257.289	78.25
257.521	87.25
257.754	86.25
257.987	85.25
258.22	88.25
258.452	75.25
258.685	75.25
258.918	89.25
259.151	84.25
259.383	84.25
259.616	94.25
259.849	94.25
260.081	76.25
260.314	89.25
260.547	86.25
260.779	86.25
261.012	76.25
261.244	88.25
261.477	89.25
261.71	106.25
261.942	116.25
262.175	120.25
262.407	89.25
262.64	91.25
262.872	79.25
263.105	79.25
263.337	85.25
263.57	93.25
263.802	76.25
264.035	74.25
264.267	85.25
264.499	77.25
264.732	88.25
264.964	79.25
265.197	97.25
265.429	74.25
265.661	70.25
265.894	83.25
266.126	96.25
266.358	69.25
266.591	86.25
266.823	83.25
267.055	85.25
267.287	83.25
267.52	96.25
267.752	85.25
267.984	79.25
268.216	85.25
268.448	72.25
268.681	85.25
268.913	95.25
269.145	80.25
269.377	95.25
269.609	87.25
269.841	82.25
270.073	89.25
270.306	93.25
270.538	88.25
270.77	84.25
271.002	85.25
271.234	81.25
271.466	77.25
271.698	90.25
271.93	88.25
272.162	90.25
272.394	79.25
272.626	93.25
272.858	105.25
273.09	73.25
273.322	83.25
273.553	77.25
273.785	86.25
274.017	72.25
274.249	80.25
274.481	84.25
274.713	91.25
274.945	100.25
275.176	92.25
275.408	76.25
275.64	88.25
275.872	99.25
276.104	81.25
276.335	88.25
276.567	100.25
276.799	124.25
277.031	104.25
277.262	91.25
277.494	97.25
277.726	98.25
277.957	91.25
278.189	80.25
278.421	88.25
278.652	79.25
278.884	83.25
279.115	81.25
279.347	111.25
279.579	94.25
279.81	84.25
280.042	92.25
280.273	91.25
280.505	90.25
280.736	88.25
280.968	77.25
281.199	85.25
281.431	84.25
281.662	81.25
281.894	100.25
282.125	102.25
282.356	120.25
282.588	164.25
282.819	127.25
283.051	91.25
283.282	85.25
283.513	80.25
283.745	91.25
283.976	90.25
284.207	84.25
284.439	106.25
284.67	82.25
284.901	77.25
285.132	82.25
285.364	95.25
285.595	89.25
285.826	75.25
286.057	94.25
286.288	93.25
286.52	93.25
286.751	89.25
286.982	96.25
287.213	84.25
287.444	90.25
287.675	85.25
287.906	95.25
288.138	96.25
288.369	95.25
288.6	88.25
288.831	81.25
289.062	97.25
289.293	79.25
289.524	71.25
289.755	91.25
289.986	82.25
290.217	82.25
290.448	90.25
290.679	84.25
290.91	71.25
291.141	79.25
291.371	92.25
291.602	91.25
291.833	87.25
292.064	83.25
292.295	92.25
292.526	88.25
292.757	102.25
292.987	86.25
293.218	100.25
293.449	90.25
293.68	97.25
293.91	83.25
294.141	97.25
294.372	88.25
294.603	87.25
294.833	98.25
295.064	87.25
295.295	78.25
295.525	86.25
295.756	110.25
295.987	120.25
296.217	147.25
296.448	137.25
296.679	85.25
296.909	87.25
297.14	86.25
297.37	77.25
297.601	103.25
297.831	108.25
298.062	101.25
298.292	94.25
298.523	103.25
298.753	89.25
298.984	85.25
299.214	99.25
299.445	93.25
299.675	86.25
299.905	94.25
300.136	84.25
300.366	90.25
300.597	94.25
300.827	94.25
301.057	94.25
301.288	88.25
301.518	95.25
301.748	83.25
301.979	106.25
302.209	90.25
302.439	82.25
302.669	84.25
302.9	84.25
303.13	90.25
303.36	89.25
303.59	111.25
303.82	102.25
304.051	91.25
304.281	83.25
304.511	86.25
304.741	88.25
304.971	81.25
305.201	95.25
305.431	87.25
305.661	96.25
305.891	103.25
306.121	94.25
306.352	102.25
306.582	100.25
306.812	104.25
307.042	94.25
307.272	82.25
307.502	86.25
307.731	93.25
307.961	97.25
308.191	80.25
308.421	83.25
308.651	72.25
308.881	87.25
309.111	105.25
309.341	105.25
309.571	110.25
309.8	104.25
310.03	107.25
310.26	90.25
310.49	97.25
310.72	100.25
310.949	109.25
311.179	105.25
311.409	97.25
311.639	107.25
311.868	110.25
312.098	100.25
312.328	86.25
312.557	127.25
312.787	105.25
313.017	113.25
313.246	82.25
313.476	95.25
313.706	87.25
313.935	106.25
314.165	109.25
314.394	108.25
314.624	110.25
314.853	97.25
315.083	95.25
315.312	105.25
315.542	100.25
315.771	85.25
316.001	96.25
316.23	98.25
316.46	88.25
316.689	101.25
316.919	100.25
317.148	107.25
317.377	89.25
317.607	110.25
317.836	99.25
318.065	99.25
318.295	95.25
318.524	95.25
318.753	102.25
318.983	95.25
319.212	102.25
319.441	101.25
319.67	116.25
319.9	103.25
320.129	99.25
320.358	105.25
320.587	103.25
320.816	98.25
321.046	110.25
321.275	99.25
321.504	104.25
321.733	110.25
321.962	94.25
322.191	108.25
322.42	111.25
322.649	120.25
322.878	123.25
323.108	119.25
323.337	159.25
323.566	166.25
323.795	183.25
324.024	252.25
324.253	518.25
324.482	1183.25
324.71	2469.25
324.939	3323.25
325.168	1170.25
325.397	327.25
325.626	179.25
325.855	139.25
326.084	141.25
326.313	144.25
326.542	180.25
326.77	297.25
326.999	605.25
327.228	1338.25
327.457	2496.25
327.686	1995.25
327.914	476.25
328.143	226.25
328.372	192.25
328.6	150.25
328.829	125.25
329.058	159.25
329.287	162.25
329.515	132.25
329.744	118.25
329.972	114.25
330.201	111.25
330.43	124.25
330.658	152.25
330.887	186.25
331.115	152.25
331.344	97.25
331.572	101.25
331.801	119.25
332.03	122.25
332.258	99.25
332.486	91.25
332.715	109.25
332.943	103.25
333.172	107.25
333.4	99.25
333.629	91.25
333.857	120.25
334.085	105.25
334.314	107.25
334.542	111.25
334.771	121.25
334.999	100.25
335.227	100.25
335.455	94.25
335.684	98.25
335.912	96.25
336.14	94.25
336.369	99.25
336.597	103.25
336.825	105.25
337.053	87.25
337.281	111.25
337.51	81.25
337.738	92.25
337.966	101.25
338.194	111.25
338.422	100.25
338.65	100.25
338.878	100.25
339.106	86.25
339.334	101.25
339.562	95.25
339.79	96.25
340.018	86.25
340.246	95.25
340.474	102.25
340.702	82.25
340.93	69.25
341.158	85.25
341.386	109.25
341.614	100.25
341.842	92.25
342.07	93.25
342.298	101.25
342.526	104.25
342.754	92.25
342.981	99.25
343.209	81.25
343.437	90.25
343.665	95.25
343.893	90.25
344.12	94.25
344.348	99.25
344.576	86.25
344.804	102.25
345.031	108.25
345.259	112.25
345.487	100.25
345.714	95.25
345.942	98.25
346.17	101.25
346.397	80.25
346.625	102.25
346.853	94.25
347.08	88.25
347.308	106.25
347.535	94.25
347.763	95.25
347.99	110.25
348.218	106.25
348.445	116.25
348.673	117.25
348.9	98.25
349.128	94.25
349.355	92.25
349.583	100.25
349.81	104.25
350.037	89.25
350.265	97.25
350.492	102.25
350.72	99.25
350.947	112.25
351.174	118.25
351.402	136.25
351.629	94.25
351.856	91.25
352.083	107.25
352.311	120.25
352.538	131.25
352.765	111.25
352.992	122.25
353.22	110.25
353.447	103.25
353.674	112.25
353.901	91.25
354.128	93.25
354.355	96.25
354.583	100.25
354.81	95.25
355.037	95.25
355.264	105.25
355.491	93.25
355.718	95.25
355.945	102.25
356.172	85.25
356.399	103.25
356.626	96.25
356.853	117.25
357.08	95.25
357.307	99.25
357.534	93.25
357.761	97.25
357.988	109.25
358.215	97.25
358.441	93.25
358.668	100.25
358.895	88.25
359.122	92.25
359.349	91.25
359.576	92.25
359.802	116.25
360.029	135.25
360.256	133.25
360.483	121.25
360.709	93.25
360.936	95.25
361.163	101.25
361.39	100.25
361.616	121.25
361.843	99.25
362.07	105.25
362.296	91.25
362.523	104.25
362.749	100.25
362.976	95.25
363.203	103.25
363.429	106.25
363.656	94.25
363.882	94.25
364.109	102.25
364.335	94.25
364.562	94.25
364.788	116.25
365.015	108.25
365.241	115.25
365.468	118.25
365.694	116.25
365.92	115.25
366.147	95.25
366.373	96.25
366.599	104.25
366.826	82.25
367.052	102.25
367.278	92.25
367.505	75.25
367.731	99.25
367.957	91.25
368.184	108.25
368.41	107.25
368.636	131.25
368.862	124.25
369.089	123.25
369.315	93.25
369.541	92.25
369.767	87.25
369.993	93.25
370.219	81.25
370.445	89.25
370.672	98.25
370.898	100.25
371.124	77.25
371.35	103.25
371.576	107.25
371.802	94.25
372.028	85.25
372.254	99.25
372.48	93.25
372.706	87.25
372.932	99.25
373.158	87.25
373.384	103.25
373.61	95.25
373.835	96.25
374.061	79.25
374.287	102.25
374.513	86.25
374.739	84.25
374.965	80.25
375.191	91.25
375.416	90.25
375.642	98.25
375.868	104.25
376.094	92.25
376.319	90.25
376.545	96.25
376.771	91.25
376.997	81.25
377.222	104.25
377.448	105.25
377.674	99.25
377.899	85.25
378.125	80.25
378.35	89.25
378.576	101.25
378.802	101.25
379.027	97.25
379.253	94.25
379.478	81.25
379.704	99.25
379.929	98.25
380.155	104.25
380.38	97.25
380.606	101.25
380.831	103.25
381.057	113.25
381.282	119.25
381.507	90.25
381.733	107.25
381.958	102.25
382.184	105.25
382.409	101.25
382.634	108.25
382.86	108.25
383.085	101.25
383.31	108.25
383.535	105.25
383.761	101.25
383.986	96.25
384.211	116.25
384.436	101.25
384.662	112.25
384.887	114.25
385.112	100.25
385.337	108.25
385.562	122.25
385.787	105.25
386.013	117.25
386.238	125.25
386.463	110.25
386.688	116.25
386.913	106.25
387.138	128.25
387.363	109.25
387.588	98.25
387.813	99.25
388.038	117.25
388.263	117.25
388.488	107.25
388.713	105.25
388.938	111.25
389.163	94.25
389.387	100.25
389.612	97.25
389.837	100.25
390.062	108.25
390.287	97.25
390.512	102.25
390.736	100.25
390.961	87.25
391.186	71.25
391.411	85.25
391.636	87.25
391.86	94.25
392.085	102.25
392.31	77.25
392.534	82.25
392.759	88.25
392.984	70.25
393.208	89.25
393.433	95.25
393.658	85.25
393.882	94.25
394.107	90.25
394.331	92.25
394.556	89.25
394.78	95.25
395.005	92.25
395.229	85.25
395.454	87.25
395.678	88.25
395.903	89.25
396.127	100.25
396.352	91.25
396.576	88.25
396.801	95.25
397.025	86.25
397.249	81.25
397.474	75.25
397.698	92.25
397.922	92.25
398.147	96.25
398.371	87.25
398.595	88.25
398.82	87.25
399.044	82.25
399.268	87.25
399.492	86.25
399.717	84.25
399.941	111.25
400.165	104.25
400.389	93.25
400.613	82.25
400.837	99.25
401.062	95.25
401.286	97.25
401.51	92.25
401.734	93.25
401.958	120.25
402.182	147.25
402.406	181.25
402.63	128.25
402.854	92.25
403.078	94.25
403.302	90.25
403.526	87.25
403.75	85.25
403.974	106.25
404.198	83.25
404.422	87.25
404.645	92.25
404.869	97.25
405.093	109.25
405.317	97.25
405.541	99.25
405.765	106.25
405.988	130.25
406.212	183.25
406.436	276.25
406.66	176.25
406.883	123.25
407.107	95.25
407.331	112.25
407.555	121.25
407.778	121.25
408.002	101.25
408.226	93.25
408.449	92.25
408.673	95.25
408.896	113.25
409.12	108.25
409.344	102.25
409.567	91.25
409.791	109.25
410.014	107.25
410.238	92.25
410.461	99.25
410.685	92.25
410.908	102.25
411.132	126.25
411.355	110.25
411.578	102.25
411.802	83.25
412.025	96.25
412.249	100.25
412.472	93.25
412.695	110.25
412.919	88.25
413.142	96.25
413.365	98.25
413.589	78.25
413.812	104.25
414.035	95.25
414.258	98.25
414.482	103.25
414.705	92.25
414.928	95.25
415.151	88.25
415.374	83.25
415.597	98.25
415.821	86.25
416.044	97.25
416.267	82.25
416.49	78.25
416.713	89.25
416.936	108.25
417.159	94.25
417.382	92.25
417.605	99.25
417.828	97.25
418.051	89.25
418.274	85.25
418.497	86.25
418.72	93.25
418.943	91.25
419.166	97.25
419.389	86.25
419.611	88.25
419.834	92.25
420.057	83.25
420.28	88.25
420.503	84.25
420.726	95.25
420.948	96.25
421.171	107.25
421.394	106.25
421.617	98.25
421.839	83.25
422.062	95.25
422.285	103.25
422.507	81.25
422.73	104.25
422.953	87.25
423.175	88.25
423.398	97.25
423.621	87.25
423.843	79.25
424.066	103.25
424.288	83.25
424.511	98.25
424.733	101.25
424.956	120.25
425.178	107.25
425.401	124.25
425.623	106.25
425.846	77.25
426.068	100.25
426.291	95.25
426.513	100.25
426.735	107.25
426.958	110.25
427.18	119.25
427.402	172.25
427.625	242.25
427.847	165.25
428.069	114.25
428.292	94.25
428.514	80.25
428.736	87.25
428.958	81.25
429.181	103.25
429.403	103.25
429.625	87.25
429.847	93.25
430.069	124.25
430.292	100.25
430.514	99.25
430.736	88.25
430.958	89.25
431.18	77.25
431.402	83.25
431.624	86.25
431.846	87.25
432.068	95.25
432.29	88.25
432.512	89.25
432.734	87.25
432.956	108.25
433.178	112.25
433.4	107.25
433.622	99.25
433.844	103.25
434.066	97.25
434.287	92.25
434.509	94.25
434.731	96.25
434.953	95.25
435.175	83.25
435.397	85.25
435.618	87.25
435.84	111.25
436.062	151.25
436.284	150.25
436.505	114.25
436.727	110.25
436.949	91.25
437.17	85.25
437.392	88.25
437.614	98.25
437.835	107.25
438.057	148.25
438.278	127.25
438.5	120.25
438.721	147.25
438.943	113.25
439.165	103.25
439.386	103.25
439.608	94.25
439.829	119.25
440.05	154.25
440.272	191.25
440.493	112.25
440.715	93.25
440.936	92.25
441.158	95.25
441.379	96.25
441.6	82.25
441.822	117.25
442.043	107.25
442.264	135.25
442.486	125.25
442.707	96.25
442.928	132.25
443.149	163.25
443.371	166.25
443.592	128.25
443.813	132.25
444.034	136.25
444.255	92.25
444.476	100.25
444.698	86.25
444.919	100.25
445.14	141.25
445.361	153.25
445.582	162.25
445.803	196.25
446.024	187.25
446.245	185.25
446.466	133.25
446.687	96.25
446.908	85.25
447.129	95.25
447.35	105.25
447.571	101.25
447.792	103.25
448.013	103.25
448.234	124.25
448.455	123.25
448.675	143.25
448.896	145.25
449.117	107.25
449.338	118.25
449.559	171.25
449.779	162.25
450	98.25
450.221	80.25
450.442	80.25
450.662	96.25
450.883	135.25
451.104	132.25
451.324	103.25
451.545	88.25
451.766	89.25
451.986	88.25
452.207	94.25
452.428	101.25
452.648	104.25
452.869	114.25
453.089	122.25
453.31	107.25
453.53	104.25
453.751	93.25
453.971	120.25
454.192	127.25
454.412	99.25
454.633	89.25
454.853	92.25
455.073	98.25
455.294	96.25
455.514	125.25
455.734	104.25
455.955	93.25
456.175	105.25
456.395	88.25
456.616	79.25
456.836	77.25
457.056	74.25
457.276	84.25
457.497	96.25
457.717	89.25
457.937	84.25
458.157	99.25
458.377	89.25
458.598	115.25
458.818	195.25
459.038	207.25
459.258	142.25
459.478	102.25
459.698	79.25
459.918	79.25
460.138	100.25
460.358	103.25
460.578	81.25
460.798	98.25
461.018	90.25
461.238	91.25
461.458	88.25
461.678	84.25
461.898	87.25
462.118	67.25
462.338	92.25
462.558	87.25
462.777	96.25
462.997	87.25
463.217	96.25
463.437	81.25
463.657	89.25
463.876	82.25
464.096	85.25
464.316	89.25
464.536	75.25
464.755	97.25
464.975	120.25
465.195	229.25
465.414	233.25
465.634	108.25
465.854	100.25
466.073	89.25
466.293	85.25
466.512	105.25
466.732	84.25
466.951	85.25
467.171	102.25
467.391	104.25
467.61	109.25
467.829	99.25
468.049	97.25
468.268	107.25
468.488	93.25
468.707	93.25
468.927	92.25
469.146	97.25
469.365	91.25
469.585	84.25
469.804	108.25
470.023	101.25
470.243	108.25
470.462	103.25
470.681	118.25
470.901	107.25
471.12	93.25
471.339	80.25
471.558	76.25
471.777	80.25
471.997	101.25
472.216	99.25
472.435	94.25
472.654	83.25
472.873	84.25
473.092	90.25
473.311	103.25
473.53	93.25
473.749	99.25
473.968	110.25
474.187	137.25
474.406	129.25
474.625	81.25
474.844	87.25
475.063	88.25
475.282	86.25
475.501	89.25
475.72	94.25
475.939	92.25
476.158	92.25
476.377	95.25
476.596	97.25
476.814	94.25
477.033	97.25
477.252	82.25
477.471	87.25
477.69	95.25
477.908	95.25
478.127	98.25
478.346	95.25
478.564	84.25
478.783	103.25
479.002	95.25
479.22	84.25
479.439	97.25
479.658	128.25
479.876	95.25
480.095	104.25
480.313	111.25
480.532	96.25
480.751	88.25
480.969	97.25
481.188	128.25
481.406	104.25
481.624	99.25
481.843	103.25
482.061	93.25
482.28	98.25
482.498	86.25
482.717	94.25
482.935	88.25
483.153	101.25
483.372	81.25
483.59	85.25
483.808	91.25
484.027	79.25
484.245	89.25
484.463	103.25
484.681	93.25
484.9	93.25
485.118	81.25
485.336	94.25
485.554	92.25
485.772	92.25
485.99	99.25
486.209	77.25
486.427	96.25
486.645	122.25
486.863	125.25
487.081	118.25
487.299	100.25
487.517	90.25
487.735	90.25
487.953	97.25
488.171	78.25
488.389	100.25
488.607	92.25
488.825	92.25
489.043	92.25
489.261	84.25
489.479	99.25
489.696	112.25
489.914	104.25
490.132	91.25
490.35	103.25
490.568	85.25
490.786	75.25
491.003	102.25
491.221	89.25
491.439	87.25
491.657	109.25
491.874	91.25
492.092	89.25
492.31	84.25
492.527	76.25
492.745	92.25
492.963	78.25
493.18	96.25
493.398	96.25
493.615	91.25
493.833	95.25
494.05	86.25
494.268	81.25
494.485	77.25
494.703	95.25
494.92	101.25
495.138	112.25
495.355	96.25
495.573	104.25
495.79	82.25
496.008	92.25
496.225	88.25
496.442	87.25
496.66	105.25
496.877	97.25
497.094	85.25
497.312	100.25
497.529	98.25
497.746	88.25
497.963	86.25
498.181	104.25
498.398	100.25
498.615	117.25
498.832	119.25
499.049	98.25
499.267	87.25
499.484	92.25
499.701	91.25
499.918	85.25
500.135	89.25
500.352	80.25
500.569	91.25
500.786	100.25
501.003	91.25
501.22	89.25
501.437	112.25
501.654	109.25
501.871	125.25
502.088	99.25
502.305	96.25
502.522	93.25
502.739	88.25
502.956	91.25
503.172	82.25
503.389	99.25
503.606	121.25
503.823	99.25
504.04	92.25
504.256	99.25
504.473	103.25
504.69	88.25
504.907	89.25
505.123	77.25
505.34	92.25
505.557	91.25
505.773	89.25
505.99	97.25
506.207	85.25
506.423	93.25
506.64	98.25
506.856	84.25
507.073	94.25
507.289	100.25
507.506	105.25
507.722	122.25
507.939	123.25
508.155	95.25
508.372	95.25
508.588	95.25
508.805	98.25
509.021	113.25
509.238	108.25
509.454	112.25
509.67	87.25
509.887	115.25
510.103	142.25
510.319	215.25
510.536	796.25
510.752	2785.25
510.968	760.25
511.184	160.25
511.401	125.25
511.617	118.25
511.833	93.25
512.049	103.25
512.265	104.25
512.481	103.25
512.698	97.25
512.914	113.25
513.13	68.25
513.346	108.25
513.562	102.25
