Data from Circ_2005_H10_HRD10591_00082.txt Node
Date: Wed Jan 03 10:30:07 EST 2024
User: Yrep
Spectrometer: HR+D1059
Trigger mode: 1
Integration Time (sec): 1.000000E-1
Scans to average: 1
Electric dark correction enabled: true
Nonlinearity correction enabled: false
Boxcar width: 0
XAxis mode: Wavelengths
Number of Pixels in Spectrum: 2048
>>>>>Begin Spectral Data<<<<<
223.165	-16.25
223.4	-16.25
223.635	-16.25
223.869	-10.25
224.104	-19.25
224.338	-9.25
224.573	-0.25
224.808	-15.25
225.042	-10.25
225.277	-10.25
225.511	4.75
225.746	22.75
225.98	-3.25
226.215	-3.25
226.449	19.75
226.683	5.75
226.918	14.75
227.152	29.75
227.387	28.75
227.621	38.75
227.856	59.75
228.09	57.75
228.324	47.75
228.559	58.75
228.793	70.75
229.027	70.75
229.262	66.75
229.496	79.75
229.73	81.75
229.964	78.75
230.199	71.75
230.433	75.75
230.667	75.75
230.901	79.75
231.136	84.75
231.37	89.75
231.604	89.75
231.838	79.75
232.072	74.75
232.306	67.75
232.541	96.75
232.775	79.75
233.009	83.75
233.243	84.75
233.477	77.75
233.711	89.75
233.945	88.75
234.179	82.75
234.413	86.75
234.647	80.75
234.881	98.75
235.115	84.75
235.349	86.75
235.583	85.75
235.817	89.75
236.051	83.75
236.285	74.75
236.519	80.75
236.753	75.75
236.987	76.75
237.221	74.75
237.455	73.75
237.689	71.75
237.922	80.75
238.156	85.75
238.39	78.75
238.624	75.75
238.858	71.75
239.091	82.75
239.325	84.75
239.559	88.75
239.793	92.75
240.027	76.75
240.26	82.75
240.494	83.75
240.728	85.75
240.961	75.75
241.195	89.75
241.429	81.75
241.662	74.75
241.896	79.75
242.13	82.75
242.363	89.75
242.597	88.75
242.83	78.75
243.064	72.75
243.298	74.75
243.531	70.75
243.765	82.75
243.998	84.75
244.232	86.75
244.465	73.75
244.699	81.75
244.932	80.75
245.166	84.75
245.399	70.75
245.633	87.75
245.866	77.75
246.099	89.75
246.333	63.75
246.566	83.75
246.8	84.75
247.033	79.75
247.266	91.75
247.5	78.75
247.733	71.75
247.966	77.75
248.2	98.75
248.433	83.75
248.666	88.75
248.899	86.75
249.133	95.75
249.366	92.75
249.599	86.75
249.832	82.75
250.066	88.75
250.299	82.75
250.532	76.75
250.765	69.75
250.998	78.75
251.231	92.75
251.465	82.75
251.698	90.75
251.931	78.75
252.164	67.75
252.397	89.75
252.63	71.75
252.863	87.75
253.096	102.75
253.329	92.75
253.562	79.75
253.795	100.75
254.028	78.75
254.261	68.75
254.494	87.75
254.727	87.75
254.96	96.75
255.193	78.75
255.426	69.75
255.659	96.75
255.892	82.75
256.124	82.75
256.357	92.75
256.59	82.75
256.823	94.75
257.056	74.75
257.289	81.75
257.521	83.75
257.754	71.75
257.987	84.75
258.22	83.75
258.452	87.75
258.685	83.75
258.918	79.75
259.151	86.75
259.383	86.75
259.616	79.75
259.849	82.75
260.081	90.75
260.314	77.75
260.547	85.75
260.779	95.75
261.012	94.75
261.244	78.75
261.477	94.75
261.71	101.75
261.942	101.75
262.175	112.75
262.407	73.75
262.64	82.75
262.872	86.75
263.105	99.75
263.337	80.75
263.57	91.75
263.802	92.75
264.035	87.75
264.267	78.75
264.499	81.75
264.732	88.75
264.964	74.75
265.197	79.75
265.429	90.75
265.661	86.75
265.894	82.75
266.126	76.75
266.358	84.75
266.591	80.75
266.823	81.75
267.055	79.75
267.287	87.75
267.52	79.75
267.752	83.75
267.984	77.75
268.216	94.75
268.448	83.75
268.681	95.75
268.913	71.75
269.145	64.75
269.377	92.75
269.609	91.75
269.841	92.75
270.073	98.75
270.306	71.75
270.538	69.75
270.77	94.75
271.002	92.75
271.234	93.75
271.466	90.75
271.698	80.75
271.93	74.75
272.162	91.75
272.394	90.75
272.626	81.75
272.858	66.75
273.09	93.75
273.322	80.75
273.553	92.75
273.785	97.75
274.017	89.75
274.249	83.75
274.481	91.75
274.713	84.75
274.945	99.75
275.176	93.75
275.408	90.75
275.64	91.75
275.872	102.75
276.104	81.75
276.335	81.75
276.567	91.75
276.799	99.75
277.031	100.75
277.262	95.75
277.494	78.75
277.726	73.75
277.957	85.75
278.189	72.75
278.421	101.75
278.652	92.75
278.884	82.75
279.115	82.75
279.347	87.75
279.579	84.75
279.81	81.75
280.042	90.75
280.273	91.75
280.505	77.75
280.736	91.75
280.968	98.75
281.199	103.75
281.431	85.75
281.662	85.75
281.894	90.75
282.125	113.75
282.356	95.75
282.588	123.75
282.819	103.75
283.051	99.75
283.282	101.75
283.513	90.75
283.745	85.75
283.976	96.75
284.207	83.75
284.439	92.75
284.67	94.75
284.901	99.75
285.132	93.75
285.364	85.75
285.595	86.75
285.826	90.75
286.057	90.75
286.288	88.75
286.52	85.75
286.751	94.75
286.982	86.75
287.213	86.75
287.444	80.75
287.675	88.75
287.906	92.75
288.138	75.75
288.369	92.75
288.6	95.75
288.831	93.75
289.062	92.75
289.293	98.75
289.524	78.75
289.755	90.75
289.986	98.75
290.217	87.75
290.448	86.75
290.679	89.75
290.91	94.75
291.141	87.75
291.371	89.75
291.602	74.75
291.833	81.75
292.064	88.75
292.295	89.75
292.526	91.75
292.757	91.75
292.987	94.75
293.218	74.75
293.449	90.75
293.68	98.75
293.91	85.75
294.141	97.75
294.372	86.75
294.603	91.75
294.833	87.75
295.064	89.75
295.295	84.75
295.525	88.75
295.756	104.75
295.987	100.75
296.217	123.75
296.448	110.75
296.679	80.75
296.909	100.75
297.14	91.75
297.37	100.75
297.601	81.75
297.831	84.75
298.062	90.75
298.292	91.75
298.523	98.75
298.753	86.75
298.984	89.75
299.214	101.75
299.445	99.75
299.675	96.75
299.905	99.75
300.136	79.75
300.366	82.75
300.597	84.75
300.827	84.75
301.057	92.75
301.288	92.75
301.518	92.75
301.748	98.75
301.979	103.75
302.209	89.75
302.439	90.75
302.669	97.75
302.9	89.75
303.13	102.75
303.36	115.75
303.59	103.75
303.82	95.75
304.051	83.75
304.281	91.75
304.511	97.75
304.741	83.75
304.971	102.75
305.201	92.75
305.431	107.75
305.661	85.75
305.891	97.75
306.121	104.75
306.352	102.75
306.582	101.75
306.812	107.75
307.042	85.75
307.272	92.75
307.502	95.75
307.731	94.75
307.961	93.75
308.191	99.75
308.421	78.75
308.651	94.75
308.881	94.75
309.111	88.75
309.341	105.75
309.571	95.75
309.8	107.75
310.03	91.75
310.26	82.75
310.49	91.75
310.72	97.75
310.949	111.75
311.179	100.75
311.409	90.75
311.639	104.75
311.868	108.75
312.098	105.75
312.328	88.75
312.557	100.75
312.787	92.75
313.017	96.75
313.246	96.75
313.476	87.75
313.706	95.75
313.935	89.75
314.165	94.75
314.394	98.75
314.624	111.75
314.853	102.75
315.083	82.75
315.312	92.75
315.542	86.75
315.771	89.75
316.001	99.75
316.23	96.75
316.46	90.75
316.689	80.75
316.919	87.75
317.148	103.75
317.377	89.75
317.607	97.75
317.836	94.75
318.065	83.75
318.295	98.75
318.524	101.75
318.753	93.75
318.983	91.75
319.212	82.75
319.441	93.75
319.67	87.75
319.9	102.75
320.129	87.75
320.358	92.75
320.587	98.75
320.816	91.75
321.046	108.75
321.275	93.75
321.504	82.75
321.733	114.75
321.962	98.75
322.191	99.75
322.42	111.75
322.649	108.75
322.878	115.75
323.108	105.75
323.337	116.75
323.566	133.75
323.795	155.75
324.024	180.75
324.253	334.75
324.482	728.75
324.71	1456.75
324.939	1918.75
325.168	731.75
325.397	217.75
325.626	138.75
325.855	135.75
326.084	118.75
326.313	127.75
326.542	148.75
326.77	204.75
326.999	404.75
327.228	838.75
327.457	1488.75
327.686	1195.75
327.914	342.75
328.143	190.75
328.372	165.75
328.6	132.75
328.829	103.75
329.058	122.75
329.287	107.75
329.515	118.75
329.744	119.75
329.972	127.75
330.201	162.75
330.43	204.75
330.658	148.75
330.887	132.75
331.115	99.75
331.344	97.75
331.572	116.75
331.801	112.75
332.03	95.75
332.258	100.75
332.486	84.75
332.715	91.75
332.943	98.75
333.172	97.75
333.4	105.75
333.629	110.75
333.857	110.75
334.085	122.75
334.314	153.75
334.542	228.75
334.771	212.75
334.999	136.75
335.227	103.75
335.455	94.75
335.684	107.75
335.912	97.75
336.14	83.75
336.369	106.75
336.597	102.75
336.825	94.75
337.053	97.75
337.281	91.75
337.51	95.75
337.738	101.75
337.966	103.75
338.194	76.75
338.422	90.75
338.65	86.75
338.878	90.75
339.106	92.75
339.334	92.75
339.562	87.75
339.79	85.75
340.018	92.75
340.246	88.75
340.474	89.75
340.702	91.75
340.93	88.75
341.158	86.75
341.386	106.75
341.614	86.75
341.842	96.75
342.07	92.75
342.298	83.75
342.526	98.75
342.754	82.75
342.981	88.75
343.209	93.75
343.437	98.75
343.665	99.75
343.893	80.75
344.12	98.75
344.348	99.75
344.576	77.75
344.804	90.75
345.031	81.75
345.259	85.75
345.487	106.75
345.714	84.75
345.942	92.75
346.17	91.75
346.397	80.75
346.625	100.75
346.853	101.75
347.08	91.75
347.308	97.75
347.535	87.75
347.763	112.75
347.99	94.75
348.218	97.75
348.445	93.75
348.673	97.75
348.9	96.75
349.128	83.75
349.355	106.75
349.583	87.75
349.81	117.75
350.037	95.75
350.265	92.75
350.492	104.75
350.72	103.75
350.947	103.75
351.174	100.75
351.402	106.75
351.629	102.75
351.856	99.75
352.083	105.75
352.311	102.75
352.538	109.75
352.765	117.75
352.992	113.75
353.22	112.75
353.447	89.75
353.674	92.75
353.901	103.75
354.128	106.75
354.355	99.75
354.583	103.75
354.81	100.75
355.037	98.75
355.264	92.75
355.491	108.75
355.718	88.75
355.945	99.75
356.172	93.75
356.399	86.75
356.626	98.75
356.853	99.75
357.08	80.75
357.307	99.75
357.534	92.75
357.761	90.75
357.988	96.75
358.215	100.75
358.441	111.75
358.668	98.75
358.895	84.75
359.122	91.75
359.349	107.75
359.576	102.75
359.802	102.75
360.029	103.75
360.256	103.75
360.483	90.75
360.709	98.75
360.936	103.75
361.163	108.75
361.39	99.75
361.616	88.75
361.843	80.75
362.07	94.75
362.296	70.75
362.523	100.75
362.749	91.75
362.976	92.75
363.203	103.75
363.429	96.75
363.656	84.75
363.882	88.75
364.109	87.75
364.335	103.75
364.562	90.75
364.788	94.75
365.015	93.75
365.241	89.75
365.468	115.75
365.694	109.75
365.92	89.75
366.147	89.75
366.373	80.75
366.599	94.75
366.826	91.75
367.052	94.75
367.278	82.75
367.505	90.75
367.731	102.75
367.957	81.75
368.184	89.75
368.41	105.75
368.636	104.75
368.862	107.75
369.089	103.75
369.315	87.75
369.541	97.75
369.767	79.75
369.993	83.75
370.219	100.75
370.445	91.75
370.672	97.75
370.898	85.75
371.124	100.75
371.35	103.75
371.576	91.75
371.802	88.75
372.028	92.75
372.254	104.75
372.48	89.75
372.706	99.75
372.932	88.75
373.158	84.75
373.384	83.75
373.61	87.75
373.835	89.75
374.061	78.75
374.287	96.75
374.513	91.75
374.739	103.75
374.965	99.75
375.191	96.75
375.416	100.75
375.642	99.75
375.868	83.75
376.094	98.75
376.319	91.75
376.545	84.75
376.771	80.75
376.997	93.75
377.222	89.75
377.448	79.75
377.674	94.75
377.899	95.75
378.125	87.75
378.35	89.75
378.576	87.75
378.802	89.75
379.027	93.75
379.253	97.75
379.478	102.75
379.704	97.75
379.929	89.75
380.155	108.75
380.38	105.75
380.606	102.75
380.831	98.75
381.057	107.75
381.282	95.75
381.507	87.75
381.733	95.75
381.958	102.75
382.184	99.75
382.409	102.75
382.634	93.75
382.86	105.75
383.085	90.75
383.31	95.75
383.535	105.75
383.761	91.75
383.986	100.75
384.211	75.75
384.436	106.75
384.662	98.75
384.887	99.75
385.112	99.75
385.337	91.75
385.562	108.75
385.787	104.75
386.013	106.75
386.238	114.75
386.463	101.75
386.688	111.75
386.913	96.75
387.138	108.75
387.363	95.75
387.588	98.75
387.813	112.75
388.038	108.75
388.263	113.75
388.488	108.75
388.713	100.75
388.938	92.75
389.163	96.75
389.387	90.75
389.612	100.75
389.837	89.75
390.062	96.75
390.287	86.75
390.512	82.75
390.736	92.75
390.961	91.75
391.186	103.75
391.411	97.75
391.636	90.75
391.86	104.75
392.085	86.75
392.31	69.75
392.534	86.75
392.759	90.75
392.984	76.75
393.208	83.75
393.433	90.75
393.658	81.75
393.882	92.75
394.107	91.75
394.331	84.75
394.556	84.75
394.78	93.75
395.005	92.75
395.229	85.75
395.454	91.75
395.678	88.75
395.903	76.75
396.127	98.75
396.352	89.75
396.576	82.75
396.801	86.75
397.025	87.75
397.249	95.75
397.474	101.75
397.698	85.75
397.922	92.75
398.147	82.75
398.371	74.75
398.595	66.75
398.82	91.75
399.044	87.75
399.268	82.75
399.492	99.75
399.717	90.75
399.941	92.75
400.165	91.75
400.389	94.75
400.613	90.75
400.837	91.75
401.062	81.75
401.286	80.75
401.51	94.75
401.734	99.75
401.958	104.75
402.182	119.75
402.406	138.75
402.63	107.75
402.854	82.75
403.078	85.75
403.302	78.75
403.526	81.75
403.75	93.75
403.974	97.75
404.198	102.75
404.422	91.75
404.645	84.75
404.869	105.75
405.093	111.75
405.317	91.75
405.541	109.75
405.765	98.75
405.988	108.75
406.212	150.75
406.436	187.75
406.66	137.75
406.883	105.75
407.107	88.75
407.331	98.75
407.555	105.75
407.778	99.75
408.002	84.75
408.226	99.75
408.449	87.75
408.673	102.75
408.896	95.75
409.12	110.75
409.344	94.75
409.567	78.75
409.791	103.75
410.014	87.75
410.238	83.75
410.461	103.75
410.685	90.75
410.908	82.75
411.132	96.75
411.355	103.75
411.578	98.75
411.802	98.75
412.025	76.75
412.249	78.75
412.472	90.75
412.695	88.75
412.919	88.75
413.142	96.75
413.365	96.75
413.589	100.75
413.812	102.75
414.035	87.75
414.258	73.75
414.482	92.75
414.705	94.75
414.928	102.75
415.151	91.75
415.374	95.75
415.597	102.75
415.821	102.75
416.044	97.75
416.267	82.75
416.49	73.75
416.713	84.75
416.936	89.75
417.159	91.75
417.382	97.75
417.605	91.75
417.828	99.75
418.051	104.75
418.274	92.75
418.497	79.75
418.72	74.75
418.943	94.75
419.166	90.75
419.389	97.75
419.611	89.75
419.834	85.75
420.057	96.75
420.28	82.75
420.503	92.75
420.726	99.75
420.948	96.75
421.171	97.75
421.394	96.75
421.617	91.75
421.839	93.75
422.062	95.75
422.285	87.75
422.507	98.75
422.73	100.75
422.953	90.75
423.175	85.75
423.398	100.75
423.621	92.75
423.843	102.75
424.066	83.75
424.288	86.75
424.511	99.75
424.733	113.75
424.956	105.75
425.178	91.75
425.401	81.75
425.623	110.75
425.846	97.75
426.068	97.75
426.291	106.75
426.513	79.75
426.735	93.75
426.958	95.75
427.18	113.75
427.402	146.75
427.625	136.75
427.847	116.75
428.069	119.75
428.292	95.75
428.514	98.75
428.736	83.75
428.958	97.75
429.181	100.75
429.403	89.75
429.625	78.75
429.847	96.75
430.069	105.75
430.292	102.75
430.514	74.75
430.736	82.75
430.958	98.75
431.18	86.75
431.402	89.75
431.624	84.75
431.846	92.75
432.068	72.75
432.29	84.75
432.512	78.75
432.734	91.75
432.956	102.75
433.178	101.75
433.4	98.75
433.622	101.75
433.844	90.75
434.066	87.75
434.287	92.75
434.509	95.75
434.731	99.75
434.953	92.75
435.175	89.75
435.397	86.75
435.618	95.75
435.84	94.75
436.062	114.75
436.284	110.75
436.505	98.75
436.727	118.75
436.949	89.75
437.17	90.75
437.392	84.75
437.614	93.75
437.835	111.75
438.057	107.75
438.278	113.75
438.5	100.75
438.721	94.75
438.943	110.75
439.165	91.75
439.386	80.75
439.608	92.75
439.829	97.75
440.05	104.75
440.272	114.75
440.493	102.75
440.715	86.75
440.936	102.75
441.158	91.75
441.379	82.75
441.6	79.75
441.822	105.75
442.043	88.75
442.264	102.75
442.486	112.75
442.707	99.75
442.928	98.75
443.149	119.75
443.371	119.75
443.592	104.75
443.813	106.75
444.034	101.75
444.255	90.75
444.476	93.75
444.698	92.75
444.919	91.75
445.14	123.75
445.361	115.75
445.582	120.75
445.803	121.75
446.024	126.75
446.245	130.75
446.466	107.75
446.687	91.75
446.908	103.75
447.129	87.75
447.35	91.75
447.571	85.75
447.792	111.75
448.013	96.75
448.234	88.75
448.455	99.75
448.675	111.75
448.896	116.75
449.117	89.75
449.338	92.75
449.559	122.75
449.779	133.75
450	100.75
450.221	85.75
450.442	101.75
450.662	90.75
450.883	82.75
451.104	98.75
451.324	103.75
451.545	96.75
451.766	96.75
451.986	91.75
452.207	97.75
452.428	104.75
452.648	108.75
452.869	108.75
453.089	114.75
453.31	98.75
453.53	92.75
453.751	79.75
453.971	94.75
454.192	107.75
454.412	85.75
454.633	91.75
454.853	90.75
455.073	99.75
455.294	84.75
455.514	89.75
455.734	95.75
455.955	95.75
456.175	90.75
456.395	98.75
456.616	90.75
456.836	94.75
457.056	86.75
457.276	93.75
457.497	95.75
457.717	93.75
457.937	87.75
458.157	82.75
458.377	95.75
458.598	108.75
458.818	123.75
459.038	143.75
459.258	109.75
459.478	100.75
459.698	99.75
459.918	77.75
460.138	83.75
460.358	87.75
460.578	76.75
460.798	96.75
461.018	108.75
461.238	84.75
461.458	90.75
461.678	71.75
461.898	106.75
462.118	92.75
462.338	92.75
462.558	80.75
462.777	73.75
462.997	87.75
463.217	98.75
463.437	87.75
463.657	76.75
463.876	86.75
464.096	91.75
464.316	82.75
464.536	97.75
464.755	91.75
464.975	103.75
465.195	148.75
465.414	150.75
465.634	90.75
465.854	98.75
466.073	97.75
466.293	90.75
466.512	92.75
466.732	95.75
466.951	99.75
467.171	85.75
467.391	90.75
467.61	91.75
467.829	101.75
468.049	140.75
468.268	150.75
468.488	112.75
468.707	88.75
468.927	86.75
469.146	92.75
469.365	89.75
469.585	87.75
469.804	85.75
470.023	91.75
470.243	97.75
470.462	86.75
470.681	110.75
470.901	90.75
471.12	104.75
471.339	82.75
471.558	94.75
471.777	97.75
471.997	103.75
472.216	177.75
472.435	290.75
472.654	127.75
472.873	92.75
473.092	97.75
473.311	91.75
473.53	102.75
473.749	86.75
473.968	97.75
474.187	102.75
474.406	91.75
474.625	106.75
474.844	73.75
475.063	94.75
475.282	101.75
475.501	101.75
475.72	98.75
475.939	73.75
476.158	97.75
476.377	97.75
476.596	96.75
476.814	113.75
477.033	100.75
477.252	97.75
477.471	86.75
477.69	103.75
477.908	82.75
478.127	89.75
478.346	90.75
478.564	98.75
478.783	102.75
479.002	86.75
479.22	98.75
479.439	102.75
479.658	97.75
479.876	92.75
480.095	92.75
480.313	102.75
480.532	102.75
480.751	109.75
480.969	189.75
481.188	434.75
481.406	302.75
481.624	129.75
481.843	100.75
482.061	91.75
482.28	90.75
482.498	91.75
482.717	94.75
482.935	114.75
483.153	78.75
483.372	91.75
483.59	98.75
483.808	106.75
484.027	74.75
484.245	89.75
484.463	85.75
484.681	99.75
484.9	82.75
485.118	103.75
485.336	80.75
485.554	100.75
485.772	108.75
485.99	101.75
486.209	96.75
486.427	112.75
486.645	99.75
486.863	98.75
487.081	94.75
487.299	89.75
487.517	108.75
487.735	95.75
487.953	105.75
488.171	93.75
488.389	98.75
488.607	96.75
488.825	86.75
489.043	101.75
489.261	89.75
489.479	106.75
489.696	109.75
489.914	95.75
490.132	97.75
490.35	94.75
490.568	107.75
490.786	98.75
491.003	97.75
491.221	84.75
491.439	93.75
491.657	92.75
491.874	103.75
492.092	94.75
492.31	102.75
492.527	90.75
492.745	96.75
492.963	104.75
493.18	96.75
493.398	94.75
493.615	91.75
493.833	103.75
494.05	89.75
494.268	98.75
494.485	108.75
494.703	99.75
494.92	99.75
495.138	89.75
495.355	101.75
495.573	84.75
495.79	96.75
496.008	98.75
496.225	90.75
496.442	79.75
496.66	98.75
496.877	87.75
497.094	111.75
497.312	97.75
497.529	97.75
497.746	92.75
497.963	92.75
498.181	90.75
498.398	102.75
498.615	103.75
498.832	111.75
499.049	109.75
499.267	76.75
499.484	83.75
499.701	79.75
499.918	90.75
500.135	82.75
500.352	90.75
500.569	88.75
500.786	93.75
501.003	98.75
501.22	86.75
501.437	87.75
501.654	101.75
501.871	102.75
502.088	97.75
502.305	110.75
502.522	96.75
502.739	100.75
502.956	109.75
503.172	101.75
503.389	101.75
503.606	105.75
503.823	96.75
504.04	101.75
504.256	82.75
504.473	86.75
504.69	91.75
504.907	96.75
505.123	89.75
505.34	103.75
505.557	85.75
505.773	83.75
505.99	98.75
506.207	94.75
506.423	102.75
506.64	95.75
506.856	93.75
507.073	74.75
507.289	82.75
507.506	102.75
507.722	101.75
507.939	104.75
508.155	90.75
508.372	81.75
508.588	91.75
508.805	112.75
509.021	92.75
509.238	89.75
509.454	100.75
509.67	112.75
509.887	109.75
510.103	119.75
510.319	191.75
510.536	660.75
510.752	2023.75
510.968	580.75
511.184	152.75
511.401	99.75
511.617	88.75
511.833	99.75
512.049	84.75
512.265	103.75
512.481	83.75
512.698	86.75
512.914	97.75
513.13	96.75
513.346	86.75
513.562	105.75
513.778	91.75
513.994	83.75
514.21	91.75
514.426	108.75
514.642	123.75
514.858	119.75
515.074	138.75
