Data from Circ_2005_H10_HRD10591_00004.txt Node
Date: Wed Jan 03 10:29:51 EST 2024
User: Yrep
Spectrometer: HR+D1059
Trigger mode: 1
Integration Time (sec): 1.000000E-1
Scans to average: 1
Electric dark correction enabled: true
Nonlinearity correction enabled: false
Boxcar width: 0
XAxis mode: Wavelengths
Number of Pixels in Spectrum: 2048
>>>>>Begin Spectral Data<<<<<
223.165	-17.31
223.4	-17.31
223.635	-17.31
223.869	-23.31
224.104	-22.31
224.338	-12.31
224.573	-6.31
224.808	-10.31
225.042	-23.31
225.277	-5.31
225.511	1.69
225.746	9.69
225.98	4.69
226.215	5.69
226.449	1.69
226.683	28.69
226.918	26.69
227.152	41.69
227.387	35.69
227.621	41.69
227.856	33.69
228.09	51.69
228.324	48.69
228.559	75.69
228.793	65.69
229.027	66.69
229.262	70.69
229.496	67.69
229.73	78.69
229.964	86.69
230.199	71.69
230.433	71.69
230.667	81.69
230.901	81.69
231.136	90.69
231.37	72.69
231.604	72.69
231.838	89.69
232.072	93.69
232.306	83.69
232.541	86.69
232.775	73.69
233.009	77.69
233.243	89.69
233.477	85.69
233.711	62.69
233.945	72.69
234.179	84.69
234.413	80.69
234.647	89.69
234.881	81.69
235.115	81.69
235.349	73.69
235.583	80.69
235.817	90.69
236.051	73.69
236.285	69.69
236.519	78.69
236.753	73.69
236.987	74.69
237.221	74.69
237.455	73.69
237.689	89.69
237.922	68.69
238.156	66.69
238.39	74.69
238.624	83.69
238.858	81.69
239.091	73.69
239.325	71.69
239.559	83.69
239.793	84.69
240.027	90.69
240.26	80.69
240.494	81.69
240.728	77.69
240.961	62.69
241.195	79.69
241.429	73.69
241.662	83.69
241.896	77.69
242.13	80.69
242.363	69.69
242.597	97.69
242.83	95.69
243.064	90.69
243.298	77.69
243.531	82.69
243.765	73.69
243.998	77.69
244.232	76.69
244.465	92.69
244.699	96.69
244.932	82.69
245.166	83.69
245.399	90.69
245.633	89.69
245.866	78.69
246.099	65.69
246.333	71.69
246.566	71.69
246.8	82.69
247.033	74.69
247.266	82.69
247.5	74.69
247.733	79.69
247.966	85.69
248.2	76.69
248.433	68.69
248.666	77.69
248.899	111.69
249.133	89.69
249.366	88.69
249.599	100.69
249.832	94.69
250.066	86.69
250.299	78.69
250.532	89.69
250.765	81.69
250.998	78.69
251.231	74.69
251.465	81.69
251.698	76.69
251.931	74.69
252.164	87.69
252.397	68.69
252.63	80.69
252.863	65.69
253.096	76.69
253.329	79.69
253.562	87.69
253.795	90.69
254.028	78.69
254.261	72.69
254.494	83.69
254.727	93.69
254.96	87.69
255.193	78.69
255.426	81.69
255.659	77.69
255.892	87.69
256.124	97.69
256.357	97.69
256.59	92.69
256.823	82.69
257.056	82.69
257.289	90.69
257.521	90.69
257.754	80.69
257.987	80.69
258.22	81.69
258.452	95.69
258.685	77.69
258.918	79.69
259.151	78.69
259.383	79.69
259.616	73.69
259.849	83.69
260.081	73.69
260.314	71.69
260.547	99.69
260.779	88.69
261.012	73.69
261.244	94.69
261.477	93.69
261.71	100.69
261.942	97.69
262.175	97.69
262.407	90.69
262.64	90.69
262.872	83.69
263.105	78.69
263.337	89.69
263.57	90.69
263.802	91.69
264.035	78.69
264.267	90.69
264.499	90.69
264.732	87.69
264.964	78.69
265.197	85.69
265.429	89.69
265.661	88.69
265.894	82.69
266.126	81.69
266.358	78.69
266.591	83.69
266.823	105.69
267.055	83.69
267.287	99.69
267.52	92.69
267.752	82.69
267.984	72.69
268.216	73.69
268.448	91.69
268.681	75.69
268.913	88.69
269.145	77.69
269.377	75.69
269.609	87.69
269.841	83.69
270.073	78.69
270.306	86.69
270.538	78.69
270.77	83.69
271.002	75.69
271.234	80.69
271.466	94.69
271.698	86.69
271.93	87.69
272.162	89.69
272.394	97.69
272.626	84.69
272.858	91.69
273.09	86.69
273.322	80.69
273.553	97.69
273.785	95.69
274.017	92.69
274.249	85.69
274.481	84.69
274.713	91.69
274.945	87.69
275.176	81.69
275.408	78.69
275.64	95.69
275.872	85.69
276.104	83.69
276.335	107.69
276.567	96.69
276.799	107.69
277.031	91.69
277.262	88.69
277.494	82.69
277.726	97.69
277.957	91.69
278.189	105.69
278.421	79.69
278.652	82.69
278.884	89.69
279.115	99.69
279.347	90.69
279.579	104.69
279.81	90.69
280.042	90.69
280.273	97.69
280.505	83.69
280.736	89.69
280.968	83.69
281.199	99.69
281.431	90.69
281.662	85.69
281.894	88.69
282.125	108.69
282.356	99.69
282.588	123.69
282.819	119.69
283.051	95.69
283.282	95.69
283.513	80.69
283.745	78.69
283.976	89.69
284.207	88.69
284.439	105.69
284.67	82.69
284.901	87.69
285.132	73.69
285.364	86.69
285.595	81.69
285.826	86.69
286.057	81.69
286.288	87.69
286.52	83.69
286.751	90.69
286.982	76.69
287.213	96.69
287.444	84.69
287.675	86.69
287.906	97.69
288.138	90.69
288.369	87.69
288.6	77.69
288.831	94.69
289.062	79.69
289.293	97.69
289.524	103.69
289.755	83.69
289.986	76.69
290.217	87.69
290.448	82.69
290.679	87.69
290.91	83.69
291.141	82.69
291.371	96.69
291.602	97.69
291.833	114.69
292.064	92.69
292.295	91.69
292.526	73.69
292.757	96.69
292.987	101.69
293.218	82.69
293.449	99.69
293.68	86.69
293.91	86.69
294.141	85.69
294.372	83.69
294.603	99.69
294.833	87.69
295.064	95.69
295.295	106.69
295.525	102.69
295.756	91.69
295.987	95.69
296.217	112.69
296.448	122.69
296.679	111.69
296.909	91.69
297.14	84.69
297.37	81.69
297.601	82.69
297.831	96.69
298.062	99.69
298.292	105.69
298.523	101.69
298.753	87.69
298.984	89.69
299.214	96.69
299.445	94.69
299.675	95.69
299.905	88.69
300.136	96.69
300.366	95.69
300.597	91.69
300.827	87.69
301.057	87.69
301.288	115.69
301.518	116.69
301.748	87.69
301.979	91.69
302.209	99.69
302.439	89.69
302.669	96.69
302.9	88.69
303.13	91.69
303.36	99.69
303.59	95.69
303.82	92.69
304.051	96.69
304.281	82.69
304.511	101.69
304.741	91.69
304.971	78.69
305.201	71.69
305.431	99.69
305.661	102.69
305.891	95.69
306.121	93.69
306.352	99.69
306.582	111.69
306.812	105.69
307.042	91.69
307.272	97.69
307.502	87.69
307.731	91.69
307.961	93.69
308.191	101.69
308.421	102.69
308.651	95.69
308.881	79.69
309.111	91.69
309.341	123.69
309.571	106.69
309.8	97.69
310.03	99.69
310.26	85.69
310.49	89.69
310.72	117.69
310.949	107.69
311.179	91.69
311.409	90.69
311.639	91.69
311.868	87.69
312.098	107.69
312.328	97.69
312.557	94.69
312.787	102.69
313.017	89.69
313.246	93.69
313.476	95.69
313.706	86.69
313.935	101.69
314.165	108.69
314.394	92.69
314.624	102.69
314.853	89.69
315.083	101.69
315.312	80.69
315.542	102.69
315.771	94.69
316.001	98.69
316.23	83.69
316.46	88.69
316.689	98.69
316.919	94.69
317.148	97.69
317.377	85.69
317.607	105.69
317.836	84.69
318.065	89.69
318.295	96.69
318.524	89.69
318.753	104.69
318.983	86.69
319.212	89.69
319.441	104.69
319.67	92.69
319.9	98.69
320.129	103.69
320.358	99.69
320.587	95.69
320.816	109.69
321.046	114.69
321.275	93.69
321.504	103.69
321.733	95.69
321.962	86.69
322.191	109.69
322.42	105.69
322.649	103.69
322.878	116.69
323.108	98.69
323.337	104.69
323.566	123.69
323.795	145.69
324.024	199.69
324.253	322.69
324.482	703.69
324.71	1423.69
324.939	1897.69
325.168	688.69
325.397	230.69
325.626	137.69
325.855	119.69
326.084	111.69
326.313	130.69
326.542	134.69
326.77	215.69
326.999	405.69
327.228	800.69
327.457	1501.69
327.686	1150.69
327.914	328.69
328.143	168.69
328.372	143.69
328.6	114.69
328.829	119.69
329.058	111.69
329.287	130.69
329.515	130.69
329.744	104.69
329.972	98.69
330.201	91.69
330.43	91.69
330.658	99.69
330.887	122.69
331.115	103.69
331.344	110.69
331.572	107.69
331.801	97.69
332.03	99.69
332.258	92.69
332.486	90.69
332.715	97.69
332.943	95.69
333.172	89.69
333.4	92.69
333.629	106.69
333.857	107.69
334.085	104.69
334.314	93.69
334.542	94.69
334.771	107.69
334.999	87.69
335.227	110.69
335.455	90.69
335.684	91.69
335.912	98.69
336.14	108.69
336.369	104.69
336.597	91.69
336.825	94.69
337.053	85.69
337.281	100.69
337.51	96.69
337.738	89.69
337.966	90.69
338.194	104.69
338.422	105.69
338.65	97.69
338.878	87.69
339.106	99.69
339.334	100.69
339.562	94.69
339.79	96.69
340.018	89.69
340.246	96.69
340.474	91.69
340.702	100.69
340.93	87.69
341.158	89.69
341.386	86.69
341.614	100.69
341.842	99.69
342.07	88.69
342.298	102.69
342.526	103.69
342.754	91.69
342.981	95.69
343.209	92.69
343.437	94.69
343.665	98.69
343.893	107.69
344.12	74.69
344.348	101.69
344.576	81.69
344.804	99.69
345.031	91.69
345.259	93.69
345.487	99.69
345.714	105.69
345.942	93.69
346.17	101.69
346.397	101.69
346.625	101.69
346.853	80.69
347.08	99.69
347.308	94.69
347.535	95.69
347.763	107.69
347.99	100.69
348.218	112.69
348.445	110.69
348.673	99.69
348.9	88.69
349.128	106.69
349.355	103.69
349.583	101.69
349.81	93.69
350.037	95.69
350.265	92.69
350.492	112.69
350.72	90.69
350.947	103.69
351.174	105.69
351.402	102.69
351.629	99.69
351.856	106.69
352.083	115.69
352.311	107.69
352.538	102.69
352.765	105.69
352.992	111.69
353.22	100.69
353.447	109.69
353.674	96.69
353.901	97.69
354.128	107.69
354.355	98.69
354.583	115.69
354.81	101.69
355.037	89.69
355.264	86.69
355.491	97.69
355.718	87.69
355.945	90.69
356.172	98.69
356.399	103.69
356.626	95.69
356.853	91.69
357.08	87.69
357.307	89.69
357.534	98.69
357.761	95.69
357.988	100.69
358.215	106.69
358.441	99.69
358.668	98.69
358.895	99.69
359.122	105.69
359.349	100.69
359.576	96.69
359.802	98.69
360.029	103.69
360.256	99.69
360.483	89.69
360.709	79.69
360.936	99.69
361.163	87.69
361.39	91.69
361.616	108.69
361.843	93.69
362.07	86.69
362.296	95.69
362.523	101.69
362.749	90.69
362.976	87.69
363.203	90.69
363.429	95.69
363.656	96.69
363.882	97.69
364.109	100.69
364.335	98.69
364.562	99.69
364.788	94.69
365.015	81.69
365.241	97.69
365.468	101.69
365.694	107.69
365.92	112.69
366.147	82.69
366.373	101.69
366.599	116.69
366.826	95.69
367.052	98.69
367.278	96.69
367.505	94.69
367.731	118.69
367.957	91.69
368.184	96.69
368.41	96.69
368.636	103.69
368.862	116.69
369.089	96.69
369.315	95.69
369.541	87.69
369.767	106.69
369.993	98.69
370.219	103.69
370.445	91.69
370.672	85.69
370.898	95.69
371.124	89.69
371.35	102.69
371.576	86.69
371.802	86.69
372.028	100.69
372.254	98.69
372.48	103.69
372.706	94.69
372.932	98.69
373.158	104.69
373.384	101.69
373.61	94.69
373.835	86.69
374.061	102.69
374.287	86.69
374.513	81.69
374.739	93.69
374.965	95.69
375.191	89.69
375.416	95.69
375.642	107.69
375.868	95.69
376.094	96.69
376.319	93.69
376.545	85.69
376.771	103.69
376.997	98.69
377.222	106.69
377.448	103.69
377.674	89.69
377.899	103.69
378.125	98.69
378.35	94.69
378.576	91.69
378.802	95.69
379.027	93.69
379.253	97.69
379.478	108.69
379.704	97.69
379.929	103.69
380.155	98.69
380.38	105.69
380.606	102.69
380.831	106.69
381.057	97.69
381.282	114.69
381.507	112.69
381.733	108.69
381.958	96.69
382.184	119.69
382.409	115.69
382.634	106.69
382.86	91.69
383.085	109.69
383.31	98.69
383.535	113.69
383.761	119.69
383.986	97.69
384.211	103.69
384.436	91.69
384.662	118.69
384.887	125.69
385.112	115.69
385.337	113.69
385.562	117.69
385.787	112.69
386.013	119.69
386.238	120.69
386.463	124.69
386.688	132.69
386.913	120.69
387.138	130.69
387.363	112.69
387.588	102.69
387.813	114.69
388.038	122.69
388.263	126.69
388.488	114.69
388.713	103.69
388.938	97.69
389.163	93.69
389.387	112.69
389.612	99.69
389.837	90.69
390.062	79.69
390.287	79.69
390.512	92.69
390.736	99.69
390.961	98.69
391.186	96.69
391.411	101.69
391.636	94.69
391.86	92.69
392.085	81.69
392.31	86.69
392.534	88.69
392.759	105.69
392.984	86.69
393.208	89.69
393.433	103.69
393.658	98.69
393.882	76.69
394.107	84.69
394.331	94.69
394.556	85.69
394.78	101.69
395.005	92.69
395.229	89.69
395.454	101.69
395.678	88.69
395.903	95.69
396.127	90.69
396.352	85.69
396.576	86.69
396.801	101.69
397.025	102.69
397.249	92.69
397.474	85.69
397.698	87.69
397.922	102.69
398.147	85.69
398.371	84.69
398.595	90.69
398.82	92.69
399.044	84.69
399.268	81.69
399.492	81.69
399.717	97.69
399.941	99.69
400.165	96.69
400.389	95.69
400.613	90.69
400.837	102.69
401.062	89.69
401.286	96.69
401.51	80.69
401.734	99.69
401.958	88.69
402.182	109.69
402.406	148.69
402.63	120.69
402.854	95.69
403.078	95.69
403.302	80.69
403.526	84.69
403.75	96.69
403.974	85.69
404.198	80.69
404.422	88.69
404.645	89.69
404.869	74.69
405.093	102.69
405.317	86.69
405.541	94.69
405.765	88.69
405.988	107.69
406.212	155.69
406.436	199.69
406.66	139.69
406.883	105.69
407.107	84.69
407.331	101.69
407.555	116.69
407.778	101.69
408.002	91.69
408.226	96.69
408.449	83.69
408.673	92.69
408.896	101.69
409.12	103.69
409.344	83.69
409.567	75.69
409.791	90.69
410.014	95.69
410.238	90.69
410.461	91.69
410.685	99.69
410.908	109.69
411.132	104.69
411.355	99.69
411.578	96.69
411.802	86.69
412.025	95.69
412.249	85.69
412.472	85.69
412.695	96.69
412.919	95.69
413.142	87.69
413.365	83.69
413.589	99.69
413.812	88.69
414.035	77.69
414.258	101.69
414.482	98.69
414.705	101.69
414.928	89.69
415.151	99.69
415.374	86.69
415.597	89.69
415.821	82.69
416.044	88.69
416.267	98.69
416.49	112.69
416.713	95.69
416.936	82.69
417.159	82.69
417.382	88.69
417.605	94.69
417.828	91.69
418.051	98.69
418.274	101.69
418.497	88.69
418.72	107.69
418.943	100.69
419.166	85.69
419.389	94.69
419.611	104.69
419.834	91.69
420.057	102.69
420.28	85.69
420.503	83.69
420.726	85.69
420.948	90.69
421.171	106.69
421.394	89.69
421.617	96.69
421.839	87.69
422.062	93.69
422.285	96.69
422.507	104.69
422.73	109.69
422.953	93.69
423.175	83.69
423.398	101.69
423.621	86.69
423.843	82.69
424.066	99.69
424.288	93.69
424.511	88.69
424.733	102.69
424.956	112.69
425.178	87.69
425.401	90.69
425.623	112.69
425.846	94.69
426.068	88.69
426.291	98.69
426.513	103.69
426.735	85.69
426.958	96.69
427.18	104.69
427.402	124.69
427.625	150.69
427.847	121.69
428.069	96.69
428.292	92.69
428.514	92.69
428.736	83.69
428.958	83.69
429.181	90.69
429.403	72.69
429.625	92.69
429.847	77.69
430.069	95.69
430.292	82.69
430.514	92.69
430.736	101.69
430.958	102.69
431.18	91.69
431.402	97.69
431.624	88.69
431.846	101.69
432.068	87.69
432.29	96.69
432.512	90.69
432.734	87.69
432.956	93.69
433.178	99.69
433.4	102.69
433.622	89.69
433.844	97.69
434.066	93.69
434.287	83.69
434.509	87.69
434.731	106.69
434.953	86.69
435.175	98.69
435.397	87.69
435.618	100.69
435.84	117.69
436.062	99.69
436.284	99.69
436.505	100.69
436.727	93.69
436.949	81.69
437.17	94.69
437.392	95.69
437.614	84.69
437.835	102.69
438.057	105.69
438.278	101.69
438.5	100.69
438.721	116.69
438.943	106.69
439.165	94.69
439.386	103.69
439.608	96.69
439.829	93.69
440.05	102.69
440.272	108.69
440.493	85.69
440.715	74.69
440.936	94.69
441.158	93.69
441.379	84.69
441.6	95.69
441.822	87.69
442.043	86.69
442.264	84.69
442.486	90.69
442.707	91.69
442.928	94.69
443.149	121.69
443.371	135.69
443.592	107.69
443.813	103.69
444.034	122.69
444.255	83.69
444.476	86.69
444.698	96.69
444.919	101.69
445.14	145.69
445.361	117.69
445.582	119.69
445.803	117.69
446.024	117.69
446.245	127.69
446.466	97.69
446.687	82.69
446.908	83.69
447.129	76.69
447.35	89.69
447.571	83.69
447.792	96.69
448.013	96.69
448.234	97.69
448.455	97.69
448.675	119.69
448.896	109.69
449.117	95.69
449.338	103.69
449.559	119.69
449.779	130.69
450	94.69
450.221	96.69
450.442	98.69
450.662	108.69
450.883	87.69
451.104	92.69
451.324	98.69
451.545	91.69
451.766	90.69
451.986	89.69
452.207	92.69
452.428	91.69
452.648	86.69
452.869	107.69
453.089	107.69
453.31	104.69
453.53	90.69
453.751	88.69
453.971	97.69
454.192	110.69
454.412	88.69
454.633	96.69
454.853	94.69
455.073	90.69
455.294	104.69
455.514	94.69
455.734	94.69
455.955	84.69
456.175	99.69
456.395	77.69
456.616	87.69
456.836	90.69
457.056	94.69
457.276	87.69
457.497	73.69
457.717	88.69
457.937	88.69
458.157	103.69
458.377	100.69
458.598	105.69
458.818	147.69
459.038	127.69
459.258	97.69
459.478	82.69
459.698	69.69
459.918	91.69
460.138	93.69
460.358	78.69
460.578	78.69
460.798	82.69
461.018	95.69
461.238	88.69
461.458	90.69
461.678	94.69
461.898	99.69
462.118	90.69
462.338	85.69
462.558	91.69
462.777	95.69
462.997	82.69
463.217	80.69
463.437	94.69
463.657	85.69
463.876	97.69
464.096	107.69
464.316	100.69
464.536	74.69
464.755	97.69
464.975	113.69
465.195	123.69
465.414	143.69
465.634	90.69
465.854	78.69
466.073	91.69
466.293	98.69
466.512	92.69
466.732	83.69
466.951	94.69
467.171	96.69
467.391	88.69
467.61	96.69
467.829	98.69
468.049	90.69
468.268	92.69
468.488	99.69
468.707	89.69
468.927	96.69
469.146	85.69
469.365	79.69
469.585	81.69
469.804	96.69
470.023	99.69
470.243	98.69
470.462	97.69
470.681	106.69
470.901	90.69
471.12	95.69
471.339	84.69
471.558	89.69
471.777	77.69
471.997	82.69
472.216	92.69
472.435	100.69
472.654	75.69
472.873	89.69
473.092	96.69
473.311	91.69
473.53	85.69
473.749	102.69
473.968	88.69
474.187	97.69
474.406	87.69
474.625	94.69
474.844	84.69
475.063	72.69
475.282	98.69
475.501	86.69
475.72	91.69
475.939	86.69
476.158	85.69
476.377	89.69
476.596	97.69
476.814	97.69
477.033	91.69
477.252	90.69
477.471	91.69
477.69	87.69
477.908	66.69
478.127	87.69
478.346	89.69
478.564	98.69
478.783	99.69
479.002	98.69
479.22	97.69
479.439	82.69
479.658	103.69
479.876	88.69
480.095	91.69
480.313	80.69
480.532	99.69
480.751	91.69
480.969	103.69
481.188	113.69
481.406	95.69
481.624	110.69
481.843	91.69
482.061	82.69
482.28	79.69
482.498	88.69
482.717	87.69
482.935	105.69
483.153	84.69
483.372	83.69
483.59	89.69
483.808	92.69
484.027	106.69
484.245	89.69
484.463	95.69
484.681	101.69
484.9	80.69
485.118	99.69
485.336	106.69
485.554	96.69
485.772	88.69
485.99	99.69
486.209	114.69
486.427	108.69
486.645	118.69
486.863	112.69
487.081	105.69
487.299	93.69
487.517	76.69
487.735	95.69
487.953	79.69
488.171	93.69
488.389	101.69
488.607	84.69
488.825	91.69
489.043	99.69
489.261	86.69
489.479	97.69
489.696	106.69
489.914	76.69
490.132	80.69
490.35	94.69
490.568	77.69
490.786	81.69
491.003	101.69
491.221	79.69
491.439	88.69
491.657	82.69
491.874	89.69
492.092	86.69
492.31	102.69
492.527	85.69
492.745	98.69
492.963	87.69
493.18	90.69
493.398	92.69
493.615	103.69
493.833	107.69
494.05	86.69
494.268	81.69
494.485	99.69
494.703	94.69
494.92	96.69
495.138	105.69
495.355	91.69
495.573	84.69
495.79	97.69
496.008	85.69
496.225	80.69
496.442	87.69
496.66	89.69
496.877	94.69
497.094	93.69
497.312	94.69
497.529	90.69
497.746	93.69
497.963	90.69
498.181	85.69
498.398	102.69
498.615	103.69
498.832	104.69
499.049	88.69
499.267	86.69
499.484	91.69
499.701	80.69
499.918	87.69
500.135	100.69
500.352	102.69
500.569	94.69
500.786	92.69
501.003	90.69
501.22	76.69
501.437	88.69
501.654	92.69
501.871	103.69
502.088	95.69
502.305	103.69
502.522	93.69
502.739	104.69
502.956	102.69
503.172	104.69
503.389	99.69
503.606	90.69
503.823	100.69
504.04	99.69
504.256	84.69
504.473	94.69
504.69	81.69
504.907	93.69
505.123	94.69
505.34	92.69
505.557	98.69
505.773	82.69
505.99	98.69
506.207	97.69
506.423	90.69
506.64	92.69
506.856	92.69
507.073	92.69
507.289	99.69
507.506	89.69
507.722	103.69
507.939	98.69
508.155	101.69
508.372	84.69
508.588	89.69
508.805	99.69
509.021	88.69
509.238	105.69
509.454	98.69
509.67	109.69
509.887	121.69
510.103	123.69
510.319	199.69
510.536	596.69
510.752	1862.69
510.968	553.69
511.184	141.69
511.401	95.69
511.617	91.69
511.833	88.69
512.049	99.69
512.265	88.69
512.481	92.69
512.698	93.69
512.914	93.69
513.13	96.69
513.346	100.69
513.562	97.69
513.778	91.69
513.994	100.69
514.21	95.69
514.426	104.69
514.642	121.69
514.858	123.69
515.074	155.69
515.29	362.69
