Data from Circ_2005_H10_HRD10591_00028.txt Node
Date: Wed Jan 03 10:29:56 EST 2024
User: Yrep
Spectrometer: HR+D1059
Trigger mode: 1
Integration Time (sec): 1.000000E-1
Scans to average: 1
Electric dark correction enabled: true
Nonlinearity correction enabled: false
Boxcar width: 0
XAxis mode: Wavelengths
Number of Pixels in Spectrum: 2048
>>>>>Begin Spectral Data<<<<<
223.165	3.81
223.4	3.81
223.635	3.81
223.869	-22.19
224.104	-24.19
224.338	-14.19
224.573	-11.19
224.808	-13.19
225.042	-16.19
225.277	-13.19
225.511	-3.19
225.746	12.81
225.98	17.81
226.215	5.81
226.449	22.81
226.683	14.81
226.918	18.81
227.152	20.81
227.387	45.81
227.621	29.81
227.856	40.81
228.09	46.81
228.324	57.81
228.559	55.81
228.793	177.81
229.027	455.81
229.262	547.81
229.496	663.81
229.73	858.81
229.964	868.81
230.199	563.81
230.433	463.81
230.667	498.81
230.901	453.81
231.136	461.81
231.37	467.81
231.604	448.81
231.838	428.81
232.072	463.81
232.306	458.81
232.541	471.81
232.775	474.81
233.009	478.81
233.243	473.81
233.477	463.81
233.711	484.81
233.945	509.81
234.179	521.81
234.413	500.81
234.647	518.81
234.881	519.81
235.115	548.81
235.349	535.81
235.583	558.81
235.817	580.81
236.051	635.81
236.285	622.81
236.519	631.81
236.753	739.81
236.987	967.81
237.221	1461.81
237.455	1589.81
237.689	917.81
237.922	770.81
238.156	753.81
238.39	677.81
238.624	647.81
238.858	625.81
239.091	629.81
239.325	674.81
239.559	687.81
239.793	719.81
240.027	778.81
240.26	942.81
240.494	1007.81
240.728	970.81
240.961	926.81
241.195	822.81
241.429	797.81
241.662	745.81
241.896	751.81
242.13	777.81
242.363	772.81
242.597	809.81
242.83	855.81
243.064	838.81
243.298	824.81
243.531	806.81
243.765	832.81
243.998	844.81
244.232	818.81
244.465	887.81
244.699	923.81
244.932	899.81
245.166	892.81
245.399	881.81
245.633	922.81
245.866	906.81
246.099	905.81
246.333	934.81
246.566	957.81
246.8	965.81
247.033	1023.81
247.266	1060.81
247.5	1109.81
247.733	1162.81
247.966	1175.81
248.2	1142.81
248.433	1176.81
248.666	1220.81
248.899	1371.81
249.133	1485.81
249.366	1485.81
249.599	1380.81
249.832	1234.81
250.066	1250.81
250.299	1307.81
250.532	1437.81
250.765	1652.81
250.998	1796.81
251.231	1691.81
251.465	1488.81
251.698	1445.81
251.931	1404.81
252.164	1374.81
252.397	1416.81
252.63	1471.81
252.863	1557.81
253.096	1754.81
253.329	1770.81
253.562	1652.81
253.795	1609.81
254.028	1578.81
254.261	1632.81
254.494	1915.81
254.727	2252.81
254.96	2287.81
255.193	1954.81
255.426	1751.81
255.659	1741.81
255.892	1706.81
256.124	1730.81
256.357	1657.81
256.59	1600.81
256.823	1526.81
257.056	1503.81
257.289	1551.81
257.521	1585.81
257.754	1551.81
257.987	1539.81
258.22	1508.81
258.452	1567.81
258.685	1588.81
258.918	1594.81
259.151	1635.81
259.383	1727.81
259.616	1726.81
259.849	1795.81
260.081	2026.81
260.314	2193.81
260.547	2081.81
260.779	1873.81
261.012	1798.81
261.244	1727.81
261.477	1721.81
261.71	1733.81
261.942	1836.81
262.175	1900.81
262.407	1775.81
262.64	1647.81
262.872	1690.81
263.105	1659.81
263.337	1669.81
263.57	1724.81
263.802	1703.81
264.035	1705.81
264.267	1683.81
264.499	1710.81
264.732	1693.81
264.964	1713.81
265.197	1695.81
265.429	1706.81
265.661	1716.81
265.894	1775.81
266.126	1756.81
266.358	1775.81
266.591	1847.81
266.823	1890.81
267.055	1906.81
267.287	1950.81
267.52	1866.81
267.752	1871.81
267.984	1902.81
268.216	1947.81
268.448	1987.81
268.681	2007.81
268.913	2193.81
269.145	2433.81
269.377	2467.81
269.609	2355.81
269.841	2318.81
270.073	2466.81
270.306	2759.81
270.538	2888.81
270.77	2719.81
271.002	2566.81
271.234	2509.81
271.466	2705.81
271.698	2825.81
271.93	2866.81
272.162	2878.81
272.394	2753.81
272.626	2580.81
272.858	2349.81
273.09	2357.81
273.322	2283.81
273.553	2262.81
273.785	2245.81
274.017	2277.81
274.249	2290.81
274.481	2290.81
274.713	2329.81
274.945	2359.81
275.176	2359.81
275.408	2289.81
275.64	2323.81
275.872	2305.81
276.104	2350.81
276.335	2399.81
276.567	2519.81
276.799	2683.81
277.031	3011.81
277.262	3091.81
277.494	2882.81
277.726	2627.81
277.957	2535.81
278.189	2459.81
278.421	2460.81
278.652	2436.81
278.884	2389.81
279.115	2396.81
279.347	2426.81
279.579	2384.81
279.81	2442.81
280.042	2405.81
280.273	2461.81
280.505	2451.81
280.736	2397.81
280.968	2451.81
281.199	2404.81
281.431	2479.81
281.662	2456.81
281.894	2504.81
282.125	2620.81
282.356	2827.81
282.588	3029.81
282.819	2798.81
283.051	2591.81
283.282	2539.81
283.513	2600.81
283.745	2669.81
283.976	2656.81
284.207	2709.81
284.439	2630.81
284.67	2638.81
284.901	2672.81
285.132	2641.81
285.364	2605.81
285.595	2628.81
285.826	2698.81
286.057	2685.81
286.288	2697.81
286.52	2736.81
286.751	2725.81
286.982	2734.81
287.213	2715.81
287.444	2813.81
287.675	2825.81
287.906	2942.81
288.138	3004.81
288.369	2963.81
288.6	2951.81
288.831	2883.81
289.062	2863.81
289.293	2837.81
289.524	2801.81
289.755	2859.81
289.986	2835.81
290.217	2818.81
290.448	2859.81
290.679	2841.81
290.91	2815.81
291.141	2793.81
291.371	2798.81
291.602	2819.81
291.833	2838.81
292.064	2850.81
292.295	2859.81
292.526	2857.81
292.757	2833.81
292.987	2830.81
293.218	2782.81
293.449	2920.81
293.68	2883.81
293.91	2889.81
294.141	2829.81
294.372	2804.81
294.603	2852.81
294.833	2890.81
295.064	2942.81
295.295	2925.81
295.525	2931.81
295.756	2995.81
295.987	3117.81
296.217	3340.81
296.448	3266.81
296.679	3002.81
296.909	2980.81
297.14	2992.81
297.37	3039.81
297.601	3067.81
297.831	3026.81
298.062	3107.81
298.292	3116.81
298.523	3172.81
298.753	3161.81
298.984	3137.81
299.214	3164.81
299.445	3116.81
299.675	3159.81
299.905	3247.81
300.136	3272.81
300.366	3202.81
300.597	3200.81
300.827	3278.81
301.057	3434.81
301.288	3434.81
301.518	3376.81
301.748	3372.81
301.979	3455.81
302.209	3474.81
302.439	3404.81
302.669	3354.81
302.9	3383.81
303.13	3293.81
303.36	3339.81
303.59	3377.81
303.82	3494.81
304.051	3431.81
304.281	3309.81
304.511	3292.81
304.741	3344.81
304.971	3321.81
305.201	3298.81
305.431	3285.81
305.661	3343.81
305.891	3309.81
306.121	3350.81
306.352	3381.81
306.582	3364.81
306.812	3262.81
307.042	3293.81
307.272	3274.81
307.502	3305.81
307.731	3291.81
307.961	3351.81
308.191	3293.81
308.421	3290.81
308.651	3405.81
308.881	3375.81
309.111	3386.81
309.341	3457.81
309.571	3561.81
309.8	3586.81
310.03	3669.81
310.26	3755.81
310.49	3732.81
310.72	3915.81
310.949	4074.81
311.179	3950.81
311.409	3821.81
311.639	3817.81
311.868	3834.81
312.098	3801.81
312.328	3894.81
312.557	4157.81
312.787	4220.81
313.017	4035.81
313.246	3890.81
313.476	3798.81
313.706	3924.81
313.935	4016.81
314.165	4132.81
314.394	4190.81
314.624	4089.81
314.853	4030.81
315.083	3885.81
315.312	3836.81
315.542	3805.81
315.771	3771.81
316.001	3789.81
316.23	3714.81
316.46	3700.81
316.689	3816.81
316.919	3894.81
317.148	3911.81
317.377	3886.81
317.607	3829.81
317.836	3790.81
318.065	3778.81
318.295	3749.81
318.524	3789.81
318.753	3773.81
318.983	3784.81
319.212	3745.81
319.441	3897.81
319.67	3868.81
319.9	3795.81
320.129	3763.81
320.358	3788.81
320.587	3822.81
320.816	3952.81
321.046	4001.81
321.275	3909.81
321.504	3973.81
321.733	3959.81
321.962	4060.81
322.191	4196.81
322.42	4356.81
322.649	4494.81
322.878	4558.81
323.108	4627.81
323.337	4906.81
323.566	5147.81
323.795	5550.81
324.024	6293.81
324.253	8676.81
324.482	13140.81
324.71	15607.81
324.939	15607.81
325.168	14537.81
325.397	7560.81
325.626	5782.81
325.855	5259.81
326.084	5143.81
326.313	5149.81
326.542	5332.81
326.77	6219.81
326.999	8278.81
327.228	12333.81
327.457	15607.81
327.686	15301.81
327.914	8519.81
328.143	6642.81
328.372	6254.81
328.6	5932.81
328.829	5765.81
329.058	6113.81
329.287	6009.81
329.515	5394.81
329.744	5146.81
329.972	5307.81
330.201	5551.81
330.43	6009.81
330.658	6314.81
330.887	6689.81
331.115	6031.81
331.344	5284.81
331.572	5170.81
331.801	5278.81
332.03	5275.81
332.258	5186.81
332.486	5169.81
332.715	5152.81
332.943	5331.81
333.172	5478.81
333.4	5595.81
333.629	5777.81
333.857	5897.81
334.085	5859.81
334.314	5987.81
334.542	6169.81
334.771	6144.81
334.999	5614.81
335.227	5380.81
335.455	5327.81
335.684	5168.81
335.912	5129.81
336.14	5019.81
336.369	5065.81
336.597	5136.81
336.825	5101.81
337.053	4963.81
337.281	4879.81
337.51	4811.81
337.738	4898.81
337.966	4822.81
338.194	4809.81
338.422	4764.81
338.65	4642.81
338.878	4642.81
339.106	4683.81
339.334	4582.81
339.562	4562.81
339.79	4431.81
340.018	4542.81
340.246	4563.81
340.474	4502.81
340.702	4501.81
340.93	4542.81
341.158	4491.81
341.386	4553.81
341.614	4547.81
341.842	4456.81
342.07	4415.81
342.298	4379.81
342.526	4422.81
342.754	4354.81
342.981	4382.81
343.209	4451.81
343.437	4654.81
343.665	4902.81
343.893	5154.81
344.12	5197.81
344.348	4958.81
344.576	4871.81
344.804	4831.81
345.031	4827.81
345.259	4746.81
345.487	4629.81
345.714	4516.81
345.942	4370.81
346.17	4362.81
346.397	4350.81
346.625	4300.81
346.853	4325.81
347.08	4333.81
347.308	4378.81
347.535	4528.81
347.763	4568.81
347.99	4402.81
348.218	4466.81
348.445	4530.81
348.673	4417.81
348.9	4319.81
349.128	4227.81
349.355	4142.81
349.583	4154.81
349.81	4164.81
350.037	4162.81
350.265	4180.81
350.492	4080.81
350.72	4181.81
350.947	4225.81
351.174	4297.81
351.402	4438.81
351.629	4338.81
351.856	4320.81
352.083	4442.81
352.311	4548.81
352.538	4520.81
352.765	4373.81
352.992	4368.81
353.22	4285.81
353.447	4273.81
353.674	4153.81
353.901	4089.81
354.128	4101.81
354.355	4039.81
354.583	4021.81
354.81	4048.81
355.037	4048.81
355.264	3982.81
355.491	4037.81
355.718	3987.81
355.945	3999.81
356.172	3986.81
356.399	3948.81
356.626	3992.81
356.853	3996.81
357.08	3959.81
357.307	3956.81
357.534	3952.81
357.761	4021.81
357.988	4059.81
358.215	4020.81
358.441	4086.81
358.668	4074.81
358.895	4163.81
359.122	4183.81
359.349	4262.81
359.576	4487.81
359.802	4722.81
360.029	5030.81
360.256	5030.81
360.483	4692.81
360.709	4337.81
360.936	4306.81
361.163	4365.81
361.39	4423.81
361.616	4379.81
361.843	4351.81
362.07	4400.81
362.296	4415.81
362.523	4311.81
362.749	4385.81
362.976	4304.81
363.203	4159.81
363.429	4115.81
363.656	4147.81
363.882	4128.81
364.109	4066.81
364.335	4025.81
364.562	4053.81
364.788	4061.81
365.015	4115.81
365.241	4139.81
365.468	4170.81
365.694	4278.81
365.92	4205.81
366.147	4123.81
366.373	4098.81
366.599	4121.81
366.826	4118.81
367.052	4078.81
367.278	4102.81
367.505	4113.81
367.731	4200.81
367.957	4188.81
368.184	4169.81
368.41	4281.81
368.636	4351.81
368.862	4337.81
369.089	4245.81
369.315	4207.81
369.541	4225.81
369.767	4237.81
369.993	4188.81
370.219	4217.81
370.445	4288.81
370.672	4242.81
370.898	4214.81
371.124	4291.81
371.35	4332.81
371.576	4335.81
371.802	4373.81
372.028	4235.81
372.254	4307.81
372.48	4381.81
372.706	4515.81
372.932	4535.81
373.158	4441.81
373.384	4415.81
373.61	4342.81
373.835	4369.81
374.061	4442.81
374.287	4507.81
374.513	4521.81
374.739	4666.81
374.965	4787.81
375.191	4735.81
375.416	4641.81
375.642	4495.81
375.868	4526.81
376.094	4467.81
376.319	4421.81
376.545	4387.81
376.771	4393.81
376.997	4398.81
377.222	4373.81
377.448	4362.81
377.674	4283.81
377.899	4292.81
378.125	4299.81
378.35	4282.81
378.576	4255.81
378.802	4267.81
379.027	4294.81
379.253	4320.81
379.478	4257.81
379.704	4315.81
379.929	4336.81
380.155	4361.81
380.38	4390.81
380.606	4389.81
380.831	4333.81
381.057	4427.81
381.282	4406.81
381.507	4358.81
381.733	4421.81
381.958	4442.81
382.184	4539.81
382.409	4537.81
382.634	4580.81
382.86	4576.81
383.085	4628.81
383.31	4678.81
383.535	4801.81
383.761	4739.81
383.986	4838.81
384.211	4954.81
384.436	5019.81
384.662	5051.81
384.887	5117.81
385.112	5156.81
385.337	5202.81
385.562	5196.81
385.787	5248.81
386.013	5392.81
386.238	5345.81
386.463	5338.81
386.688	5301.81
386.913	5161.81
387.138	5207.81
387.363	5141.81
387.588	5095.81
387.813	5169.81
388.038	5130.81
388.263	5182.81
388.488	5175.81
388.713	5174.81
388.938	5122.81
389.163	5133.81
389.387	5125.81
389.612	5065.81
389.837	4978.81
390.062	5044.81
390.287	5105.81
390.512	5023.81
390.736	5129.81
390.961	5242.81
391.186	5261.81
391.411	5457.81
391.636	5599.81
391.86	5743.81
392.085	5851.81
392.31	5612.81
392.534	5537.81
392.759	5439.81
392.984	5420.81
393.208	5400.81
393.433	5349.81
393.658	5297.81
393.882	5382.81
394.107	5281.81
394.331	5445.81
394.556	5357.81
394.78	5446.81
395.005	5459.81
395.229	5476.81
395.454	5703.81
395.678	5728.81
395.903	5838.81
396.127	5804.81
396.352	5621.81
396.576	5468.81
396.801	5395.81
397.025	5555.81
397.249	5638.81
397.474	5803.81
397.698	5872.81
397.922	5917.81
398.147	6033.81
398.371	6124.81
398.595	6250.81
398.82	6566.81
399.044	7137.81
399.268	7758.81
399.492	8910.81
399.717	9534.81
399.941	9377.81
400.165	8669.81
400.389	8061.81
400.613	7338.81
400.837	6904.81
401.062	6697.81
401.286	6554.81
401.51	6593.81
401.734	6428.81
401.958	6587.81
402.182	6769.81
402.406	6954.81
402.63	6833.81
402.854	7114.81
403.078	6978.81
403.302	7246.81
403.526	7315.81
403.75	7316.81
403.974	7449.81
404.198	7367.81
404.422	7521.81
404.645	7443.81
404.869	7404.81
405.093	7737.81
405.317	7763.81
405.541	7898.81
405.765	7328.81
405.988	7304.81
406.212	7515.81
406.436	7787.81
406.66	7933.81
406.883	7868.81
407.107	8367.81
407.331	8983.81
407.555	9401.81
407.778	9073.81
408.002	8321.81
408.226	7855.81
408.449	7794.81
408.673	7570.81
408.896	7822.81
409.12	8100.81
409.344	7586.81
409.567	7114.81
409.791	7187.81
410.014	6976.81
410.238	6953.81
410.461	7020.81
410.685	7004.81
410.908	7200.81
411.132	7400.81
411.355	7432.81
411.578	7078.81
411.802	6689.81
412.025	6832.81
412.249	6944.81
412.472	7104.81
412.695	7154.81
412.919	6764.81
413.142	6588.81
413.365	6518.81
413.589	6527.81
413.812	6333.81
414.035	6288.81
414.258	6380.81
414.482	6365.81
414.705	6509.81
414.928	6364.81
415.151	6437.81
415.374	6430.81
415.597	6330.81
415.821	6220.81
416.044	6289.81
416.267	6236.81
416.49	6206.81
416.713	6176.81
416.936	6282.81
417.159	6241.81
417.382	6441.81
417.605	6365.81
417.828	6513.81
418.051	6710.81
418.274	6499.81
418.497	6411.81
418.72	6509.81
418.943	6491.81
419.166	6857.81
419.389	7177.81
419.611	7045.81
419.834	6902.81
420.057	6860.81
420.28	6655.81
420.503	6432.81
420.726	6491.81
420.948	6666.81
421.171	7152.81
421.394	7059.81
421.617	6493.81
421.839	6466.81
422.062	6569.81
422.285	6852.81
422.507	7463.81
422.73	8084.81
422.953	7359.81
423.175	7080.81
423.398	7058.81
423.621	6997.81
423.843	7359.81
424.066	7226.81
424.288	7115.81
424.511	7343.81
424.733	7927.81
424.956	8402.81
425.178	7893.81
425.401	8028.81
425.623	7868.81
425.846	6819.81
426.068	6733.81
426.291	6606.81
426.513	6605.81
426.735	6719.81
426.958	7185.81
427.18	8205.81
427.402	9430.81
427.625	9663.81
427.847	8187.81
428.069	7186.81
428.292	6642.81
428.514	6167.81
428.736	6077.81
428.958	6025.81
429.181	5845.81
429.403	5866.81
429.625	6011.81
429.847	6426.81
430.069	7021.81
430.292	6486.81
430.514	5871.81
430.736	5825.81
430.958	5764.81
431.18	5625.81
431.402	5619.81
431.624	5654.81
431.846	5756.81
432.068	5746.81
432.29	5890.81
432.512	5779.81
432.734	5924.81
432.956	5821.81
433.178	5893.81
433.4	6005.81
433.622	5770.81
433.844	5795.81
434.066	5761.81
434.287	5885.81
434.509	6170.81
434.731	6295.81
434.953	6564.81
435.175	6628.81
435.397	6779.81
435.618	6666.81
435.84	7128.81
436.062	8123.81
436.284	7944.81
436.505	6614.81
436.727	6393.81
436.949	6038.81
437.17	5865.81
437.392	5906.81
437.614	6081.81
437.835	6601.81
438.057	7718.81
438.278	8341.81
438.5	8145.81
438.721	9023.81
438.943	7829.81
439.165	6586.81
439.386	6390.81
439.608	6392.81
439.829	6495.81
440.05	7056.81
440.272	7479.81
440.493	6698.81
440.715	6271.81
440.936	6194.81
441.158	6186.81
441.379	6293.81
441.6	6722.81
441.822	6963.81
442.043	7487.81
442.264	8278.81
442.486	7966.81
442.707	7061.81
442.928	6883.81
443.149	7230.81
443.371	7418.81
443.592	7883.81
443.813	8966.81
444.034	8903.81
444.255	7706.81
444.476	7365.81
444.698	7561.81
444.919	7592.81
445.14	7520.81
445.361	7485.81
445.582	7709.81
445.803	8509.81
446.024	9305.81
446.245	8758.81
446.466	7647.81
446.687	6603.81
446.908	6302.81
447.129	5918.81
447.35	5739.81
447.571	5732.81
447.792	5677.81
448.013	5754.81
448.234	6023.81
448.455	6742.81
448.675	8013.81
448.896	8495.81
449.117	6922.81
449.338	7195.81
449.559	8690.81
449.779	8746.81
450	6701.81
450.221	5889.81
450.442	5640.81
450.662	5640.81
450.883	5770.81
451.104	5990.81
451.324	5694.81
451.545	5410.81
451.766	5361.81
451.986	5177.81
452.207	5161.81
452.428	5138.81
452.648	5162.81
452.869	5245.81
453.089	5317.81
453.31	5391.81
453.53	5142.81
453.751	5084.81
453.971	5237.81
454.192	5406.81
454.412	5161.81
454.633	5032.81
454.853	4977.81
455.073	5042.81
455.294	5515.81
455.514	6180.81
455.734	5509.81
455.955	4871.81
456.175	4791.81
456.395	4764.81
456.616	4645.81
456.836	4710.81
457.056	4630.81
457.276	4643.81
457.497	4799.81
457.717	4766.81
457.937	4876.81
458.157	4940.81
458.377	5073.81
458.598	5508.81
458.818	6462.81
459.038	7280.81
459.258	6988.81
459.478	6057.81
459.698	5890.81
459.918	5889.81
460.138	6101.81
460.358	6345.81
460.578	6236.81
460.798	6466.81
461.018	6395.81
461.238	6290.81
461.458	6193.81
461.678	6211.81
461.898	6350.81
462.118	6375.81
462.338	6746.81
462.558	6882.81
462.777	7118.81
462.997	7708.81
463.217	7974.81
463.437	7838.81
463.657	7286.81
463.876	7110.81
464.096	7246.81
464.316	7211.81
464.536	7193.81
464.755	7103.81
464.975	6987.81
465.195	7450.81
465.414	7749.81
465.634	6543.81
465.854	6125.81
466.073	5780.81
466.293	5587.81
466.512	5386.81
466.732	5263.81
466.951	5314.81
467.171	5215.81
467.391	5356.81
467.61	5501.81
467.829	5496.81
468.049	5341.81
468.268	5274.81
468.488	5078.81
468.707	5044.81
468.927	5043.81
469.146	4995.81
469.365	5078.81
469.585	5117.81
469.804	5341.81
470.023	5532.81
470.243	5519.81
470.462	5602.81
470.681	5838.81
470.901	5655.81
471.12	5473.81
471.339	5441.81
471.558	5337.81
471.777	5297.81
471.997	5073.81
472.216	5212.81
472.435	5523.81
472.654	5289.81
472.873	5021.81
473.092	5000.81
473.311	5023.81
473.53	5126.81
473.749	5298.81
473.968	5865.81
474.187	6908.81
474.406	6416.81
474.625	5416.81
474.844	5133.81
475.063	5053.81
475.282	5092.81
475.501	5099.81
475.72	5181.81
475.939	5172.81
476.158	5192.81
476.377	5213.81
476.596	5259.81
476.814	5469.81
477.033	5471.81
477.252	5580.81
477.471	5563.81
477.69	5703.81
477.908	5749.81
478.127	5987.81
478.346	5998.81
478.564	6099.81
478.783	6231.81
479.002	6410.81
479.22	6369.81
479.439	6483.81
479.658	6710.81
479.876	6705.81
480.095	6927.81
480.313	7308.81
480.532	7181.81
480.751	7075.81
480.969	7038.81
481.188	7461.81
481.406	7233.81
481.624	6702.81
481.843	6318.81
482.061	6176.81
482.28	6061.81
482.498	5981.81
482.717	5951.81
482.935	6014.81
483.153	5878.81
483.372	5965.81
483.59	5901.81
483.808	5951.81
484.027	5962.81
484.245	6028.81
484.463	6054.81
484.681	6037.81
484.9	6118.81
485.118	6232.81
485.336	6287.81
485.554	6309.81
485.772	6334.81
485.99	6326.81
486.209	6393.81
486.427	6435.81
486.645	6583.81
486.863	6746.81
487.081	6586.81
487.299	6436.81
487.517	6371.81
487.735	6305.81
487.953	6326.81
