Data from Circ_2005_H10_HRD10591_00005.txt Node
Date: Wed Jan 03 10:29:52 EST 2024
User: Yrep
Spectrometer: HR+D1059
Trigger mode: 1
Integration Time (sec): 1.000000E-1
Scans to average: 1
Electric dark correction enabled: true
Nonlinearity correction enabled: false
Boxcar width: 0
XAxis mode: Wavelengths
Number of Pixels in Spectrum: 2048
>>>>>Begin Spectral Data<<<<<
223.165	-25.31
223.4	-25.31
223.635	-25.31
223.869	-21.31
224.104	-18.31
224.338	-18.31
224.573	-15.31
224.808	-10.31
225.042	-7.31
225.277	-2.31
225.511	-3.31
225.746	11.69
225.98	14.69
226.215	6.69
226.449	29.69
226.683	17.69
226.918	24.69
227.152	16.69
227.387	32.69
227.621	42.69
227.856	55.69
228.09	48.69
228.324	44.69
228.559	46.69
228.793	60.69
229.027	72.69
229.262	64.69
229.496	58.69
229.73	77.69
229.964	81.69
230.199	83.69
230.433	68.69
230.667	80.69
230.901	72.69
231.136	61.69
231.37	88.69
231.604	69.69
231.838	73.69
232.072	91.69
232.306	90.69
232.541	85.69
232.775	89.69
233.009	78.69
233.243	88.69
233.477	81.69
233.711	84.69
233.945	82.69
234.179	76.69
234.413	78.69
234.647	83.69
234.881	81.69
235.115	87.69
235.349	81.69
235.583	84.69
235.817	75.69
236.051	80.69
236.285	84.69
236.519	80.69
236.753	81.69
236.987	79.69
237.221	80.69
237.455	77.69
237.689	77.69
237.922	74.69
238.156	84.69
238.39	80.69
238.624	68.69
238.858	76.69
239.091	76.69
239.325	71.69
239.559	80.69
239.793	88.69
240.027	89.69
240.26	77.69
240.494	78.69
240.728	79.69
240.961	70.69
241.195	75.69
241.429	83.69
241.662	76.69
241.896	78.69
242.13	85.69
242.363	73.69
242.597	85.69
242.83	73.69
243.064	92.69
243.298	66.69
243.531	79.69
243.765	81.69
243.998	82.69
244.232	73.69
244.465	86.69
244.699	77.69
244.932	79.69
245.166	77.69
245.399	77.69
245.633	86.69
245.866	68.69
246.099	78.69
246.333	77.69
246.566	69.69
246.8	88.69
247.033	81.69
247.266	81.69
247.5	84.69
247.733	79.69
247.966	88.69
248.2	93.69
248.433	74.69
248.666	77.69
248.899	87.69
249.133	78.69
249.366	94.69
249.599	92.69
249.832	85.69
250.066	66.69
250.299	75.69
250.532	64.69
250.765	73.69
250.998	78.69
251.231	87.69
251.465	95.69
251.698	88.69
251.931	80.69
252.164	66.69
252.397	89.69
252.63	96.69
252.863	92.69
253.096	86.69
253.329	87.69
253.562	89.69
253.795	83.69
254.028	81.69
254.261	86.69
254.494	84.69
254.727	76.69
254.96	79.69
255.193	78.69
255.426	73.69
255.659	80.69
255.892	75.69
256.124	75.69
256.357	100.69
256.59	90.69
256.823	83.69
257.056	81.69
257.289	83.69
257.521	71.69
257.754	80.69
257.987	79.69
258.22	78.69
258.452	82.69
258.685	93.69
258.918	85.69
259.151	88.69
259.383	80.69
259.616	93.69
259.849	81.69
260.081	81.69
260.314	89.69
260.547	85.69
260.779	88.69
261.012	83.69
261.244	81.69
261.477	95.69
261.71	96.69
261.942	103.69
262.175	109.69
262.407	88.69
262.64	94.69
262.872	85.69
263.105	70.69
263.337	69.69
263.57	80.69
263.802	93.69
264.035	87.69
264.267	73.69
264.499	71.69
264.732	87.69
264.964	79.69
265.197	84.69
265.429	92.69
265.661	85.69
265.894	74.69
266.126	87.69
266.358	79.69
266.591	64.69
266.823	91.69
267.055	85.69
267.287	74.69
267.52	81.69
267.752	83.69
267.984	76.69
268.216	88.69
268.448	82.69
268.681	97.69
268.913	89.69
269.145	80.69
269.377	87.69
269.609	80.69
269.841	86.69
270.073	81.69
270.306	86.69
270.538	80.69
270.77	87.69
271.002	89.69
271.234	80.69
271.466	88.69
271.698	96.69
271.93	102.69
272.162	88.69
272.394	84.69
272.626	92.69
272.858	86.69
273.09	89.69
273.322	90.69
273.553	101.69
273.785	67.69
274.017	88.69
274.249	95.69
274.481	85.69
274.713	84.69
274.945	85.69
275.176	89.69
275.408	90.69
275.64	81.69
275.872	95.69
276.104	79.69
276.335	83.69
276.567	90.69
276.799	110.69
277.031	97.69
277.262	89.69
277.494	93.69
277.726	88.69
277.957	91.69
278.189	78.69
278.421	75.69
278.652	77.69
278.884	80.69
279.115	84.69
279.347	92.69
279.579	94.69
279.81	79.69
280.042	83.69
280.273	78.69
280.505	81.69
280.736	84.69
280.968	78.69
281.199	87.69
281.431	96.69
281.662	86.69
281.894	86.69
282.125	90.69
282.356	114.69
282.588	112.69
282.819	109.69
283.051	86.69
283.282	104.69
283.513	90.69
283.745	88.69
283.976	80.69
284.207	81.69
284.439	87.69
284.67	95.69
284.901	91.69
285.132	86.69
285.364	95.69
285.595	82.69
285.826	82.69
286.057	83.69
286.288	88.69
286.52	89.69
286.751	90.69
286.982	78.69
287.213	89.69
287.444	91.69
287.675	75.69
287.906	87.69
288.138	85.69
288.369	77.69
288.6	99.69
288.831	93.69
289.062	95.69
289.293	87.69
289.524	92.69
289.755	76.69
289.986	81.69
290.217	91.69
290.448	90.69
290.679	98.69
290.91	83.69
291.141	99.69
291.371	96.69
291.602	76.69
291.833	104.69
292.064	78.69
292.295	91.69
292.526	92.69
292.757	98.69
292.987	90.69
293.218	84.69
293.449	83.69
293.68	84.69
293.91	87.69
294.141	101.69
294.372	92.69
294.603	96.69
294.833	85.69
295.064	96.69
295.295	93.69
295.525	88.69
295.756	101.69
295.987	115.69
296.217	123.69
296.448	118.69
296.679	100.69
296.909	106.69
297.14	100.69
297.37	77.69
297.601	86.69
297.831	66.69
298.062	89.69
298.292	81.69
298.523	72.69
298.753	91.69
298.984	94.69
299.214	85.69
299.445	94.69
299.675	95.69
299.905	79.69
300.136	93.69
300.366	88.69
300.597	84.69
300.827	87.69
301.057	90.69
301.288	94.69
301.518	90.69
301.748	82.69
301.979	101.69
302.209	95.69
302.439	89.69
302.669	85.69
302.9	92.69
303.13	100.69
303.36	93.69
303.59	90.69
303.82	95.69
304.051	111.69
304.281	87.69
304.511	90.69
304.741	71.69
304.971	87.69
305.201	80.69
305.431	96.69
305.661	98.69
305.891	99.69
306.121	87.69
306.352	106.69
306.582	93.69
306.812	91.69
307.042	93.69
307.272	88.69
307.502	84.69
307.731	95.69
307.961	86.69
308.191	102.69
308.421	99.69
308.651	97.69
308.881	92.69
309.111	83.69
309.341	90.69
309.571	102.69
309.8	84.69
310.03	96.69
310.26	100.69
310.49	97.69
310.72	103.69
310.949	99.69
311.179	101.69
311.409	94.69
311.639	94.69
311.868	79.69
312.098	90.69
312.328	83.69
312.557	102.69
312.787	98.69
313.017	99.69
313.246	98.69
313.476	96.69
313.706	81.69
313.935	98.69
314.165	108.69
314.394	102.69
314.624	100.69
314.853	97.69
315.083	91.69
315.312	82.69
315.542	96.69
315.771	100.69
316.001	82.69
316.23	88.69
316.46	81.69
316.689	89.69
316.919	88.69
317.148	73.69
317.377	98.69
317.607	98.69
317.836	93.69
318.065	103.69
318.295	87.69
318.524	83.69
318.753	102.69
318.983	93.69
319.212	109.69
319.441	105.69
319.67	116.69
319.9	98.69
320.129	105.69
320.358	104.69
320.587	101.69
320.816	103.69
321.046	94.69
321.275	97.69
321.504	92.69
321.733	85.69
321.962	80.69
322.191	94.69
322.42	82.69
322.649	106.69
322.878	123.69
323.108	114.69
323.337	115.69
323.566	128.69
323.795	116.69
324.024	208.69
324.253	371.69
324.482	758.69
324.71	1536.69
324.939	2077.69
325.168	771.69
325.397	229.69
325.626	160.69
325.855	124.69
326.084	129.69
326.313	127.69
326.542	162.69
326.77	226.69
326.999	426.69
327.228	906.69
327.457	1635.69
327.686	1252.69
327.914	345.69
328.143	174.69
328.372	135.69
328.6	120.69
328.829	115.69
329.058	103.69
329.287	122.69
329.515	102.69
329.744	106.69
329.972	128.69
330.201	108.69
330.43	108.69
330.658	93.69
330.887	129.69
331.115	112.69
331.344	112.69
331.572	107.69
331.801	98.69
332.03	103.69
332.258	105.69
332.486	90.69
332.715	95.69
332.943	84.69
333.172	91.69
333.4	93.69
333.629	98.69
333.857	105.69
334.085	109.69
334.314	108.69
334.542	111.69
334.771	103.69
334.999	102.69
335.227	103.69
335.455	94.69
335.684	108.69
335.912	88.69
336.14	83.69
336.369	96.69
336.597	93.69
336.825	99.69
337.053	92.69
337.281	101.69
337.51	97.69
337.738	94.69
337.966	107.69
338.194	88.69
338.422	82.69
338.65	80.69
338.878	87.69
339.106	96.69
339.334	98.69
339.562	84.69
339.79	87.69
340.018	87.69
340.246	79.69
340.474	97.69
340.702	98.69
340.93	90.69
341.158	104.69
341.386	122.69
341.614	102.69
341.842	102.69
342.07	104.69
342.298	95.69
342.526	92.69
342.754	84.69
342.981	98.69
343.209	96.69
343.437	95.69
343.665	101.69
343.893	89.69
344.12	98.69
344.348	90.69
344.576	103.69
344.804	93.69
345.031	97.69
345.259	92.69
345.487	90.69
345.714	92.69
345.942	83.69
346.17	89.69
346.397	93.69
346.625	89.69
346.853	97.69
347.08	94.69
347.308	96.69
347.535	102.69
347.763	106.69
347.99	100.69
348.218	104.69
348.445	106.69
348.673	97.69
348.9	109.69
349.128	93.69
349.355	90.69
349.583	95.69
349.81	100.69
350.037	92.69
350.265	88.69
350.492	95.69
350.72	85.69
350.947	104.69
351.174	103.69
351.402	110.69
351.629	99.69
351.856	95.69
352.083	101.69
352.311	99.69
352.538	114.69
352.765	114.69
352.992	117.69
353.22	120.69
353.447	103.69
353.674	109.69
353.901	100.69
354.128	97.69
354.355	96.69
354.583	105.69
354.81	112.69
355.037	100.69
355.264	91.69
355.491	93.69
355.718	106.69
355.945	100.69
356.172	94.69
356.399	92.69
356.626	84.69
356.853	104.69
357.08	79.69
357.307	111.69
357.534	98.69
357.761	101.69
357.988	105.69
358.215	107.69
358.441	97.69
358.668	107.69
358.895	97.69
359.122	90.69
359.349	115.69
359.576	106.69
359.802	97.69
360.029	101.69
360.256	101.69
360.483	106.69
360.709	82.69
360.936	81.69
361.163	64.69
361.39	89.69
361.616	87.69
361.843	86.69
362.07	84.69
362.296	97.69
362.523	89.69
362.749	115.69
362.976	92.69
363.203	91.69
363.429	83.69
363.656	86.69
363.882	77.69
364.109	93.69
364.335	77.69
364.562	89.69
364.788	100.69
365.015	94.69
365.241	85.69
365.468	105.69
365.694	106.69
365.92	106.69
366.147	95.69
366.373	85.69
366.599	84.69
366.826	93.69
367.052	98.69
367.278	98.69
367.505	92.69
367.731	91.69
367.957	93.69
368.184	80.69
368.41	97.69
368.636	105.69
368.862	109.69
369.089	118.69
369.315	92.69
369.541	95.69
369.767	83.69
369.993	100.69
370.219	85.69
370.445	94.69
370.672	96.69
370.898	89.69
371.124	109.69
371.35	93.69
371.576	103.69
371.802	95.69
372.028	92.69
372.254	86.69
372.48	101.69
372.706	95.69
372.932	79.69
373.158	89.69
373.384	79.69
373.61	90.69
373.835	90.69
374.061	96.69
374.287	93.69
374.513	82.69
374.739	111.69
374.965	88.69
375.191	99.69
375.416	97.69
375.642	85.69
375.868	99.69
376.094	90.69
376.319	93.69
376.545	92.69
376.771	100.69
376.997	93.69
377.222	89.69
377.448	102.69
377.674	94.69
377.899	90.69
378.125	100.69
378.35	103.69
378.576	97.69
378.802	98.69
379.027	95.69
379.253	81.69
379.478	96.69
379.704	112.69
379.929	100.69
380.155	92.69
380.38	103.69
380.606	98.69
380.831	110.69
381.057	105.69
381.282	108.69
381.507	109.69
381.733	104.69
381.958	110.69
382.184	113.69
382.409	112.69
382.634	106.69
382.86	114.69
383.085	111.69
383.31	93.69
383.535	118.69
383.761	110.69
383.986	112.69
384.211	99.69
384.436	118.69
384.662	117.69
384.887	118.69
385.112	124.69
385.337	121.69
385.562	128.69
385.787	119.69
386.013	124.69
386.238	119.69
386.463	114.69
386.688	135.69
386.913	126.69
387.138	117.69
387.363	130.69
387.588	107.69
387.813	116.69
388.038	112.69
388.263	134.69
388.488	129.69
388.713	95.69
388.938	107.69
389.163	103.69
389.387	94.69
389.612	101.69
389.837	99.69
390.062	96.69
390.287	80.69
390.512	81.69
390.736	104.69
390.961	81.69
391.186	96.69
391.411	80.69
391.636	96.69
391.86	102.69
392.085	91.69
392.31	85.69
392.534	84.69
392.759	85.69
392.984	87.69
393.208	96.69
393.433	96.69
393.658	92.69
393.882	93.69
394.107	96.69
394.331	86.69
394.556	85.69
394.78	88.69
395.005	92.69
395.229	100.69
395.454	92.69
395.678	90.69
395.903	89.69
396.127	80.69
396.352	93.69
396.576	90.69
396.801	100.69
397.025	91.69
397.249	79.69
397.474	101.69
397.698	99.69
397.922	101.69
398.147	98.69
398.371	90.69
398.595	109.69
398.82	96.69
399.044	76.69
399.268	85.69
399.492	82.69
399.717	98.69
399.941	104.69
400.165	100.69
400.389	88.69
400.613	90.69
400.837	97.69
401.062	93.69
401.286	95.69
401.51	98.69
401.734	91.69
401.958	90.69
402.182	109.69
402.406	151.69
402.63	113.69
402.854	100.69
403.078	78.69
403.302	99.69
403.526	103.69
403.75	78.69
403.974	97.69
404.198	95.69
404.422	91.69
404.645	85.69
404.869	83.69
405.093	93.69
405.317	79.69
405.541	96.69
405.765	89.69
405.988	101.69
406.212	142.69
406.436	204.69
406.66	122.69
406.883	113.69
407.107	86.69
407.331	87.69
407.555	93.69
407.778	112.69
408.002	87.69
408.226	97.69
408.449	88.69
408.673	92.69
408.896	85.69
409.12	89.69
409.344	80.69
409.567	103.69
409.791	110.69
410.014	94.69
410.238	103.69
410.461	96.69
410.685	96.69
410.908	97.69
411.132	103.69
411.355	90.69
411.578	98.69
411.802	103.69
412.025	101.69
412.249	86.69
412.472	89.69
412.695	90.69
412.919	83.69
413.142	77.69
413.365	92.69
413.589	78.69
413.812	109.69
414.035	105.69
414.258	93.69
414.482	97.69
414.705	83.69
414.928	104.69
415.151	80.69
415.374	112.69
415.597	87.69
415.821	97.69
416.044	97.69
416.267	89.69
416.49	101.69
416.713	88.69
416.936	102.69
417.159	84.69
417.382	90.69
417.605	105.69
417.828	103.69
418.051	87.69
418.274	81.69
418.497	99.69
418.72	88.69
418.943	90.69
419.166	87.69
419.389	84.69
419.611	105.69
419.834	90.69
420.057	101.69
420.28	71.69
420.503	81.69
420.726	89.69
420.948	100.69
421.171	88.69
421.394	100.69
421.617	97.69
421.839	98.69
422.062	104.69
422.285	88.69
422.507	106.69
422.73	116.69
422.953	110.69
423.175	86.69
423.398	81.69
423.621	94.69
423.843	105.69
424.066	86.69
424.288	72.69
424.511	85.69
424.733	90.69
424.956	102.69
425.178	95.69
425.401	105.69
425.623	96.69
425.846	100.69
426.068	110.69
426.291	101.69
426.513	87.69
426.735	97.69
426.958	85.69
427.18	104.69
427.402	137.69
427.625	130.69
427.847	123.69
428.069	87.69
428.292	95.69
428.514	93.69
428.736	96.69
428.958	75.69
429.181	86.69
429.403	89.69
429.625	86.69
429.847	75.69
430.069	92.69
430.292	97.69
430.514	105.69
430.736	102.69
430.958	84.69
431.18	90.69
431.402	85.69
431.624	93.69
431.846	80.69
432.068	89.69
432.29	108.69
432.512	83.69
432.734	95.69
432.956	94.69
433.178	89.69
433.4	93.69
433.622	85.69
433.844	78.69
434.066	95.69
434.287	103.69
434.509	88.69
434.731	93.69
434.953	97.69
435.175	87.69
435.397	84.69
435.618	108.69
435.84	103.69
436.062	131.69
436.284	105.69
436.505	94.69
436.727	102.69
436.949	102.69
437.17	89.69
437.392	88.69
437.614	92.69
437.835	109.69
438.057	98.69
438.278	99.69
438.5	96.69
438.721	129.69
438.943	110.69
439.165	92.69
439.386	88.69
439.608	105.69
439.829	104.69
440.05	118.69
440.272	143.69
440.493	89.69
440.715	92.69
440.936	106.69
441.158	74.69
441.379	96.69
441.6	96.69
441.822	87.69
442.043	102.69
442.264	113.69
442.486	111.69
442.707	107.69
442.928	94.69
443.149	129.69
443.371	118.69
443.592	104.69
443.813	102.69
444.034	115.69
444.255	97.69
444.476	96.69
444.698	90.69
444.919	81.69
445.14	124.69
445.361	116.69
445.582	109.69
445.803	125.69
446.024	125.69
446.245	113.69
446.466	100.69
446.687	98.69
446.908	96.69
447.129	85.69
447.35	86.69
447.571	99.69
447.792	96.69
448.013	95.69
448.234	106.69
448.455	104.69
448.675	115.69
448.896	122.69
449.117	88.69
449.338	102.69
449.559	127.69
449.779	143.69
450	96.69
450.221	84.69
450.442	98.69
450.662	109.69
450.883	106.69
451.104	94.69
451.324	92.69
451.545	108.69
451.766	97.69
451.986	84.69
452.207	94.69
452.428	80.69
452.648	98.69
452.869	100.69
453.089	101.69
453.31	95.69
453.53	102.69
453.751	94.69
453.971	99.69
454.192	100.69
454.412	80.69
454.633	86.69
454.853	85.69
455.073	97.69
455.294	109.69
455.514	91.69
455.734	86.69
455.955	85.69
456.175	82.69
456.395	83.69
456.616	86.69
456.836	81.69
457.056	90.69
457.276	91.69
457.497	89.69
457.717	97.69
457.937	97.69
458.157	85.69
458.377	95.69
458.598	106.69
458.818	131.69
459.038	138.69
459.258	128.69
459.478	95.69
459.698	94.69
459.918	88.69
460.138	74.69
460.358	83.69
460.578	93.69
460.798	92.69
461.018	85.69
461.238	95.69
461.458	82.69
461.678	88.69
461.898	90.69
462.118	94.69
462.338	76.69
462.558	80.69
462.777	72.69
462.997	74.69
463.217	83.69
463.437	84.69
463.657	73.69
463.876	85.69
464.096	103.69
464.316	101.69
464.536	98.69
464.755	88.69
464.975	89.69
465.195	152.69
465.414	143.69
465.634	95.69
465.854	87.69
466.073	90.69
466.293	81.69
466.512	76.69
466.732	99.69
466.951	85.69
467.171	94.69
467.391	108.69
467.61	92.69
467.829	94.69
468.049	88.69
468.268	90.69
468.488	84.69
468.707	96.69
468.927	75.69
469.146	76.69
469.365	81.69
469.585	95.69
469.804	107.69
470.023	92.69
470.243	78.69
470.462	86.69
470.681	99.69
470.901	86.69
471.12	95.69
471.339	86.69
471.558	89.69
471.777	78.69
471.997	80.69
472.216	102.69
472.435	108.69
472.654	86.69
472.873	84.69
473.092	83.69
473.311	85.69
473.53	85.69
473.749	81.69
473.968	87.69
474.187	115.69
474.406	94.69
474.625	96.69
474.844	106.69
475.063	90.69
475.282	93.69
475.501	94.69
475.72	79.69
475.939	78.69
476.158	70.69
476.377	79.69
476.596	93.69
476.814	96.69
477.033	97.69
477.252	88.69
477.471	79.69
477.69	91.69
477.908	97.69
478.127	106.69
478.346	101.69
478.564	101.69
478.783	98.69
479.002	93.69
479.22	87.69
479.439	87.69
479.658	77.69
479.876	90.69
480.095	98.69
480.313	101.69
480.532	101.69
480.751	97.69
480.969	110.69
481.188	107.69
481.406	91.69
481.624	91.69
481.843	85.69
482.061	89.69
482.28	94.69
482.498	92.69
482.717	104.69
482.935	121.69
483.153	93.69
483.372	77.69
483.59	82.69
483.808	90.69
484.027	93.69
484.245	93.69
484.463	98.69
484.681	91.69
484.9	105.69
485.118	107.69
485.336	92.69
485.554	102.69
485.772	117.69
485.99	108.69
486.209	107.69
486.427	112.69
486.645	106.69
486.863	94.69
487.081	110.69
487.299	92.69
487.517	89.69
487.735	107.69
487.953	94.69
488.171	97.69
488.389	89.69
488.607	103.69
488.825	103.69
489.043	90.69
489.261	95.69
489.479	100.69
489.696	84.69
489.914	95.69
490.132	86.69
490.35	85.69
490.568	93.69
490.786	77.69
491.003	68.69
491.221	86.69
491.439	84.69
491.657	96.69
491.874	86.69
492.092	87.69
492.31	90.69
492.527	87.69
492.745	88.69
492.963	87.69
493.18	95.69
493.398	91.69
493.615	109.69
493.833	100.69
494.05	91.69
494.268	99.69
494.485	95.69
494.703	101.69
494.92	85.69
495.138	96.69
495.355	97.69
495.573	99.69
495.79	82.69
496.008	100.69
496.225	99.69
496.442	89.69
496.66	88.69
496.877	108.69
497.094	91.69
497.312	101.69
497.529	90.69
497.746	93.69
497.963	80.69
498.181	98.69
498.398	89.69
498.615	92.69
498.832	113.69
499.049	99.69
499.267	88.69
499.484	95.69
499.701	83.69
499.918	94.69
500.135	96.69
500.352	94.69
500.569	83.69
500.786	86.69
501.003	88.69
501.22	91.69
501.437	101.69
501.654	101.69
501.871	96.69
502.088	84.69
502.305	89.69
502.522	95.69
502.739	110.69
502.956	101.69
503.172	105.69
503.389	89.69
503.606	98.69
503.823	93.69
504.04	88.69
504.256	95.69
504.473	96.69
504.69	100.69
504.907	99.69
505.123	86.69
505.34	97.69
505.557	93.69
505.773	97.69
505.99	101.69
506.207	100.69
506.423	77.69
506.64	93.69
506.856	91.69
507.073	85.69
507.289	91.69
507.506	94.69
507.722	110.69
507.939	99.69
508.155	100.69
508.372	79.69
508.588	88.69
508.805	85.69
509.021	109.69
509.238	105.69
509.454	98.69
509.67	93.69
509.887	90.69
510.103	120.69
510.319	180.69
510.536	606.69
510.752	1991.69
510.968	590.69
511.184	148.69
511.401	114.69
511.617	97.69
511.833	101.69
512.049	89.69
512.265	103.69
512.481	104.69
512.698	89.69
512.914	93.69
513.13	89.69
513.346	79.69
513.562	90.69
513.778	89.69
513.994	106.69
514.21	112.69
514.426	109.69
514.642	121.69
514.858	115.69
