Data from Circ_2005_H10_HRD10591_00013.txt Node
Date: Wed Jan 03 10:29:53 EST 2024
User: Yrep
Spectrometer: HR+D1059
Trigger mode: 1
Integration Time (sec): 1.000000E-1
Scans to average: 1
Electric dark correction enabled: true
Nonlinearity correction enabled: false
Boxcar width: 0
XAxis mode: Wavelengths
Number of Pixels in Spectrum: 2048
>>>>>Begin Spectral Data<<<<<
223.165	-18.5
223.4	-18.5
223.635	-18.5
223.869	-17.5
224.104	-18.5
224.338	-1.5
224.573	-17.5
224.808	-16.5
225.042	2.5
225.277	-13.5
225.511	4.5
225.746	-9.5
225.98	6.5
226.215	10.5
226.449	8.5
226.683	13.5
226.918	23.5
227.152	43.5
227.387	26.5
227.621	38.5
227.856	40.5
228.09	42.5
228.324	38.5
228.559	50.5
228.793	54.5
229.027	75.5
229.262	62.5
229.496	91.5
229.73	95.5
229.964	92.5
230.199	77.5
230.433	69.5
230.667	88.5
230.901	87.5
231.136	75.5
231.37	84.5
231.604	78.5
231.838	88.5
232.072	80.5
232.306	92.5
232.541	85.5
232.775	91.5
233.009	82.5
233.243	82.5
233.477	71.5
233.711	81.5
233.945	81.5
234.179	76.5
234.413	94.5
234.647	76.5
234.881	79.5
235.115	81.5
235.349	86.5
235.583	81.5
235.817	75.5
236.051	91.5
236.285	78.5
236.519	83.5
236.753	81.5
236.987	87.5
237.221	88.5
237.455	89.5
237.689	91.5
237.922	89.5
238.156	75.5
238.39	83.5
238.624	74.5
238.858	80.5
239.091	85.5
239.325	73.5
239.559	81.5
239.793	79.5
240.027	72.5
240.26	84.5
240.494	80.5
240.728	92.5
240.961	81.5
241.195	78.5
241.429	64.5
241.662	76.5
241.896	85.5
242.13	80.5
242.363	72.5
242.597	83.5
242.83	87.5
243.064	82.5
243.298	78.5
243.531	62.5
243.765	68.5
243.998	80.5
244.232	84.5
244.465	89.5
244.699	86.5
244.932	72.5
245.166	92.5
245.399	91.5
245.633	78.5
245.866	74.5
246.099	87.5
246.333	85.5
246.566	88.5
246.8	72.5
247.033	78.5
247.266	70.5
247.5	98.5
247.733	69.5
247.966	73.5
248.2	95.5
248.433	74.5
248.666	70.5
248.899	75.5
249.133	89.5
249.366	103.5
249.599	112.5
249.832	94.5
250.066	94.5
250.299	79.5
250.532	62.5
250.765	84.5
250.998	91.5
251.231	90.5
251.465	80.5
251.698	89.5
251.931	71.5
252.164	86.5
252.397	77.5
252.63	77.5
252.863	84.5
253.096	83.5
253.329	85.5
253.562	83.5
253.795	71.5
254.028	88.5
254.261	87.5
254.494	88.5
254.727	81.5
254.96	72.5
255.193	81.5
255.426	71.5
255.659	85.5
255.892	70.5
256.124	76.5
256.357	84.5
256.59	90.5
256.823	84.5
257.056	81.5
257.289	86.5
257.521	90.5
257.754	77.5
257.987	79.5
258.22	97.5
258.452	88.5
258.685	76.5
258.918	95.5
259.151	79.5
259.383	90.5
259.616	79.5
259.849	75.5
260.081	86.5
260.314	84.5
260.547	73.5
260.779	81.5
261.012	80.5
261.244	88.5
261.477	81.5
261.71	95.5
261.942	107.5
262.175	128.5
262.407	96.5
262.64	87.5
262.872	81.5
263.105	80.5
263.337	102.5
263.57	80.5
263.802	95.5
264.035	89.5
264.267	75.5
264.499	78.5
264.732	81.5
264.964	88.5
265.197	73.5
265.429	85.5
265.661	92.5
265.894	86.5
266.126	80.5
266.358	79.5
266.591	86.5
266.823	92.5
267.055	91.5
267.287	90.5
267.52	74.5
267.752	86.5
267.984	83.5
268.216	94.5
268.448	95.5
268.681	86.5
268.913	90.5
269.145	87.5
269.377	86.5
269.609	102.5
269.841	90.5
270.073	84.5
270.306	75.5
270.538	107.5
270.77	90.5
271.002	97.5
271.234	87.5
271.466	89.5
271.698	81.5
271.93	83.5
272.162	85.5
272.394	88.5
272.626	99.5
272.858	89.5
273.09	79.5
273.322	91.5
273.553	90.5
273.785	89.5
274.017	97.5
274.249	95.5
274.481	83.5
274.713	72.5
274.945	92.5
275.176	83.5
275.408	78.5
275.64	75.5
275.872	71.5
276.104	87.5
276.335	93.5
276.567	106.5
276.799	113.5
277.031	122.5
277.262	102.5
277.494	87.5
277.726	83.5
277.957	89.5
278.189	88.5
278.421	92.5
278.652	79.5
278.884	83.5
279.115	83.5
279.347	81.5
279.579	87.5
279.81	78.5
280.042	83.5
280.273	96.5
280.505	76.5
280.736	89.5
280.968	86.5
281.199	86.5
281.431	82.5
281.662	87.5
281.894	75.5
282.125	91.5
282.356	124.5
282.588	160.5
282.819	118.5
283.051	86.5
283.282	87.5
283.513	91.5
283.745	90.5
283.976	89.5
284.207	84.5
284.439	82.5
284.67	86.5
284.901	92.5
285.132	80.5
285.364	83.5
285.595	79.5
285.826	90.5
286.057	98.5
286.288	96.5
286.52	91.5
286.751	94.5
286.982	81.5
287.213	92.5
287.444	86.5
287.675	104.5
287.906	90.5
288.138	107.5
288.369	97.5
288.6	106.5
288.831	95.5
289.062	91.5
289.293	95.5
289.524	92.5
289.755	92.5
289.986	92.5
290.217	94.5
290.448	88.5
290.679	89.5
290.91	87.5
291.141	84.5
291.371	101.5
291.602	96.5
291.833	73.5
292.064	86.5
292.295	81.5
292.526	98.5
292.757	90.5
292.987	79.5
293.218	88.5
293.449	104.5
293.68	97.5
293.91	98.5
294.141	100.5
294.372	78.5
294.603	84.5
294.833	90.5
295.064	79.5
295.295	96.5
295.525	96.5
295.756	104.5
295.987	126.5
296.217	151.5
296.448	138.5
296.679	112.5
296.909	107.5
297.14	85.5
297.37	99.5
297.601	92.5
297.831	88.5
298.062	102.5
298.292	85.5
298.523	87.5
298.753	89.5
298.984	84.5
299.214	83.5
299.445	92.5
299.675	105.5
299.905	82.5
300.136	90.5
300.366	101.5
300.597	94.5
300.827	97.5
301.057	106.5
301.288	104.5
301.518	101.5
301.748	93.5
301.979	113.5
302.209	86.5
302.439	91.5
302.669	99.5
302.9	83.5
303.13	88.5
303.36	92.5
303.59	109.5
303.82	120.5
304.051	105.5
304.281	102.5
304.511	86.5
304.741	92.5
304.971	92.5
305.201	93.5
305.431	80.5
305.661	87.5
305.891	83.5
306.121	104.5
306.352	103.5
306.582	120.5
306.812	112.5
307.042	97.5
307.272	90.5
307.502	107.5
307.731	101.5
307.961	84.5
308.191	94.5
308.421	87.5
308.651	91.5
308.881	100.5
309.111	98.5
309.341	92.5
309.571	106.5
309.8	97.5
310.03	98.5
310.26	100.5
310.49	97.5
310.72	108.5
310.949	92.5
311.179	110.5
311.409	91.5
311.639	100.5
311.868	90.5
312.098	93.5
312.328	119.5
312.557	100.5
312.787	104.5
313.017	103.5
313.246	88.5
313.476	90.5
313.706	104.5
313.935	88.5
314.165	103.5
314.394	89.5
314.624	105.5
314.853	97.5
315.083	100.5
315.312	111.5
315.542	105.5
315.771	109.5
316.001	110.5
316.23	99.5
316.46	95.5
316.689	97.5
316.919	93.5
317.148	102.5
317.377	95.5
317.607	119.5
317.836	107.5
318.065	98.5
318.295	100.5
318.524	85.5
318.753	100.5
318.983	95.5
319.212	97.5
319.441	110.5
319.67	103.5
319.9	102.5
320.129	111.5
320.358	99.5
320.587	99.5
320.816	98.5
321.046	99.5
321.275	107.5
321.504	94.5
321.733	101.5
321.962	104.5
322.191	105.5
322.42	113.5
322.649	112.5
322.878	114.5
323.108	126.5
323.337	133.5
323.566	153.5
323.795	173.5
324.024	224.5
324.253	460.5
324.482	968.5
324.71	2089.5
324.939	2794.5
325.168	987.5
325.397	283.5
325.626	176.5
325.855	146.5
326.084	135.5
326.313	142.5
326.542	177.5
326.77	258.5
326.999	533.5
327.228	1107.5
327.457	2119.5
327.686	1673.5
327.914	420.5
328.143	214.5
328.372	172.5
328.6	128.5
328.829	128.5
329.058	136.5
329.287	147.5
329.515	130.5
329.744	103.5
329.972	111.5
330.201	99.5
330.43	113.5
330.658	123.5
330.887	146.5
331.115	130.5
331.344	112.5
331.572	107.5
331.801	110.5
332.03	100.5
332.258	99.5
332.486	96.5
332.715	97.5
332.943	101.5
333.172	102.5
333.4	97.5
333.629	107.5
333.857	123.5
334.085	105.5
334.314	97.5
334.542	104.5
334.771	109.5
334.999	91.5
335.227	117.5
335.455	90.5
335.684	101.5
335.912	112.5
336.14	97.5
336.369	100.5
336.597	98.5
336.825	108.5
337.053	94.5
337.281	103.5
337.51	90.5
337.738	98.5
337.966	94.5
338.194	97.5
338.422	106.5
338.65	93.5
338.878	84.5
339.106	97.5
339.334	101.5
339.562	91.5
339.79	94.5
340.018	89.5
340.246	89.5
340.474	103.5
340.702	89.5
340.93	92.5
341.158	99.5
341.386	98.5
341.614	115.5
341.842	96.5
342.07	97.5
342.298	104.5
342.526	87.5
342.754	89.5
342.981	111.5
343.209	109.5
343.437	95.5
343.665	97.5
343.893	92.5
344.12	102.5
344.348	91.5
344.576	95.5
344.804	95.5
345.031	93.5
345.259	110.5
345.487	104.5
345.714	121.5
345.942	99.5
346.17	91.5
346.397	90.5
346.625	107.5
346.853	94.5
347.08	102.5
347.308	101.5
347.535	104.5
347.763	106.5
347.99	107.5
348.218	105.5
348.445	117.5
348.673	100.5
348.9	102.5
349.128	88.5
349.355	95.5
349.583	106.5
349.81	94.5
350.037	90.5
350.265	107.5
350.492	91.5
350.72	101.5
350.947	123.5
351.174	103.5
351.402	121.5
351.629	110.5
351.856	116.5
352.083	99.5
352.311	107.5
352.538	116.5
352.765	120.5
352.992	118.5
353.22	123.5
353.447	99.5
353.674	113.5
353.901	94.5
354.128	104.5
354.355	100.5
354.583	103.5
354.81	100.5
355.037	99.5
355.264	88.5
355.491	103.5
355.718	102.5
355.945	99.5
356.172	98.5
356.399	79.5
356.626	89.5
356.853	98.5
357.08	86.5
357.307	106.5
357.534	88.5
357.761	105.5
357.988	107.5
358.215	89.5
358.441	99.5
358.668	101.5
358.895	102.5
359.122	105.5
359.349	110.5
359.576	102.5
359.802	104.5
360.029	122.5
360.256	134.5
360.483	111.5
360.709	90.5
360.936	96.5
361.163	97.5
361.39	105.5
361.616	89.5
361.843	97.5
362.07	98.5
362.296	118.5
362.523	103.5
362.749	92.5
362.976	90.5
363.203	91.5
363.429	99.5
363.656	105.5
363.882	89.5
364.109	101.5
364.335	76.5
364.562	99.5
364.788	108.5
365.015	97.5
365.241	117.5
365.468	120.5
365.694	116.5
365.92	106.5
366.147	92.5
366.373	105.5
366.599	86.5
366.826	100.5
367.052	100.5
367.278	106.5
367.505	102.5
367.731	82.5
367.957	101.5
368.184	93.5
368.41	114.5
368.636	125.5
368.862	120.5
369.089	116.5
369.315	89.5
369.541	92.5
369.767	100.5
369.993	96.5
370.219	89.5
370.445	86.5
370.672	91.5
370.898	92.5
371.124	83.5
371.35	78.5
371.576	81.5
371.802	87.5
372.028	95.5
372.254	91.5
372.48	102.5
372.706	96.5
372.932	96.5
373.158	86.5
373.384	95.5
373.61	98.5
373.835	92.5
374.061	90.5
374.287	98.5
374.513	101.5
374.739	90.5
374.965	90.5
375.191	92.5
375.416	96.5
375.642	87.5
375.868	87.5
376.094	92.5
376.319	98.5
376.545	92.5
376.771	100.5
376.997	104.5
377.222	101.5
377.448	84.5
377.674	98.5
377.899	93.5
378.125	108.5
378.35	76.5
378.576	91.5
378.802	100.5
379.027	94.5
379.253	89.5
379.478	105.5
379.704	103.5
379.929	90.5
380.155	87.5
380.38	104.5
380.606	104.5
380.831	100.5
381.057	107.5
381.282	98.5
381.507	114.5
381.733	91.5
381.958	108.5
382.184	99.5
382.409	107.5
382.634	123.5
382.86	114.5
383.085	114.5
383.31	121.5
383.535	104.5
383.761	109.5
383.986	107.5
384.211	114.5
384.436	108.5
384.662	122.5
384.887	121.5
385.112	110.5
385.337	99.5
385.562	116.5
385.787	113.5
386.013	130.5
386.238	131.5
386.463	114.5
386.688	122.5
386.913	124.5
387.138	107.5
387.363	119.5
387.588	113.5
387.813	113.5
388.038	122.5
388.263	122.5
388.488	130.5
388.713	105.5
388.938	95.5
389.163	92.5
389.387	90.5
389.612	92.5
389.837	90.5
390.062	102.5
390.287	106.5
390.512	117.5
390.736	111.5
390.961	86.5
391.186	100.5
391.411	83.5
391.636	106.5
391.86	96.5
392.085	92.5
392.31	92.5
392.534	99.5
392.759	95.5
392.984	96.5
393.208	82.5
393.433	97.5
393.658	89.5
393.882	96.5
394.107	85.5
394.331	94.5
394.556	93.5
394.78	102.5
395.005	95.5
395.229	89.5
395.454	92.5
395.678	96.5
395.903	95.5
396.127	91.5
396.352	100.5
396.576	92.5
396.801	94.5
397.025	108.5
397.249	101.5
397.474	92.5
397.698	91.5
397.922	96.5
398.147	87.5
398.371	90.5
398.595	83.5
398.82	95.5
399.044	90.5
399.268	78.5
399.492	96.5
399.717	76.5
399.941	97.5
400.165	108.5
400.389	98.5
400.613	90.5
400.837	92.5
401.062	82.5
401.286	92.5
401.51	91.5
401.734	97.5
401.958	109.5
402.182	132.5
402.406	169.5
402.63	122.5
402.854	105.5
403.078	86.5
403.302	90.5
403.526	79.5
403.75	90.5
403.974	92.5
404.198	88.5
404.422	84.5
404.645	91.5
404.869	90.5
405.093	92.5
405.317	104.5
405.541	96.5
405.765	108.5
405.988	127.5
406.212	181.5
406.436	265.5
406.66	184.5
406.883	107.5
407.107	108.5
407.331	99.5
407.555	112.5
407.778	112.5
408.002	91.5
408.226	99.5
408.449	91.5
408.673	86.5
408.896	96.5
409.12	102.5
409.344	84.5
409.567	94.5
409.791	102.5
410.014	98.5
410.238	92.5
410.461	93.5
410.685	84.5
410.908	107.5
411.132	93.5
411.355	113.5
411.578	108.5
411.802	86.5
412.025	88.5
412.249	86.5
412.472	100.5
412.695	92.5
412.919	91.5
413.142	90.5
413.365	75.5
413.589	108.5
413.812	102.5
414.035	89.5
414.258	99.5
414.482	95.5
414.705	100.5
414.928	101.5
415.151	100.5
415.374	86.5
415.597	102.5
415.821	94.5
416.044	98.5
416.267	88.5
416.49	93.5
416.713	88.5
416.936	92.5
417.159	83.5
417.382	82.5
417.605	92.5
417.828	100.5
418.051	78.5
418.274	96.5
418.497	95.5
418.72	91.5
418.943	102.5
419.166	84.5
419.389	90.5
419.611	95.5
419.834	98.5
420.057	91.5
420.28	92.5
420.503	80.5
420.726	81.5
420.948	76.5
421.171	113.5
421.394	110.5
421.617	104.5
421.839	97.5
422.062	102.5
422.285	92.5
422.507	94.5
422.73	111.5
422.953	103.5
423.175	87.5
423.398	98.5
423.621	83.5
423.843	89.5
424.066	86.5
424.288	86.5
424.511	87.5
424.733	108.5
424.956	121.5
425.178	98.5
425.401	120.5
425.623	107.5
425.846	108.5
426.068	108.5
426.291	89.5
426.513	81.5
426.735	105.5
426.958	102.5
427.18	114.5
427.402	161.5
427.625	181.5
427.847	147.5
428.069	113.5
428.292	82.5
428.514	94.5
428.736	88.5
428.958	87.5
429.181	83.5
429.403	95.5
429.625	86.5
429.847	96.5
430.069	114.5
430.292	103.5
430.514	74.5
430.736	95.5
430.958	96.5
431.18	88.5
431.402	91.5
431.624	87.5
431.846	102.5
432.068	92.5
432.29	83.5
432.512	92.5
432.734	92.5
432.956	84.5
433.178	89.5
433.4	96.5
433.622	92.5
433.844	104.5
434.066	92.5
434.287	115.5
434.509	107.5
434.731	101.5
434.953	97.5
435.175	97.5
435.397	101.5
435.618	88.5
435.84	104.5
436.062	139.5
436.284	107.5
436.505	113.5
436.727	88.5
436.949	92.5
437.17	94.5
437.392	83.5
437.614	104.5
437.835	116.5
438.057	137.5
438.278	134.5
438.5	114.5
438.721	121.5
438.943	110.5
439.165	95.5
439.386	104.5
439.608	107.5
439.829	111.5
440.05	126.5
440.272	150.5
440.493	106.5
440.715	91.5
440.936	88.5
441.158	87.5
441.379	79.5
441.6	103.5
441.822	89.5
442.043	98.5
442.264	103.5
442.486	106.5
442.707	97.5
442.928	102.5
443.149	145.5
443.371	151.5
443.592	121.5
443.813	110.5
444.034	122.5
444.255	101.5
444.476	104.5
444.698	104.5
444.919	91.5
445.14	162.5
445.361	133.5
445.582	125.5
445.803	148.5
446.024	160.5
446.245	149.5
446.466	134.5
446.687	107.5
446.908	101.5
447.129	96.5
447.35	97.5
447.571	102.5
447.792	97.5
448.013	98.5
448.234	105.5
448.455	104.5
448.675	118.5
448.896	121.5
449.117	101.5
449.338	109.5
449.559	147.5
449.779	148.5
450	112.5
450.221	89.5
450.442	93.5
450.662	102.5
450.883	106.5
451.104	114.5
451.324	99.5
451.545	84.5
451.766	91.5
451.986	94.5
452.207	94.5
452.428	85.5
452.648	128.5
452.869	120.5
453.089	121.5
453.31	148.5
453.53	103.5
453.751	90.5
453.971	94.5
454.192	121.5
454.412	100.5
454.633	95.5
454.853	86.5
455.073	91.5
455.294	86.5
455.514	98.5
455.734	89.5
455.955	83.5
456.175	84.5
456.395	84.5
456.616	80.5
456.836	78.5
457.056	90.5
457.276	70.5
457.497	84.5
457.717	91.5
457.937	98.5
458.157	96.5
458.377	89.5
458.598	104.5
458.818	164.5
459.038	179.5
459.258	135.5
459.478	103.5
459.698	104.5
459.918	91.5
460.138	94.5
460.358	92.5
460.578	86.5
460.798	81.5
461.018	94.5
461.238	82.5
461.458	92.5
461.678	84.5
461.898	105.5
462.118	93.5
462.338	88.5
462.558	83.5
462.777	82.5
462.997	102.5
463.217	93.5
463.437	95.5
463.657	97.5
463.876	95.5
464.096	98.5
464.316	96.5
464.536	102.5
464.755	95.5
464.975	96.5
465.195	182.5
465.414	174.5
465.634	112.5
465.854	101.5
466.073	99.5
466.293	85.5
466.512	96.5
466.732	94.5
466.951	83.5
467.171	104.5
467.391	94.5
467.61	99.5
467.829	105.5
468.049	93.5
468.268	91.5
468.488	90.5
468.707	87.5
468.927	86.5
469.146	88.5
469.365	96.5
469.585	100.5
469.804	102.5
470.023	92.5
470.243	93.5
470.462	91.5
470.681	104.5
470.901	92.5
471.12	81.5
471.339	91.5
471.558	96.5
471.777	77.5
471.997	103.5
472.216	99.5
472.435	112.5
472.654	93.5
472.873	90.5
473.092	87.5
473.311	78.5
473.53	87.5
473.749	108.5
473.968	103.5
474.187	105.5
474.406	100.5
474.625	100.5
474.844	92.5
475.063	95.5
475.282	94.5
475.501	86.5
475.72	96.5
475.939	101.5
476.158	82.5
476.377	83.5
476.596	101.5
476.814	95.5
477.033	115.5
477.252	98.5
477.471	98.5
477.69	91.5
477.908	95.5
478.127	89.5
478.346	102.5
478.564	82.5
478.783	119.5
479.002	101.5
479.22	96.5
479.439	110.5
479.658	113.5
479.876	89.5
480.095	98.5
480.313	107.5
480.532	88.5
480.751	90.5
480.969	103.5
481.188	121.5
481.406	116.5
481.624	81.5
481.843	84.5
482.061	87.5
482.28	97.5
482.498	101.5
482.717	83.5
482.935	88.5
483.153	87.5
483.372	93.5
483.59	78.5
483.808	102.5
484.027	97.5
484.245	93.5
484.463	86.5
484.681	107.5
484.9	95.5
485.118	110.5
485.336	92.5
485.554	102.5
485.772	105.5
485.99	93.5
486.209	108.5
486.427	103.5
486.645	121.5
486.863	132.5
487.081	96.5
487.299	94.5
487.517	84.5
487.735	91.5
487.953	86.5
488.171	102.5
488.389	97.5
488.607	99.5
488.825	95.5
489.043	98.5
489.261	95.5
489.479	96.5
489.696	91.5
489.914	96.5
490.132	106.5
490.35	95.5
490.568	89.5
490.786	93.5
491.003	90.5
491.221	76.5
491.439	87.5
491.657	92.5
491.874	101.5
492.092	96.5
492.31	89.5
492.527	91.5
492.745	89.5
492.963	84.5
493.18	101.5
493.398	100.5
493.615	97.5
493.833	88.5
494.05	91.5
494.268	87.5
494.485	87.5
494.703	86.5
494.92	81.5
495.138	91.5
495.355	114.5
495.573	96.5
495.79	106.5
496.008	109.5
496.225	104.5
496.442	85.5
496.66	103.5
496.877	90.5
497.094	98.5
497.312	90.5
497.529	91.5
497.746	86.5
497.963	93.5
498.181	92.5
498.398	117.5
498.615	115.5
498.832	111.5
499.049	95.5
499.267	114.5
499.484	88.5
499.701	83.5
499.918	95.5
500.135	95.5
500.352	91.5
500.569	96.5
500.786	102.5
501.003	96.5
501.22	98.5
501.437	103.5
501.654	94.5
501.871	121.5
502.088	81.5
502.305	99.5
502.522	96.5
502.739	90.5
502.956	92.5
503.172	95.5
503.389	97.5
503.606	124.5
503.823	104.5
504.04	101.5
504.256	87.5
504.473	80.5
504.69	102.5
504.907	88.5
505.123	97.5
505.34	96.5
505.557	96.5
505.773	90.5
505.99	92.5
506.207	78.5
506.423	88.5
506.64	87.5
506.856	98.5
507.073	92.5
507.289	87.5
507.506	91.5
507.722	118.5
507.939	115.5
508.155	108.5
508.372	89.5
508.588	97.5
508.805	91.5
509.021	112.5
509.238	91.5
509.454	100.5
509.67	106.5
509.887	113.5
510.103	130.5
510.319	213.5
510.536	782.5
510.752	2602.5
510.968	727.5
511.184	163.5
511.401	140.5
511.617	98.5
511.833	109.5
512.049	99.5
512.265	99.5
512.481	103.5
512.698	91.5
512.914	90.5
513.13	93.5
513.346	101.5
513.562	94.5
513.778	103.5
513.994	96.5
514.21	115.5
514.426	122.5
514.642	154.5
514.858	121.5
515.074	164.5
515.29	501.5
515.506	1770.5
515.721	660.5
515.937	166.5
516.153	118.5
516.369	90.5
516.585	99.5
516.801	92.5
517.016	85.5
517.232	105.5
517.448	95.5
517.664	105.5
517.879	98.5
518.095	91.5
518.311	97.5
518.527	79.5
518.742	93.5
518.958	84.5
519.173	102.5
519.389	98.5
519.605	89.5
519.82	96.5
520.036	125.5
520.251	119.5
520.467	115.5
520.682	103.5
520.898	109.5
521.113	113.5
521.329	133.5
521.544	224.5
521.76	605.5
521.975	2837.5
522.19	1747.5
522.406	363.5
522.621	148.5
522.836	104.5
523.052	103.5
523.267	111.5
523.482	98.5
523.698	100.5
523.913	137.5
524.128	111.5
524.343	97.5
524.559	89.5
524.774	80.5
524.989	100.5
525.204	103.5
525.419	91.5
525.634	97.5
525.849	92.5
526.064	95.5
526.28	99.5
526.495	96.5
526.71	97.5
526.925	89.5
527.14	95.5
527.355	95.5
527.57	100.5
527.785	104.5
527.999	102.5
528.214	106.5
528.429	94.5
528.644	98.5
528.859	95.5
529.074	98.5
529.289	130.5
529.503	217.5
529.718	111.5
529.933	100.5
530.148	83.5
530.363	95.5
530.577	83.5
530.792	95.5
531.007	107.5
531.221	101.5
531.436	101.5
531.651	98.5
531.865	89.5
532.08	90.5
532.295	91.5
532.509	83.5
532.724	93.5
