Data from Circ_2005_H10_HRD10591_00096.txt Node
Date: Wed Jan 03 10:30:10 EST 2024
User: Yrep
Spectrometer: HR+D1059
Trigger mode: 1
Integration Time (sec): 1.000000E-1
Scans to average: 1
Electric dark correction enabled: true
Nonlinearity correction enabled: false
Boxcar width: 0
XAxis mode: Wavelengths
Number of Pixels in Spectrum: 2048
>>>>>Begin Spectral Data<<<<<
223.165	-24.38
223.4	-24.38
223.635	-24.38
223.869	-20.38
224.104	-17.38
224.338	-10.38
224.573	-19.38
224.808	-8.38
225.042	-3.38
225.277	-10.38
225.511	-0.38
225.746	4.62
225.98	9.62
226.215	13.62
226.449	5.62
226.683	13.62
226.918	29.62
227.152	37.62
227.387	33.62
227.621	35.62
227.856	40.62
228.09	41.62
228.324	55.62
228.559	55.62
228.793	55.62
229.027	69.62
229.262	63.62
229.496	63.62
229.73	83.62
229.964	80.62
230.199	71.62
230.433	80.62
230.667	76.62
230.901	78.62
231.136	77.62
231.37	67.62
231.604	64.62
231.838	80.62
232.072	81.62
232.306	68.62
232.541	82.62
232.775	86.62
233.009	74.62
233.243	81.62
233.477	78.62
233.711	77.62
233.945	96.62
234.179	90.62
234.413	77.62
234.647	92.62
234.881	76.62
235.115	74.62
235.349	75.62
235.583	78.62
235.817	80.62
236.051	83.62
236.285	86.62
236.519	79.62
236.753	78.62
236.987	80.62
237.221	82.62
237.455	93.62
237.689	82.62
237.922	65.62
238.156	77.62
238.39	71.62
238.624	80.62
238.858	74.62
239.091	71.62
239.325	75.62
239.559	89.62
239.793	90.62
240.027	87.62
240.26	74.62
240.494	72.62
240.728	77.62
240.961	71.62
241.195	82.62
241.429	71.62
241.662	82.62
241.896	83.62
242.13	86.62
242.363	79.62
242.597	73.62
242.83	79.62
243.064	81.62
243.298	77.62
243.531	93.62
243.765	76.62
243.998	77.62
244.232	77.62
244.465	95.62
244.699	72.62
244.932	77.62
245.166	80.62
245.399	88.62
245.633	83.62
245.866	74.62
246.099	80.62
246.333	88.62
246.566	80.62
246.8	74.62
247.033	68.62
247.266	85.62
247.5	74.62
247.733	79.62
247.966	103.62
248.2	92.62
248.433	87.62
248.666	83.62
248.899	95.62
249.133	102.62
249.366	98.62
249.599	86.62
249.832	82.62
250.066	94.62
250.299	78.62
250.532	80.62
250.765	86.62
250.998	83.62
251.231	79.62
251.465	71.62
251.698	80.62
251.931	81.62
252.164	95.62
252.397	77.62
252.63	84.62
252.863	78.62
253.096	83.62
253.329	76.62
253.562	82.62
253.795	81.62
254.028	81.62
254.261	72.62
254.494	81.62
254.727	88.62
254.96	78.62
255.193	87.62
255.426	80.62
255.659	82.62
255.892	88.62
256.124	88.62
256.357	78.62
256.59	80.62
256.823	76.62
257.056	86.62
257.289	80.62
257.521	92.62
257.754	83.62
257.987	78.62
258.22	83.62
258.452	87.62
258.685	78.62
258.918	81.62
259.151	70.62
259.383	96.62
259.616	88.62
259.849	60.62
260.081	93.62
260.314	80.62
260.547	93.62
260.779	94.62
261.012	91.62
261.244	92.62
261.477	84.62
261.71	96.62
261.942	112.62
262.175	118.62
262.407	103.62
262.64	85.62
262.872	86.62
263.105	93.62
263.337	87.62
263.57	80.62
263.802	96.62
264.035	85.62
264.267	91.62
264.499	84.62
264.732	78.62
264.964	85.62
265.197	79.62
265.429	101.62
265.661	72.62
265.894	78.62
266.126	89.62
266.358	82.62
266.591	82.62
266.823	77.62
267.055	90.62
267.287	90.62
267.52	96.62
267.752	76.62
267.984	85.62
268.216	83.62
268.448	72.62
268.681	84.62
268.913	87.62
269.145	74.62
269.377	82.62
269.609	88.62
269.841	89.62
270.073	82.62
270.306	81.62
270.538	82.62
270.77	90.62
271.002	88.62
271.234	89.62
271.466	83.62
271.698	96.62
271.93	89.62
272.162	80.62
272.394	94.62
272.626	82.62
272.858	91.62
273.09	94.62
273.322	72.62
273.553	75.62
273.785	77.62
274.017	101.62
274.249	103.62
274.481	88.62
274.713	83.62
274.945	76.62
275.176	78.62
275.408	71.62
275.64	95.62
275.872	80.62
276.104	94.62
276.335	87.62
276.567	101.62
276.799	119.62
277.031	93.62
277.262	102.62
277.494	92.62
277.726	78.62
277.957	85.62
278.189	76.62
278.421	96.62
278.652	84.62
278.884	87.62
279.115	75.62
279.347	94.62
279.579	105.62
279.81	85.62
280.042	107.62
280.273	120.62
280.505	89.62
280.736	91.62
280.968	95.62
281.199	78.62
281.431	82.62
281.662	86.62
281.894	87.62
282.125	102.62
282.356	127.62
282.588	136.62
282.819	103.62
283.051	76.62
283.282	80.62
283.513	90.62
283.745	85.62
283.976	82.62
284.207	95.62
284.439	88.62
284.67	78.62
284.901	75.62
285.132	103.62
285.364	99.62
285.595	82.62
285.826	96.62
286.057	89.62
286.288	78.62
286.52	93.62
286.751	89.62
286.982	87.62
287.213	78.62
287.444	94.62
287.675	86.62
287.906	91.62
288.138	92.62
288.369	89.62
288.6	97.62
288.831	99.62
289.062	80.62
289.293	87.62
289.524	89.62
289.755	84.62
289.986	80.62
290.217	71.62
290.448	76.62
290.679	89.62
290.91	82.62
291.141	89.62
291.371	87.62
291.602	96.62
291.833	86.62
292.064	89.62
292.295	92.62
292.526	87.62
292.757	113.62
292.987	85.62
293.218	75.62
293.449	87.62
293.68	90.62
293.91	89.62
294.141	85.62
294.372	82.62
294.603	93.62
294.833	79.62
295.064	91.62
295.295	81.62
295.525	88.62
295.756	110.62
295.987	106.62
296.217	124.62
296.448	115.62
296.679	101.62
296.909	86.62
297.14	89.62
297.37	88.62
297.601	86.62
297.831	79.62
298.062	81.62
298.292	90.62
298.523	86.62
298.753	96.62
298.984	103.62
299.214	91.62
299.445	82.62
299.675	103.62
299.905	110.62
300.136	94.62
300.366	78.62
300.597	93.62
300.827	85.62
301.057	101.62
301.288	104.62
301.518	97.62
301.748	83.62
301.979	101.62
302.209	95.62
302.439	95.62
302.669	80.62
302.9	86.62
303.13	92.62
303.36	84.62
303.59	94.62
303.82	118.62
304.051	89.62
304.281	84.62
304.511	95.62
304.741	84.62
304.971	89.62
305.201	93.62
305.431	87.62
305.661	91.62
305.891	103.62
306.121	92.62
306.352	108.62
306.582	110.62
306.812	85.62
307.042	90.62
307.272	110.62
307.502	98.62
307.731	96.62
307.961	96.62
308.191	100.62
308.421	90.62
308.651	80.62
308.881	86.62
309.111	67.62
309.341	81.62
309.571	96.62
309.8	77.62
310.03	86.62
310.26	116.62
310.49	82.62
310.72	106.62
310.949	102.62
311.179	108.62
311.409	93.62
311.639	77.62
311.868	90.62
312.098	87.62
312.328	97.62
312.557	98.62
312.787	83.62
313.017	106.62
313.246	100.62
313.476	91.62
313.706	95.62
313.935	97.62
314.165	93.62
314.394	94.62
314.624	90.62
314.853	95.62
315.083	81.62
315.312	90.62
315.542	88.62
315.771	99.62
316.001	87.62
316.23	102.62
316.46	100.62
316.689	94.62
316.919	102.62
317.148	98.62
317.377	100.62
317.607	91.62
317.836	98.62
318.065	95.62
318.295	96.62
318.524	102.62
318.753	101.62
318.983	98.62
319.212	103.62
319.441	100.62
319.67	105.62
319.9	88.62
320.129	92.62
320.358	99.62
320.587	91.62
320.816	110.62
321.046	98.62
321.275	105.62
321.504	102.62
321.733	105.62
321.962	109.62
322.191	102.62
322.42	102.62
322.649	107.62
322.878	111.62
323.108	120.62
323.337	130.62
323.566	140.62
323.795	131.62
324.024	178.62
324.253	361.62
324.482	752.62
324.71	1562.62
324.939	2044.62
325.168	752.62
325.397	229.62
325.626	161.62
325.855	136.62
326.084	136.62
326.313	118.62
326.542	156.62
326.77	215.62
326.999	415.62
327.228	893.62
327.457	1543.62
327.686	1264.62
327.914	361.62
328.143	198.62
328.372	185.62
328.6	146.62
328.829	115.62
329.058	119.62
329.287	120.62
329.515	109.62
329.744	113.62
329.972	150.62
330.201	192.62
330.43	247.62
330.658	172.62
330.887	147.62
331.115	117.62
331.344	97.62
331.572	108.62
331.801	108.62
332.03	104.62
332.258	113.62
332.486	98.62
332.715	90.62
332.943	110.62
333.172	95.62
333.4	98.62
333.629	115.62
333.857	121.62
334.085	148.62
334.314	196.62
334.542	324.62
334.771	290.62
334.999	146.62
335.227	108.62
335.455	101.62
335.684	119.62
335.912	92.62
336.14	104.62
336.369	95.62
336.597	97.62
336.825	94.62
337.053	93.62
337.281	105.62
337.51	95.62
337.738	87.62
337.966	87.62
338.194	87.62
338.422	90.62
338.65	103.62
338.878	101.62
339.106	96.62
339.334	99.62
339.562	106.62
339.79	98.62
340.018	98.62
340.246	103.62
340.474	93.62
340.702	88.62
340.93	92.62
341.158	86.62
341.386	113.62
341.614	96.62
341.842	101.62
342.07	103.62
342.298	95.62
342.526	98.62
342.754	94.62
342.981	80.62
343.209	92.62
343.437	96.62
343.665	108.62
343.893	92.62
344.12	97.62
344.348	90.62
344.576	84.62
344.804	94.62
345.031	93.62
345.259	98.62
345.487	91.62
345.714	90.62
345.942	94.62
346.17	94.62
346.397	94.62
346.625	112.62
346.853	99.62
347.08	92.62
347.308	95.62
347.535	102.62
347.763	99.62
347.99	82.62
348.218	88.62
348.445	88.62
348.673	103.62
348.9	99.62
349.128	92.62
349.355	85.62
349.583	83.62
349.81	105.62
350.037	89.62
350.265	108.62
350.492	79.62
350.72	84.62
350.947	97.62
351.174	95.62
351.402	108.62
351.629	90.62
351.856	106.62
352.083	89.62
352.311	90.62
352.538	112.62
352.765	102.62
352.992	107.62
353.22	105.62
353.447	92.62
353.674	102.62
353.901	89.62
354.128	105.62
354.355	98.62
354.583	101.62
354.81	88.62
355.037	98.62
355.264	95.62
355.491	99.62
355.718	102.62
355.945	110.62
356.172	104.62
356.399	98.62
356.626	88.62
356.853	85.62
357.08	93.62
357.307	93.62
357.534	95.62
357.761	90.62
357.988	102.62
358.215	86.62
358.441	90.62
358.668	81.62
358.895	86.62
359.122	83.62
359.349	112.62
359.576	87.62
359.802	89.62
360.029	113.62
360.256	107.62
360.483	110.62
360.709	89.62
360.936	86.62
361.163	97.62
361.39	93.62
361.616	91.62
361.843	96.62
362.07	100.62
362.296	94.62
362.523	104.62
362.749	89.62
362.976	98.62
363.203	89.62
363.429	87.62
363.656	93.62
363.882	84.62
364.109	94.62
364.335	87.62
364.562	75.62
364.788	91.62
365.015	102.62
365.241	96.62
365.468	113.62
365.694	109.62
365.92	112.62
366.147	112.62
366.373	101.62
366.599	79.62
366.826	91.62
367.052	86.62
367.278	95.62
367.505	99.62
367.731	93.62
367.957	97.62
368.184	95.62
368.41	92.62
368.636	105.62
368.862	106.62
369.089	109.62
369.315	107.62
369.541	85.62
369.767	97.62
369.993	85.62
370.219	90.62
370.445	96.62
370.672	90.62
370.898	90.62
371.124	94.62
371.35	90.62
371.576	81.62
371.802	86.62
372.028	92.62
372.254	93.62
372.48	98.62
372.706	79.62
372.932	76.62
373.158	88.62
373.384	89.62
373.61	79.62
373.835	81.62
374.061	97.62
374.287	94.62
374.513	97.62
374.739	98.62
374.965	90.62
375.191	94.62
375.416	87.62
375.642	95.62
375.868	94.62
376.094	91.62
376.319	86.62
376.545	94.62
376.771	97.62
376.997	86.62
377.222	85.62
377.448	100.62
377.674	88.62
377.899	99.62
378.125	94.62
378.35	93.62
378.576	82.62
378.802	87.62
379.027	107.62
379.253	87.62
379.478	103.62
379.704	81.62
379.929	93.62
380.155	97.62
380.38	101.62
380.606	77.62
380.831	92.62
381.057	93.62
381.282	90.62
381.507	102.62
381.733	88.62
381.958	86.62
382.184	102.62
382.409	103.62
382.634	102.62
382.86	94.62
383.085	111.62
383.31	113.62
383.535	111.62
383.761	100.62
383.986	96.62
384.211	89.62
384.436	97.62
384.662	102.62
384.887	112.62
385.112	105.62
385.337	105.62
385.562	105.62
385.787	105.62
386.013	104.62
386.238	112.62
386.463	95.62
386.688	108.62
386.913	92.62
387.138	98.62
387.363	97.62
387.588	104.62
387.813	99.62
388.038	99.62
388.263	104.62
388.488	107.62
388.713	97.62
388.938	96.62
389.163	101.62
389.387	86.62
389.612	74.62
389.837	107.62
390.062	93.62
390.287	88.62
390.512	78.62
390.736	96.62
390.961	93.62
391.186	104.62
391.411	88.62
391.636	100.62
391.86	76.62
392.085	85.62
392.31	76.62
392.534	87.62
392.759	93.62
392.984	88.62
393.208	91.62
393.433	76.62
393.658	84.62
393.882	90.62
394.107	87.62
394.331	73.62
394.556	81.62
394.78	100.62
395.005	87.62
395.229	87.62
395.454	83.62
395.678	93.62
395.903	103.62
396.127	89.62
396.352	88.62
396.576	93.62
396.801	89.62
397.025	104.62
397.249	82.62
397.474	75.62
397.698	80.62
397.922	88.62
398.147	96.62
398.371	85.62
398.595	96.62
398.82	81.62
399.044	94.62
399.268	101.62
399.492	85.62
399.717	71.62
399.941	87.62
400.165	102.62
400.389	83.62
400.613	93.62
400.837	88.62
401.062	86.62
401.286	88.62
401.51	89.62
401.734	108.62
401.958	101.62
402.182	121.62
402.406	145.62
402.63	120.62
402.854	98.62
403.078	96.62
403.302	98.62
403.526	87.62
403.75	92.62
403.974	107.62
404.198	84.62
404.422	95.62
404.645	98.62
404.869	99.62
405.093	103.62
405.317	100.62
405.541	103.62
405.765	102.62
405.988	109.62
406.212	157.62
406.436	235.62
406.66	165.62
406.883	117.62
407.107	98.62
407.331	86.62
407.555	101.62
407.778	82.62
408.002	86.62
408.226	93.62
408.449	92.62
408.673	87.62
408.896	90.62
409.12	89.62
409.344	88.62
409.567	102.62
409.791	92.62
410.014	88.62
410.238	95.62
410.461	103.62
410.685	92.62
410.908	98.62
411.132	114.62
411.355	90.62
411.578	101.62
411.802	77.62
412.025	94.62
412.249	93.62
412.472	96.62
412.695	94.62
412.919	93.62
413.142	73.62
413.365	86.62
413.589	86.62
413.812	96.62
414.035	96.62
414.258	96.62
414.482	95.62
414.705	86.62
414.928	88.62
415.151	97.62
415.374	106.62
415.597	98.62
415.821	90.62
416.044	94.62
416.267	92.62
416.49	88.62
416.713	104.62
416.936	89.62
417.159	100.62
417.382	94.62
417.605	84.62
417.828	94.62
418.051	97.62
418.274	93.62
418.497	103.62
418.72	87.62
418.943	81.62
419.166	101.62
419.389	95.62
419.611	85.62
419.834	88.62
420.057	92.62
420.28	86.62
420.503	77.62
420.726	76.62
420.948	86.62
421.171	81.62
421.394	88.62
421.617	98.62
421.839	85.62
422.062	87.62
422.285	100.62
422.507	96.62
422.73	104.62
422.953	98.62
423.175	81.62
423.398	83.62
423.621	101.62
423.843	86.62
424.066	98.62
424.288	89.62
424.511	93.62
424.733	116.62
424.956	114.62
425.178	87.62
425.401	84.62
425.623	96.62
425.846	80.62
426.068	100.62
426.291	93.62
426.513	83.62
426.735	84.62
426.958	103.62
427.18	104.62
427.402	129.62
427.625	175.62
427.847	150.62
428.069	127.62
428.292	104.62
428.514	85.62
428.736	84.62
428.958	89.62
429.181	93.62
429.403	90.62
429.625	86.62
429.847	85.62
430.069	99.62
430.292	111.62
430.514	80.62
430.736	84.62
430.958	80.62
431.18	84.62
431.402	86.62
431.624	94.62
431.846	94.62
432.068	77.62
432.29	78.62
432.512	79.62
432.734	84.62
432.956	84.62
433.178	99.62
433.4	99.62
433.622	101.62
433.844	104.62
434.066	90.62
434.287	94.62
434.509	95.62
434.731	105.62
434.953	85.62
435.175	92.62
435.397	104.62
435.618	94.62
435.84	107.62
436.062	117.62
436.284	105.62
436.505	107.62
436.727	104.62
436.949	102.62
437.17	84.62
437.392	66.62
437.614	98.62
437.835	91.62
438.057	98.62
438.278	92.62
438.5	104.62
438.721	106.62
438.943	113.62
439.165	105.62
439.386	97.62
439.608	89.62
439.829	94.62
440.05	118.62
440.272	130.62
440.493	94.62
440.715	80.62
440.936	89.62
441.158	90.62
441.379	88.62
441.6	100.62
441.822	90.62
442.043	78.62
442.264	85.62
442.486	85.62
442.707	76.62
442.928	92.62
443.149	106.62
443.371	128.62
443.592	99.62
443.813	110.62
444.034	102.62
444.255	115.62
444.476	69.62
444.698	94.62
444.919	78.62
445.14	122.62
445.361	109.62
445.582	113.62
445.803	125.62
446.024	132.62
446.245	120.62
446.466	105.62
446.687	96.62
446.908	85.62
447.129	83.62
447.35	91.62
447.571	98.62
447.792	100.62
448.013	91.62
448.234	101.62
448.455	100.62
448.675	124.62
448.896	102.62
449.117	92.62
449.338	100.62
449.559	117.62
449.779	114.62
450	115.62
450.221	89.62
450.442	93.62
450.662	92.62
450.883	106.62
451.104	105.62
451.324	90.62
451.545	84.62
451.766	80.62
451.986	78.62
452.207	94.62
452.428	84.62
452.648	94.62
452.869	104.62
453.089	116.62
453.31	109.62
453.53	112.62
453.751	104.62
453.971	95.62
454.192	102.62
454.412	88.62
454.633	93.62
454.853	83.62
455.073	81.62
455.294	83.62
455.514	99.62
455.734	90.62
455.955	102.62
456.175	93.62
456.395	89.62
456.616	81.62
456.836	90.62
457.056	83.62
457.276	88.62
457.497	70.62
457.717	80.62
457.937	79.62
458.157	91.62
458.377	77.62
458.598	99.62
458.818	136.62
459.038	153.62
459.258	104.62
459.478	84.62
459.698	89.62
459.918	92.62
460.138	99.62
460.358	96.62
460.578	88.62
460.798	69.62
461.018	92.62
461.238	72.62
461.458	105.62
461.678	71.62
461.898	96.62
462.118	87.62
462.338	94.62
462.558	79.62
462.777	86.62
462.997	80.62
463.217	99.62
463.437	111.62
463.657	91.62
463.876	90.62
464.096	82.62
464.316	98.62
464.536	93.62
464.755	89.62
464.975	105.62
465.195	150.62
465.414	160.62
465.634	107.62
465.854	94.62
466.073	97.62
466.293	94.62
466.512	81.62
466.732	85.62
466.951	84.62
467.171	86.62
467.391	85.62
467.61	112.62
467.829	117.62
468.049	161.62
468.268	170.62
468.488	97.62
468.707	80.62
468.927	83.62
469.146	75.62
469.365	78.62
469.585	90.62
469.804	99.62
470.023	102.62
470.243	86.62
470.462	80.62
470.681	90.62
470.901	86.62
471.12	88.62
471.339	88.62
471.558	88.62
471.777	102.62
471.997	118.62
472.216	236.62
472.435	425.62
472.654	164.62
472.873	88.62
473.092	98.62
473.311	84.62
473.53	87.62
473.749	96.62
473.968	69.62
474.187	108.62
474.406	98.62
474.625	85.62
474.844	92.62
475.063	84.62
475.282	86.62
475.501	85.62
475.72	90.62
475.939	81.62
476.158	95.62
476.377	82.62
476.596	81.62
476.814	100.62
477.033	90.62
477.252	96.62
477.471	104.62
477.69	93.62
477.908	92.62
478.127	91.62
478.346	84.62
478.564	93.62
478.783	93.62
479.002	88.62
479.22	94.62
479.439	91.62
479.658	108.62
479.876	89.62
480.095	84.62
480.313	85.62
480.532	113.62
480.751	115.62
480.969	219.62
481.188	652.62
481.406	425.62
481.624	124.62
481.843	104.62
482.061	96.62
482.28	99.62
482.498	101.62
482.717	88.62
482.935	94.62
483.153	89.62
483.372	91.62
483.59	90.62
483.808	89.62
484.027	95.62
484.245	85.62
484.463	89.62
484.681	90.62
484.9	95.62
485.118	94.62
485.336	89.62
485.554	96.62
485.772	99.62
485.99	97.62
486.209	102.62
486.427	91.62
486.645	108.62
486.863	115.62
487.081	88.62
487.299	87.62
487.517	97.62
487.735	88.62
487.953	80.62
488.171	91.62
488.389	88.62
488.607	93.62
488.825	94.62
489.043	99.62
489.261	97.62
489.479	90.62
489.696	89.62
489.914	96.62
490.132	94.62
490.35	100.62
490.568	94.62
490.786	93.62
491.003	89.62
491.221	77.62
491.439	88.62
491.657	82.62
491.874	97.62
492.092	91.62
492.31	106.62
492.527	103.62
492.745	96.62
492.963	93.62
493.18	83.62
493.398	92.62
493.615	83.62
493.833	80.62
494.05	93.62
494.268	105.62
494.485	88.62
494.703	78.62
494.92	76.62
495.138	88.62
495.355	94.62
495.573	94.62
495.79	97.62
496.008	77.62
496.225	90.62
496.442	76.62
496.66	97.62
496.877	80.62
497.094	92.62
497.312	87.62
497.529	94.62
497.746	79.62
497.963	100.62
498.181	83.62
498.398	83.62
498.615	105.62
498.832	83.62
499.049	76.62
499.267	84.62
499.484	94.62
499.701	103.62
499.918	98.62
500.135	77.62
500.352	91.62
500.569	90.62
500.786	90.62
501.003	82.62
501.22	82.62
501.437	94.62
501.654	104.62
501.871	98.62
502.088	84.62
502.305	98.62
502.522	96.62
502.739	92.62
502.956	97.62
503.172	79.62
503.389	106.62
503.606	101.62
503.823	100.62
504.04	94.62
504.256	94.62
504.473	94.62
504.69	90.62
504.907	95.62
505.123	79.62
505.34	84.62
505.557	89.62
505.773	86.62
505.99	94.62
506.207	88.62
506.423	77.62
506.64	89.62
506.856	80.62
507.073	88.62
507.289	93.62
507.506	100.62
507.722	109.62
507.939	116.62
508.155	89.62
508.372	81.62
508.588	89.62
508.805	95.62
509.021	96.62
509.238	90.62
509.454	100.62
509.67	88.62
509.887	105.62
510.103	128.62
510.319	196.62
510.536	701.62
510.752	2196.62
510.968	658.62
511.184	148.62
511.401	110.62
511.617	95.62
511.833	96.62
512.049	111.62
512.265	102.62
512.481	97.62
512.698	97.62
512.914	99.62
513.13	93.62
513.346	84.62
513.562	90.62
513.778	106.62
513.994	88.62
514.21	102.62
514.426	104.62
514.642	117.62
514.858	118.62
515.074	145.62
515.29	422.62
