Data from Circ_2005_H10_HRD10591_00059.txt Node
Date: Wed Jan 03 10:30:02 EST 2024
User: Yrep
Spectrometer: HR+D1059
Trigger mode: 1
Integration Time (sec): 1.000000E-1
Scans to average: 1
Electric dark correction enabled: true
Nonlinearity correction enabled: false
Boxcar width: 0
XAxis mode: Wavelengths
Number of Pixels in Spectrum: 2048
>>>>>Begin Spectral Data<<<<<
223.165	-15.12
223.4	-15.12
223.635	-15.12
223.869	-13.12
224.104	-20.12
224.338	-26.12
224.573	-22.12
224.808	-14.12
225.042	-2.12
225.277	-15.12
225.511	3.88
225.746	2.88
225.98	3.88
226.215	4.88
226.449	21.88
226.683	28.88
226.918	19.88
227.152	41.88
227.387	28.88
227.621	40.88
227.856	36.88
228.09	29.88
228.324	40.88
228.559	59.88
228.793	44.88
229.027	56.88
229.262	71.88
229.496	67.88
229.73	83.88
229.964	84.88
230.199	79.88
230.433	78.88
230.667	74.88
230.901	72.88
231.136	71.88
231.37	67.88
231.604	62.88
231.838	66.88
232.072	77.88
232.306	84.88
232.541	70.88
232.775	76.88
233.009	73.88
233.243	74.88
233.477	75.88
233.711	81.88
233.945	80.88
234.179	65.88
234.413	75.88
234.647	73.88
234.881	70.88
235.115	62.88
235.349	72.88
235.583	83.88
235.817	66.88
236.051	81.88
236.285	65.88
236.519	70.88
236.753	71.88
236.987	71.88
237.221	67.88
237.455	79.88
237.689	64.88
237.922	82.88
238.156	77.88
238.39	77.88
238.624	78.88
238.858	78.88
239.091	59.88
239.325	66.88
239.559	74.88
239.793	84.88
240.027	69.88
240.26	72.88
240.494	66.88
240.728	71.88
240.961	66.88
241.195	78.88
241.429	91.88
241.662	79.88
241.896	66.88
242.13	88.88
242.363	75.88
242.597	73.88
242.83	74.88
243.064	82.88
243.298	71.88
243.531	75.88
243.765	84.88
243.998	71.88
244.232	79.88
244.465	78.88
244.699	61.88
244.932	70.88
245.166	80.88
245.399	78.88
245.633	71.88
245.866	64.88
246.099	74.88
246.333	77.88
246.566	60.88
246.8	66.88
247.033	75.88
247.266	70.88
247.5	63.88
247.733	73.88
247.966	73.88
248.2	63.88
248.433	73.88
248.666	77.88
248.899	67.88
249.133	72.88
249.366	80.88
249.599	84.88
249.832	80.88
250.066	81.88
250.299	71.88
250.532	59.88
250.765	70.88
250.998	58.88
251.231	66.88
251.465	80.88
251.698	68.88
251.931	70.88
252.164	81.88
252.397	71.88
252.63	81.88
252.863	77.88
253.096	70.88
253.329	74.88
253.562	68.88
253.795	61.88
254.028	82.88
254.261	91.88
254.494	73.88
254.727	67.88
254.96	89.88
255.193	75.88
255.426	60.88
255.659	65.88
255.892	76.88
256.124	86.88
256.357	75.88
256.59	69.88
256.823	68.88
257.056	76.88
257.289	68.88
257.521	83.88
257.754	72.88
257.987	77.88
258.22	68.88
258.452	90.88
258.685	78.88
258.918	73.88
259.151	70.88
259.383	84.88
259.616	73.88
259.849	74.88
260.081	91.88
260.314	88.88
260.547	81.88
260.779	81.88
261.012	65.88
261.244	82.88
261.477	91.88
261.71	80.88
261.942	101.88
262.175	102.88
262.407	80.88
262.64	78.88
262.872	88.88
263.105	71.88
263.337	74.88
263.57	72.88
263.802	70.88
264.035	81.88
264.267	69.88
264.499	66.88
264.732	62.88
264.964	65.88
265.197	70.88
265.429	83.88
265.661	71.88
265.894	84.88
266.126	83.88
266.358	73.88
266.591	67.88
266.823	73.88
267.055	63.88
267.287	85.88
267.52	76.88
267.752	90.88
267.984	80.88
268.216	75.88
268.448	70.88
268.681	79.88
268.913	91.88
269.145	71.88
269.377	66.88
269.609	65.88
269.841	79.88
270.073	83.88
270.306	86.88
270.538	69.88
270.77	73.88
271.002	84.88
271.234	100.88
271.466	92.88
271.698	82.88
271.93	80.88
272.162	80.88
272.394	78.88
272.626	78.88
272.858	80.88
273.09	83.88
273.322	71.88
273.553	74.88
273.785	73.88
274.017	85.88
274.249	87.88
274.481	77.88
274.713	78.88
274.945	80.88
275.176	80.88
275.408	79.88
275.64	69.88
275.872	76.88
276.104	79.88
276.335	87.88
276.567	83.88
276.799	94.88
277.031	101.88
277.262	94.88
277.494	89.88
277.726	88.88
277.957	87.88
278.189	65.88
278.421	82.88
278.652	93.88
278.884	78.88
279.115	82.88
279.347	90.88
279.579	65.88
279.81	81.88
280.042	74.88
280.273	87.88
280.505	79.88
280.736	87.88
280.968	88.88
281.199	73.88
281.431	84.88
281.662	73.88
281.894	96.88
282.125	83.88
282.356	95.88
282.588	121.88
282.819	110.88
283.051	82.88
283.282	80.88
283.513	86.88
283.745	75.88
283.976	70.88
284.207	79.88
284.439	79.88
284.67	68.88
284.901	69.88
285.132	80.88
285.364	79.88
285.595	80.88
285.826	98.88
286.057	94.88
286.288	94.88
286.52	95.88
286.751	81.88
286.982	82.88
287.213	82.88
287.444	87.88
287.675	88.88
287.906	95.88
288.138	78.88
288.369	85.88
288.6	86.88
288.831	64.88
289.062	96.88
289.293	88.88
289.524	77.88
289.755	89.88
289.986	74.88
290.217	79.88
290.448	92.88
290.679	76.88
290.91	83.88
291.141	83.88
291.371	86.88
291.602	82.88
291.833	97.88
292.064	96.88
292.295	87.88
292.526	82.88
292.757	89.88
292.987	68.88
293.218	84.88
293.449	97.88
293.68	95.88
293.91	87.88
294.141	77.88
294.372	87.88
294.603	81.88
294.833	88.88
295.064	76.88
295.295	86.88
295.525	86.88
295.756	96.88
295.987	103.88
296.217	138.88
296.448	103.88
296.679	90.88
296.909	80.88
297.14	78.88
297.37	82.88
297.601	83.88
297.831	75.88
298.062	88.88
298.292	73.88
298.523	86.88
298.753	68.88
298.984	78.88
299.214	70.88
299.445	78.88
299.675	92.88
299.905	104.88
300.136	84.88
300.366	90.88
300.597	89.88
300.827	98.88
301.057	86.88
301.288	90.88
301.518	89.88
301.748	88.88
301.979	98.88
302.209	83.88
302.439	86.88
302.669	88.88
302.9	83.88
303.13	85.88
303.36	80.88
303.59	90.88
303.82	94.88
304.051	89.88
304.281	62.88
304.511	77.88
304.741	67.88
304.971	76.88
305.201	96.88
305.431	76.88
305.661	77.88
305.891	77.88
306.121	86.88
306.352	105.88
306.582	96.88
306.812	78.88
307.042	75.88
307.272	78.88
307.502	88.88
307.731	93.88
307.961	88.88
308.191	77.88
308.421	83.88
308.651	81.88
308.881	81.88
309.111	82.88
309.341	92.88
309.571	95.88
309.8	86.88
310.03	99.88
310.26	84.88
310.49	99.88
310.72	92.88
310.949	107.88
311.179	88.88
311.409	91.88
311.639	92.88
311.868	97.88
312.098	90.88
312.328	103.88
312.557	91.88
312.787	92.88
313.017	90.88
313.246	95.88
313.476	88.88
313.706	93.88
313.935	98.88
314.165	91.88
314.394	94.88
314.624	89.88
314.853	99.88
315.083	86.88
315.312	95.88
315.542	81.88
315.771	102.88
316.001	89.88
316.23	87.88
316.46	80.88
316.689	83.88
316.919	83.88
317.148	91.88
317.377	86.88
317.607	91.88
317.836	94.88
318.065	83.88
318.295	90.88
318.524	84.88
318.753	94.88
318.983	92.88
319.212	87.88
319.441	101.88
319.67	92.88
319.9	90.88
320.129	83.88
320.358	91.88
320.587	99.88
320.816	105.88
321.046	104.88
321.275	94.88
321.504	106.88
321.733	96.88
321.962	83.88
322.191	95.88
322.42	81.88
322.649	95.88
322.878	99.88
323.108	104.88
323.337	107.88
323.566	131.88
323.795	134.88
324.024	178.88
324.253	362.88
324.482	774.88
324.71	1578.88
324.939	2066.88
325.168	759.88
325.397	218.88
325.626	158.88
325.855	130.88
326.084	114.88
326.313	120.88
326.542	162.88
326.77	215.88
326.999	433.88
327.228	871.88
327.457	1600.88
327.686	1238.88
327.914	353.88
328.143	193.88
328.372	157.88
328.6	140.88
328.829	115.88
329.058	123.88
329.287	132.88
329.515	97.88
329.744	102.88
329.972	100.88
330.201	148.88
330.43	178.88
330.658	168.88
330.887	129.88
331.115	116.88
331.344	101.88
331.572	98.88
331.801	94.88
332.03	82.88
332.258	91.88
332.486	78.88
332.715	83.88
332.943	89.88
333.172	90.88
333.4	87.88
333.629	102.88
333.857	108.88
334.085	120.88
334.314	154.88
334.542	208.88
334.771	201.88
334.999	103.88
335.227	95.88
335.455	83.88
335.684	85.88
335.912	97.88
336.14	97.88
336.369	83.88
336.597	96.88
336.825	100.88
337.053	73.88
337.281	80.88
337.51	89.88
337.738	101.88
337.966	91.88
338.194	87.88
338.422	94.88
338.65	75.88
338.878	88.88
339.106	85.88
339.334	92.88
339.562	75.88
339.79	93.88
340.018	71.88
340.246	93.88
340.474	82.88
340.702	83.88
340.93	93.88
341.158	82.88
341.386	91.88
341.614	109.88
341.842	98.88
342.07	95.88
342.298	86.88
342.526	82.88
342.754	75.88
342.981	80.88
343.209	85.88
343.437	100.88
343.665	86.88
343.893	81.88
344.12	83.88
344.348	88.88
344.576	90.88
344.804	87.88
345.031	78.88
345.259	95.88
345.487	83.88
345.714	78.88
345.942	89.88
346.17	84.88
346.397	79.88
346.625	89.88
346.853	85.88
347.08	79.88
347.308	91.88
347.535	92.88
347.763	83.88
347.99	110.88
348.218	102.88
348.445	93.88
348.673	96.88
348.9	90.88
349.128	99.88
349.355	95.88
349.583	97.88
349.81	95.88
350.037	93.88
350.265	91.88
350.492	102.88
350.72	82.88
350.947	91.88
351.174	110.88
351.402	104.88
351.629	91.88
351.856	90.88
352.083	85.88
352.311	94.88
352.538	93.88
352.765	106.88
352.992	104.88
353.22	106.88
353.447	94.88
353.674	104.88
353.901	98.88
354.128	82.88
354.355	89.88
354.583	106.88
354.81	105.88
355.037	81.88
355.264	87.88
355.491	81.88
355.718	89.88
355.945	89.88
356.172	83.88
356.399	96.88
356.626	91.88
356.853	90.88
357.08	94.88
357.307	77.88
357.534	72.88
357.761	88.88
357.988	95.88
358.215	86.88
358.441	78.88
358.668	92.88
358.895	92.88
359.122	87.88
359.349	84.88
359.576	104.88
359.802	105.88
360.029	88.88
360.256	86.88
360.483	92.88
360.709	80.88
360.936	89.88
361.163	87.88
361.39	90.88
361.616	82.88
361.843	89.88
362.07	93.88
362.296	93.88
362.523	74.88
362.749	88.88
362.976	83.88
363.203	75.88
363.429	89.88
363.656	88.88
363.882	84.88
364.109	94.88
364.335	84.88
364.562	81.88
364.788	83.88
365.015	82.88
365.241	92.88
365.468	110.88
365.694	109.88
365.92	91.88
366.147	92.88
366.373	86.88
366.599	83.88
366.826	95.88
367.052	78.88
367.278	83.88
367.505	90.88
367.731	87.88
367.957	97.88
368.184	84.88
368.41	90.88
368.636	102.88
368.862	109.88
369.089	97.88
369.315	91.88
369.541	93.88
369.767	83.88
369.993	103.88
370.219	85.88
370.445	79.88
370.672	85.88
370.898	73.88
371.124	89.88
371.35	86.88
371.576	102.88
371.802	84.88
372.028	74.88
372.254	84.88
372.48	88.88
372.706	92.88
372.932	88.88
373.158	102.88
373.384	91.88
373.61	88.88
373.835	89.88
374.061	79.88
374.287	82.88
374.513	94.88
374.739	91.88
374.965	94.88
375.191	79.88
375.416	86.88
375.642	86.88
375.868	82.88
376.094	87.88
376.319	84.88
376.545	73.88
376.771	78.88
376.997	83.88
377.222	91.88
377.448	102.88
377.674	96.88
377.899	84.88
378.125	79.88
378.35	80.88
378.576	78.88
378.802	90.88
379.027	92.88
379.253	98.88
379.478	75.88
379.704	91.88
379.929	90.88
380.155	92.88
380.38	86.88
380.606	92.88
380.831	77.88
381.057	94.88
381.282	88.88
381.507	94.88
381.733	86.88
381.958	84.88
382.184	84.88
382.409	96.88
382.634	102.88
382.86	88.88
383.085	104.88
383.31	89.88
383.535	95.88
383.761	83.88
383.986	89.88
384.211	93.88
384.436	99.88
384.662	96.88
384.887	92.88
385.112	103.88
385.337	103.88
385.562	103.88
385.787	90.88
386.013	107.88
386.238	109.88
386.463	98.88
386.688	112.88
386.913	102.88
387.138	118.88
387.363	97.88
387.588	96.88
387.813	80.88
388.038	96.88
388.263	104.88
388.488	101.88
388.713	91.88
388.938	104.88
389.163	93.88
389.387	75.88
389.612	80.88
389.837	92.88
390.062	90.88
390.287	88.88
390.512	82.88
390.736	103.88
390.961	86.88
391.186	75.88
391.411	92.88
391.636	90.88
391.86	84.88
392.085	88.88
392.31	92.88
392.534	89.88
392.759	91.88
392.984	83.88
393.208	90.88
393.433	70.88
393.658	85.88
393.882	77.88
394.107	82.88
394.331	73.88
394.556	73.88
394.78	80.88
395.005	81.88
395.229	95.88
395.454	90.88
395.678	84.88
395.903	95.88
396.127	82.88
396.352	74.88
396.576	101.88
396.801	78.88
397.025	88.88
397.249	73.88
397.474	71.88
397.698	76.88
397.922	85.88
398.147	85.88
398.371	80.88
398.595	80.88
398.82	91.88
399.044	81.88
399.268	77.88
399.492	77.88
399.717	79.88
399.941	80.88
400.165	100.88
400.389	78.88
400.613	80.88
400.837	82.88
401.062	82.88
401.286	79.88
401.51	74.88
401.734	71.88
401.958	90.88
402.182	108.88
402.406	155.88
402.63	107.88
402.854	73.88
403.078	64.88
403.302	75.88
403.526	98.88
403.75	94.88
403.974	90.88
404.198	88.88
404.422	83.88
404.645	87.88
404.869	79.88
405.093	83.88
405.317	106.88
405.541	87.88
405.765	86.88
405.988	98.88
406.212	158.88
406.436	206.88
406.66	149.88
406.883	92.88
407.107	88.88
407.331	93.88
407.555	104.88
407.778	74.88
408.002	93.88
408.226	94.88
408.449	81.88
408.673	82.88
408.896	87.88
409.12	91.88
409.344	87.88
409.567	81.88
409.791	97.88
410.014	75.88
410.238	90.88
410.461	81.88
410.685	91.88
410.908	92.88
411.132	96.88
411.355	105.88
411.578	82.88
411.802	92.88
412.025	96.88
412.249	96.88
412.472	98.88
412.695	99.88
412.919	81.88
413.142	81.88
413.365	91.88
413.589	95.88
413.812	91.88
414.035	94.88
414.258	83.88
414.482	88.88
414.705	90.88
414.928	87.88
415.151	93.88
415.374	87.88
415.597	93.88
415.821	84.88
416.044	77.88
416.267	89.88
416.49	89.88
416.713	80.88
416.936	87.88
417.159	72.88
417.382	83.88
417.605	87.88
417.828	88.88
418.051	90.88
418.274	85.88
418.497	74.88
418.72	84.88
418.943	81.88
419.166	71.88
419.389	86.88
419.611	80.88
419.834	84.88
420.057	80.88
420.28	88.88
420.503	75.88
420.726	76.88
420.948	79.88
421.171	75.88
421.394	88.88
421.617	81.88
421.839	94.88
422.062	84.88
422.285	89.88
422.507	85.88
422.73	90.88
422.953	85.88
423.175	90.88
423.398	76.88
423.621	78.88
423.843	80.88
424.066	81.88
424.288	86.88
424.511	86.88
424.733	90.88
424.956	91.88
425.178	87.88
425.401	104.88
425.623	86.88
425.846	75.88
426.068	72.88
426.291	81.88
426.513	87.88
426.735	78.88
426.958	99.88
427.18	94.88
427.402	131.88
427.625	156.88
427.847	119.88
428.069	113.88
428.292	91.88
428.514	75.88
428.736	81.88
428.958	96.88
429.181	79.88
429.403	92.88
429.625	89.88
429.847	97.88
430.069	86.88
430.292	79.88
430.514	81.88
430.736	85.88
430.958	84.88
431.18	78.88
431.402	83.88
431.624	62.88
431.846	81.88
432.068	67.88
432.29	72.88
432.512	74.88
432.734	88.88
432.956	82.88
433.178	78.88
433.4	80.88
433.622	90.88
433.844	75.88
434.066	85.88
434.287	83.88
434.509	83.88
434.731	82.88
434.953	87.88
435.175	86.88
435.397	89.88
435.618	92.88
435.84	100.88
436.062	102.88
436.284	103.88
436.505	103.88
436.727	90.88
436.949	96.88
437.17	78.88
437.392	87.88
437.614	73.88
437.835	102.88
438.057	118.88
438.278	93.88
438.5	106.88
438.721	108.88
438.943	105.88
439.165	97.88
439.386	75.88
439.608	68.88
439.829	82.88
440.05	109.88
440.272	131.88
440.493	95.88
440.715	94.88
440.936	94.88
441.158	77.88
441.379	82.88
441.6	92.88
441.822	90.88
442.043	87.88
442.264	94.88
442.486	79.88
442.707	94.88
442.928	92.88
443.149	125.88
443.371	125.88
443.592	99.88
443.813	95.88
444.034	104.88
444.255	99.88
444.476	90.88
444.698	90.88
444.919	90.88
445.14	122.88
445.361	111.88
445.582	112.88
445.803	130.88
446.024	114.88
446.245	126.88
446.466	99.88
446.687	81.88
446.908	81.88
447.129	88.88
447.35	79.88
447.571	93.88
447.792	81.88
448.013	98.88
448.234	96.88
448.455	96.88
448.675	100.88
448.896	99.88
449.117	96.88
449.338	95.88
449.559	113.88
449.779	112.88
450	84.88
450.221	82.88
450.442	89.88
450.662	86.88
450.883	94.88
451.104	96.88
451.324	80.88
451.545	89.88
451.766	82.88
451.986	78.88
452.207	87.88
452.428	96.88
452.648	107.88
452.869	105.88
453.089	104.88
453.31	118.88
453.53	87.88
453.751	87.88
453.971	92.88
454.192	98.88
454.412	84.88
454.633	78.88
454.853	76.88
455.073	79.88
455.294	90.88
455.514	81.88
455.734	90.88
455.955	88.88
456.175	81.88
456.395	64.88
456.616	90.88
456.836	71.88
457.056	89.88
457.276	80.88
457.497	89.88
457.717	89.88
457.937	78.88
458.157	86.88
458.377	81.88
458.598	101.88
458.818	148.88
459.038	130.88
459.258	111.88
459.478	83.88
459.698	70.88
459.918	89.88
460.138	82.88
460.358	77.88
460.578	92.88
460.798	68.88
461.018	86.88
461.238	78.88
461.458	76.88
461.678	86.88
461.898	74.88
462.118	74.88
462.338	86.88
462.558	79.88
462.777	80.88
462.997	77.88
463.217	76.88
463.437	74.88
463.657	76.88
463.876	78.88
464.096	79.88
464.316	93.88
464.536	88.88
464.755	88.88
464.975	92.88
465.195	162.88
465.414	145.88
465.634	93.88
465.854	95.88
466.073	88.88
466.293	89.88
466.512	85.88
466.732	83.88
466.951	85.88
467.171	88.88
467.391	84.88
467.61	104.88
467.829	87.88
468.049	109.88
468.268	134.88
468.488	102.88
468.707	88.88
468.927	67.88
469.146	79.88
469.365	83.88
469.585	99.88
469.804	90.88
470.023	79.88
470.243	75.88
470.462	88.88
470.681	102.88
470.901	77.88
471.12	80.88
471.339	88.88
471.558	82.88
471.777	89.88
471.997	92.88
472.216	137.88
472.435	234.88
472.654	111.88
472.873	87.88
473.092	82.88
473.311	82.88
473.53	73.88
473.749	81.88
473.968	90.88
474.187	87.88
474.406	92.88
474.625	89.88
474.844	102.88
475.063	80.88
475.282	92.88
475.501	77.88
475.72	72.88
475.939	90.88
476.158	76.88
476.377	84.88
476.596	84.88
476.814	82.88
477.033	88.88
477.252	80.88
477.471	88.88
477.69	89.88
477.908	84.88
478.127	87.88
478.346	85.88
478.564	95.88
478.783	95.88
479.002	79.88
479.22	87.88
479.439	77.88
479.658	99.88
479.876	83.88
480.095	78.88
480.313	83.88
480.532	88.88
480.751	107.88
480.969	141.88
481.188	368.88
481.406	252.88
481.624	116.88
481.843	81.88
482.061	78.88
482.28	84.88
482.498	92.88
482.717	82.88
482.935	68.88
483.153	74.88
483.372	90.88
483.59	90.88
483.808	94.88
484.027	92.88
484.245	90.88
484.463	79.88
484.681	88.88
484.9	84.88
485.118	84.88
485.336	91.88
485.554	92.88
485.772	91.88
485.99	87.88
486.209	88.88
486.427	100.88
486.645	86.88
486.863	100.88
487.081	97.88
487.299	90.88
487.517	87.88
487.735	86.88
487.953	82.88
488.171	82.88
488.389	83.88
488.607	90.88
488.825	63.88
489.043	83.88
489.261	89.88
489.479	91.88
489.696	92.88
489.914	95.88
490.132	86.88
490.35	88.88
490.568	81.88
490.786	91.88
491.003	84.88
491.221	81.88
491.439	84.88
491.657	97.88
491.874	99.88
492.092	83.88
492.31	86.88
492.527	79.88
492.745	98.88
492.963	79.88
493.18	78.88
493.398	96.88
493.615	95.88
493.833	88.88
494.05	91.88
494.268	84.88
494.485	85.88
494.703	79.88
494.92	67.88
495.138	88.88
495.355	82.88
495.573	102.88
495.79	91.88
496.008	84.88
496.225	73.88
496.442	73.88
496.66	81.88
496.877	88.88
497.094	80.88
497.312	87.88
497.529	83.88
497.746	81.88
497.963	88.88
498.181	81.88
498.398	90.88
498.615	112.88
498.832	98.88
499.049	100.88
499.267	101.88
499.484	76.88
499.701	82.88
499.918	88.88
500.135	65.88
500.352	97.88
500.569	70.88
500.786	78.88
501.003	91.88
501.22	86.88
501.437	80.88
501.654	83.88
501.871	107.88
502.088	78.88
502.305	79.88
502.522	89.88
502.739	85.88
502.956	87.88
503.172	99.88
503.389	91.88
503.606	106.88
503.823	100.88
504.04	87.88
504.256	72.88
504.473	92.88
504.69	68.88
504.907	92.88
505.123	96.88
505.34	76.88
505.557	87.88
505.773	78.88
505.99	82.88
506.207	72.88
506.423	85.88
506.64	85.88
506.856	88.88
507.073	85.88
507.289	82.88
507.506	91.88
507.722	102.88
507.939	98.88
508.155	81.88
508.372	79.88
508.588	94.88
508.805	100.88
509.021	84.88
509.238	93.88
509.454	90.88
509.67	97.88
509.887	91.88
510.103	120.88
510.319	202.88
510.536	713.88
510.752	2322.88
510.968	638.88
511.184	152.88
511.401	106.88
511.617	102.88
511.833	85.88
512.049	88.88
512.265	92.88
512.481	87.88
512.698	95.88
512.914	95.88
513.13	90.88
513.346	79.88
513.562	86.88
513.778	90.88
513.994	87.88
514.21	88.88
514.426	109.88
514.642	140.88
514.858	100.88
515.074	166.88
515.29	422.88
515.506	1441.88
515.721	551.88
515.937	146.88
516.153	101.88
516.369	77.88
516.585	84.88
516.801	76.88
517.016	81.88
517.232	85.88
517.448	79.88
