Data from Circ_2005_H10_HRD10591_00023.txt Node
Date: Wed Jan 03 10:29:55 EST 2024
User: Yrep
Spectrometer: HR+D1059
Trigger mode: 1
Integration Time (sec): 1.000000E-1
Scans to average: 1
Electric dark correction enabled: true
Nonlinearity correction enabled: false
Boxcar width: 0
XAxis mode: Wavelengths
Number of Pixels in Spectrum: 2048
>>>>>Begin Spectral Data<<<<<
223.165	-7.19
223.4	-7.19
223.635	-7.19
223.869	-13.19
224.104	-21.19
224.338	-20.19
224.573	-16.19
224.808	-10.19
225.042	-7.19
225.277	-4.19
225.511	-12.19
225.746	4.81
225.98	16.81
226.215	10.81
226.449	19.81
226.683	8.81
226.918	25.81
227.152	24.81
227.387	33.81
227.621	37.81
227.856	45.81
228.09	59.81
228.324	47.81
228.559	65.81
228.793	137.81
229.027	444.81
229.262	517.81
229.496	619.81
229.73	813.81
229.964	816.81
230.199	569.81
230.433	476.81
230.667	455.81
230.901	457.81
231.136	448.81
231.37	448.81
231.604	423.81
231.838	450.81
232.072	448.81
232.306	446.81
232.541	446.81
232.775	477.81
233.009	465.81
233.243	485.81
233.477	474.81
233.711	482.81
233.945	501.81
234.179	508.81
234.413	487.81
234.647	494.81
234.881	522.81
235.115	530.81
235.349	530.81
235.583	541.81
235.817	593.81
236.051	627.81
236.285	606.81
236.519	611.81
236.753	692.81
236.987	937.81
237.221	1375.81
237.455	1487.81
237.689	893.81
237.922	747.81
238.156	715.81
238.39	650.81
238.624	642.81
238.858	622.81
239.091	666.81
239.325	657.81
239.559	643.81
239.793	688.81
240.027	776.81
240.26	903.81
240.494	962.81
240.728	952.81
240.961	889.81
241.195	825.81
241.429	770.81
241.662	766.81
241.896	749.81
242.13	747.81
242.363	741.81
242.597	772.81
242.83	790.81
243.064	826.81
243.298	824.81
243.531	805.81
243.765	801.81
243.998	827.81
244.232	834.81
244.465	858.81
244.699	862.81
244.932	869.81
245.166	885.81
245.399	866.81
245.633	891.81
245.866	894.81
246.099	902.81
246.333	909.81
246.566	932.81
246.8	965.81
247.033	995.81
247.266	1026.81
247.5	1093.81
247.733	1147.81
247.966	1109.81
248.2	1112.81
248.433	1121.81
248.666	1192.81
248.899	1334.81
249.133	1436.81
249.366	1456.81
249.599	1325.81
249.832	1215.81
250.066	1193.81
250.299	1250.81
250.532	1363.81
250.765	1527.81
250.998	1728.81
251.231	1594.81
251.465	1476.81
251.698	1400.81
251.931	1381.81
252.164	1385.81
252.397	1389.81
252.63	1433.81
252.863	1510.81
253.096	1647.81
253.329	1704.81
253.562	1602.81
253.795	1538.81
254.028	1545.81
254.261	1611.81
254.494	1808.81
254.727	2201.81
254.96	2225.81
255.193	1958.81
255.426	1704.81
255.659	1633.81
255.892	1627.81
256.124	1642.81
256.357	1600.81
256.59	1538.81
256.823	1525.81
257.056	1496.81
257.289	1480.81
257.521	1541.81
257.754	1540.81
257.987	1493.81
258.22	1499.81
258.452	1499.81
258.685	1537.81
258.918	1569.81
259.151	1557.81
259.383	1701.81
259.616	1692.81
259.849	1768.81
260.081	1971.81
260.314	2073.81
260.547	2010.81
260.779	1773.81
261.012	1732.81
261.244	1650.81
261.477	1663.81
261.71	1695.81
261.942	1771.81
262.175	1800.81
262.407	1731.81
262.64	1667.81
262.872	1609.81
263.105	1634.81
263.337	1642.81
263.57	1627.81
263.802	1645.81
264.035	1684.81
264.267	1648.81
264.499	1673.81
264.732	1690.81
264.964	1691.81
265.197	1697.81
265.429	1672.81
265.661	1699.81
265.894	1730.81
266.126	1717.81
266.358	1720.81
266.591	1802.81
266.823	1894.81
267.055	1860.81
267.287	1836.81
267.52	1812.81
267.752	1780.81
267.984	1832.81
268.216	1870.81
268.448	1927.81
268.681	2017.81
268.913	2149.81
269.145	2374.81
269.377	2394.81
269.609	2262.81
269.841	2225.81
270.073	2389.81
270.306	2651.81
270.538	2855.81
270.77	2649.81
271.002	2460.81
271.234	2486.81
271.466	2650.81
271.698	2751.81
271.93	2759.81
272.162	2726.81
272.394	2678.81
272.626	2508.81
272.858	2376.81
273.09	2288.81
273.322	2276.81
273.553	2260.81
273.785	2209.81
274.017	2244.81
274.249	2219.81
274.481	2256.81
274.713	2255.81
274.945	2280.81
275.176	2277.81
275.408	2263.81
275.64	2293.81
275.872	2255.81
276.104	2271.81
276.335	2301.81
276.567	2421.81
276.799	2639.81
277.031	2859.81
277.262	2914.81
277.494	2786.81
277.726	2561.81
277.957	2503.81
278.189	2439.81
278.421	2415.81
278.652	2400.81
278.884	2348.81
279.115	2357.81
279.347	2377.81
279.579	2335.81
279.81	2323.81
280.042	2362.81
280.273	2400.81
280.505	2380.81
280.736	2408.81
280.968	2416.81
281.199	2377.81
281.431	2417.81
281.662	2426.81
281.894	2465.81
282.125	2525.81
282.356	2706.81
282.588	2868.81
282.819	2744.81
283.051	2559.81
283.282	2529.81
283.513	2516.81
283.745	2624.81
283.976	2629.81
284.207	2602.81
284.439	2595.81
284.67	2591.81
284.901	2586.81
285.132	2576.81
285.364	2611.81
285.595	2606.81
285.826	2638.81
286.057	2645.81
286.288	2663.81
286.52	2631.81
286.751	2656.81
286.982	2718.81
287.213	2680.81
287.444	2740.81
287.675	2778.81
287.906	2863.81
288.138	2930.81
288.369	2875.81
288.6	2898.81
288.831	2792.81
289.062	2834.81
289.293	2844.81
289.524	2813.81
289.755	2798.81
289.986	2770.81
290.217	2802.81
290.448	2761.81
290.679	2831.81
290.91	2794.81
291.141	2796.81
291.371	2836.81
291.602	2821.81
291.833	2789.81
292.064	2830.81
292.295	2796.81
292.526	2820.81
292.757	2832.81
292.987	2824.81
293.218	2727.81
293.449	2832.81
293.68	2808.81
293.91	2802.81
294.141	2818.81
294.372	2781.81
294.603	2837.81
294.833	2851.81
295.064	2897.81
295.295	2891.81
295.525	2935.81
295.756	2942.81
295.987	3051.81
296.217	3210.81
296.448	3156.81
296.679	2970.81
296.909	2931.81
297.14	2933.81
297.37	3011.81
297.601	2979.81
297.831	3045.81
298.062	3078.81
298.292	3050.81
298.523	3122.81
298.753	3118.81
298.984	3121.81
299.214	3082.81
299.445	3069.81
299.675	3138.81
299.905	3140.81
300.136	3096.81
300.366	3105.81
300.597	3146.81
300.827	3264.81
301.057	3361.81
301.288	3385.81
301.518	3336.81
301.748	3317.81
301.979	3401.81
302.209	3435.81
302.439	3353.81
302.669	3327.81
302.9	3291.81
303.13	3264.81
303.36	3338.81
303.59	3384.81
303.82	3392.81
304.051	3412.81
304.281	3310.81
304.511	3283.81
304.741	3252.81
304.971	3328.81
305.201	3219.81
305.431	3233.81
305.661	3272.81
305.891	3267.81
306.121	3305.81
306.352	3343.81
306.582	3309.81
306.812	3242.81
307.042	3261.81
307.272	3283.81
307.502	3242.81
307.731	3285.81
307.961	3256.81
308.191	3262.81
308.421	3277.81
308.651	3306.81
308.881	3289.81
309.111	3382.81
309.341	3342.81
309.571	3512.81
309.8	3536.81
310.03	3641.81
310.26	3612.81
310.49	3673.81
310.72	3780.81
310.949	3850.81
311.179	3840.81
311.409	3693.81
311.639	3716.81
311.868	3649.81
312.098	3713.81
312.328	3835.81
312.557	3957.81
312.787	4050.81
313.017	3901.81
313.246	3757.81
313.476	3737.81
313.706	3817.81
313.935	3890.81
314.165	4039.81
314.394	4003.81
314.624	3927.81
314.853	3864.81
315.083	3832.81
315.312	3808.81
315.542	3704.81
315.771	3697.81
316.001	3732.81
316.23	3685.81
316.46	3689.81
316.689	3788.81
316.919	3813.81
317.148	3821.81
317.377	3874.81
317.607	3789.81
317.836	3693.81
318.065	3686.81
318.295	3650.81
318.524	3709.81
318.753	3647.81
318.983	3691.81
319.212	3704.81
319.441	3754.81
319.67	3790.81
319.9	3699.81
320.129	3717.81
320.358	3726.81
320.587	3776.81
320.816	3877.81
321.046	3872.81
321.275	3875.81
321.504	3842.81
321.733	3912.81
321.962	3985.81
322.191	4166.81
322.42	4154.81
322.649	4309.81
322.878	4351.81
323.108	4519.81
323.337	4779.81
323.566	4945.81
323.795	5276.81
324.024	5982.81
324.253	8012.81
324.482	12254.81
324.71	15606.81
324.939	15606.81
325.168	13934.81
325.397	7075.81
325.626	5557.81
325.855	5057.81
326.084	4951.81
326.313	4872.81
326.542	5141.81
326.77	5893.81
326.999	7653.81
327.228	11428.81
327.457	15275.81
327.686	14564.81
327.914	7949.81
328.143	6182.81
328.372	5738.81
328.6	5527.81
328.829	5515.81
329.058	5719.81
329.287	5609.81
329.515	5222.81
329.744	4967.81
329.972	5057.81
330.201	5203.81
330.43	5543.81
330.658	5866.81
330.887	6117.81
331.115	5652.81
331.344	5109.81
331.572	5028.81
331.801	5127.81
332.03	5105.81
332.258	4972.81
332.486	5018.81
332.715	5064.81
332.943	5147.81
333.172	5304.81
333.4	5475.81
333.629	5584.81
333.857	5692.81
334.085	5715.81
334.314	5713.81
334.542	5724.81
334.771	5742.81
334.999	5385.81
335.227	5276.81
335.455	5180.81
335.684	5068.81
335.912	5012.81
336.14	4972.81
336.369	4928.81
336.597	5061.81
336.825	4943.81
337.053	4844.81
337.281	4813.81
337.51	4697.81
337.738	4823.81
337.966	4687.81
338.194	4699.81
338.422	4651.81
338.65	4588.81
338.878	4552.81
339.106	4528.81
339.334	4514.81
339.562	4413.81
339.79	4381.81
340.018	4446.81
340.246	4408.81
340.474	4480.81
340.702	4381.81
340.93	4410.81
341.158	4356.81
341.386	4402.81
341.614	4388.81
341.842	4429.81
342.07	4303.81
342.298	4325.81
342.526	4309.81
342.754	4336.81
342.981	4254.81
343.209	4390.81
343.437	4609.81
343.665	4952.81
343.893	5162.81
344.12	5092.81
344.348	4975.81
344.576	4795.81
344.804	4772.81
345.031	4660.81
345.259	4669.81
345.487	4440.81
345.714	4392.81
345.942	4307.81
346.17	4307.81
346.397	4227.81
346.625	4237.81
346.853	4225.81
347.08	4216.81
347.308	4262.81
347.535	4392.81
347.763	4362.81
347.99	4322.81
348.218	4322.81
348.445	4420.81
348.673	4292.81
348.9	4203.81
349.128	4101.81
349.355	4090.81
349.583	4076.81
349.81	4115.81
350.037	4121.81
350.265	4048.81
350.492	4075.81
350.72	4104.81
350.947	4124.81
351.174	4231.81
351.402	4277.81
351.629	4210.81
351.856	4234.81
352.083	4295.81
352.311	4352.81
352.538	4347.81
352.765	4277.81
352.992	4204.81
353.22	4162.81
353.447	4095.81
353.674	4045.81
353.901	3961.81
354.128	3942.81
354.355	3945.81
354.583	3993.81
354.81	3930.81
355.037	3944.81
355.264	3922.81
355.491	3896.81
355.718	3953.81
355.945	3941.81
356.172	4002.81
356.399	3945.81
356.626	4029.81
356.853	3954.81
357.08	3921.81
357.307	3955.81
357.534	3964.81
357.761	3980.81
357.988	3953.81
358.215	3976.81
358.441	3976.81
358.668	4017.81
358.895	4031.81
359.122	4091.81
359.349	4217.81
359.576	4319.81
359.802	4569.81
360.029	4768.81
360.256	4721.81
360.483	4518.81
360.709	4260.81
360.936	4261.81
361.163	4238.81
361.39	4248.81
361.616	4284.81
361.843	4249.81
362.07	4227.81
362.296	4258.81
362.523	4214.81
362.749	4242.81
362.976	4106.81
363.203	4100.81
363.429	4044.81
363.656	4113.81
363.882	4048.81
364.109	4044.81
364.335	3982.81
364.562	4073.81
364.788	4050.81
365.015	4051.81
365.241	4047.81
365.468	4060.81
365.694	4084.81
365.92	4140.81
366.147	4120.81
366.373	4060.81
366.599	4074.81
366.826	4007.81
367.052	4004.81
367.278	4044.81
367.505	4104.81
367.731	4098.81
367.957	4096.81
368.184	4127.81
368.41	4243.81
368.636	4273.81
368.862	4267.81
369.089	4114.81
369.315	4188.81
369.541	4151.81
369.767	4136.81
369.993	4167.81
370.219	4186.81
370.445	4134.81
370.672	4179.81
370.898	4109.81
371.124	4221.81
371.35	4321.81
371.576	4242.81
371.802	4269.81
372.028	4301.81
372.254	4232.81
372.48	4314.81
372.706	4415.81
372.932	4454.81
373.158	4420.81
373.384	4281.81
373.61	4274.81
373.835	4385.81
374.061	4369.81
374.287	4468.81
374.513	4448.81
374.739	4563.81
374.965	4723.81
375.191	4704.81
375.416	4617.81
375.642	4532.81
375.868	4446.81
376.094	4373.81
376.319	4318.81
376.545	4330.81
376.771	4328.81
376.997	4258.81
377.222	4314.81
377.448	4205.81
377.674	4291.81
377.899	4284.81
378.125	4211.81
378.35	4195.81
378.576	4217.81
378.802	4247.81
379.027	4260.81
379.253	4263.81
379.478	4172.81
379.704	4241.81
379.929	4282.81
380.155	4246.81
380.38	4242.81
380.606	4296.81
380.831	4266.81
381.057	4344.81
381.282	4292.81
381.507	4337.81
381.733	4345.81
381.958	4403.81
382.184	4447.81
382.409	4401.81
382.634	4491.81
382.86	4482.81
383.085	4566.81
383.31	4605.81
383.535	4678.81
383.761	4752.81
383.986	4778.81
384.211	4869.81
384.436	4966.81
384.662	5038.81
384.887	5060.81
385.112	5141.81
385.337	5214.81
385.562	5153.81
385.787	5130.81
386.013	5312.81
386.238	5320.81
386.463	5285.81
386.688	5208.81
386.913	5182.81
387.138	5105.81
387.363	5194.81
387.588	5024.81
387.813	5132.81
388.038	5077.81
388.263	5119.81
388.488	5126.81
388.713	5063.81
388.938	5046.81
389.163	5074.81
389.387	5045.81
389.612	5045.81
389.837	5027.81
390.062	5004.81
390.287	4956.81
390.512	5101.81
390.736	5059.81
390.961	5126.81
391.186	5256.81
391.411	5376.81
391.636	5501.81
391.86	5662.81
392.085	5744.81
392.31	5622.81
392.534	5485.81
392.759	5423.81
392.984	5340.81
393.208	5257.81
393.433	5333.81
393.658	5199.81
393.882	5312.81
394.107	5337.81
394.331	5404.81
394.556	5404.81
394.78	5416.81
395.005	5427.81
395.229	5443.81
395.454	5625.81
395.678	5688.81
395.903	5677.81
396.127	5778.81
396.352	5551.81
396.576	5407.81
396.801	5362.81
397.025	5480.81
397.249	5595.81
397.474	5758.81
397.698	5718.81
397.922	5847.81
398.147	6052.81
398.371	6052.81
398.595	6154.81
398.82	6482.81
399.044	6979.81
399.268	7800.81
399.492	8748.81
399.717	9485.81
399.941	9198.81
400.165	8493.81
400.389	7874.81
400.613	7182.81
400.837	6738.81
401.062	6664.81
401.286	6497.81
401.51	6392.81
401.734	6331.81
401.958	6537.81
402.182	6628.81
402.406	6781.81
402.63	6792.81
402.854	6951.81
403.078	7097.81
403.302	7134.81
403.526	7260.81
403.75	7289.81
403.974	7288.81
404.198	7297.81
404.422	7398.81
404.645	7326.81
404.869	7244.81
405.093	7520.81
405.317	7608.81
405.541	7644.81
405.765	7175.81
405.988	7121.81
406.212	7307.81
406.436	7576.81
406.66	7646.81
406.883	7584.81
407.107	8277.81
407.331	8810.81
407.555	9339.81
407.778	8952.81
408.002	8170.81
408.226	7746.81
408.449	7692.81
408.673	7467.81
408.896	7686.81
409.12	7901.81
409.344	7423.81
409.567	7101.81
409.791	7093.81
410.014	7006.81
410.238	6901.81
410.461	6937.81
410.685	6919.81
410.908	7057.81
411.132	7239.81
411.355	7388.81
411.578	6995.81
411.802	6668.81
412.025	6745.81
412.249	6762.81
412.472	6885.81
412.695	6990.81
412.919	6657.81
413.142	6467.81
413.365	6373.81
413.589	6464.81
413.812	6275.81
414.035	6213.81
414.258	6251.81
414.482	6271.81
414.705	6378.81
414.928	6278.81
415.151	6351.81
415.374	6325.81
415.597	6191.81
415.821	6167.81
416.044	6248.81
416.267	6180.81
416.49	6154.81
416.713	6127.81
416.936	6251.81
417.159	6178.81
417.382	6264.81
417.605	6292.81
417.828	6404.81
418.051	6571.81
418.274	6395.81
418.497	6322.81
418.72	6471.81
418.943	6466.81
419.166	6867.81
419.389	7224.81
419.611	6995.81
419.834	6820.81
420.057	6694.81
420.28	6619.81
420.503	6424.81
420.726	6413.81
420.948	6602.81
421.171	6987.81
421.394	6973.81
421.617	6489.81
421.839	6401.81
422.062	6538.81
422.285	6585.81
422.507	7341.81
422.73	7896.81
422.953	7253.81
423.175	6886.81
423.398	6928.81
423.621	6895.81
423.843	7194.81
424.066	7116.81
424.288	7016.81
424.511	7180.81
424.733	7675.81
424.956	8171.81
425.178	7725.81
425.401	7852.81
425.623	7677.81
425.846	6806.81
426.068	6621.81
426.291	6535.81
426.513	6509.81
426.735	6663.81
426.958	7133.81
427.18	7926.81
427.402	9075.81
427.625	9189.81
427.847	7756.81
428.069	6944.81
428.292	6449.81
428.514	6042.81
428.736	5965.81
428.958	5952.81
429.181	5710.81
429.403	5880.81
429.625	5923.81
429.847	6212.81
430.069	6783.81
430.292	6314.81
430.514	5819.81
430.736	5770.81
430.958	5716.81
431.18	5569.81
431.402	5570.81
431.624	5607.81
431.846	5668.81
432.068	5668.81
432.29	5730.81
432.512	5688.81
432.734	5781.81
432.956	5715.81
433.178	5829.81
433.4	5827.81
433.622	5662.81
433.844	5739.81
434.066	5698.81
434.287	5764.81
434.509	6105.81
434.731	6226.81
434.953	6453.81
435.175	6621.81
435.397	6680.81
435.618	6573.81
435.84	6941.81
436.062	7853.81
436.284	7728.81
436.505	6501.81
436.727	6201.81
436.949	5961.81
437.17	5820.81
437.392	5791.81
437.614	6019.81
437.835	6376.81
438.057	7351.81
438.278	8024.81
438.5	7918.81
438.721	8700.81
438.943	7635.81
439.165	6388.81
439.386	6214.81
439.608	6256.81
439.829	6429.81
440.05	6732.81
440.272	7104.81
440.493	6534.81
440.715	6191.81
440.936	6067.81
441.158	6173.81
441.379	6237.81
441.6	6577.81
441.822	6789.81
442.043	7401.81
442.264	8030.81
442.486	7744.81
442.707	6813.81
442.928	6762.81
443.149	6970.81
443.371	7139.81
443.592	7677.81
443.813	8618.81
444.034	8666.81
444.255	7444.81
444.476	7256.81
444.698	7400.81
444.919	7494.81
445.14	7370.81
445.361	7244.81
445.582	7421.81
445.803	8128.81
446.024	8840.81
446.245	8422.81
446.466	7435.81
446.687	6427.81
446.908	6182.81
447.129	5784.81
447.35	5609.81
447.571	5581.81
447.792	5531.81
448.013	5596.81
448.234	5918.81
448.455	6505.81
448.675	7801.81
448.896	8176.81
449.117	6819.81
449.338	6934.81
449.559	8236.81
449.779	8552.81
450	6444.81
450.221	5817.81
450.442	5571.81
450.662	5497.81
450.883	5549.81
451.104	5705.81
451.324	5546.81
451.545	5350.81
451.766	5263.81
451.986	5086.81
452.207	5041.81
452.428	5070.81
452.648	5039.81
452.869	5048.81
453.089	5178.81
453.31	5249.81
453.53	5070.81
453.751	5010.81
453.971	5016.81
454.192	5206.81
454.412	5084.81
454.633	4914.81
454.853	4936.81
455.073	4932.81
455.294	5345.81
455.514	5920.81
455.734	5324.81
455.955	4819.81
456.175	4794.81
456.395	4670.81
456.616	4612.81
456.836	4618.81
457.056	4628.81
457.276	4657.81
457.497	4719.81
457.717	4716.81
457.937	4807.81
458.157	4856.81
458.377	4996.81
458.598	5320.81
458.818	6082.81
459.038	6971.81
459.258	6689.81
459.478	5960.81
459.698	5854.81
459.918	5909.81
460.138	6030.81
460.358	6283.81
460.578	6242.81
460.798	6298.81
461.018	6318.81
461.238	6153.81
461.458	6242.81
461.678	6089.81
461.898	6179.81
462.118	6265.81
462.338	6672.81
462.558	6785.81
462.777	7072.81
462.997	7641.81
463.217	7954.81
463.437	7756.81
463.657	7220.81
463.876	7054.81
464.096	7139.81
464.316	7130.81
464.536	7166.81
464.755	6913.81
464.975	6862.81
465.195	7111.81
465.414	7252.81
465.634	6345.81
465.854	5935.81
466.073	5701.81
466.293	5493.81
466.512	5353.81
466.732	5205.81
466.951	5239.81
467.171	5268.81
467.391	5308.81
467.61	5452.81
467.829	5344.81
468.049	5230.81
468.268	5109.81
468.488	4956.81
468.707	4927.81
468.927	4980.81
469.146	4940.81
469.365	5007.81
469.585	4976.81
469.804	5304.81
470.023	5458.81
470.243	5398.81
470.462	5503.81
470.681	5648.81
470.901	5537.81
471.12	5364.81
471.339	5265.81
471.558	5240.81
471.777	5140.81
471.997	5044.81
472.216	5072.81
472.435	5216.81
472.654	5076.81
472.873	4929.81
473.092	4969.81
473.311	4894.81
473.53	4953.81
473.749	5156.81
473.968	5640.81
474.187	6648.81
474.406	6228.81
474.625	5289.81
474.844	5072.81
475.063	5036.81
475.282	5030.81
475.501	5052.81
475.72	5082.81
475.939	5105.81
476.158	5156.81
476.377	5182.81
476.596	5244.81
476.814	5369.81
477.033	5428.81
477.252	5506.81
477.471	5605.81
477.69	5574.81
477.908	5781.81
478.127	5899.81
478.346	5985.81
478.564	6084.81
478.783	6138.81
479.002	6323.81
479.22	6325.81
479.439	6391.81
479.658	6574.81
479.876	6542.81
480.095	6824.81
480.313	7194.81
480.532	7024.81
480.751	6887.81
480.969	6814.81
481.188	6973.81
481.406	6782.81
481.624	6432.81
481.843	6117.81
482.061	6012.81
482.28	5900.81
482.498	5768.81
482.717	5872.81
482.935	5893.81
483.153	5841.81
483.372	5859.81
483.59	5778.81
483.808	5824.81
484.027	5868.81
484.245	5969.81
484.463	5919.81
484.681	6037.81
484.9	6038.81
485.118	6089.81
485.336	6099.81
485.554	6248.81
485.772	6208.81
485.99	6251.81
486.209	6276.81
486.427	6352.81
486.645	6381.81
486.863	6516.81
487.081	6412.81
487.299	6365.81
487.517	6298.81
487.735	6213.81
487.953	6315.81
