Data from Circ_2005_H10_HRD10591_00045.txt Node
Date: Wed Jan 03 10:30:00 EST 2024
User: Yrep
Spectrometer: HR+D1059
Trigger mode: 1
Integration Time (sec): 1.000000E-1
Scans to average: 1
Electric dark correction enabled: true
Nonlinearity correction enabled: false
Boxcar width: 0
XAxis mode: Wavelengths
Number of Pixels in Spectrum: 2048
>>>>>Begin Spectral Data<<<<<
223.165	-9.94
223.4	-9.94
223.635	-9.94
223.869	0.06
224.104	-13.94
224.338	-14.94
224.573	-21.94
224.808	-10.94
225.042	-27.94
225.277	-4.94
225.511	3.06
225.746	13.06
225.98	14.06
226.215	18.06
226.449	3.06
226.683	4.06
226.918	23.06
227.152	26.06
227.387	37.06
227.621	30.06
227.856	43.06
228.09	46.06
228.324	59.06
228.559	37.06
228.793	62.06
229.027	65.06
229.262	71.06
229.496	68.06
229.73	79.06
229.964	96.06
230.199	74.06
230.433	84.06
230.667	71.06
230.901	82.06
231.136	83.06
231.37	87.06
231.604	75.06
231.838	92.06
232.072	84.06
232.306	81.06
232.541	92.06
232.775	90.06
233.009	93.06
233.243	86.06
233.477	87.06
233.711	72.06
233.945	102.06
234.179	83.06
234.413	85.06
234.647	86.06
234.881	87.06
235.115	75.06
235.349	87.06
235.583	71.06
235.817	88.06
236.051	93.06
236.285	84.06
236.519	91.06
236.753	83.06
236.987	91.06
237.221	94.06
237.455	83.06
237.689	90.06
237.922	82.06
238.156	63.06
238.39	66.06
238.624	79.06
238.858	82.06
239.091	73.06
239.325	72.06
239.559	79.06
239.793	76.06
240.027	76.06
240.26	85.06
240.494	92.06
240.728	72.06
240.961	72.06
241.195	74.06
241.429	79.06
241.662	86.06
241.896	87.06
242.13	90.06
242.363	71.06
242.597	78.06
242.83	85.06
243.064	91.06
243.298	79.06
243.531	81.06
243.765	70.06
243.998	76.06
244.232	82.06
244.465	83.06
244.699	91.06
244.932	94.06
245.166	85.06
245.399	84.06
245.633	83.06
245.866	85.06
246.099	86.06
246.333	75.06
246.566	71.06
246.8	88.06
247.033	88.06
247.266	75.06
247.5	83.06
247.733	97.06
247.966	83.06
248.2	76.06
248.433	80.06
248.666	85.06
248.899	86.06
249.133	91.06
249.366	90.06
249.599	84.06
249.832	78.06
250.066	86.06
250.299	79.06
250.532	87.06
250.765	78.06
250.998	85.06
251.231	75.06
251.465	82.06
251.698	88.06
251.931	68.06
252.164	87.06
252.397	65.06
252.63	81.06
252.863	85.06
253.096	83.06
253.329	93.06
253.562	80.06
253.795	70.06
254.028	92.06
254.261	88.06
254.494	85.06
254.727	86.06
254.96	81.06
255.193	77.06
255.426	87.06
255.659	86.06
255.892	75.06
256.124	89.06
256.357	67.06
256.59	79.06
256.823	91.06
257.056	80.06
257.289	81.06
257.521	93.06
257.754	85.06
257.987	85.06
258.22	87.06
258.452	81.06
258.685	78.06
258.918	88.06
259.151	84.06
259.383	79.06
259.616	83.06
259.849	94.06
260.081	84.06
260.314	83.06
260.547	76.06
260.779	86.06
261.012	80.06
261.244	76.06
261.477	85.06
261.71	90.06
261.942	118.06
262.175	112.06
262.407	95.06
262.64	102.06
262.872	78.06
263.105	76.06
263.337	88.06
263.57	85.06
263.802	87.06
264.035	73.06
264.267	85.06
264.499	79.06
264.732	93.06
264.964	74.06
265.197	72.06
265.429	96.06
265.661	91.06
265.894	81.06
266.126	87.06
266.358	88.06
266.591	70.06
266.823	78.06
267.055	72.06
267.287	91.06
267.52	92.06
267.752	78.06
267.984	77.06
268.216	95.06
268.448	92.06
268.681	94.06
268.913	80.06
269.145	84.06
269.377	85.06
269.609	78.06
269.841	79.06
270.073	87.06
270.306	99.06
270.538	89.06
270.77	86.06
271.002	90.06
271.234	90.06
271.466	88.06
271.698	86.06
271.93	88.06
272.162	87.06
272.394	87.06
272.626	89.06
272.858	93.06
273.09	88.06
273.322	66.06
273.553	74.06
273.785	68.06
274.017	89.06
274.249	78.06
274.481	99.06
274.713	85.06
274.945	95.06
275.176	79.06
275.408	117.06
275.64	83.06
275.872	77.06
276.104	83.06
276.335	97.06
276.567	92.06
276.799	103.06
277.031	93.06
277.262	102.06
277.494	87.06
277.726	94.06
277.957	83.06
278.189	85.06
278.421	91.06
278.652	95.06
278.884	85.06
279.115	76.06
279.347	89.06
279.579	79.06
279.81	84.06
280.042	106.06
280.273	84.06
280.505	83.06
280.736	92.06
280.968	97.06
281.199	98.06
281.431	79.06
281.662	85.06
281.894	98.06
282.125	86.06
282.356	97.06
282.588	134.06
282.819	116.06
283.051	100.06
283.282	99.06
283.513	78.06
283.745	93.06
283.976	88.06
284.207	77.06
284.439	81.06
284.67	97.06
284.901	87.06
285.132	88.06
285.364	87.06
285.595	86.06
285.826	64.06
286.057	86.06
286.288	88.06
286.52	92.06
286.751	90.06
286.982	102.06
287.213	94.06
287.444	94.06
287.675	83.06
287.906	90.06
288.138	95.06
288.369	90.06
288.6	90.06
288.831	83.06
289.062	83.06
289.293	93.06
289.524	112.06
289.755	82.06
289.986	86.06
290.217	87.06
290.448	89.06
290.679	92.06
290.91	79.06
291.141	100.06
291.371	85.06
291.602	92.06
291.833	104.06
292.064	98.06
292.295	103.06
292.526	106.06
292.757	84.06
292.987	96.06
293.218	84.06
293.449	79.06
293.68	80.06
293.91	72.06
294.141	85.06
294.372	93.06
294.603	84.06
294.833	80.06
295.064	90.06
295.295	84.06
295.525	87.06
295.756	107.06
295.987	112.06
296.217	123.06
296.448	127.06
296.679	95.06
296.909	95.06
297.14	95.06
297.37	88.06
297.601	90.06
297.831	89.06
298.062	75.06
298.292	85.06
298.523	90.06
298.753	99.06
298.984	91.06
299.214	88.06
299.445	91.06
299.675	87.06
299.905	75.06
300.136	90.06
300.366	93.06
300.597	91.06
300.827	101.06
301.057	103.06
301.288	106.06
301.518	105.06
301.748	102.06
301.979	106.06
302.209	110.06
302.439	97.06
302.669	105.06
302.9	82.06
303.13	109.06
303.36	106.06
303.59	100.06
303.82	107.06
304.051	95.06
304.281	93.06
304.511	80.06
304.741	95.06
304.971	94.06
305.201	103.06
305.431	100.06
305.661	94.06
305.891	96.06
306.121	87.06
306.352	111.06
306.582	95.06
306.812	103.06
307.042	109.06
307.272	100.06
307.502	79.06
307.731	98.06
307.961	98.06
308.191	79.06
308.421	96.06
308.651	84.06
308.881	86.06
309.111	82.06
309.341	98.06
309.571	96.06
309.8	99.06
310.03	101.06
310.26	79.06
310.49	92.06
310.72	105.06
310.949	97.06
311.179	98.06
311.409	98.06
311.639	89.06
311.868	95.06
312.098	98.06
312.328	94.06
312.557	98.06
312.787	103.06
313.017	99.06
313.246	83.06
313.476	85.06
313.706	91.06
313.935	86.06
314.165	103.06
314.394	100.06
314.624	110.06
314.853	93.06
315.083	97.06
315.312	92.06
315.542	90.06
315.771	99.06
316.001	105.06
316.23	100.06
316.46	100.06
316.689	99.06
316.919	100.06
317.148	103.06
317.377	101.06
317.607	105.06
317.836	98.06
318.065	93.06
318.295	87.06
318.524	81.06
318.753	96.06
318.983	92.06
319.212	89.06
319.441	104.06
319.67	113.06
319.9	98.06
320.129	90.06
320.358	86.06
320.587	92.06
320.816	97.06
321.046	102.06
321.275	94.06
321.504	101.06
321.733	96.06
321.962	89.06
322.191	102.06
322.42	96.06
322.649	99.06
322.878	105.06
323.108	119.06
323.337	129.06
323.566	131.06
323.795	144.06
324.024	190.06
324.253	332.06
324.482	706.06
324.71	1419.06
324.939	1883.06
325.168	679.06
325.397	216.06
325.626	138.06
325.855	133.06
326.084	126.06
326.313	138.06
326.542	148.06
326.77	208.06
326.999	408.06
327.228	824.06
327.457	1436.06
327.686	1134.06
327.914	327.06
328.143	190.06
328.372	162.06
328.6	107.06
328.829	110.06
329.058	125.06
329.287	124.06
329.515	109.06
329.744	103.06
329.972	119.06
330.201	144.06
330.43	146.06
330.658	132.06
330.887	129.06
331.115	122.06
331.344	92.06
331.572	105.06
331.801	96.06
332.03	100.06
332.258	95.06
332.486	100.06
332.715	80.06
332.943	91.06
333.172	102.06
333.4	105.06
333.629	112.06
333.857	120.06
334.085	100.06
334.314	134.06
334.542	174.06
334.771	153.06
334.999	110.06
335.227	99.06
335.455	95.06
335.684	104.06
335.912	94.06
336.14	85.06
336.369	102.06
336.597	112.06
336.825	98.06
337.053	89.06
337.281	95.06
337.51	87.06
337.738	93.06
337.966	104.06
338.194	107.06
338.422	103.06
338.65	101.06
338.878	97.06
339.106	92.06
339.334	97.06
339.562	83.06
339.79	99.06
340.018	88.06
340.246	97.06
340.474	104.06
340.702	98.06
340.93	103.06
341.158	71.06
341.386	89.06
341.614	92.06
341.842	92.06
342.07	104.06
342.298	100.06
342.526	101.06
342.754	82.06
342.981	81.06
343.209	96.06
343.437	90.06
343.665	99.06
343.893	102.06
344.12	99.06
344.348	97.06
344.576	89.06
344.804	89.06
345.031	100.06
345.259	98.06
345.487	82.06
345.714	86.06
345.942	96.06
346.17	91.06
346.397	92.06
346.625	87.06
346.853	102.06
347.08	105.06
347.308	101.06
347.535	104.06
347.763	116.06
347.99	91.06
348.218	100.06
348.445	97.06
348.673	110.06
348.9	96.06
349.128	109.06
349.355	95.06
349.583	88.06
349.81	94.06
350.037	96.06
350.265	96.06
350.492	95.06
350.72	98.06
350.947	103.06
351.174	117.06
351.402	90.06
351.629	113.06
351.856	117.06
352.083	107.06
352.311	107.06
352.538	111.06
352.765	116.06
352.992	110.06
353.22	97.06
353.447	104.06
353.674	89.06
353.901	106.06
354.128	102.06
354.355	98.06
354.583	98.06
354.81	105.06
355.037	91.06
355.264	86.06
355.491	82.06
355.718	92.06
355.945	106.06
356.172	107.06
356.399	99.06
356.626	100.06
356.853	99.06
357.08	105.06
357.307	95.06
357.534	91.06
357.761	86.06
357.988	95.06
358.215	107.06
358.441	100.06
358.668	98.06
358.895	82.06
359.122	110.06
359.349	84.06
359.576	100.06
359.802	106.06
360.029	110.06
360.256	106.06
360.483	98.06
360.709	92.06
360.936	102.06
361.163	89.06
361.39	110.06
361.616	102.06
361.843	87.06
362.07	88.06
362.296	82.06
362.523	82.06
362.749	85.06
362.976	100.06
363.203	98.06
363.429	92.06
363.656	87.06
363.882	83.06
364.109	89.06
364.335	95.06
364.562	85.06
364.788	82.06
365.015	95.06
365.241	102.06
365.468	116.06
365.694	109.06
365.92	102.06
366.147	92.06
366.373	85.06
366.599	76.06
366.826	94.06
367.052	97.06
367.278	86.06
367.505	90.06
367.731	97.06
367.957	78.06
368.184	110.06
368.41	92.06
368.636	108.06
368.862	118.06
369.089	105.06
369.315	90.06
369.541	100.06
369.767	89.06
369.993	93.06
370.219	91.06
370.445	87.06
370.672	95.06
370.898	87.06
371.124	97.06
371.35	79.06
371.576	91.06
371.802	89.06
372.028	84.06
372.254	87.06
372.48	92.06
372.706	86.06
372.932	82.06
373.158	105.06
373.384	89.06
373.61	102.06
373.835	87.06
374.061	92.06
374.287	93.06
374.513	92.06
374.739	100.06
374.965	95.06
375.191	95.06
375.416	86.06
375.642	84.06
375.868	84.06
376.094	98.06
376.319	102.06
376.545	91.06
376.771	88.06
376.997	83.06
377.222	97.06
377.448	93.06
377.674	95.06
377.899	89.06
378.125	99.06
378.35	96.06
378.576	89.06
378.802	85.06
379.027	107.06
379.253	86.06
379.478	96.06
379.704	86.06
379.929	97.06
380.155	102.06
380.38	90.06
380.606	96.06
380.831	100.06
381.057	99.06
381.282	103.06
381.507	86.06
381.733	102.06
381.958	115.06
382.184	107.06
382.409	102.06
382.634	94.06
382.86	109.06
383.085	111.06
383.31	108.06
383.535	110.06
383.761	103.06
383.986	86.06
384.211	107.06
384.436	111.06
384.662	96.06
384.887	103.06
385.112	111.06
385.337	90.06
385.562	100.06
385.787	104.06
386.013	100.06
386.238	118.06
386.463	103.06
386.688	113.06
386.913	121.06
387.138	121.06
387.363	103.06
387.588	114.06
387.813	109.06
388.038	105.06
388.263	116.06
388.488	106.06
388.713	95.06
388.938	96.06
389.163	95.06
389.387	106.06
389.612	91.06
389.837	87.06
390.062	95.06
390.287	76.06
390.512	99.06
390.736	104.06
390.961	93.06
391.186	110.06
391.411	88.06
391.636	84.06
391.86	82.06
392.085	90.06
392.31	89.06
392.534	84.06
392.759	85.06
392.984	89.06
393.208	84.06
393.433	102.06
393.658	94.06
393.882	89.06
394.107	95.06
394.331	88.06
394.556	87.06
394.78	87.06
395.005	95.06
395.229	83.06
395.454	103.06
395.678	93.06
395.903	101.06
396.127	88.06
396.352	94.06
396.576	89.06
396.801	84.06
397.025	84.06
397.249	97.06
397.474	82.06
397.698	83.06
397.922	74.06
398.147	77.06
398.371	93.06
398.595	101.06
398.82	100.06
399.044	95.06
399.268	81.06
399.492	91.06
399.717	103.06
399.941	96.06
400.165	105.06
400.389	96.06
400.613	98.06
400.837	90.06
401.062	104.06
401.286	93.06
401.51	86.06
401.734	96.06
401.958	101.06
402.182	121.06
402.406	159.06
402.63	115.06
402.854	92.06
403.078	105.06
403.302	89.06
403.526	89.06
403.75	91.06
403.974	73.06
404.198	94.06
404.422	83.06
404.645	83.06
404.869	91.06
405.093	96.06
405.317	98.06
405.541	105.06
405.765	111.06
405.988	113.06
406.212	158.06
406.436	222.06
406.66	135.06
406.883	95.06
407.107	102.06
407.331	110.06
407.555	106.06
407.778	86.06
408.002	90.06
408.226	91.06
408.449	77.06
408.673	88.06
408.896	90.06
409.12	103.06
409.344	100.06
409.567	80.06
409.791	97.06
410.014	103.06
410.238	75.06
410.461	85.06
410.685	97.06
410.908	97.06
411.132	99.06
411.355	107.06
411.578	98.06
411.802	96.06
412.025	87.06
412.249	78.06
412.472	94.06
412.695	101.06
412.919	101.06
413.142	97.06
413.365	62.06
413.589	100.06
413.812	95.06
414.035	97.06
414.258	99.06
414.482	79.06
414.705	102.06
414.928	98.06
415.151	107.06
415.374	92.06
415.597	100.06
415.821	99.06
416.044	103.06
416.267	88.06
416.49	95.06
416.713	101.06
416.936	101.06
417.159	93.06
417.382	100.06
417.605	102.06
417.828	99.06
418.051	101.06
418.274	98.06
418.497	91.06
418.72	90.06
418.943	91.06
419.166	83.06
419.389	95.06
419.611	93.06
419.834	106.06
420.057	88.06
420.28	95.06
420.503	86.06
420.726	111.06
420.948	90.06
421.171	69.06
421.394	90.06
421.617	95.06
421.839	80.06
422.062	97.06
422.285	82.06
422.507	110.06
422.73	105.06
422.953	103.06
423.175	96.06
423.398	95.06
423.621	108.06
423.843	89.06
424.066	87.06
424.288	92.06
424.511	104.06
424.733	91.06
424.956	106.06
425.178	103.06
425.401	99.06
425.623	102.06
425.846	109.06
426.068	88.06
426.291	97.06
426.513	95.06
426.735	86.06
426.958	92.06
427.18	116.06
427.402	133.06
427.625	156.06
427.847	134.06
428.069	110.06
428.292	92.06
428.514	95.06
428.736	81.06
428.958	87.06
429.181	75.06
429.403	89.06
429.625	104.06
429.847	101.06
430.069	111.06
430.292	101.06
430.514	94.06
430.736	78.06
430.958	100.06
431.18	97.06
431.402	84.06
431.624	89.06
431.846	88.06
432.068	92.06
432.29	91.06
432.512	94.06
432.734	97.06
432.956	95.06
433.178	83.06
433.4	99.06
433.622	91.06
433.844	100.06
434.066	98.06
434.287	91.06
434.509	109.06
434.731	89.06
434.953	96.06
435.175	100.06
435.397	102.06
435.618	103.06
435.84	103.06
436.062	118.06
436.284	110.06
436.505	105.06
436.727	93.06
436.949	75.06
437.17	91.06
437.392	105.06
437.614	82.06
437.835	111.06
438.057	122.06
438.278	115.06
438.5	104.06
438.721	111.06
438.943	98.06
439.165	96.06
439.386	87.06
439.608	85.06
439.829	102.06
440.05	135.06
440.272	128.06
440.493	98.06
440.715	91.06
440.936	99.06
441.158	87.06
441.379	90.06
441.6	83.06
441.822	99.06
442.043	105.06
442.264	110.06
442.486	101.06
442.707	89.06
442.928	112.06
443.149	126.06
443.371	134.06
443.592	103.06
443.813	103.06
444.034	101.06
444.255	88.06
444.476	90.06
444.698	83.06
444.919	92.06
445.14	140.06
445.361	127.06
445.582	110.06
445.803	119.06
446.024	104.06
446.245	103.06
446.466	114.06
446.687	80.06
446.908	101.06
447.129	84.06
447.35	97.06
447.571	83.06
447.792	96.06
448.013	100.06
448.234	96.06
448.455	107.06
448.675	105.06
448.896	114.06
449.117	105.06
449.338	120.06
449.559	138.06
449.779	138.06
450	107.06
450.221	79.06
450.442	87.06
450.662	95.06
450.883	108.06
451.104	119.06
451.324	95.06
451.545	104.06
451.766	84.06
451.986	84.06
452.207	100.06
452.428	95.06
452.648	104.06
452.869	101.06
453.089	105.06
453.31	113.06
453.53	95.06
453.751	80.06
453.971	86.06
454.192	100.06
454.412	91.06
454.633	88.06
454.853	88.06
455.073	79.06
455.294	94.06
455.514	84.06
455.734	96.06
455.955	91.06
456.175	88.06
456.395	88.06
456.616	92.06
456.836	89.06
457.056	91.06
457.276	95.06
457.497	96.06
457.717	84.06
457.937	101.06
458.157	85.06
458.377	98.06
458.598	105.06
458.818	140.06
459.038	154.06
459.258	114.06
459.478	90.06
459.698	97.06
459.918	97.06
460.138	90.06
460.358	88.06
460.578	85.06
460.798	90.06
461.018	95.06
461.238	95.06
461.458	90.06
461.678	82.06
461.898	93.06
462.118	99.06
462.338	87.06
462.558	89.06
462.777	79.06
462.997	81.06
463.217	64.06
463.437	76.06
463.657	91.06
463.876	92.06
464.096	95.06
464.316	94.06
464.536	98.06
464.755	98.06
464.975	103.06
465.195	154.06
465.414	160.06
465.634	99.06
465.854	99.06
466.073	81.06
466.293	92.06
466.512	89.06
466.732	82.06
466.951	77.06
467.171	92.06
467.391	102.06
467.61	103.06
467.829	110.06
468.049	112.06
468.268	107.06
468.488	95.06
468.707	80.06
468.927	83.06
469.146	83.06
469.365	83.06
469.585	87.06
469.804	105.06
470.023	89.06
470.243	89.06
470.462	104.06
470.681	117.06
470.901	90.06
471.12	91.06
471.339	88.06
471.558	92.06
471.777	93.06
471.997	94.06
472.216	132.06
472.435	167.06
472.654	105.06
472.873	96.06
473.092	85.06
473.311	91.06
473.53	86.06
473.749	92.06
473.968	101.06
474.187	113.06
474.406	93.06
474.625	104.06
474.844	78.06
475.063	91.06
475.282	71.06
475.501	85.06
475.72	106.06
475.939	100.06
476.158	82.06
476.377	86.06
476.596	84.06
476.814	91.06
477.033	92.06
477.252	88.06
477.471	91.06
477.69	91.06
477.908	84.06
478.127	93.06
478.346	81.06
478.564	101.06
478.783	98.06
479.002	99.06
479.22	105.06
479.439	107.06
479.658	98.06
479.876	100.06
480.095	88.06
480.313	111.06
480.532	104.06
480.751	114.06
480.969	141.06
481.188	273.06
481.406	201.06
481.624	116.06
481.843	93.06
482.061	93.06
482.28	91.06
482.498	98.06
482.717	103.06
482.935	96.06
483.153	90.06
483.372	107.06
483.59	86.06
483.808	92.06
484.027	98.06
484.245	105.06
484.463	103.06
484.681	98.06
484.9	102.06
485.118	99.06
485.336	95.06
485.554	106.06
485.772	102.06
485.99	97.06
486.209	108.06
486.427	106.06
486.645	107.06
486.863	105.06
487.081	95.06
487.299	107.06
487.517	96.06
487.735	100.06
487.953	96.06
488.171	100.06
488.389	103.06
488.607	107.06
488.825	86.06
489.043	101.06
489.261	84.06
489.479	99.06
489.696	85.06
489.914	88.06
490.132	92.06
490.35	95.06
490.568	100.06
490.786	88.06
491.003	86.06
491.221	101.06
491.439	91.06
491.657	111.06
491.874	102.06
492.092	90.06
492.31	86.06
492.527	84.06
492.745	97.06
492.963	90.06
493.18	87.06
493.398	92.06
493.615	108.06
493.833	91.06
494.05	93.06
494.268	90.06
494.485	96.06
494.703	84.06
494.92	91.06
495.138	96.06
495.355	91.06
495.573	91.06
495.79	88.06
496.008	90.06
496.225	99.06
496.442	91.06
496.66	86.06
496.877	95.06
497.094	97.06
497.312	95.06
497.529	95.06
497.746	91.06
497.963	91.06
498.181	94.06
498.398	103.06
498.615	116.06
498.832	121.06
499.049	89.06
499.267	80.06
499.484	89.06
499.701	92.06
499.918	82.06
500.135	89.06
500.352	87.06
500.569	97.06
500.786	84.06
501.003	84.06
501.22	101.06
501.437	94.06
501.654	97.06
501.871	121.06
502.088	103.06
502.305	100.06
502.522	98.06
502.739	103.06
502.956	94.06
503.172	96.06
503.389	99.06
503.606	89.06
503.823	103.06
504.04	104.06
504.256	104.06
504.473	98.06
504.69	91.06
504.907	106.06
505.123	91.06
505.34	91.06
505.557	101.06
505.773	84.06
505.99	95.06
506.207	90.06
506.423	89.06
506.64	102.06
506.856	105.06
507.073	95.06
507.289	111.06
507.506	102.06
507.722	110.06
507.939	103.06
508.155	89.06
508.372	99.06
508.588	91.06
508.805	85.06
509.021	96.06
509.238	112.06
509.454	114.06
509.67	117.06
509.887	91.06
510.103	123.06
510.319	206.06
510.536	672.06
510.752	2226.06
510.968	633.06
511.184	158.06
511.401	114.06
511.617	95.06
511.833	93.06
512.049	82.06
512.265	99.06
512.481	94.06
512.698	103.06
512.914	108.06
513.13	92.06
513.346	97.06
513.562	112.06
513.778	108.06
513.994	91.06
514.21	94.06
514.426	107.06
