Data from Circ_2005_H10_HRD10591_00100.txt Node
Date: Wed Jan 03 10:30:11 EST 2024
User: Yrep
Spectrometer: HR+D1059
Trigger mode: 1
Integration Time (sec): 1.000000E-1
Scans to average: 1
Electric dark correction enabled: true
Nonlinearity correction enabled: false
Boxcar width: 0
XAxis mode: Wavelengths
Number of Pixels in Spectrum: 2048
>>>>>Begin Spectral Data<<<<<
223.165	-11.19
223.4	-11.19
223.635	-11.19
223.869	-25.19
224.104	-23.19
224.338	-12.19
224.573	-20.19
224.808	4.81
225.042	-1.19
225.277	-16.19
225.511	5.81
225.746	6.81
225.98	13.81
226.215	13.81
226.449	20.81
226.683	6.81
226.918	17.81
227.152	18.81
227.387	47.81
227.621	39.81
227.856	30.81
228.09	40.81
228.324	44.81
228.559	50.81
228.793	58.81
229.027	62.81
229.262	69.81
229.496	71.81
229.73	93.81
229.964	84.81
230.199	80.81
230.433	69.81
230.667	81.81
230.901	84.81
231.136	83.81
231.37	78.81
231.604	70.81
231.838	85.81
232.072	76.81
232.306	92.81
232.541	85.81
232.775	71.81
233.009	64.81
233.243	86.81
233.477	77.81
233.711	83.81
233.945	80.81
234.179	83.81
234.413	88.81
234.647	72.81
234.881	87.81
235.115	88.81
235.349	65.81
235.583	96.81
235.817	70.81
236.051	81.81
236.285	71.81
236.519	78.81
236.753	81.81
236.987	88.81
237.221	83.81
237.455	84.81
237.689	77.81
237.922	81.81
238.156	79.81
238.39	82.81
238.624	77.81
238.858	83.81
239.091	61.81
239.325	66.81
239.559	75.81
239.793	78.81
240.027	66.81
240.26	72.81
240.494	76.81
240.728	66.81
240.961	86.81
241.195	93.81
241.429	73.81
241.662	71.81
241.896	75.81
242.13	88.81
242.363	74.81
242.597	87.81
242.83	68.81
243.064	74.81
243.298	79.81
243.531	86.81
243.765	83.81
243.998	78.81
244.232	80.81
244.465	91.81
244.699	84.81
244.932	73.81
245.166	91.81
245.399	71.81
245.633	68.81
245.866	89.81
246.099	75.81
246.333	70.81
246.566	83.81
246.8	69.81
247.033	75.81
247.266	86.81
247.5	87.81
247.733	88.81
247.966	66.81
248.2	89.81
248.433	92.81
248.666	91.81
248.899	78.81
249.133	83.81
249.366	97.81
249.599	92.81
249.832	88.81
250.066	89.81
250.299	79.81
250.532	74.81
250.765	83.81
250.998	91.81
251.231	71.81
251.465	65.81
251.698	66.81
251.931	74.81
252.164	73.81
252.397	87.81
252.63	84.81
252.863	85.81
253.096	76.81
253.329	87.81
253.562	69.81
253.795	79.81
254.028	76.81
254.261	74.81
254.494	77.81
254.727	79.81
254.96	79.81
255.193	98.81
255.426	77.81
255.659	76.81
255.892	91.81
256.124	92.81
256.357	78.81
256.59	70.81
256.823	80.81
257.056	98.81
257.289	92.81
257.521	59.81
257.754	83.81
257.987	92.81
258.22	95.81
258.452	94.81
258.685	84.81
258.918	74.81
259.151	76.81
259.383	71.81
259.616	78.81
259.849	81.81
260.081	86.81
260.314	87.81
260.547	94.81
260.779	98.81
261.012	94.81
261.244	80.81
261.477	87.81
261.71	89.81
261.942	116.81
262.175	117.81
262.407	87.81
262.64	86.81
262.872	85.81
263.105	81.81
263.337	79.81
263.57	86.81
263.802	79.81
264.035	87.81
264.267	64.81
264.499	77.81
264.732	76.81
264.964	86.81
265.197	79.81
265.429	86.81
265.661	82.81
265.894	79.81
266.126	68.81
266.358	80.81
266.591	85.81
266.823	74.81
267.055	91.81
267.287	96.81
267.52	86.81
267.752	92.81
267.984	82.81
268.216	82.81
268.448	91.81
268.681	79.81
268.913	82.81
269.145	83.81
269.377	87.81
269.609	90.81
269.841	70.81
270.073	91.81
270.306	90.81
270.538	98.81
270.77	100.81
271.002	78.81
271.234	88.81
271.466	79.81
271.698	79.81
271.93	90.81
272.162	87.81
272.394	88.81
272.626	95.81
272.858	84.81
273.09	74.81
273.322	82.81
273.553	79.81
273.785	79.81
274.017	79.81
274.249	94.81
274.481	86.81
274.713	94.81
274.945	74.81
275.176	97.81
275.408	81.81
275.64	85.81
275.872	86.81
276.104	99.81
276.335	100.81
276.567	102.81
276.799	114.81
277.031	100.81
277.262	89.81
277.494	101.81
277.726	83.81
277.957	85.81
278.189	82.81
278.421	96.81
278.652	92.81
278.884	84.81
279.115	88.81
279.347	82.81
279.579	93.81
279.81	83.81
280.042	92.81
280.273	112.81
280.505	93.81
280.736	95.81
280.968	75.81
281.199	83.81
281.431	87.81
281.662	91.81
281.894	94.81
282.125	102.81
282.356	116.81
282.588	133.81
282.819	132.81
283.051	94.81
283.282	71.81
283.513	89.81
283.745	78.81
283.976	84.81
284.207	69.81
284.439	94.81
284.67	87.81
284.901	74.81
285.132	90.81
285.364	95.81
285.595	94.81
285.826	84.81
286.057	78.81
286.288	87.81
286.52	85.81
286.751	86.81
286.982	86.81
287.213	76.81
287.444	83.81
287.675	78.81
287.906	98.81
288.138	95.81
288.369	89.81
288.6	91.81
288.831	84.81
289.062	85.81
289.293	80.81
289.524	82.81
289.755	88.81
289.986	90.81
290.217	88.81
290.448	99.81
290.679	93.81
290.91	83.81
291.141	94.81
291.371	85.81
291.602	82.81
291.833	81.81
292.064	97.81
292.295	91.81
292.526	99.81
292.757	89.81
292.987	90.81
293.218	86.81
293.449	74.81
293.68	83.81
293.91	93.81
294.141	88.81
294.372	90.81
294.603	101.81
294.833	96.81
295.064	88.81
295.295	63.81
295.525	104.81
295.756	104.81
295.987	114.81
296.217	142.81
296.448	126.81
296.679	96.81
296.909	78.81
297.14	88.81
297.37	95.81
297.601	77.81
297.831	86.81
298.062	106.81
298.292	90.81
298.523	97.81
298.753	93.81
298.984	88.81
299.214	93.81
299.445	83.81
299.675	84.81
299.905	87.81
300.136	104.81
300.366	84.81
300.597	85.81
300.827	87.81
301.057	105.81
301.288	102.81
301.518	96.81
301.748	86.81
301.979	107.81
302.209	95.81
302.439	94.81
302.669	106.81
302.9	92.81
303.13	83.81
303.36	74.81
303.59	106.81
303.82	106.81
304.051	100.81
304.281	78.81
304.511	87.81
304.741	76.81
304.971	79.81
305.201	79.81
305.431	93.81
305.661	91.81
305.891	96.81
306.121	95.81
306.352	100.81
306.582	109.81
306.812	91.81
307.042	88.81
307.272	92.81
307.502	94.81
307.731	100.81
307.961	85.81
308.191	88.81
308.421	98.81
308.651	91.81
308.881	89.81
309.111	98.81
309.341	80.81
309.571	97.81
309.8	102.81
310.03	103.81
310.26	93.81
310.49	95.81
310.72	103.81
310.949	103.81
311.179	115.81
311.409	83.81
311.639	93.81
311.868	83.81
312.098	85.81
312.328	85.81
312.557	90.81
312.787	104.81
313.017	95.81
313.246	100.81
313.476	82.81
313.706	79.81
313.935	98.81
314.165	90.81
314.394	102.81
314.624	103.81
314.853	91.81
315.083	96.81
315.312	90.81
315.542	92.81
315.771	89.81
316.001	95.81
316.23	102.81
316.46	83.81
316.689	94.81
316.919	98.81
317.148	80.81
317.377	80.81
317.607	86.81
317.836	99.81
318.065	110.81
318.295	85.81
318.524	84.81
318.753	90.81
318.983	87.81
319.212	91.81
319.441	105.81
319.67	113.81
319.9	104.81
320.129	84.81
320.358	94.81
320.587	87.81
320.816	91.81
321.046	112.81
321.275	114.81
321.504	93.81
321.733	94.81
321.962	88.81
322.191	111.81
322.42	104.81
322.649	99.81
322.878	115.81
323.108	116.81
323.337	137.81
323.566	136.81
323.795	168.81
324.024	211.81
324.253	416.81
324.482	887.81
324.71	1870.81
324.939	2535.81
325.168	915.81
325.397	266.81
325.626	141.81
325.855	124.81
326.084	128.81
326.313	139.81
326.542	159.81
326.77	245.81
326.999	498.81
327.228	1057.81
327.457	1916.81
327.686	1536.81
327.914	412.81
328.143	258.81
328.372	235.81
328.6	162.81
328.829	134.81
329.058	134.81
329.287	128.81
329.515	118.81
329.744	126.81
329.972	159.81
330.201	267.81
330.43	350.81
330.658	213.81
330.887	166.81
331.115	125.81
331.344	113.81
331.572	107.81
331.801	97.81
332.03	105.81
332.258	88.81
332.486	81.81
332.715	99.81
332.943	95.81
333.172	104.81
333.4	89.81
333.629	124.81
333.857	135.81
334.085	161.81
334.314	256.81
334.542	419.81
334.771	404.81
334.999	161.81
335.227	109.81
335.455	104.81
335.684	107.81
335.912	100.81
336.14	90.81
336.369	100.81
336.597	97.81
336.825	101.81
337.053	95.81
337.281	89.81
337.51	92.81
337.738	94.81
337.966	83.81
338.194	96.81
338.422	91.81
338.65	100.81
338.878	102.81
339.106	102.81
339.334	83.81
339.562	89.81
339.79	75.81
340.018	82.81
340.246	99.81
340.474	95.81
340.702	86.81
340.93	87.81
341.158	88.81
341.386	89.81
341.614	96.81
341.842	93.81
342.07	94.81
342.298	88.81
342.526	97.81
342.754	76.81
342.981	101.81
343.209	82.81
343.437	96.81
343.665	80.81
343.893	101.81
344.12	91.81
344.348	91.81
344.576	93.81
344.804	81.81
345.031	81.81
345.259	107.81
345.487	86.81
345.714	88.81
345.942	84.81
346.17	98.81
346.397	91.81
346.625	77.81
346.853	88.81
347.08	92.81
347.308	99.81
347.535	110.81
347.763	95.81
347.99	94.81
348.218	88.81
348.445	98.81
348.673	93.81
348.9	82.81
349.128	91.81
349.355	98.81
349.583	86.81
349.81	109.81
350.037	94.81
350.265	95.81
350.492	93.81
350.72	70.81
350.947	108.81
351.174	96.81
351.402	104.81
351.629	105.81
351.856	110.81
352.083	109.81
352.311	97.81
352.538	98.81
352.765	108.81
352.992	114.81
353.22	107.81
353.447	104.81
353.674	103.81
353.901	105.81
354.128	92.81
354.355	95.81
354.583	97.81
354.81	90.81
355.037	95.81
355.264	97.81
355.491	86.81
355.718	92.81
355.945	92.81
356.172	96.81
356.399	97.81
356.626	95.81
356.853	84.81
357.08	79.81
357.307	90.81
357.534	103.81
357.761	116.81
357.988	92.81
358.215	93.81
358.441	91.81
358.668	95.81
358.895	83.81
359.122	80.81
359.349	103.81
359.576	89.81
359.802	98.81
360.029	119.81
360.256	105.81
360.483	108.81
360.709	96.81
360.936	105.81
361.163	94.81
361.39	97.81
361.616	96.81
361.843	96.81
362.07	96.81
362.296	96.81
362.523	99.81
362.749	97.81
362.976	94.81
363.203	92.81
363.429	93.81
363.656	81.81
363.882	97.81
364.109	88.81
364.335	92.81
364.562	85.81
364.788	93.81
365.015	96.81
365.241	101.81
365.468	111.81
365.694	114.81
365.92	98.81
366.147	90.81
366.373	98.81
366.599	94.81
366.826	99.81
367.052	84.81
367.278	96.81
367.505	96.81
367.731	105.81
367.957	96.81
368.184	88.81
368.41	111.81
368.636	91.81
368.862	117.81
369.089	90.81
369.315	87.81
369.541	100.81
369.767	86.81
369.993	90.81
370.219	97.81
370.445	91.81
370.672	91.81
370.898	75.81
371.124	92.81
371.35	100.81
371.576	91.81
371.802	79.81
372.028	78.81
372.254	90.81
372.48	86.81
372.706	92.81
372.932	96.81
373.158	89.81
373.384	98.81
373.61	90.81
373.835	88.81
374.061	90.81
374.287	88.81
374.513	101.81
374.739	83.81
374.965	88.81
375.191	108.81
375.416	80.81
375.642	89.81
375.868	98.81
376.094	78.81
376.319	91.81
376.545	79.81
376.771	91.81
376.997	96.81
377.222	90.81
377.448	102.81
377.674	96.81
377.899	93.81
378.125	82.81
378.35	85.81
378.576	92.81
378.802	94.81
379.027	99.81
379.253	107.81
379.478	90.81
379.704	98.81
379.929	98.81
380.155	98.81
380.38	79.81
380.606	97.81
380.831	80.81
381.057	89.81
381.282	90.81
381.507	102.81
381.733	99.81
381.958	84.81
382.184	97.81
382.409	89.81
382.634	91.81
382.86	104.81
383.085	102.81
383.31	88.81
383.535	111.81
383.761	103.81
383.986	106.81
384.211	88.81
384.436	96.81
384.662	99.81
384.887	91.81
385.112	111.81
385.337	113.81
385.562	91.81
385.787	89.81
386.013	110.81
386.238	98.81
386.463	98.81
386.688	97.81
386.913	99.81
387.138	106.81
387.363	101.81
387.588	96.81
387.813	108.81
388.038	96.81
388.263	93.81
388.488	102.81
388.713	103.81
388.938	104.81
389.163	103.81
389.387	84.81
389.612	91.81
389.837	92.81
390.062	99.81
390.287	89.81
390.512	94.81
390.736	85.81
390.961	96.81
391.186	96.81
391.411	98.81
391.636	93.81
391.86	78.81
392.085	96.81
392.31	88.81
392.534	84.81
392.759	94.81
392.984	74.81
393.208	83.81
393.433	84.81
393.658	95.81
393.882	93.81
394.107	94.81
394.331	70.81
394.556	93.81
394.78	85.81
395.005	90.81
395.229	95.81
395.454	75.81
395.678	89.81
395.903	83.81
396.127	88.81
396.352	72.81
396.576	99.81
396.801	82.81
397.025	85.81
397.249	77.81
397.474	88.81
397.698	78.81
397.922	86.81
398.147	88.81
398.371	95.81
398.595	93.81
398.82	88.81
399.044	88.81
399.268	92.81
399.492	102.81
399.717	80.81
399.941	83.81
400.165	91.81
400.389	90.81
400.613	94.81
400.837	92.81
401.062	102.81
401.286	80.81
401.51	91.81
401.734	80.81
401.958	107.81
402.182	115.81
402.406	145.81
402.63	129.81
402.854	93.81
403.078	88.81
403.302	83.81
403.526	80.81
403.75	85.81
403.974	100.81
404.198	74.81
404.422	101.81
404.645	76.81
404.869	102.81
405.093	86.81
405.317	107.81
405.541	106.81
405.765	98.81
405.988	117.81
406.212	164.81
406.436	213.81
406.66	141.81
406.883	110.81
407.107	93.81
407.331	107.81
407.555	101.81
407.778	110.81
408.002	96.81
408.226	100.81
408.449	106.81
408.673	96.81
408.896	79.81
409.12	92.81
409.344	93.81
409.567	87.81
409.791	87.81
410.014	84.81
410.238	74.81
410.461	98.81
410.685	87.81
410.908	95.81
411.132	103.81
411.355	92.81
411.578	93.81
411.802	78.81
412.025	83.81
412.249	99.81
412.472	94.81
412.695	107.81
412.919	86.81
413.142	90.81
413.365	70.81
413.589	87.81
413.812	75.81
414.035	89.81
414.258	84.81
414.482	87.81
414.705	86.81
414.928	94.81
415.151	77.81
415.374	91.81
415.597	81.81
415.821	88.81
416.044	94.81
416.267	87.81
416.49	88.81
416.713	77.81
416.936	80.81
417.159	85.81
417.382	83.81
417.605	87.81
417.828	87.81
418.051	98.81
418.274	84.81
418.497	97.81
418.72	86.81
418.943	92.81
419.166	82.81
419.389	95.81
419.611	87.81
419.834	103.81
420.057	88.81
420.28	82.81
420.503	85.81
420.726	78.81
420.948	76.81
421.171	102.81
421.394	108.81
421.617	96.81
421.839	90.81
422.062	95.81
422.285	98.81
422.507	98.81
422.73	104.81
422.953	92.81
423.175	101.81
423.398	100.81
423.621	100.81
423.843	76.81
424.066	93.81
424.288	93.81
424.511	94.81
424.733	91.81
424.956	115.81
425.178	99.81
425.401	96.81
425.623	103.81
425.846	84.81
426.068	98.81
426.291	87.81
426.513	80.81
426.735	94.81
426.958	99.81
427.18	115.81
427.402	149.81
427.625	194.81
427.847	156.81
428.069	151.81
428.292	112.81
428.514	99.81
428.736	91.81
428.958	78.81
429.181	77.81
429.403	88.81
429.625	90.81
429.847	80.81
430.069	97.81
430.292	90.81
430.514	86.81
430.736	82.81
430.958	94.81
431.18	81.81
431.402	82.81
431.624	91.81
431.846	73.81
432.068	87.81
432.29	93.81
432.512	91.81
432.734	91.81
432.956	97.81
433.178	96.81
433.4	84.81
433.622	88.81
433.844	102.81
434.066	96.81
434.287	80.81
434.509	91.81
434.731	96.81
434.953	105.81
435.175	84.81
435.397	91.81
435.618	112.81
435.84	107.81
436.062	119.81
436.284	114.81
436.505	98.81
436.727	100.81
436.949	93.81
437.17	92.81
437.392	88.81
437.614	96.81
437.835	111.81
438.057	112.81
438.278	116.81
438.5	115.81
438.721	129.81
438.943	106.81
439.165	90.81
439.386	78.81
439.608	94.81
439.829	106.81
440.05	113.81
440.272	148.81
440.493	103.81
440.715	87.81
440.936	76.81
441.158	87.81
441.379	72.81
441.6	93.81
441.822	100.81
442.043	106.81
442.264	112.81
442.486	107.81
442.707	90.81
442.928	106.81
443.149	117.81
443.371	125.81
443.592	110.81
443.813	119.81
444.034	123.81
444.255	97.81
444.476	88.81
444.698	100.81
444.919	96.81
445.14	122.81
445.361	114.81
445.582	100.81
445.803	140.81
446.024	147.81
446.245	129.81
446.466	107.81
446.687	94.81
446.908	94.81
447.129	99.81
447.35	90.81
447.571	81.81
447.792	97.81
448.013	102.81
448.234	109.81
448.455	125.81
448.675	124.81
448.896	113.81
449.117	92.81
449.338	104.81
449.559	125.81
449.779	126.81
450	94.81
450.221	83.81
450.442	95.81
450.662	93.81
450.883	102.81
451.104	106.81
451.324	95.81
451.545	92.81
451.766	102.81
451.986	89.81
452.207	92.81
452.428	88.81
452.648	108.81
452.869	117.81
453.089	100.81
453.31	111.81
453.53	97.81
453.751	85.81
453.971	86.81
454.192	102.81
454.412	91.81
454.633	89.81
454.853	87.81
455.073	73.81
455.294	78.81
455.514	90.81
455.734	99.81
455.955	83.81
456.175	85.81
456.395	76.81
456.616	86.81
456.836	80.81
457.056	88.81
457.276	91.81
457.497	66.81
457.717	82.81
457.937	87.81
458.157	77.81
458.377	95.81
458.598	109.81
458.818	140.81
459.038	155.81
459.258	142.81
459.478	85.81
459.698	90.81
459.918	91.81
460.138	88.81
460.358	91.81
460.578	94.81
460.798	80.81
461.018	90.81
461.238	80.81
461.458	79.81
461.678	90.81
461.898	88.81
462.118	90.81
462.338	89.81
462.558	98.81
462.777	100.81
462.997	82.81
463.217	76.81
463.437	100.81
463.657	83.81
463.876	92.81
464.096	83.81
464.316	82.81
464.536	86.81
464.755	95.81
464.975	110.81
465.195	160.81
465.414	152.81
465.634	87.81
465.854	84.81
466.073	99.81
466.293	76.81
466.512	64.81
466.732	90.81
466.951	87.81
467.171	83.81
467.391	92.81
467.61	125.81
467.829	120.81
468.049	166.81
468.268	208.81
468.488	103.81
468.707	91.81
468.927	94.81
469.146	85.81
469.365	97.81
469.585	99.81
469.804	100.81
470.023	93.81
470.243	98.81
470.462	95.81
470.681	115.81
470.901	95.81
471.12	94.81
471.339	102.81
471.558	85.81
471.777	105.81
471.997	113.81
472.216	273.81
472.435	527.81
472.654	181.81
472.873	98.81
473.092	94.81
473.311	88.81
473.53	91.81
473.749	103.81
473.968	106.81
474.187	109.81
474.406	97.81
474.625	83.81
474.844	104.81
475.063	81.81
475.282	88.81
475.501	75.81
475.72	92.81
475.939	83.81
476.158	87.81
476.377	87.81
476.596	93.81
476.814	95.81
477.033	89.81
477.252	91.81
477.471	83.81
477.69	82.81
477.908	72.81
478.127	98.81
478.346	86.81
478.564	94.81
478.783	99.81
479.002	99.81
479.22	92.81
479.439	113.81
479.658	85.81
479.876	94.81
480.095	98.81
480.313	111.81
480.532	103.81
480.751	122.81
480.969	274.81
481.188	879.81
481.406	580.81
481.624	142.81
481.843	89.81
482.061	79.81
482.28	87.81
482.498	83.81
482.717	91.81
482.935	99.81
483.153	88.81
483.372	80.81
483.59	92.81
483.808	91.81
484.027	99.81
484.245	82.81
484.463	89.81
484.681	87.81
484.9	100.81
485.118	92.81
485.336	88.81
485.554	98.81
485.772	85.81
485.99	100.81
486.209	98.81
486.427	107.81
486.645	117.81
486.863	107.81
487.081	102.81
487.299	107.81
487.517	82.81
487.735	95.81
487.953	99.81
488.171	92.81
488.389	87.81
488.607	101.81
488.825	103.81
489.043	87.81
489.261	85.81
489.479	81.81
489.696	97.81
489.914	85.81
490.132	93.81
490.35	81.81
490.568	95.81
490.786	88.81
491.003	85.81
491.221	92.81
491.439	101.81
491.657	107.81
491.874	104.81
492.092	76.81
492.31	88.81
492.527	90.81
492.745	103.81
492.963	85.81
493.18	79.81
493.398	81.81
493.615	93.81
493.833	88.81
494.05	92.81
494.268	104.81
494.485	92.81
494.703	85.81
494.92	100.81
495.138	87.81
495.355	84.81
495.573	103.81
495.79	93.81
496.008	99.81
496.225	94.81
496.442	90.81
496.66	96.81
496.877	92.81
497.094	88.81
497.312	84.81
497.529	90.81
497.746	107.81
497.963	88.81
498.181	87.81
498.398	98.81
498.615	107.81
498.832	94.81
499.049	102.81
499.267	87.81
499.484	83.81
499.701	86.81
499.918	95.81
500.135	82.81
500.352	82.81
500.569	86.81
500.786	97.81
501.003	83.81
501.22	95.81
501.437	88.81
501.654	77.81
501.871	101.81
502.088	86.81
502.305	92.81
502.522	93.81
502.739	81.81
502.956	89.81
503.172	96.81
503.389	100.81
503.606	100.81
503.823	91.81
504.04	87.81
504.256	106.81
504.473	90.81
504.69	93.81
504.907	96.81
505.123	90.81
505.34	86.81
505.557	95.81
505.773	88.81
505.99	82.81
506.207	84.81
506.423	91.81
506.64	83.81
506.856	97.81
507.073	97.81
507.289	100.81
507.506	101.81
507.722	122.81
507.939	99.81
508.155	84.81
508.372	86.81
508.588	90.81
508.805	114.81
509.021	100.81
509.238	91.81
509.454	105.81
509.67	95.81
509.887	103.81
510.103	131.81
510.319	196.81
510.536	736.81
510.752	2428.81
510.968	676.81
511.184	150.81
511.401	114.81
511.617	96.81
511.833	88.81
512.049	97.81
512.265	90.81
512.481	95.81
512.698	108.81
512.914	96.81
513.13	93.81
513.346	93.81
513.562	93.81
513.778	94.81
513.994	92.81
514.21	98.81
514.426	114.81
514.642	141.81
514.858	123.81
515.074	172.81
515.29	453.81
515.506	1513.81
