Data from Circ_2005_H10_HRD10591_00085.txt Node
Date: Wed Jan 03 10:30:08 EST 2024
User: Yrep
Spectrometer: HR+D1059
Trigger mode: 1
Integration Time (sec): 1.000000E-1
Scans to average: 1
Electric dark correction enabled: true
Nonlinearity correction enabled: false
Boxcar width: 0
XAxis mode: Wavelengths
Number of Pixels in Spectrum: 2048
>>>>>Begin Spectral Data<<<<<
223.165	-21.94
223.4	-21.94
223.635	-21.94
223.869	-17.94
224.104	-25.94
224.338	-12.94
224.573	-9.94
224.808	-6.94
225.042	-5.94
225.277	-15.94
225.511	-2.94
225.746	4.06
225.98	5.06
226.215	19.06
226.449	21.06
226.683	8.06
226.918	22.06
227.152	41.06
227.387	37.06
227.621	50.06
227.856	52.06
228.09	48.06
228.324	62.06
228.559	61.06
228.793	60.06
229.027	66.06
229.262	56.06
229.496	57.06
229.73	71.06
229.964	75.06
230.199	82.06
230.433	74.06
230.667	82.06
230.901	72.06
231.136	78.06
231.37	69.06
231.604	69.06
231.838	84.06
232.072	78.06
232.306	85.06
232.541	88.06
232.775	91.06
233.009	92.06
233.243	87.06
233.477	83.06
233.711	71.06
233.945	86.06
234.179	85.06
234.413	91.06
234.647	92.06
234.881	81.06
235.115	85.06
235.349	93.06
235.583	84.06
235.817	74.06
236.051	82.06
236.285	91.06
236.519	76.06
236.753	80.06
236.987	81.06
237.221	84.06
237.455	85.06
237.689	89.06
237.922	79.06
238.156	80.06
238.39	69.06
238.624	77.06
238.858	77.06
239.091	85.06
239.325	77.06
239.559	97.06
239.793	89.06
240.027	92.06
240.26	82.06
240.494	81.06
240.728	88.06
240.961	86.06
241.195	73.06
241.429	74.06
241.662	79.06
241.896	84.06
242.13	78.06
242.363	73.06
242.597	84.06
242.83	70.06
243.064	78.06
243.298	70.06
243.531	81.06
243.765	78.06
243.998	78.06
244.232	86.06
244.465	84.06
244.699	79.06
244.932	75.06
245.166	69.06
245.399	66.06
245.633	73.06
245.866	84.06
246.099	73.06
246.333	83.06
246.566	87.06
246.8	83.06
247.033	89.06
247.266	78.06
247.5	70.06
247.733	90.06
247.966	85.06
248.2	84.06
248.433	80.06
248.666	81.06
248.899	79.06
249.133	86.06
249.366	99.06
249.599	89.06
249.832	73.06
250.066	81.06
250.299	88.06
250.532	85.06
250.765	92.06
250.998	85.06
251.231	71.06
251.465	72.06
251.698	87.06
251.931	73.06
252.164	84.06
252.397	84.06
252.63	82.06
252.863	98.06
253.096	87.06
253.329	88.06
253.562	76.06
253.795	89.06
254.028	84.06
254.261	89.06
254.494	88.06
254.727	86.06
254.96	70.06
255.193	65.06
255.426	75.06
255.659	98.06
255.892	87.06
256.124	82.06
256.357	80.06
256.59	76.06
256.823	69.06
257.056	86.06
257.289	70.06
257.521	64.06
257.754	86.06
257.987	82.06
258.22	76.06
258.452	85.06
258.685	86.06
258.918	73.06
259.151	92.06
259.383	81.06
259.616	80.06
259.849	88.06
260.081	88.06
260.314	73.06
260.547	82.06
260.779	89.06
261.012	61.06
261.244	72.06
261.477	76.06
261.71	90.06
261.942	108.06
262.175	101.06
262.407	94.06
262.64	79.06
262.872	90.06
263.105	88.06
263.337	83.06
263.57	88.06
263.802	76.06
264.035	95.06
264.267	81.06
264.499	90.06
264.732	94.06
264.964	98.06
265.197	86.06
265.429	86.06
265.661	87.06
265.894	87.06
266.126	80.06
266.358	87.06
266.591	78.06
266.823	91.06
267.055	85.06
267.287	72.06
267.52	80.06
267.752	99.06
267.984	95.06
268.216	81.06
268.448	91.06
268.681	76.06
268.913	88.06
269.145	97.06
269.377	87.06
269.609	87.06
269.841	81.06
270.073	97.06
270.306	95.06
270.538	93.06
270.77	88.06
271.002	81.06
271.234	88.06
271.466	80.06
271.698	73.06
271.93	85.06
272.162	78.06
272.394	69.06
272.626	97.06
272.858	85.06
273.09	82.06
273.322	91.06
273.553	86.06
273.785	90.06
274.017	93.06
274.249	88.06
274.481	77.06
274.713	85.06
274.945	86.06
275.176	79.06
275.408	96.06
275.64	76.06
275.872	89.06
276.104	103.06
276.335	97.06
276.567	105.06
276.799	97.06
277.031	110.06
277.262	106.06
277.494	98.06
277.726	89.06
277.957	80.06
278.189	90.06
278.421	87.06
278.652	86.06
278.884	97.06
279.115	79.06
279.347	84.06
279.579	84.06
279.81	90.06
280.042	82.06
280.273	107.06
280.505	100.06
280.736	97.06
280.968	93.06
281.199	88.06
281.431	92.06
281.662	95.06
281.894	80.06
282.125	88.06
282.356	112.06
282.588	138.06
282.819	110.06
283.051	99.06
283.282	95.06
283.513	74.06
283.745	88.06
283.976	86.06
284.207	92.06
284.439	103.06
284.67	97.06
284.901	88.06
285.132	96.06
285.364	83.06
285.595	98.06
285.826	97.06
286.057	88.06
286.288	84.06
286.52	76.06
286.751	82.06
286.982	75.06
287.213	97.06
287.444	92.06
287.675	88.06
287.906	80.06
288.138	88.06
288.369	84.06
288.6	91.06
288.831	88.06
289.062	105.06
289.293	93.06
289.524	87.06
289.755	101.06
289.986	85.06
290.217	85.06
290.448	87.06
290.679	93.06
290.91	89.06
291.141	97.06
291.371	97.06
291.602	84.06
291.833	90.06
292.064	74.06
292.295	85.06
292.526	99.06
292.757	100.06
292.987	82.06
293.218	79.06
293.449	99.06
293.68	79.06
293.91	81.06
294.141	97.06
294.372	98.06
294.603	91.06
294.833	80.06
295.064	94.06
295.295	87.06
295.525	80.06
295.756	104.06
295.987	108.06
296.217	126.06
296.448	107.06
296.679	98.06
296.909	100.06
297.14	85.06
297.37	89.06
297.601	89.06
297.831	82.06
298.062	93.06
298.292	83.06
298.523	97.06
298.753	82.06
298.984	79.06
299.214	90.06
299.445	90.06
299.675	96.06
299.905	92.06
300.136	83.06
300.366	96.06
300.597	83.06
300.827	97.06
301.057	101.06
301.288	120.06
301.518	93.06
301.748	89.06
301.979	90.06
302.209	79.06
302.439	85.06
302.669	98.06
302.9	90.06
303.13	80.06
303.36	81.06
303.59	89.06
303.82	108.06
304.051	87.06
304.281	95.06
304.511	95.06
304.741	93.06
304.971	85.06
305.201	88.06
305.431	93.06
305.661	80.06
305.891	86.06
306.121	92.06
306.352	104.06
306.582	113.06
306.812	96.06
307.042	99.06
307.272	98.06
307.502	96.06
307.731	98.06
307.961	97.06
308.191	100.06
308.421	95.06
308.651	94.06
308.881	88.06
309.111	94.06
309.341	89.06
309.571	87.06
309.8	103.06
310.03	81.06
310.26	92.06
310.49	88.06
310.72	101.06
310.949	102.06
311.179	81.06
311.409	88.06
311.639	89.06
311.868	87.06
312.098	98.06
312.328	100.06
312.557	95.06
312.787	95.06
313.017	98.06
313.246	97.06
313.476	108.06
313.706	102.06
313.935	96.06
314.165	97.06
314.394	87.06
314.624	77.06
314.853	90.06
315.083	112.06
315.312	88.06
315.542	93.06
315.771	77.06
316.001	87.06
316.23	79.06
316.46	98.06
316.689	91.06
316.919	93.06
317.148	88.06
317.377	94.06
317.607	96.06
317.836	91.06
318.065	84.06
318.295	92.06
318.524	104.06
318.753	101.06
318.983	92.06
319.212	102.06
319.441	104.06
319.67	101.06
319.9	101.06
320.129	103.06
320.358	92.06
320.587	112.06
320.816	86.06
321.046	101.06
321.275	96.06
321.504	95.06
321.733	86.06
321.962	92.06
322.191	102.06
322.42	110.06
322.649	108.06
322.878	106.06
323.108	106.06
323.337	117.06
323.566	131.06
323.795	146.06
324.024	182.06
324.253	336.06
324.482	685.06
324.71	1372.06
324.939	1792.06
325.168	672.06
325.397	222.06
325.626	129.06
325.855	131.06
326.084	115.06
326.313	121.06
326.542	138.06
326.77	211.06
326.999	399.06
327.228	753.06
327.457	1416.06
327.686	1108.06
327.914	322.06
328.143	206.06
328.372	178.06
328.6	129.06
328.829	113.06
329.058	104.06
329.287	119.06
329.515	111.06
329.744	112.06
329.972	121.06
330.201	166.06
330.43	218.06
330.658	156.06
330.887	119.06
331.115	104.06
331.344	97.06
331.572	109.06
331.801	106.06
332.03	113.06
332.258	94.06
332.486	92.06
332.715	83.06
332.943	88.06
333.172	89.06
333.4	104.06
333.629	100.06
333.857	101.06
334.085	126.06
334.314	158.06
334.542	224.06
334.771	233.06
334.999	110.06
335.227	87.06
335.455	104.06
335.684	97.06
335.912	80.06
336.14	85.06
336.369	83.06
336.597	100.06
336.825	87.06
337.053	85.06
337.281	72.06
337.51	80.06
337.738	82.06
337.966	87.06
338.194	114.06
338.422	102.06
338.65	104.06
338.878	93.06
339.106	90.06
339.334	100.06
339.562	101.06
339.79	104.06
340.018	80.06
340.246	93.06
340.474	105.06
340.702	79.06
340.93	93.06
341.158	98.06
341.386	89.06
341.614	90.06
341.842	90.06
342.07	89.06
342.298	95.06
342.526	92.06
342.754	99.06
342.981	96.06
343.209	101.06
343.437	105.06
343.665	81.06
343.893	106.06
344.12	84.06
344.348	92.06
344.576	90.06
344.804	80.06
345.031	95.06
345.259	97.06
345.487	94.06
345.714	104.06
345.942	93.06
346.17	101.06
346.397	100.06
346.625	96.06
346.853	94.06
347.08	84.06
347.308	93.06
347.535	94.06
347.763	108.06
347.99	105.06
348.218	105.06
348.445	109.06
348.673	101.06
348.9	97.06
349.128	109.06
349.355	98.06
349.583	97.06
349.81	88.06
350.037	93.06
350.265	96.06
350.492	97.06
350.72	90.06
350.947	100.06
351.174	86.06
351.402	115.06
351.629	101.06
351.856	98.06
352.083	100.06
352.311	93.06
352.538	92.06
352.765	104.06
352.992	101.06
353.22	105.06
353.447	97.06
353.674	94.06
353.901	98.06
354.128	95.06
354.355	87.06
354.583	97.06
354.81	83.06
355.037	96.06
355.264	89.06
355.491	92.06
355.718	86.06
355.945	89.06
356.172	97.06
356.399	103.06
356.626	79.06
356.853	93.06
357.08	96.06
357.307	87.06
357.534	81.06
357.761	89.06
357.988	103.06
358.215	96.06
358.441	101.06
358.668	97.06
358.895	96.06
359.122	87.06
359.349	89.06
359.576	93.06
359.802	88.06
360.029	104.06
360.256	102.06
360.483	97.06
360.709	104.06
360.936	81.06
361.163	87.06
361.39	98.06
361.616	94.06
361.843	72.06
362.07	89.06
362.296	99.06
362.523	92.06
362.749	90.06
362.976	76.06
363.203	94.06
363.429	88.06
363.656	89.06
363.882	85.06
364.109	77.06
364.335	90.06
364.562	89.06
364.788	88.06
365.015	81.06
365.241	93.06
365.468	110.06
365.694	97.06
365.92	105.06
366.147	90.06
366.373	104.06
366.599	100.06
366.826	86.06
367.052	82.06
367.278	89.06
367.505	92.06
367.731	85.06
367.957	88.06
368.184	105.06
368.41	93.06
368.636	120.06
368.862	124.06
369.089	109.06
369.315	109.06
369.541	95.06
369.767	96.06
369.993	86.06
370.219	97.06
370.445	90.06
370.672	99.06
370.898	71.06
371.124	92.06
371.35	87.06
371.576	86.06
371.802	85.06
372.028	96.06
372.254	95.06
372.48	87.06
372.706	79.06
372.932	90.06
373.158	80.06
373.384	97.06
373.61	91.06
373.835	90.06
374.061	89.06
374.287	99.06
374.513	89.06
374.739	97.06
374.965	88.06
375.191	96.06
375.416	109.06
375.642	87.06
375.868	95.06
376.094	78.06
376.319	98.06
376.545	85.06
376.771	90.06
376.997	95.06
377.222	85.06
377.448	87.06
377.674	92.06
377.899	101.06
378.125	95.06
378.35	100.06
378.576	96.06
378.802	88.06
379.027	91.06
379.253	97.06
379.478	92.06
379.704	75.06
379.929	91.06
380.155	79.06
380.38	89.06
380.606	90.06
380.831	95.06
381.057	98.06
381.282	90.06
381.507	94.06
381.733	90.06
381.958	91.06
382.184	91.06
382.409	97.06
382.634	92.06
382.86	103.06
383.085	104.06
383.31	97.06
383.535	104.06
383.761	85.06
383.986	98.06
384.211	78.06
384.436	87.06
384.662	105.06
384.887	94.06
385.112	100.06
385.337	98.06
385.562	95.06
385.787	116.06
386.013	118.06
386.238	104.06
386.463	105.06
386.688	106.06
386.913	107.06
387.138	114.06
387.363	95.06
387.588	97.06
387.813	99.06
388.038	108.06
388.263	101.06
388.488	108.06
388.713	104.06
388.938	101.06
389.163	102.06
389.387	105.06
389.612	92.06
389.837	106.06
390.062	89.06
390.287	86.06
390.512	85.06
390.736	90.06
390.961	99.06
391.186	86.06
391.411	101.06
391.636	93.06
391.86	101.06
392.085	89.06
392.31	91.06
392.534	83.06
392.759	92.06
392.984	98.06
393.208	95.06
393.433	93.06
393.658	99.06
393.882	86.06
394.107	74.06
394.331	94.06
394.556	86.06
394.78	90.06
395.005	95.06
395.229	87.06
395.454	71.06
395.678	80.06
395.903	89.06
396.127	86.06
396.352	86.06
396.576	96.06
396.801	80.06
397.025	88.06
397.249	84.06
397.474	67.06
397.698	107.06
397.922	78.06
398.147	84.06
398.371	92.06
398.595	103.06
398.82	90.06
399.044	84.06
399.268	82.06
399.492	81.06
399.717	76.06
399.941	89.06
400.165	90.06
400.389	85.06
400.613	81.06
400.837	91.06
401.062	86.06
401.286	78.06
401.51	88.06
401.734	89.06
401.958	95.06
402.182	119.06
402.406	147.06
402.63	104.06
402.854	81.06
403.078	96.06
403.302	89.06
403.526	80.06
403.75	86.06
403.974	76.06
404.198	92.06
404.422	91.06
404.645	92.06
404.869	103.06
405.093	94.06
405.317	100.06
405.541	90.06
405.765	87.06
405.988	107.06
406.212	165.06
406.436	194.06
406.66	132.06
406.883	104.06
407.107	93.06
407.331	108.06
407.555	101.06
407.778	103.06
408.002	87.06
408.226	85.06
408.449	98.06
408.673	100.06
408.896	91.06
409.12	94.06
409.344	95.06
409.567	88.06
409.791	87.06
410.014	86.06
410.238	91.06
410.461	98.06
410.685	96.06
410.908	103.06
411.132	93.06
411.355	92.06
411.578	78.06
411.802	89.06
412.025	89.06
412.249	97.06
412.472	113.06
412.695	115.06
412.919	100.06
413.142	85.06
413.365	87.06
413.589	84.06
413.812	95.06
414.035	89.06
414.258	94.06
414.482	81.06
414.705	92.06
414.928	101.06
415.151	77.06
415.374	94.06
415.597	86.06
415.821	94.06
416.044	85.06
416.267	93.06
416.49	90.06
416.713	96.06
416.936	92.06
417.159	89.06
417.382	93.06
417.605	90.06
417.828	106.06
418.051	87.06
418.274	105.06
418.497	82.06
418.72	71.06
418.943	80.06
419.166	93.06
419.389	86.06
419.611	100.06
419.834	83.06
420.057	93.06
420.28	76.06
420.503	78.06
420.726	82.06
420.948	80.06
421.171	90.06
421.394	101.06
421.617	84.06
421.839	73.06
422.062	90.06
422.285	93.06
422.507	106.06
422.73	98.06
422.953	82.06
423.175	82.06
423.398	88.06
423.621	76.06
423.843	86.06
424.066	86.06
424.288	93.06
424.511	87.06
424.733	98.06
424.956	101.06
425.178	90.06
425.401	98.06
425.623	104.06
425.846	92.06
426.068	89.06
426.291	89.06
426.513	93.06
426.735	95.06
426.958	78.06
427.18	83.06
427.402	131.06
427.625	144.06
427.847	132.06
428.069	128.06
428.292	98.06
428.514	79.06
428.736	92.06
428.958	92.06
429.181	76.06
429.403	78.06
429.625	90.06
429.847	85.06
430.069	102.06
430.292	96.06
430.514	96.06
430.736	83.06
430.958	88.06
431.18	83.06
431.402	100.06
431.624	89.06
431.846	94.06
432.068	89.06
432.29	81.06
432.512	94.06
432.734	80.06
432.956	86.06
433.178	81.06
433.4	90.06
433.622	81.06
433.844	94.06
434.066	96.06
434.287	82.06
434.509	93.06
434.731	89.06
434.953	85.06
435.175	103.06
435.397	80.06
435.618	104.06
435.84	104.06
436.062	117.06
436.284	108.06
436.505	94.06
436.727	97.06
436.949	76.06
437.17	90.06
437.392	96.06
437.614	90.06
437.835	106.06
438.057	95.06
438.278	107.06
438.5	95.06
438.721	112.06
438.943	83.06
439.165	73.06
439.386	84.06
439.608	88.06
439.829	94.06
440.05	121.06
440.272	132.06
440.493	92.06
440.715	87.06
440.936	79.06
441.158	83.06
441.379	94.06
441.6	98.06
441.822	95.06
442.043	103.06
442.264	103.06
442.486	102.06
442.707	90.06
442.928	102.06
443.149	109.06
443.371	133.06
443.592	103.06
443.813	94.06
444.034	110.06
444.255	95.06
444.476	97.06
444.698	93.06
444.919	92.06
445.14	134.06
445.361	117.06
445.582	114.06
445.803	115.06
446.024	116.06
446.245	116.06
446.466	108.06
446.687	96.06
446.908	95.06
447.129	80.06
447.35	93.06
447.571	96.06
447.792	86.06
448.013	95.06
448.234	117.06
448.455	100.06
448.675	102.06
448.896	97.06
449.117	109.06
449.338	108.06
449.559	117.06
449.779	103.06
450	86.06
450.221	104.06
450.442	94.06
450.662	86.06
450.883	80.06
451.104	104.06
451.324	99.06
451.545	91.06
451.766	81.06
451.986	78.06
452.207	87.06
452.428	96.06
452.648	96.06
452.869	102.06
453.089	104.06
453.31	106.06
453.53	95.06
453.751	92.06
453.971	101.06
454.192	107.06
454.412	85.06
454.633	97.06
454.853	91.06
455.073	88.06
455.294	90.06
455.514	104.06
455.734	84.06
455.955	84.06
456.175	92.06
456.395	97.06
456.616	87.06
456.836	78.06
457.056	88.06
457.276	95.06
457.497	87.06
457.717	85.06
457.937	93.06
458.157	97.06
458.377	76.06
458.598	97.06
458.818	125.06
459.038	138.06
459.258	98.06
459.478	81.06
459.698	89.06
459.918	96.06
460.138	87.06
460.358	91.06
460.578	92.06
460.798	77.06
461.018	84.06
461.238	88.06
461.458	94.06
461.678	82.06
461.898	89.06
462.118	108.06
462.338	84.06
462.558	84.06
462.777	97.06
462.997	94.06
463.217	76.06
463.437	90.06
463.657	94.06
463.876	89.06
464.096	90.06
464.316	94.06
464.536	94.06
464.755	92.06
464.975	101.06
465.195	134.06
465.414	143.06
465.634	101.06
465.854	95.06
466.073	89.06
466.293	98.06
466.512	87.06
466.732	87.06
466.951	96.06
467.171	88.06
467.391	99.06
467.61	96.06
467.829	101.06
468.049	130.06
468.268	145.06
468.488	104.06
468.707	70.06
468.927	101.06
469.146	88.06
469.365	83.06
469.585	90.06
469.804	87.06
470.023	88.06
470.243	86.06
470.462	103.06
470.681	97.06
470.901	104.06
471.12	80.06
471.339	85.06
471.558	89.06
471.777	98.06
471.997	103.06
472.216	183.06
472.435	296.06
472.654	129.06
472.873	96.06
473.092	83.06
473.311	90.06
473.53	90.06
473.749	83.06
473.968	92.06
474.187	98.06
474.406	86.06
474.625	96.06
474.844	78.06
475.063	87.06
475.282	82.06
475.501	84.06
475.72	96.06
475.939	86.06
476.158	94.06
476.377	89.06
476.596	80.06
476.814	90.06
477.033	96.06
477.252	108.06
477.471	98.06
477.69	94.06
477.908	94.06
478.127	78.06
478.346	88.06
478.564	90.06
478.783	95.06
479.002	79.06
479.22	98.06
479.439	96.06
479.658	101.06
479.876	106.06
480.095	95.06
480.313	96.06
480.532	101.06
480.751	113.06
480.969	176.06
481.188	489.06
481.406	314.06
481.624	106.06
481.843	89.06
482.061	87.06
482.28	96.06
482.498	78.06
482.717	99.06
482.935	99.06
483.153	80.06
483.372	86.06
483.59	100.06
483.808	104.06
484.027	86.06
484.245	81.06
484.463	94.06
484.681	106.06
484.9	88.06
485.118	94.06
485.336	94.06
485.554	94.06
485.772	96.06
485.99	104.06
486.209	105.06
486.427	119.06
486.645	110.06
486.863	103.06
487.081	104.06
487.299	112.06
487.517	79.06
487.735	85.06
487.953	88.06
488.171	88.06
488.389	100.06
488.607	100.06
488.825	89.06
489.043	89.06
489.261	118.06
489.479	109.06
489.696	95.06
489.914	88.06
490.132	89.06
490.35	105.06
490.568	89.06
490.786	97.06
491.003	90.06
491.221	98.06
491.439	94.06
491.657	92.06
491.874	104.06
492.092	75.06
492.31	97.06
492.527	95.06
492.745	92.06
492.963	88.06
493.18	101.06
493.398	98.06
493.615	102.06
493.833	87.06
494.05	99.06
494.268	93.06
494.485	109.06
494.703	84.06
494.92	86.06
495.138	90.06
495.355	99.06
495.573	90.06
495.79	93.06
496.008	102.06
496.225	88.06
496.442	96.06
496.66	96.06
496.877	79.06
497.094	96.06
497.312	84.06
497.529	95.06
497.746	100.06
497.963	96.06
498.181	97.06
498.398	105.06
498.615	98.06
498.832	98.06
499.049	93.06
499.267	93.06
499.484	100.06
499.701	98.06
499.918	82.06
500.135	102.06
500.352	89.06
500.569	98.06
500.786	88.06
501.003	85.06
501.22	102.06
501.437	90.06
501.654	87.06
501.871	99.06
502.088	85.06
502.305	85.06
502.522	81.06
502.739	88.06
502.956	101.06
503.172	97.06
503.389	100.06
503.606	96.06
503.823	80.06
504.04	95.06
504.256	84.06
504.473	89.06
504.69	86.06
504.907	110.06
505.123	85.06
505.34	78.06
505.557	83.06
505.773	95.06
505.99	94.06
506.207	103.06
506.423	97.06
506.64	86.06
506.856	91.06
507.073	94.06
507.289	93.06
507.506	98.06
507.722	103.06
507.939	106.06
508.155	92.06
508.372	92.06
508.588	95.06
508.805	86.06
509.021	102.06
509.238	95.06
509.454	88.06
509.67	101.06
509.887	128.06
510.103	121.06
510.319	187.06
510.536	636.06
510.752	2005.06
510.968	570.06
511.184	147.06
511.401	101.06
511.617	102.06
511.833	95.06
512.049	99.06
512.265	89.06
512.481	105.06
512.698	73.06
512.914	95.06
513.13	98.06
513.346	97.06
513.562	98.06
513.778	96.06
513.994	91.06
514.21	100.06
514.426	103.06
514.642	108.06
514.858	111.06
515.074	134.06
515.29	377.06
515.506	1220.06
515.721	455.06
