Data from Circ_2005_H10_HRD10591_00083.txt Node
Date: Wed Jan 03 10:30:07 EST 2024
User: Yrep
Spectrometer: HR+D1059
Trigger mode: 1
Integration Time (sec): 1.000000E-1
Scans to average: 1
Electric dark correction enabled: true
Nonlinearity correction enabled: false
Boxcar width: 0
XAxis mode: Wavelengths
Number of Pixels in Spectrum: 2048
>>>>>Begin Spectral Data<<<<<
223.165	-16.75
223.4	-16.75
223.635	-16.75
223.869	-22.75
224.104	-18.75
224.338	-20.75
224.573	-26.75
224.808	-8.75
225.042	-4.75
225.277	-4.75
225.511	6.25
225.746	3.25
225.98	4.25
226.215	12.25
226.449	13.25
226.683	26.25
226.918	25.25
227.152	33.25
227.387	31.25
227.621	46.25
227.856	52.25
228.09	30.25
228.324	56.25
228.559	67.25
228.793	75.25
229.027	65.25
229.262	65.25
229.496	67.25
229.73	85.25
229.964	72.25
230.199	56.25
230.433	77.25
230.667	65.25
230.901	59.25
231.136	82.25
231.37	69.25
231.604	75.25
231.838	69.25
232.072	82.25
232.306	83.25
232.541	74.25
232.775	84.25
233.009	76.25
233.243	84.25
233.477	94.25
233.711	79.25
233.945	80.25
234.179	81.25
234.413	76.25
234.647	83.25
234.881	84.25
235.115	76.25
235.349	83.25
235.583	85.25
235.817	80.25
236.051	76.25
236.285	69.25
236.519	86.25
236.753	81.25
236.987	67.25
237.221	78.25
237.455	78.25
237.689	81.25
237.922	81.25
238.156	72.25
238.39	88.25
238.624	88.25
238.858	76.25
239.091	88.25
239.325	81.25
239.559	87.25
239.793	67.25
240.027	85.25
240.26	86.25
240.494	91.25
240.728	76.25
240.961	64.25
241.195	87.25
241.429	81.25
241.662	76.25
241.896	75.25
242.13	68.25
242.363	72.25
242.597	75.25
242.83	89.25
243.064	67.25
243.298	80.25
243.531	87.25
243.765	76.25
243.998	80.25
244.232	84.25
244.465	83.25
244.699	80.25
244.932	70.25
245.166	75.25
245.399	75.25
245.633	79.25
245.866	81.25
246.099	84.25
246.333	78.25
246.566	73.25
246.8	95.25
247.033	82.25
247.266	97.25
247.5	70.25
247.733	80.25
247.966	75.25
248.2	64.25
248.433	91.25
248.666	74.25
248.899	68.25
249.133	88.25
249.366	100.25
249.599	81.25
249.832	81.25
250.066	81.25
250.299	78.25
250.532	77.25
250.765	67.25
250.998	77.25
251.231	86.25
251.465	79.25
251.698	97.25
251.931	75.25
252.164	75.25
252.397	70.25
252.63	85.25
252.863	73.25
253.096	89.25
253.329	86.25
253.562	82.25
253.795	66.25
254.028	87.25
254.261	67.25
254.494	77.25
254.727	92.25
254.96	89.25
255.193	85.25
255.426	76.25
255.659	89.25
255.892	83.25
256.124	79.25
256.357	74.25
256.59	77.25
256.823	72.25
257.056	76.25
257.289	85.25
257.521	94.25
257.754	89.25
257.987	92.25
258.22	85.25
258.452	85.25
258.685	71.25
258.918	78.25
259.151	89.25
259.383	89.25
259.616	70.25
259.849	88.25
260.081	100.25
260.314	96.25
260.547	81.25
260.779	71.25
261.012	79.25
261.244	91.25
261.477	79.25
261.71	88.25
261.942	109.25
262.175	124.25
262.407	81.25
262.64	87.25
262.872	86.25
263.105	91.25
263.337	79.25
263.57	87.25
263.802	102.25
264.035	84.25
264.267	79.25
264.499	71.25
264.732	87.25
264.964	64.25
265.197	72.25
265.429	76.25
265.661	82.25
265.894	83.25
266.126	72.25
266.358	72.25
266.591	95.25
266.823	88.25
267.055	76.25
267.287	83.25
267.52	85.25
267.752	80.25
267.984	89.25
268.216	80.25
268.448	93.25
268.681	95.25
268.913	85.25
269.145	87.25
269.377	84.25
269.609	79.25
269.841	90.25
270.073	83.25
270.306	84.25
270.538	84.25
270.77	87.25
271.002	82.25
271.234	85.25
271.466	84.25
271.698	94.25
271.93	84.25
272.162	94.25
272.394	88.25
272.626	90.25
272.858	85.25
273.09	79.25
273.322	83.25
273.553	83.25
273.785	69.25
274.017	71.25
274.249	84.25
274.481	78.25
274.713	71.25
274.945	89.25
275.176	87.25
275.408	83.25
275.64	104.25
275.872	77.25
276.104	89.25
276.335	91.25
276.567	89.25
276.799	99.25
277.031	114.25
277.262	94.25
277.494	86.25
277.726	93.25
277.957	70.25
278.189	79.25
278.421	86.25
278.652	95.25
278.884	89.25
279.115	79.25
279.347	81.25
279.579	83.25
279.81	84.25
280.042	94.25
280.273	93.25
280.505	85.25
280.736	100.25
280.968	84.25
281.199	87.25
281.431	83.25
281.662	86.25
281.894	107.25
282.125	95.25
282.356	98.25
282.588	149.25
282.819	105.25
283.051	83.25
283.282	88.25
283.513	86.25
283.745	78.25
283.976	103.25
284.207	86.25
284.439	81.25
284.67	86.25
284.901	88.25
285.132	76.25
285.364	77.25
285.595	83.25
285.826	90.25
286.057	96.25
286.288	94.25
286.52	91.25
286.751	76.25
286.982	82.25
287.213	76.25
287.444	79.25
287.675	78.25
287.906	75.25
288.138	84.25
288.369	99.25
288.6	102.25
288.831	91.25
289.062	89.25
289.293	93.25
289.524	96.25
289.755	92.25
289.986	92.25
290.217	80.25
290.448	80.25
290.679	84.25
290.91	95.25
291.141	95.25
291.371	88.25
291.602	96.25
291.833	98.25
292.064	90.25
292.295	91.25
292.526	94.25
292.757	91.25
292.987	83.25
293.218	86.25
293.449	91.25
293.68	96.25
293.91	97.25
294.141	92.25
294.372	68.25
294.603	89.25
294.833	85.25
295.064	75.25
295.295	102.25
295.525	95.25
295.756	93.25
295.987	103.25
296.217	146.25
296.448	126.25
296.679	105.25
296.909	99.25
297.14	93.25
297.37	80.25
297.601	80.25
297.831	91.25
298.062	78.25
298.292	100.25
298.523	88.25
298.753	99.25
298.984	86.25
299.214	95.25
299.445	89.25
299.675	95.25
299.905	99.25
300.136	85.25
300.366	99.25
300.597	86.25
300.827	84.25
301.057	105.25
301.288	90.25
301.518	79.25
301.748	88.25
301.979	97.25
302.209	98.25
302.439	87.25
302.669	85.25
302.9	101.25
303.13	104.25
303.36	83.25
303.59	91.25
303.82	107.25
304.051	93.25
304.281	95.25
304.511	101.25
304.741	84.25
304.971	80.25
305.201	91.25
305.431	83.25
305.661	105.25
305.891	93.25
306.121	94.25
306.352	93.25
306.582	107.25
306.812	103.25
307.042	98.25
307.272	104.25
307.502	88.25
307.731	93.25
307.961	82.25
308.191	85.25
308.421	91.25
308.651	93.25
308.881	101.25
309.111	74.25
309.341	101.25
309.571	95.25
309.8	103.25
310.03	88.25
310.26	88.25
310.49	105.25
310.72	107.25
310.949	104.25
311.179	95.25
311.409	95.25
311.639	112.25
311.868	106.25
312.098	92.25
312.328	86.25
312.557	78.25
312.787	91.25
313.017	93.25
313.246	75.25
313.476	88.25
313.706	100.25
313.935	107.25
314.165	73.25
314.394	101.25
314.624	97.25
314.853	103.25
315.083	89.25
315.312	91.25
315.542	90.25
315.771	91.25
316.001	95.25
316.23	76.25
316.46	83.25
316.689	81.25
316.919	88.25
317.148	86.25
317.377	93.25
317.607	97.25
317.836	95.25
318.065	84.25
318.295	89.25
318.524	83.25
318.753	102.25
318.983	93.25
319.212	100.25
319.441	111.25
319.67	99.25
319.9	89.25
320.129	87.25
320.358	77.25
320.587	89.25
320.816	102.25
321.046	103.25
321.275	101.25
321.504	97.25
321.733	85.25
321.962	97.25
322.191	105.25
322.42	106.25
322.649	120.25
322.878	111.25
323.108	121.25
323.337	95.25
323.566	136.25
323.795	146.25
324.024	213.25
324.253	375.25
324.482	799.25
324.71	1663.25
324.939	2130.25
325.168	801.25
325.397	243.25
325.626	164.25
325.855	119.25
326.084	127.25
326.313	117.25
326.542	159.25
326.77	228.25
326.999	443.25
327.228	925.25
327.457	1652.25
327.686	1336.25
327.914	375.25
328.143	203.25
328.372	170.25
328.6	141.25
328.829	109.25
329.058	136.25
329.287	123.25
329.515	109.25
329.744	106.25
329.972	130.25
330.201	178.25
330.43	220.25
330.658	151.25
330.887	141.25
331.115	128.25
331.344	109.25
331.572	89.25
331.801	95.25
332.03	92.25
332.258	105.25
332.486	94.25
332.715	97.25
332.943	90.25
333.172	101.25
333.4	88.25
333.629	113.25
333.857	127.25
334.085	147.25
334.314	177.25
334.542	257.25
334.771	240.25
334.999	130.25
335.227	107.25
335.455	87.25
335.684	98.25
335.912	111.25
336.14	87.25
336.369	108.25
336.597	97.25
336.825	97.25
337.053	96.25
337.281	96.25
337.51	102.25
337.738	93.25
337.966	101.25
338.194	108.25
338.422	96.25
338.65	100.25
338.878	91.25
339.106	105.25
339.334	100.25
339.562	97.25
339.79	81.25
340.018	71.25
340.246	95.25
340.474	100.25
340.702	95.25
340.93	86.25
341.158	94.25
341.386	97.25
341.614	102.25
341.842	82.25
342.07	96.25
342.298	87.25
342.526	81.25
342.754	100.25
342.981	83.25
343.209	92.25
343.437	98.25
343.665	86.25
343.893	88.25
344.12	102.25
344.348	83.25
344.576	88.25
344.804	89.25
345.031	102.25
345.259	94.25
345.487	81.25
345.714	88.25
345.942	88.25
346.17	98.25
346.397	83.25
346.625	83.25
346.853	100.25
347.08	87.25
347.308	101.25
347.535	87.25
347.763	97.25
347.99	105.25
348.218	97.25
348.445	96.25
348.673	101.25
348.9	91.25
349.128	87.25
349.355	88.25
349.583	96.25
349.81	78.25
350.037	82.25
350.265	89.25
350.492	91.25
350.72	99.25
350.947	90.25
351.174	104.25
351.402	109.25
351.629	108.25
351.856	85.25
352.083	89.25
352.311	103.25
352.538	108.25
352.765	118.25
352.992	114.25
353.22	108.25
353.447	104.25
353.674	93.25
353.901	84.25
354.128	80.25
354.355	111.25
354.583	112.25
354.81	110.25
355.037	105.25
355.264	89.25
355.491	91.25
355.718	82.25
355.945	90.25
356.172	84.25
356.399	101.25
356.626	101.25
356.853	89.25
357.08	95.25
357.307	91.25
357.534	99.25
357.761	86.25
357.988	93.25
358.215	90.25
358.441	89.25
358.668	93.25
358.895	92.25
359.122	94.25
359.349	96.25
359.576	100.25
359.802	95.25
360.029	99.25
360.256	105.25
360.483	105.25
360.709	86.25
360.936	92.25
361.163	95.25
361.39	89.25
361.616	71.25
361.843	104.25
362.07	87.25
362.296	86.25
362.523	82.25
362.749	80.25
362.976	96.25
363.203	105.25
363.429	88.25
363.656	75.25
363.882	92.25
364.109	104.25
364.335	85.25
364.562	98.25
364.788	98.25
365.015	88.25
365.241	94.25
365.468	95.25
365.694	95.25
365.92	97.25
366.147	101.25
366.373	92.25
366.599	94.25
366.826	87.25
367.052	94.25
367.278	94.25
367.505	69.25
367.731	75.25
367.957	89.25
368.184	89.25
368.41	103.25
368.636	113.25
368.862	122.25
369.089	108.25
369.315	95.25
369.541	93.25
369.767	92.25
369.993	110.25
370.219	90.25
370.445	83.25
370.672	82.25
370.898	79.25
371.124	108.25
371.35	81.25
371.576	78.25
371.802	101.25
372.028	89.25
372.254	106.25
372.48	93.25
372.706	91.25
372.932	75.25
373.158	97.25
373.384	97.25
373.61	80.25
373.835	95.25
374.061	83.25
374.287	87.25
374.513	96.25
374.739	93.25
374.965	95.25
375.191	85.25
375.416	82.25
375.642	92.25
375.868	77.25
376.094	86.25
376.319	78.25
376.545	86.25
376.771	91.25
376.997	90.25
377.222	78.25
377.448	82.25
377.674	85.25
377.899	91.25
378.125	97.25
378.35	85.25
378.576	97.25
378.802	86.25
379.027	93.25
379.253	91.25
379.478	94.25
379.704	88.25
379.929	85.25
380.155	92.25
380.38	98.25
380.606	94.25
380.831	110.25
381.057	102.25
381.282	92.25
381.507	107.25
381.733	107.25
381.958	88.25
382.184	94.25
382.409	101.25
382.634	106.25
382.86	102.25
383.085	97.25
383.31	113.25
383.535	91.25
383.761	95.25
383.986	104.25
384.211	94.25
384.436	95.25
384.662	97.25
384.887	97.25
385.112	97.25
385.337	104.25
385.562	103.25
385.787	105.25
386.013	101.25
386.238	109.25
386.463	116.25
386.688	111.25
386.913	92.25
387.138	103.25
387.363	114.25
387.588	100.25
387.813	108.25
388.038	92.25
388.263	112.25
388.488	104.25
388.713	87.25
388.938	95.25
389.163	94.25
389.387	95.25
389.612	103.25
389.837	88.25
390.062	97.25
390.287	89.25
390.512	100.25
390.736	99.25
390.961	87.25
391.186	91.25
391.411	103.25
391.636	86.25
391.86	87.25
392.085	75.25
392.31	89.25
392.534	89.25
392.759	82.25
392.984	93.25
393.208	93.25
393.433	89.25
393.658	93.25
393.882	90.25
394.107	83.25
394.331	90.25
394.556	92.25
394.78	90.25
395.005	75.25
395.229	85.25
395.454	91.25
395.678	91.25
395.903	93.25
396.127	100.25
396.352	92.25
396.576	89.25
396.801	71.25
397.025	89.25
397.249	71.25
397.474	96.25
397.698	83.25
397.922	76.25
398.147	81.25
398.371	99.25
398.595	77.25
398.82	88.25
399.044	85.25
399.268	77.25
399.492	103.25
399.717	87.25
399.941	90.25
400.165	96.25
400.389	87.25
400.613	86.25
400.837	78.25
401.062	96.25
401.286	93.25
401.51	101.25
401.734	89.25
401.958	93.25
402.182	132.25
402.406	148.25
402.63	128.25
402.854	84.25
403.078	88.25
403.302	91.25
403.526	92.25
403.75	96.25
403.974	111.25
404.198	103.25
404.422	86.25
404.645	77.25
404.869	90.25
405.093	87.25
405.317	109.25
405.541	100.25
405.765	97.25
405.988	116.25
406.212	168.25
406.436	226.25
406.66	131.25
406.883	90.25
407.107	84.25
407.331	83.25
407.555	95.25
407.778	89.25
408.002	86.25
408.226	80.25
408.449	89.25
408.673	86.25
408.896	104.25
409.12	102.25
409.344	89.25
409.567	100.25
409.791	100.25
410.014	84.25
410.238	94.25
410.461	83.25
410.685	84.25
410.908	92.25
411.132	123.25
411.355	99.25
411.578	111.25
411.802	94.25
412.025	93.25
412.249	96.25
412.472	93.25
412.695	96.25
412.919	93.25
413.142	84.25
413.365	88.25
413.589	101.25
413.812	92.25
414.035	95.25
414.258	81.25
414.482	94.25
414.705	88.25
414.928	84.25
415.151	100.25
415.374	98.25
415.597	87.25
415.821	83.25
416.044	79.25
416.267	80.25
416.49	83.25
416.713	105.25
416.936	99.25
417.159	82.25
417.382	86.25
417.605	84.25
417.828	80.25
418.051	73.25
418.274	92.25
418.497	76.25
418.72	89.25
418.943	96.25
419.166	92.25
419.389	95.25
419.611	99.25
419.834	81.25
420.057	83.25
420.28	84.25
420.503	67.25
420.726	75.25
420.948	93.25
421.171	104.25
421.394	98.25
421.617	88.25
421.839	84.25
422.062	84.25
422.285	92.25
422.507	112.25
422.73	102.25
422.953	93.25
423.175	93.25
423.398	89.25
423.621	82.25
423.843	96.25
424.066	84.25
424.288	93.25
424.511	88.25
424.733	102.25
424.956	113.25
425.178	102.25
425.401	101.25
425.623	84.25
425.846	89.25
426.068	78.25
426.291	98.25
426.513	98.25
426.735	95.25
426.958	104.25
427.18	107.25
427.402	126.25
427.625	154.25
427.847	148.25
428.069	104.25
428.292	91.25
428.514	91.25
428.736	90.25
428.958	95.25
429.181	87.25
429.403	91.25
429.625	83.25
429.847	105.25
430.069	95.25
430.292	79.25
430.514	96.25
430.736	81.25
430.958	88.25
431.18	88.25
431.402	91.25
431.624	93.25
431.846	86.25
432.068	73.25
432.29	81.25
432.512	84.25
432.734	72.25
432.956	94.25
433.178	95.25
433.4	100.25
433.622	75.25
433.844	87.25
434.066	89.25
434.287	97.25
434.509	96.25
434.731	88.25
434.953	90.25
435.175	88.25
435.397	79.25
435.618	75.25
435.84	90.25
436.062	129.25
436.284	128.25
436.505	96.25
436.727	96.25
436.949	87.25
437.17	90.25
437.392	82.25
437.614	80.25
437.835	101.25
438.057	108.25
438.278	111.25
438.5	79.25
438.721	123.25
438.943	106.25
439.165	85.25
439.386	77.25
439.608	94.25
439.829	95.25
440.05	105.25
440.272	118.25
440.493	95.25
440.715	69.25
440.936	99.25
441.158	82.25
441.379	84.25
441.6	99.25
441.822	100.25
442.043	86.25
442.264	98.25
442.486	85.25
442.707	92.25
442.928	101.25
443.149	99.25
443.371	105.25
443.592	98.25
443.813	117.25
444.034	116.25
444.255	104.25
444.476	82.25
444.698	90.25
444.919	105.25
445.14	130.25
445.361	120.25
445.582	105.25
445.803	129.25
446.024	117.25
446.245	138.25
446.466	107.25
446.687	96.25
446.908	88.25
447.129	93.25
447.35	94.25
447.571	91.25
447.792	98.25
448.013	95.25
448.234	105.25
448.455	94.25
448.675	108.25
448.896	111.25
449.117	113.25
449.338	112.25
449.559	124.25
449.779	123.25
450	82.25
450.221	92.25
450.442	81.25
450.662	90.25
450.883	95.25
451.104	102.25
451.324	96.25
451.545	97.25
451.766	76.25
451.986	96.25
452.207	97.25
452.428	82.25
452.648	89.25
452.869	99.25
453.089	98.25
453.31	100.25
453.53	96.25
453.751	94.25
453.971	88.25
454.192	108.25
454.412	106.25
454.633	80.25
454.853	85.25
455.073	94.25
455.294	82.25
455.514	90.25
455.734	89.25
455.955	88.25
456.175	82.25
456.395	72.25
456.616	80.25
456.836	88.25
457.056	99.25
457.276	80.25
457.497	86.25
457.717	82.25
457.937	78.25
458.157	70.25
458.377	85.25
458.598	97.25
458.818	149.25
459.038	144.25
459.258	118.25
459.478	88.25
459.698	84.25
459.918	87.25
460.138	89.25
460.358	73.25
460.578	87.25
460.798	95.25
461.018	99.25
461.238	92.25
461.458	84.25
461.678	88.25
461.898	105.25
462.118	93.25
462.338	91.25
462.558	83.25
462.777	81.25
462.997	80.25
463.217	84.25
463.437	83.25
463.657	82.25
463.876	83.25
464.096	80.25
464.316	84.25
464.536	90.25
464.755	97.25
464.975	119.25
465.195	152.25
465.414	155.25
465.634	91.25
465.854	70.25
466.073	80.25
466.293	83.25
466.512	78.25
466.732	87.25
466.951	88.25
467.171	96.25
467.391	92.25
467.61	110.25
467.829	103.25
468.049	136.25
468.268	147.25
468.488	93.25
468.707	92.25
468.927	80.25
469.146	75.25
469.365	93.25
469.585	79.25
469.804	86.25
470.023	89.25
470.243	89.25
470.462	101.25
470.681	108.25
470.901	105.25
471.12	93.25
471.339	92.25
471.558	96.25
471.777	93.25
471.997	103.25
472.216	177.25
472.435	307.25
472.654	131.25
472.873	86.25
473.092	81.25
473.311	75.25
473.53	92.25
473.749	95.25
473.968	84.25
474.187	113.25
474.406	95.25
474.625	94.25
474.844	93.25
475.063	106.25
475.282	84.25
475.501	82.25
475.72	102.25
475.939	89.25
476.158	83.25
476.377	96.25
476.596	85.25
476.814	86.25
477.033	90.25
477.252	101.25
477.471	83.25
477.69	89.25
477.908	87.25
478.127	89.25
478.346	95.25
478.564	93.25
478.783	96.25
479.002	83.25
479.22	87.25
479.439	101.25
479.658	89.25
479.876	91.25
480.095	84.25
480.313	104.25
480.532	98.25
480.751	104.25
480.969	206.25
481.188	501.25
481.406	324.25
481.624	108.25
481.843	103.25
482.061	97.25
482.28	93.25
482.498	84.25
482.717	87.25
482.935	95.25
483.153	86.25
483.372	89.25
483.59	90.25
483.808	107.25
484.027	95.25
484.245	87.25
484.463	83.25
484.681	90.25
484.9	88.25
485.118	95.25
485.336	91.25
485.554	93.25
485.772	101.25
485.99	102.25
486.209	104.25
486.427	91.25
486.645	96.25
486.863	104.25
487.081	96.25
487.299	82.25
487.517	91.25
487.735	100.25
487.953	107.25
488.171	100.25
488.389	103.25
488.607	104.25
488.825	89.25
489.043	86.25
489.261	86.25
489.479	85.25
489.696	91.25
489.914	86.25
490.132	97.25
490.35	101.25
490.568	90.25
490.786	94.25
491.003	83.25
491.221	87.25
491.439	77.25
491.657	76.25
491.874	98.25
492.092	96.25
492.31	91.25
492.527	87.25
492.745	89.25
492.963	88.25
493.18	93.25
493.398	88.25
493.615	89.25
493.833	96.25
494.05	93.25
494.268	84.25
494.485	103.25
494.703	85.25
494.92	94.25
495.138	76.25
495.355	88.25
495.573	98.25
495.79	83.25
496.008	101.25
496.225	88.25
496.442	94.25
496.66	101.25
496.877	92.25
497.094	93.25
497.312	91.25
497.529	95.25
497.746	90.25
497.963	95.25
498.181	89.25
498.398	102.25
498.615	111.25
498.832	103.25
499.049	83.25
499.267	84.25
499.484	83.25
499.701	95.25
499.918	89.25
500.135	84.25
500.352	98.25
500.569	76.25
500.786	98.25
501.003	107.25
501.22	100.25
501.437	87.25
501.654	97.25
501.871	103.25
502.088	91.25
502.305	83.25
502.522	88.25
502.739	83.25
502.956	91.25
503.172	86.25
503.389	95.25
503.606	93.25
503.823	95.25
504.04	88.25
504.256	85.25
504.473	80.25
504.69	87.25
504.907	92.25
505.123	96.25
505.34	99.25
505.557	91.25
505.773	91.25
505.99	92.25
506.207	80.25
506.423	85.25
506.64	100.25
506.856	98.25
507.073	100.25
507.289	95.25
507.506	88.25
507.722	110.25
507.939	100.25
508.155	89.25
508.372	107.25
508.588	86.25
508.805	96.25
509.021	104.25
509.238	97.25
509.454	105.25
509.67	92.25
509.887	112.25
510.103	125.25
510.319	214.25
510.536	718.25
510.752	2335.25
510.968	661.25
511.184	145.25
511.401	105.25
511.617	97.25
511.833	86.25
512.049	97.25
512.265	101.25
512.481	90.25
512.698	89.25
512.914	87.25
513.13	95.25
513.346	89.25
513.562	79.25
513.778	95.25
513.994	99.25
514.21	96.25
514.426	110.25
514.642	137.25
514.858	118.25
515.074	149.25
515.29	423.25
515.506	1421.25
515.721	511.25
