Data from Circ_2005_H10_HRD10591_00088.txt Node
Date: Wed Jan 03 10:30:08 EST 2024
User: Yrep
Spectrometer: HR+D1059
Trigger mode: 1
Integration Time (sec): 1.000000E-1
Scans to average: 1
Electric dark correction enabled: true
Nonlinearity correction enabled: false
Boxcar width: 0
XAxis mode: Wavelengths
Number of Pixels in Spectrum: 2048
>>>>>Begin Spectral Data<<<<<
223.165	-12.12
223.4	-12.12
223.635	-12.12
223.869	-26.12
224.104	-28.12
224.338	-18.12
224.573	-33.12
224.808	-21.12
225.042	5.88
225.277	4.88
225.511	2.88
225.746	3.88
225.98	0.88
226.215	14.88
226.449	19.88
226.683	20.88
226.918	29.88
227.152	34.88
227.387	25.88
227.621	37.88
227.856	44.88
228.09	44.88
228.324	50.88
228.559	62.88
228.793	49.88
229.027	49.88
229.262	73.88
229.496	75.88
229.73	76.88
229.964	88.88
230.199	77.88
230.433	83.88
230.667	90.88
230.901	69.88
231.136	81.88
231.37	79.88
231.604	73.88
231.838	86.88
232.072	93.88
232.306	79.88
232.541	94.88
232.775	82.88
233.009	78.88
233.243	82.88
233.477	87.88
233.711	84.88
233.945	76.88
234.179	85.88
234.413	85.88
234.647	70.88
234.881	78.88
235.115	89.88
235.349	76.88
235.583	92.88
235.817	80.88
236.051	82.88
236.285	76.88
236.519	87.88
236.753	82.88
236.987	70.88
237.221	67.88
237.455	81.88
237.689	70.88
237.922	73.88
238.156	82.88
238.39	94.88
238.624	67.88
238.858	90.88
239.091	75.88
239.325	85.88
239.559	91.88
239.793	94.88
240.027	89.88
240.26	69.88
240.494	79.88
240.728	77.88
240.961	69.88
241.195	82.88
241.429	77.88
241.662	68.88
241.896	78.88
242.13	74.88
242.363	77.88
242.597	72.88
242.83	72.88
243.064	84.88
243.298	95.88
243.531	76.88
243.765	78.88
243.998	74.88
244.232	87.88
244.465	78.88
244.699	73.88
244.932	78.88
245.166	68.88
245.399	88.88
245.633	74.88
245.866	87.88
246.099	70.88
246.333	85.88
246.566	77.88
246.8	77.88
247.033	79.88
247.266	96.88
247.5	80.88
247.733	87.88
247.966	83.88
248.2	85.88
248.433	68.88
248.666	73.88
248.899	71.88
249.133	73.88
249.366	102.88
249.599	89.88
249.832	82.88
250.066	83.88
250.299	53.88
250.532	97.88
250.765	85.88
250.998	72.88
251.231	82.88
251.465	91.88
251.698	81.88
251.931	82.88
252.164	77.88
252.397	77.88
252.63	76.88
252.863	71.88
253.096	78.88
253.329	96.88
253.562	79.88
253.795	75.88
254.028	76.88
254.261	99.88
254.494	80.88
254.727	72.88
254.96	88.88
255.193	81.88
255.426	72.88
255.659	70.88
255.892	85.88
256.124	78.88
256.357	71.88
256.59	94.88
256.823	83.88
257.056	80.88
257.289	94.88
257.521	78.88
257.754	86.88
257.987	71.88
258.22	70.88
258.452	84.88
258.685	78.88
258.918	87.88
259.151	96.88
259.383	76.88
259.616	88.88
259.849	81.88
260.081	82.88
260.314	67.88
260.547	92.88
260.779	77.88
261.012	77.88
261.244	83.88
261.477	88.88
261.71	74.88
261.942	120.88
262.175	106.88
262.407	96.88
262.64	83.88
262.872	86.88
263.105	87.88
263.337	96.88
263.57	78.88
263.802	86.88
264.035	68.88
264.267	82.88
264.499	73.88
264.732	78.88
264.964	87.88
265.197	86.88
265.429	79.88
265.661	87.88
265.894	71.88
266.126	71.88
266.358	82.88
266.591	90.88
266.823	76.88
267.055	83.88
267.287	93.88
267.52	74.88
267.752	98.88
267.984	94.88
268.216	78.88
268.448	91.88
268.681	94.88
268.913	91.88
269.145	92.88
269.377	96.88
269.609	89.88
269.841	82.88
270.073	88.88
270.306	91.88
270.538	88.88
270.77	82.88
271.002	84.88
271.234	102.88
271.466	71.88
271.698	89.88
271.93	80.88
272.162	74.88
272.394	82.88
272.626	104.88
272.858	89.88
273.09	86.88
273.322	86.88
273.553	81.88
273.785	80.88
274.017	69.88
274.249	100.88
274.481	84.88
274.713	77.88
274.945	95.88
275.176	93.88
275.408	91.88
275.64	101.88
275.872	89.88
276.104	90.88
276.335	94.88
276.567	89.88
276.799	106.88
277.031	97.88
277.262	90.88
277.494	86.88
277.726	77.88
277.957	80.88
278.189	76.88
278.421	89.88
278.652	88.88
278.884	92.88
279.115	97.88
279.347	84.88
279.579	97.88
279.81	106.88
280.042	89.88
280.273	97.88
280.505	86.88
280.736	86.88
280.968	102.88
281.199	89.88
281.431	96.88
281.662	75.88
281.894	92.88
282.125	91.88
282.356	100.88
282.588	119.88
282.819	101.88
283.051	87.88
283.282	94.88
283.513	91.88
283.745	85.88
283.976	89.88
284.207	93.88
284.439	87.88
284.67	100.88
284.901	83.88
285.132	94.88
285.364	87.88
285.595	95.88
285.826	75.88
286.057	86.88
286.288	80.88
286.52	86.88
286.751	82.88
286.982	75.88
287.213	85.88
287.444	82.88
287.675	93.88
287.906	86.88
288.138	84.88
288.369	79.88
288.6	99.88
288.831	81.88
289.062	74.88
289.293	70.88
289.524	89.88
289.755	96.88
289.986	89.88
290.217	81.88
290.448	96.88
290.679	93.88
290.91	87.88
291.141	82.88
291.371	97.88
291.602	83.88
291.833	84.88
292.064	83.88
292.295	94.88
292.526	86.88
292.757	84.88
292.987	85.88
293.218	104.88
293.449	82.88
293.68	88.88
293.91	80.88
294.141	85.88
294.372	86.88
294.603	90.88
294.833	90.88
295.064	93.88
295.295	94.88
295.525	107.88
295.756	106.88
295.987	104.88
296.217	130.88
296.448	100.88
296.679	92.88
296.909	109.88
297.14	82.88
297.37	83.88
297.601	93.88
297.831	93.88
298.062	87.88
298.292	81.88
298.523	84.88
298.753	89.88
298.984	96.88
299.214	94.88
299.445	93.88
299.675	97.88
299.905	85.88
300.136	94.88
300.366	86.88
300.597	88.88
300.827	95.88
301.057	102.88
301.288	95.88
301.518	101.88
301.748	108.88
301.979	102.88
302.209	92.88
302.439	89.88
302.669	94.88
302.9	99.88
303.13	96.88
303.36	96.88
303.59	94.88
303.82	95.88
304.051	88.88
304.281	85.88
304.511	90.88
304.741	82.88
304.971	84.88
305.201	94.88
305.431	98.88
305.661	93.88
305.891	92.88
306.121	97.88
306.352	102.88
306.582	109.88
306.812	92.88
307.042	84.88
307.272	88.88
307.502	103.88
307.731	102.88
307.961	108.88
308.191	92.88
308.421	80.88
308.651	82.88
308.881	93.88
309.111	98.88
309.341	96.88
309.571	102.88
309.8	80.88
310.03	90.88
310.26	93.88
310.49	93.88
310.72	105.88
310.949	108.88
311.179	102.88
311.409	88.88
311.639	87.88
311.868	101.88
312.098	98.88
312.328	81.88
312.557	97.88
312.787	101.88
313.017	97.88
313.246	108.88
313.476	96.88
313.706	92.88
313.935	103.88
314.165	103.88
314.394	103.88
314.624	86.88
314.853	96.88
315.083	92.88
315.312	92.88
315.542	85.88
315.771	87.88
316.001	103.88
316.23	90.88
316.46	85.88
316.689	94.88
316.919	96.88
317.148	98.88
317.377	89.88
317.607	101.88
317.836	110.88
318.065	89.88
318.295	78.88
318.524	78.88
318.753	88.88
318.983	84.88
319.212	110.88
319.441	104.88
319.67	99.88
319.9	89.88
320.129	90.88
320.358	98.88
320.587	98.88
320.816	100.88
321.046	88.88
321.275	109.88
321.504	88.88
321.733	89.88
321.962	98.88
322.191	111.88
322.42	112.88
322.649	111.88
322.878	108.88
323.108	105.88
323.337	121.88
323.566	126.88
323.795	166.88
324.024	196.88
324.253	391.88
324.482	791.88
324.71	1644.88
324.939	2133.88
325.168	820.88
325.397	248.88
325.626	145.88
325.855	136.88
326.084	129.88
326.313	125.88
326.542	142.88
326.77	204.88
326.999	449.88
327.228	970.88
327.457	1681.88
327.686	1332.88
327.914	360.88
328.143	203.88
328.372	176.88
328.6	141.88
328.829	112.88
329.058	144.88
329.287	124.88
329.515	107.88
329.744	108.88
329.972	146.88
330.201	201.88
330.43	241.88
330.658	183.88
330.887	143.88
331.115	122.88
331.344	100.88
331.572	105.88
331.801	105.88
332.03	110.88
332.258	101.88
332.486	102.88
332.715	106.88
332.943	93.88
333.172	85.88
333.4	104.88
333.629	124.88
333.857	112.88
334.085	116.88
334.314	181.88
334.542	286.88
334.771	258.88
334.999	144.88
335.227	94.88
335.455	101.88
335.684	91.88
335.912	98.88
336.14	106.88
336.369	91.88
336.597	104.88
336.825	107.88
337.053	90.88
337.281	91.88
337.51	102.88
337.738	98.88
337.966	86.88
338.194	93.88
338.422	94.88
338.65	87.88
338.878	88.88
339.106	94.88
339.334	85.88
339.562	83.88
339.79	89.88
340.018	91.88
340.246	86.88
340.474	101.88
340.702	100.88
340.93	111.88
341.158	92.88
341.386	116.88
341.614	101.88
341.842	95.88
342.07	97.88
342.298	91.88
342.526	93.88
342.754	87.88
342.981	87.88
343.209	90.88
343.437	99.88
343.665	91.88
343.893	91.88
344.12	92.88
344.348	82.88
344.576	85.88
344.804	100.88
345.031	97.88
345.259	105.88
345.487	92.88
345.714	87.88
345.942	97.88
346.17	96.88
346.397	95.88
346.625	95.88
346.853	97.88
347.08	94.88
347.308	94.88
347.535	83.88
347.763	102.88
347.99	105.88
348.218	109.88
348.445	100.88
348.673	89.88
348.9	93.88
349.128	92.88
349.355	95.88
349.583	91.88
349.81	93.88
350.037	96.88
350.265	93.88
350.492	93.88
350.72	103.88
350.947	103.88
351.174	117.88
351.402	117.88
351.629	92.88
351.856	94.88
352.083	112.88
352.311	112.88
352.538	116.88
352.765	99.88
352.992	113.88
353.22	114.88
353.447	98.88
353.674	101.88
353.901	106.88
354.128	94.88
354.355	103.88
354.583	91.88
354.81	111.88
355.037	101.88
355.264	100.88
355.491	82.88
355.718	101.88
355.945	88.88
356.172	106.88
356.399	89.88
356.626	84.88
356.853	88.88
357.08	92.88
357.307	102.88
357.534	86.88
357.761	98.88
357.988	80.88
358.215	97.88
358.441	101.88
358.668	93.88
358.895	90.88
359.122	86.88
359.349	92.88
359.576	103.88
359.802	94.88
360.029	101.88
360.256	95.88
360.483	101.88
360.709	93.88
360.936	93.88
361.163	104.88
361.39	100.88
361.616	96.88
361.843	84.88
362.07	88.88
362.296	109.88
362.523	92.88
362.749	78.88
362.976	81.88
363.203	98.88
363.429	99.88
363.656	87.88
363.882	92.88
364.109	92.88
364.335	94.88
364.562	93.88
364.788	81.88
365.015	92.88
365.241	94.88
365.468	99.88
365.694	98.88
365.92	86.88
366.147	92.88
366.373	102.88
366.599	105.88
366.826	99.88
367.052	98.88
367.278	103.88
367.505	86.88
367.731	89.88
367.957	78.88
368.184	94.88
368.41	108.88
368.636	117.88
368.862	111.88
369.089	102.88
369.315	108.88
369.541	101.88
369.767	89.88
369.993	102.88
370.219	87.88
370.445	93.88
370.672	77.88
370.898	104.88
371.124	89.88
371.35	94.88
371.576	92.88
371.802	101.88
372.028	88.88
372.254	81.88
372.48	102.88
372.706	86.88
372.932	86.88
373.158	92.88
373.384	85.88
373.61	85.88
373.835	85.88
374.061	84.88
374.287	102.88
374.513	97.88
374.739	87.88
374.965	81.88
375.191	94.88
375.416	75.88
375.642	90.88
375.868	94.88
376.094	96.88
376.319	97.88
376.545	91.88
376.771	84.88
376.997	86.88
377.222	93.88
377.448	95.88
377.674	94.88
377.899	98.88
378.125	95.88
378.35	97.88
378.576	94.88
378.802	94.88
379.027	102.88
379.253	111.88
379.478	86.88
379.704	100.88
379.929	96.88
380.155	93.88
380.38	101.88
380.606	98.88
380.831	92.88
381.057	120.88
381.282	100.88
381.507	90.88
381.733	102.88
381.958	85.88
382.184	88.88
382.409	102.88
382.634	94.88
382.86	102.88
383.085	118.88
383.31	109.88
383.535	96.88
383.761	99.88
383.986	89.88
384.211	113.88
384.436	92.88
384.662	97.88
384.887	106.88
385.112	97.88
385.337	96.88
385.562	100.88
385.787	109.88
386.013	99.88
386.238	112.88
386.463	96.88
386.688	114.88
386.913	102.88
387.138	115.88
387.363	108.88
387.588	110.88
387.813	101.88
388.038	121.88
388.263	99.88
388.488	102.88
388.713	109.88
388.938	96.88
389.163	86.88
389.387	87.88
389.612	89.88
389.837	93.88
390.062	93.88
390.287	103.88
390.512	89.88
390.736	84.88
390.961	89.88
391.186	86.88
391.411	83.88
391.636	87.88
391.86	81.88
392.085	89.88
392.31	102.88
392.534	93.88
392.759	78.88
392.984	87.88
393.208	93.88
393.433	93.88
393.658	98.88
393.882	96.88
394.107	83.88
394.331	84.88
394.556	96.88
394.78	93.88
395.005	94.88
395.229	94.88
395.454	85.88
395.678	86.88
395.903	97.88
396.127	92.88
396.352	88.88
396.576	81.88
396.801	93.88
397.025	99.88
397.249	77.88
397.474	89.88
397.698	87.88
397.922	92.88
398.147	102.88
398.371	80.88
398.595	81.88
398.82	91.88
399.044	90.88
399.268	94.88
399.492	96.88
399.717	109.88
399.941	92.88
400.165	73.88
400.389	95.88
400.613	88.88
400.837	91.88
401.062	76.88
401.286	91.88
401.51	98.88
401.734	89.88
401.958	92.88
402.182	120.88
402.406	136.88
402.63	104.88
402.854	91.88
403.078	90.88
403.302	85.88
403.526	90.88
403.75	88.88
403.974	96.88
404.198	87.88
404.422	90.88
404.645	90.88
404.869	86.88
405.093	88.88
405.317	109.88
405.541	99.88
405.765	101.88
405.988	124.88
406.212	152.88
406.436	201.88
406.66	153.88
406.883	100.88
407.107	89.88
407.331	97.88
407.555	97.88
407.778	84.88
408.002	90.88
408.226	96.88
408.449	94.88
408.673	88.88
408.896	95.88
409.12	105.88
409.344	92.88
409.567	90.88
409.791	85.88
410.014	95.88
410.238	88.88
410.461	90.88
410.685	111.88
410.908	101.88
411.132	95.88
411.355	100.88
411.578	92.88
411.802	83.88
412.025	86.88
412.249	95.88
412.472	99.88
412.695	90.88
412.919	88.88
413.142	96.88
413.365	83.88
413.589	80.88
413.812	70.88
414.035	98.88
414.258	112.88
414.482	83.88
414.705	91.88
414.928	84.88
415.151	88.88
415.374	87.88
415.597	88.88
415.821	76.88
416.044	86.88
416.267	77.88
416.49	88.88
416.713	87.88
416.936	91.88
417.159	93.88
417.382	97.88
417.605	83.88
417.828	90.88
418.051	85.88
418.274	101.88
418.497	89.88
418.72	99.88
418.943	90.88
419.166	95.88
419.389	77.88
419.611	84.88
419.834	92.88
420.057	85.88
420.28	90.88
420.503	89.88
420.726	79.88
420.948	92.88
421.171	88.88
421.394	102.88
421.617	103.88
421.839	87.88
422.062	77.88
422.285	92.88
422.507	84.88
422.73	97.88
422.953	89.88
423.175	99.88
423.398	79.88
423.621	105.88
423.843	86.88
424.066	97.88
424.288	92.88
424.511	82.88
424.733	110.88
424.956	88.88
425.178	103.88
425.401	98.88
425.623	96.88
425.846	93.88
426.068	93.88
426.291	85.88
426.513	89.88
426.735	78.88
426.958	112.88
427.18	105.88
427.402	144.88
427.625	164.88
427.847	133.88
428.069	107.88
428.292	91.88
428.514	78.88
428.736	91.88
428.958	91.88
429.181	94.88
429.403	89.88
429.625	89.88
429.847	81.88
430.069	96.88
430.292	85.88
430.514	85.88
430.736	90.88
430.958	96.88
431.18	86.88
431.402	82.88
431.624	90.88
431.846	73.88
432.068	77.88
432.29	79.88
432.512	113.88
432.734	68.88
432.956	101.88
433.178	111.88
433.4	102.88
433.622	88.88
433.844	92.88
434.066	79.88
434.287	94.88
434.509	88.88
434.731	90.88
434.953	107.88
435.175	100.88
435.397	98.88
435.618	99.88
435.84	98.88
436.062	119.88
436.284	112.88
436.505	103.88
436.727	104.88
436.949	91.88
437.17	94.88
437.392	71.88
437.614	87.88
437.835	106.88
438.057	108.88
438.278	102.88
438.5	96.88
438.721	121.88
438.943	108.88
439.165	107.88
439.386	79.88
439.608	89.88
439.829	98.88
440.05	111.88
440.272	133.88
440.493	109.88
440.715	96.88
440.936	95.88
441.158	93.88
441.379	90.88
441.6	96.88
441.822	96.88
442.043	83.88
442.264	105.88
442.486	98.88
442.707	96.88
442.928	105.88
443.149	117.88
443.371	120.88
443.592	103.88
443.813	93.88
444.034	87.88
444.255	95.88
444.476	88.88
444.698	79.88
444.919	98.88
445.14	126.88
445.361	122.88
445.582	120.88
445.803	137.88
446.024	125.88
446.245	126.88
446.466	108.88
446.687	82.88
446.908	97.88
447.129	95.88
447.35	92.88
447.571	100.88
447.792	91.88
448.013	95.88
448.234	100.88
448.455	100.88
448.675	104.88
448.896	106.88
449.117	82.88
449.338	96.88
449.559	118.88
449.779	127.88
450	90.88
450.221	88.88
450.442	97.88
450.662	95.88
450.883	100.88
451.104	108.88
451.324	100.88
451.545	79.88
451.766	92.88
451.986	80.88
452.207	87.88
452.428	86.88
452.648	89.88
452.869	124.88
453.089	110.88
453.31	117.88
453.53	94.88
453.751	95.88
453.971	101.88
454.192	108.88
454.412	87.88
454.633	70.88
454.853	99.88
455.073	72.88
455.294	79.88
455.514	93.88
455.734	99.88
455.955	83.88
456.175	97.88
456.395	97.88
456.616	96.88
456.836	81.88
457.056	88.88
457.276	85.88
457.497	84.88
457.717	80.88
457.937	81.88
458.157	91.88
458.377	90.88
458.598	101.88
458.818	139.88
459.038	149.88
459.258	100.88
459.478	88.88
459.698	80.88
459.918	93.88
460.138	84.88
460.358	83.88
460.578	85.88
460.798	88.88
461.018	90.88
461.238	86.88
461.458	90.88
461.678	76.88
461.898	94.88
462.118	84.88
462.338	79.88
462.558	97.88
462.777	72.88
462.997	79.88
463.217	95.88
463.437	87.88
463.657	94.88
463.876	93.88
464.096	82.88
464.316	93.88
464.536	93.88
464.755	100.88
464.975	116.88
465.195	162.88
465.414	140.88
465.634	98.88
465.854	81.88
466.073	85.88
466.293	75.88
466.512	89.88
466.732	88.88
466.951	85.88
467.171	105.88
467.391	88.88
467.61	103.88
467.829	110.88
468.049	148.88
468.268	158.88
468.488	112.88
468.707	89.88
468.927	87.88
469.146	82.88
469.365	88.88
469.585	95.88
469.804	91.88
470.023	93.88
470.243	89.88
470.462	93.88
470.681	101.88
470.901	89.88
471.12	78.88
471.339	98.88
471.558	88.88
471.777	103.88
471.997	116.88
472.216	203.88
472.435	342.88
472.654	133.88
472.873	90.88
473.092	92.88
473.311	89.88
473.53	83.88
473.749	76.88
473.968	98.88
474.187	96.88
474.406	99.88
474.625	93.88
474.844	85.88
475.063	88.88
475.282	85.88
475.501	90.88
475.72	93.88
475.939	84.88
476.158	97.88
476.377	80.88
476.596	85.88
476.814	88.88
477.033	84.88
477.252	90.88
477.471	85.88
477.69	87.88
477.908	85.88
478.127	78.88
478.346	81.88
478.564	88.88
478.783	98.88
479.002	89.88
479.22	89.88
479.439	88.88
479.658	105.88
479.876	93.88
480.095	88.88
480.313	86.88
480.532	90.88
480.751	120.88
480.969	207.88
481.188	573.88
481.406	368.88
481.624	116.88
481.843	92.88
482.061	95.88
482.28	99.88
482.498	92.88
482.717	80.88
482.935	73.88
483.153	88.88
483.372	83.88
483.59	100.88
483.808	87.88
484.027	99.88
484.245	84.88
484.463	89.88
484.681	98.88
484.9	88.88
485.118	89.88
485.336	90.88
485.554	90.88
485.772	93.88
485.99	111.88
486.209	101.88
486.427	92.88
486.645	107.88
486.863	106.88
487.081	100.88
487.299	88.88
487.517	103.88
487.735	83.88
487.953	105.88
488.171	86.88
488.389	89.88
488.607	98.88
488.825	104.88
489.043	78.88
489.261	103.88
489.479	83.88
489.696	89.88
489.914	88.88
490.132	81.88
490.35	75.88
490.568	69.88
490.786	85.88
491.003	80.88
491.221	77.88
491.439	89.88
491.657	109.88
491.874	86.88
492.092	95.88
492.31	88.88
492.527	97.88
492.745	94.88
492.963	96.88
493.18	95.88
493.398	99.88
493.615	102.88
493.833	93.88
494.05	79.88
494.268	85.88
494.485	94.88
494.703	80.88
494.92	92.88
495.138	85.88
495.355	86.88
495.573	90.88
495.79	87.88
496.008	93.88
496.225	80.88
496.442	100.88
496.66	77.88
496.877	85.88
497.094	95.88
497.312	85.88
497.529	90.88
497.746	96.88
497.963	93.88
498.181	85.88
498.398	96.88
498.615	105.88
498.832	116.88
499.049	80.88
499.267	86.88
499.484	78.88
499.701	90.88
499.918	96.88
500.135	94.88
500.352	90.88
500.569	88.88
500.786	98.88
501.003	94.88
501.22	89.88
501.437	100.88
501.654	108.88
501.871	102.88
502.088	86.88
502.305	86.88
502.522	90.88
502.739	80.88
502.956	84.88
503.172	96.88
503.389	92.88
503.606	97.88
503.823	88.88
504.04	92.88
504.256	79.88
504.473	102.88
504.69	91.88
504.907	95.88
505.123	86.88
505.34	100.88
505.557	87.88
505.773	98.88
505.99	92.88
506.207	98.88
506.423	88.88
506.64	93.88
506.856	80.88
507.073	90.88
507.289	88.88
507.506	111.88
507.722	104.88
507.939	104.88
508.155	96.88
508.372	95.88
508.588	97.88
508.805	95.88
509.021	110.88
509.238	116.88
509.454	103.88
509.67	99.88
509.887	114.88
510.103	131.88
510.319	183.88
510.536	725.88
510.752	2228.88
510.968	640.88
511.184	146.88
511.401	111.88
511.617	99.88
511.833	90.88
512.049	93.88
512.265	95.88
512.481	89.88
512.698	98.88
512.914	85.88
513.13	106.88
513.346	103.88
513.562	99.88
513.778	89.88
513.994	93.88
514.21	110.88
514.426	106.88
514.642	129.88
514.858	122.88
515.074	162.88
515.29	414.88
515.506	1370.88
