Data from Circ_2005_H10_HRD10591_00037.txt Node
Date: Wed Jan 03 10:29:58 EST 2024
User: Yrep
Spectrometer: HR+D1059
Trigger mode: 1
Integration Time (sec): 1.000000E-1
Scans to average: 1
Electric dark correction enabled: true
Nonlinearity correction enabled: false
Boxcar width: 0
XAxis mode: Wavelengths
Number of Pixels in Spectrum: 2048
>>>>>Begin Spectral Data<<<<<
223.165	-19.06
223.4	-19.06
223.635	-19.06
223.869	-32.06
224.104	-25.06
224.338	-8.06
224.573	-10.06
224.808	-12.06
225.042	-19.06
225.277	-0.06
225.511	1.94
225.746	5.94
225.98	-5.06
226.215	17.94
226.449	26.94
226.683	16.94
226.918	19.94
227.152	40.94
227.387	42.94
227.621	44.94
227.856	65.94
228.09	48.94
228.324	44.94
228.559	60.94
228.793	65.94
229.027	59.94
229.262	86.94
229.496	76.94
229.73	88.94
229.964	93.94
230.199	85.94
230.433	79.94
230.667	70.94
230.901	95.94
231.136	91.94
231.37	88.94
231.604	81.94
231.838	89.94
232.072	88.94
232.306	88.94
232.541	85.94
232.775	81.94
233.009	85.94
233.243	80.94
233.477	82.94
233.711	81.94
233.945	71.94
234.179	84.94
234.413	85.94
234.647	74.94
234.881	84.94
235.115	87.94
235.349	81.94
235.583	88.94
235.817	80.94
236.051	71.94
236.285	65.94
236.519	77.94
236.753	71.94
236.987	88.94
237.221	79.94
237.455	92.94
237.689	95.94
237.922	89.94
238.156	71.94
238.39	64.94
238.624	77.94
238.858	75.94
239.091	79.94
239.325	85.94
239.559	85.94
239.793	84.94
240.027	88.94
240.26	77.94
240.494	90.94
240.728	93.94
240.961	92.94
241.195	84.94
241.429	76.94
241.662	81.94
241.896	91.94
242.13	85.94
242.363	83.94
242.597	76.94
242.83	87.94
243.064	89.94
243.298	86.94
243.531	72.94
243.765	85.94
243.998	86.94
244.232	81.94
244.465	89.94
244.699	90.94
244.932	79.94
245.166	77.94
245.399	86.94
245.633	85.94
245.866	84.94
246.099	79.94
246.333	81.94
246.566	69.94
246.8	77.94
247.033	95.94
247.266	82.94
247.5	87.94
247.733	103.94
247.966	83.94
248.2	86.94
248.433	81.94
248.666	73.94
248.899	77.94
249.133	95.94
249.366	108.94
249.599	82.94
249.832	77.94
250.066	76.94
250.299	84.94
250.532	94.94
250.765	87.94
250.998	82.94
251.231	86.94
251.465	73.94
251.698	76.94
251.931	69.94
252.164	82.94
252.397	79.94
252.63	68.94
252.863	79.94
253.096	79.94
253.329	87.94
253.562	88.94
253.795	97.94
254.028	84.94
254.261	90.94
254.494	85.94
254.727	75.94
254.96	93.94
255.193	82.94
255.426	87.94
255.659	85.94
255.892	70.94
256.124	91.94
256.357	97.94
256.59	76.94
256.823	74.94
257.056	74.94
257.289	82.94
257.521	91.94
257.754	84.94
257.987	88.94
258.22	90.94
258.452	86.94
258.685	78.94
258.918	87.94
259.151	93.94
259.383	73.94
259.616	98.94
259.849	67.94
260.081	77.94
260.314	85.94
260.547	90.94
260.779	98.94
261.012	83.94
261.244	81.94
261.477	99.94
261.71	95.94
261.942	132.94
262.175	117.94
262.407	104.94
262.64	92.94
262.872	86.94
263.105	99.94
263.337	91.94
263.57	73.94
263.802	97.94
264.035	76.94
264.267	71.94
264.499	95.94
264.732	102.94
264.964	76.94
265.197	103.94
265.429	90.94
265.661	82.94
265.894	84.94
266.126	86.94
266.358	85.94
266.591	82.94
266.823	88.94
267.055	99.94
267.287	93.94
267.52	97.94
267.752	81.94
267.984	84.94
268.216	91.94
268.448	91.94
268.681	80.94
268.913	90.94
269.145	90.94
269.377	91.94
269.609	92.94
269.841	88.94
270.073	90.94
270.306	88.94
270.538	79.94
270.77	93.94
271.002	81.94
271.234	89.94
271.466	91.94
271.698	88.94
271.93	96.94
272.162	92.94
272.394	101.94
272.626	91.94
272.858	74.94
273.09	90.94
273.322	93.94
273.553	95.94
273.785	86.94
274.017	94.94
274.249	92.94
274.481	94.94
274.713	83.94
274.945	92.94
275.176	91.94
275.408	84.94
275.64	98.94
275.872	79.94
276.104	86.94
276.335	103.94
276.567	105.94
276.799	113.94
277.031	106.94
277.262	91.94
277.494	85.94
277.726	91.94
277.957	93.94
278.189	90.94
278.421	68.94
278.652	81.94
278.884	89.94
279.115	89.94
279.347	80.94
279.579	100.94
279.81	101.94
280.042	97.94
280.273	98.94
280.505	106.94
280.736	102.94
280.968	81.94
281.199	91.94
281.431	100.94
281.662	73.94
281.894	85.94
282.125	99.94
282.356	124.94
282.588	152.94
282.819	137.94
283.051	100.94
283.282	89.94
283.513	89.94
283.745	80.94
283.976	74.94
284.207	85.94
284.439	87.94
284.67	96.94
284.901	84.94
285.132	89.94
285.364	85.94
285.595	93.94
285.826	83.94
286.057	92.94
286.288	90.94
286.52	102.94
286.751	82.94
286.982	82.94
287.213	86.94
287.444	91.94
287.675	99.94
287.906	93.94
288.138	87.94
288.369	106.94
288.6	90.94
288.831	92.94
289.062	87.94
289.293	81.94
289.524	95.94
289.755	93.94
289.986	78.94
290.217	91.94
290.448	86.94
290.679	87.94
290.91	91.94
291.141	91.94
291.371	93.94
291.602	96.94
291.833	97.94
292.064	105.94
292.295	97.94
292.526	96.94
292.757	96.94
292.987	84.94
293.218	87.94
293.449	84.94
293.68	87.94
293.91	79.94
294.141	93.94
294.372	84.94
294.603	99.94
294.833	91.94
295.064	103.94
295.295	100.94
295.525	108.94
295.756	122.94
295.987	146.94
296.217	157.94
296.448	139.94
296.679	113.94
296.909	99.94
297.14	90.94
297.37	93.94
297.601	96.94
297.831	93.94
298.062	79.94
298.292	93.94
298.523	93.94
298.753	87.94
298.984	95.94
299.214	79.94
299.445	84.94
299.675	103.94
299.905	100.94
300.136	100.94
300.366	108.94
300.597	101.94
300.827	106.94
301.057	83.94
301.288	104.94
301.518	100.94
301.748	105.94
301.979	91.94
302.209	91.94
302.439	79.94
302.669	97.94
302.9	92.94
303.13	97.94
303.36	100.94
303.59	95.94
303.82	109.94
304.051	88.94
304.281	93.94
304.511	101.94
304.741	80.94
304.971	92.94
305.201	91.94
305.431	96.94
305.661	93.94
305.891	97.94
306.121	111.94
306.352	111.94
306.582	105.94
306.812	109.94
307.042	94.94
307.272	81.94
307.502	93.94
307.731	96.94
307.961	99.94
308.191	101.94
308.421	94.94
308.651	93.94
308.881	90.94
309.111	107.94
309.341	107.94
309.571	108.94
309.8	89.94
310.03	94.94
310.26	104.94
310.49	96.94
310.72	100.94
310.949	97.94
311.179	121.94
311.409	107.94
311.639	127.94
311.868	112.94
312.098	111.94
312.328	101.94
312.557	128.94
312.787	122.94
313.017	115.94
313.246	107.94
313.476	83.94
313.706	91.94
313.935	91.94
314.165	104.94
314.394	95.94
314.624	106.94
314.853	93.94
315.083	97.94
315.312	103.94
315.542	107.94
315.771	98.94
316.001	96.94
316.23	103.94
316.46	89.94
316.689	95.94
316.919	102.94
317.148	107.94
317.377	103.94
317.607	102.94
317.836	92.94
318.065	106.94
318.295	94.94
318.524	82.94
318.753	89.94
318.983	93.94
319.212	117.94
319.441	111.94
319.67	103.94
319.9	115.94
320.129	101.94
320.358	92.94
320.587	102.94
320.816	98.94
321.046	116.94
321.275	112.94
321.504	105.94
321.733	104.94
321.962	96.94
322.191	109.94
322.42	117.94
322.649	123.94
322.878	127.94
323.108	132.94
323.337	124.94
323.566	147.94
323.795	180.94
324.024	248.94
324.253	462.94
324.482	1000.94
324.71	2087.94
324.939	2775.94
325.168	985.94
325.397	273.94
325.626	169.94
325.855	155.94
326.084	143.94
326.313	148.94
326.542	181.94
326.77	276.94
326.999	538.94
327.228	1123.94
327.457	2072.94
327.686	1650.94
327.914	426.94
328.143	217.94
328.372	177.94
328.6	130.94
328.829	135.94
329.058	151.94
329.287	149.94
329.515	127.94
329.744	106.94
329.972	115.94
330.201	133.94
330.43	166.94
330.658	143.94
330.887	172.94
331.115	145.94
331.344	120.94
331.572	111.94
331.801	115.94
332.03	100.94
332.258	101.94
332.486	90.94
332.715	85.94
332.943	94.94
333.172	102.94
333.4	107.94
333.629	111.94
333.857	119.94
334.085	118.94
334.314	131.94
334.542	169.94
334.771	163.94
334.999	120.94
335.227	113.94
335.455	98.94
335.684	109.94
335.912	111.94
336.14	93.94
336.369	93.94
336.597	109.94
336.825	103.94
337.053	94.94
337.281	105.94
337.51	94.94
337.738	107.94
337.966	113.94
338.194	113.94
338.422	107.94
338.65	107.94
338.878	105.94
339.106	108.94
339.334	105.94
339.562	95.94
339.79	104.94
340.018	78.94
340.246	98.94
340.474	93.94
340.702	95.94
340.93	85.94
341.158	102.94
341.386	80.94
341.614	104.94
341.842	109.94
342.07	101.94
342.298	101.94
342.526	84.94
342.754	74.94
342.981	92.94
343.209	98.94
343.437	100.94
343.665	87.94
343.893	107.94
344.12	108.94
344.348	70.94
344.576	92.94
344.804	96.94
345.031	108.94
345.259	104.94
345.487	100.94
345.714	95.94
345.942	92.94
346.17	107.94
346.397	91.94
346.625	99.94
346.853	117.94
347.08	93.94
347.308	93.94
347.535	118.94
347.763	108.94
347.99	108.94
348.218	115.94
348.445	121.94
348.673	104.94
348.9	98.94
349.128	101.94
349.355	101.94
349.583	105.94
349.81	93.94
350.037	81.94
350.265	94.94
350.492	87.94
350.72	113.94
350.947	98.94
351.174	116.94
351.402	113.94
351.629	119.94
351.856	101.94
352.083	111.94
352.311	107.94
352.538	118.94
352.765	113.94
352.992	136.94
353.22	116.94
353.447	118.94
353.674	105.94
353.901	105.94
354.128	91.94
354.355	113.94
354.583	99.94
354.81	89.94
355.037	104.94
355.264	108.94
355.491	92.94
355.718	101.94
355.945	93.94
356.172	100.94
356.399	84.94
356.626	101.94
356.853	91.94
357.08	100.94
357.307	114.94
357.534	78.94
357.761	106.94
357.988	98.94
358.215	98.94
358.441	97.94
358.668	101.94
358.895	99.94
359.122	79.94
359.349	100.94
359.576	104.94
359.802	115.94
360.029	127.94
360.256	111.94
360.483	108.94
360.709	93.94
360.936	100.94
361.163	91.94
361.39	105.94
361.616	95.94
361.843	93.94
362.07	119.94
362.296	101.94
362.523	99.94
362.749	104.94
362.976	105.94
363.203	79.94
363.429	94.94
363.656	79.94
363.882	91.94
364.109	107.94
364.335	94.94
364.562	93.94
364.788	87.94
365.015	102.94
365.241	99.94
365.468	104.94
365.694	119.94
365.92	92.94
366.147	95.94
366.373	89.94
366.599	87.94
366.826	81.94
367.052	102.94
367.278	91.94
367.505	90.94
367.731	119.94
367.957	91.94
368.184	96.94
368.41	102.94
368.636	128.94
368.862	133.94
369.089	116.94
369.315	102.94
369.541	90.94
369.767	108.94
369.993	87.94
370.219	97.94
370.445	80.94
370.672	86.94
370.898	91.94
371.124	92.94
371.35	100.94
371.576	102.94
371.802	91.94
372.028	90.94
372.254	103.94
372.48	93.94
372.706	96.94
372.932	107.94
373.158	87.94
373.384	100.94
373.61	108.94
373.835	91.94
374.061	80.94
374.287	87.94
374.513	102.94
374.739	93.94
374.965	90.94
375.191	104.94
375.416	102.94
375.642	90.94
375.868	96.94
376.094	93.94
376.319	96.94
376.545	92.94
376.771	100.94
376.997	85.94
377.222	101.94
377.448	107.94
377.674	95.94
377.899	99.94
378.125	92.94
378.35	83.94
378.576	92.94
378.802	87.94
379.027	105.94
379.253	84.94
379.478	96.94
379.704	93.94
379.929	93.94
380.155	99.94
380.38	109.94
380.606	102.94
380.831	100.94
381.057	106.94
381.282	100.94
381.507	91.94
381.733	103.94
381.958	97.94
382.184	100.94
382.409	101.94
382.634	94.94
382.86	130.94
383.085	112.94
383.31	103.94
383.535	107.94
383.761	97.94
383.986	92.94
384.211	89.94
384.436	104.94
384.662	105.94
384.887	95.94
385.112	93.94
385.337	117.94
385.562	113.94
385.787	104.94
386.013	119.94
386.238	123.94
386.463	124.94
386.688	103.94
386.913	104.94
387.138	108.94
387.363	113.94
387.588	124.94
387.813	104.94
388.038	84.94
388.263	112.94
388.488	105.94
388.713	100.94
388.938	99.94
389.163	101.94
389.387	106.94
389.612	94.94
389.837	90.94
390.062	89.94
390.287	80.94
390.512	98.94
390.736	97.94
390.961	85.94
391.186	93.94
391.411	100.94
391.636	104.94
391.86	94.94
392.085	80.94
392.31	85.94
392.534	73.94
392.759	95.94
392.984	90.94
393.208	90.94
393.433	89.94
393.658	87.94
393.882	90.94
394.107	82.94
394.331	77.94
394.556	91.94
394.78	79.94
395.005	92.94
395.229	84.94
395.454	109.94
395.678	74.94
395.903	82.94
396.127	92.94
396.352	91.94
396.576	91.94
396.801	91.94
397.025	85.94
397.249	103.94
397.474	86.94
397.698	82.94
397.922	95.94
398.147	98.94
398.371	96.94
398.595	84.94
398.82	99.94
399.044	88.94
399.268	81.94
399.492	99.94
399.717	87.94
399.941	102.94
400.165	103.94
400.389	96.94
400.613	88.94
400.837	88.94
401.062	73.94
401.286	112.94
401.51	79.94
401.734	108.94
401.958	106.94
402.182	142.94
402.406	179.94
402.63	137.94
402.854	98.94
403.078	92.94
403.302	84.94
403.526	96.94
403.75	99.94
403.974	91.94
404.198	96.94
404.422	105.94
404.645	87.94
404.869	99.94
405.093	97.94
405.317	94.94
405.541	103.94
405.765	113.94
405.988	125.94
406.212	177.94
406.436	246.94
406.66	158.94
406.883	129.94
407.107	92.94
407.331	102.94
407.555	113.94
407.778	95.94
408.002	104.94
408.226	97.94
408.449	101.94
408.673	91.94
408.896	94.94
409.12	111.94
409.344	99.94
409.567	103.94
409.791	97.94
410.014	92.94
410.238	90.94
410.461	85.94
410.685	101.94
410.908	106.94
411.132	105.94
411.355	102.94
411.578	101.94
411.802	89.94
412.025	83.94
412.249	96.94
412.472	98.94
412.695	104.94
412.919	93.94
413.142	91.94
413.365	103.94
413.589	77.94
413.812	100.94
414.035	93.94
414.258	104.94
414.482	81.94
414.705	90.94
414.928	91.94
415.151	85.94
415.374	120.94
415.597	97.94
415.821	87.94
416.044	94.94
416.267	98.94
416.49	96.94
416.713	95.94
416.936	86.94
417.159	93.94
417.382	86.94
417.605	83.94
417.828	92.94
418.051	94.94
418.274	94.94
418.497	88.94
418.72	75.94
418.943	81.94
419.166	94.94
419.389	87.94
419.611	91.94
419.834	93.94
420.057	106.94
420.28	79.94
420.503	103.94
420.726	99.94
420.948	92.94
421.171	100.94
421.394	94.94
421.617	97.94
421.839	87.94
422.062	92.94
422.285	96.94
422.507	109.94
422.73	112.94
422.953	99.94
423.175	87.94
423.398	101.94
423.621	96.94
423.843	93.94
424.066	104.94
424.288	72.94
424.511	96.94
424.733	109.94
424.956	113.94
425.178	112.94
425.401	104.94
425.623	98.94
425.846	94.94
426.068	106.94
426.291	99.94
426.513	88.94
426.735	104.94
426.958	99.94
427.18	106.94
427.402	156.94
427.625	188.94
427.847	161.94
428.069	130.94
428.292	92.94
428.514	100.94
428.736	85.94
428.958	80.94
429.181	83.94
429.403	79.94
429.625	94.94
429.847	92.94
430.069	111.94
430.292	101.94
430.514	102.94
430.736	82.94
430.958	96.94
431.18	83.94
431.402	111.94
431.624	93.94
431.846	85.94
432.068	75.94
432.29	75.94
432.512	89.94
432.734	79.94
432.956	98.94
433.178	104.94
433.4	114.94
433.622	98.94
433.844	87.94
434.066	96.94
434.287	105.94
434.509	92.94
434.731	101.94
434.953	89.94
435.175	92.94
435.397	94.94
435.618	105.94
435.84	112.94
436.062	138.94
436.284	131.94
436.505	121.94
436.727	112.94
436.949	88.94
437.17	83.94
437.392	90.94
437.614	86.94
437.835	119.94
438.057	134.94
438.278	132.94
438.5	118.94
438.721	127.94
438.943	111.94
439.165	95.94
439.386	98.94
439.608	96.94
439.829	93.94
440.05	151.94
440.272	171.94
440.493	135.94
440.715	106.94
440.936	102.94
441.158	89.94
441.379	96.94
441.6	85.94
441.822	91.94
442.043	105.94
442.264	115.94
442.486	109.94
442.707	104.94
442.928	107.94
443.149	146.94
443.371	155.94
443.592	133.94
443.813	124.94
444.034	128.94
444.255	94.94
444.476	105.94
444.698	88.94
444.919	95.94
445.14	131.94
445.361	137.94
445.582	143.94
445.803	174.94
446.024	164.94
446.245	163.94
446.466	129.94
446.687	100.94
446.908	98.94
447.129	81.94
447.35	99.94
447.571	96.94
447.792	93.94
448.013	119.94
448.234	124.94
448.455	107.94
448.675	113.94
448.896	130.94
449.117	111.94
449.338	114.94
449.559	155.94
449.779	155.94
450	82.94
450.221	87.94
450.442	88.94
450.662	83.94
450.883	116.94
451.104	118.94
451.324	102.94
451.545	102.94
451.766	96.94
451.986	76.94
452.207	104.94
452.428	101.94
452.648	90.94
452.869	112.94
453.089	122.94
453.31	119.94
453.53	95.94
453.751	108.94
453.971	112.94
454.192	119.94
454.412	89.94
454.633	93.94
454.853	82.94
455.073	96.94
455.294	100.94
455.514	108.94
455.734	97.94
455.955	95.94
456.175	93.94
456.395	96.94
456.616	92.94
456.836	91.94
457.056	88.94
457.276	80.94
457.497	80.94
457.717	109.94
457.937	93.94
458.157	91.94
458.377	101.94
458.598	99.94
458.818	182.94
459.038	193.94
459.258	138.94
459.478	90.94
459.698	86.94
459.918	94.94
460.138	98.94
460.358	88.94
460.578	81.94
460.798	82.94
461.018	105.94
461.238	75.94
461.458	81.94
461.678	95.94
461.898	93.94
462.118	85.94
462.338	86.94
462.558	100.94
462.777	88.94
462.997	97.94
463.217	90.94
463.437	93.94
463.657	84.94
463.876	88.94
464.096	91.94
464.316	102.94
464.536	113.94
464.755	98.94
464.975	104.94
465.195	197.94
465.414	191.94
465.634	100.94
465.854	88.94
466.073	101.94
466.293	93.94
466.512	98.94
466.732	72.94
466.951	87.94
467.171	86.94
467.391	92.94
467.61	108.94
467.829	106.94
468.049	109.94
468.268	108.94
468.488	99.94
468.707	98.94
468.927	77.94
469.146	91.94
469.365	76.94
469.585	105.94
469.804	100.94
470.023	111.94
470.243	96.94
470.462	100.94
470.681	127.94
470.901	97.94
471.12	84.94
471.339	90.94
471.558	79.94
471.777	98.94
471.997	101.94
472.216	131.94
472.435	189.94
472.654	122.94
472.873	96.94
473.092	81.94
473.311	85.94
473.53	88.94
473.749	76.94
473.968	94.94
474.187	120.94
474.406	109.94
474.625	82.94
474.844	94.94
475.063	80.94
475.282	90.94
475.501	99.94
475.72	89.94
475.939	100.94
476.158	87.94
476.377	91.94
476.596	104.94
476.814	104.94
477.033	100.94
477.252	97.94
477.471	81.94
477.69	86.94
477.908	98.94
478.127	84.94
478.346	87.94
478.564	98.94
478.783	108.94
479.002	93.94
479.22	101.94
479.439	103.94
479.658	115.94
479.876	100.94
480.095	102.94
480.313	100.94
480.532	98.94
480.751	84.94
480.969	127.94
481.188	264.94
481.406	193.94
481.624	96.94
481.843	106.94
482.061	100.94
482.28	99.94
482.498	86.94
482.717	89.94
482.935	102.94
483.153	93.94
483.372	93.94
483.59	90.94
483.808	85.94
484.027	98.94
484.245	96.94
484.463	106.94
484.681	110.94
484.9	103.94
485.118	101.94
485.336	94.94
485.554	109.94
485.772	101.94
485.99	97.94
486.209	108.94
486.427	92.94
486.645	117.94
486.863	113.94
487.081	110.94
487.299	99.94
487.517	95.94
487.735	106.94
487.953	92.94
488.171	99.94
488.389	95.94
488.607	107.94
488.825	95.94
489.043	83.94
489.261	94.94
489.479	85.94
489.696	92.94
489.914	95.94
490.132	97.94
490.35	92.94
490.568	90.94
490.786	87.94
491.003	92.94
491.221	82.94
491.439	83.94
491.657	114.94
491.874	111.94
492.092	95.94
492.31	98.94
492.527	96.94
492.745	101.94
492.963	92.94
493.18	85.94
493.398	93.94
493.615	93.94
493.833	95.94
494.05	93.94
494.268	100.94
494.485	95.94
494.703	98.94
494.92	88.94
495.138	93.94
495.355	103.94
495.573	98.94
495.79	85.94
496.008	86.94
496.225	88.94
496.442	84.94
496.66	95.94
496.877	98.94
497.094	84.94
497.312	112.94
497.529	104.94
497.746	85.94
497.963	91.94
498.181	105.94
498.398	107.94
498.615	105.94
498.832	106.94
499.049	90.94
499.267	95.94
499.484	113.94
499.701	112.94
499.918	87.94
500.135	97.94
500.352	103.94
500.569	95.94
500.786	92.94
501.003	96.94
501.22	93.94
501.437	90.94
501.654	99.94
501.871	114.94
502.088	112.94
502.305	91.94
502.522	87.94
502.739	97.94
502.956	102.94
503.172	109.94
503.389	97.94
503.606	109.94
503.823	106.94
504.04	96.94
504.256	93.94
504.473	101.94
504.69	88.94
504.907	104.94
505.123	92.94
505.34	89.94
505.557	91.94
505.773	93.94
505.99	88.94
506.207	92.94
506.423	86.94
506.64	83.94
506.856	96.94
507.073	96.94
507.289	97.94
507.506	103.94
507.722	106.94
507.939	104.94
508.155	103.94
508.372	97.94
508.588	106.94
508.805	91.94
509.021	87.94
509.238	114.94
509.454	99.94
509.67	97.94
509.887	117.94
510.103	127.94
510.319	210.94
510.536	774.94
510.752	2639.94
510.968	744.94
511.184	172.94
511.401	106.94
511.617	99.94
511.833	105.94
512.049	101.94
512.265	96.94
512.481	95.94
512.698	113.94
512.914	100.94
513.13	90.94
