Data from Circ_2005_H10_HRD10591_00073.txt Node
Date: Wed Jan 03 10:30:05 EST 2024
User: Yrep
Spectrometer: HR+D1059
Trigger mode: 1
Integration Time (sec): 1.000000E-1
Scans to average: 1
Electric dark correction enabled: true
Nonlinearity correction enabled: false
Boxcar width: 0
XAxis mode: Wavelengths
Number of Pixels in Spectrum: 2048
>>>>>Begin Spectral Data<<<<<
223.165	-17.25
223.4	-17.25
223.635	-17.25
223.869	-16.25
224.104	-17.25
224.338	-15.25
224.573	-9.25
224.808	-14.25
225.042	-4.25
225.277	-9.25
225.511	-3.25
225.746	-2.25
225.98	13.75
226.215	11.75
226.449	-0.25
226.683	27.75
226.918	29.75
227.152	25.75
227.387	39.75
227.621	37.75
227.856	52.75
228.09	52.75
228.324	63.75
228.559	48.75
228.793	51.75
229.027	51.75
229.262	71.75
229.496	76.75
229.73	80.75
229.964	83.75
230.199	73.75
230.433	85.75
230.667	93.75
230.901	77.75
231.136	63.75
231.37	76.75
231.604	78.75
231.838	74.75
232.072	89.75
232.306	86.75
232.541	71.75
232.775	79.75
233.009	87.75
233.243	76.75
233.477	83.75
233.711	71.75
233.945	81.75
234.179	83.75
234.413	80.75
234.647	99.75
234.881	75.75
235.115	83.75
235.349	87.75
235.583	79.75
235.817	67.75
236.051	68.75
236.285	77.75
236.519	81.75
236.753	81.75
236.987	75.75
237.221	84.75
237.455	66.75
237.689	85.75
237.922	72.75
238.156	70.75
238.39	79.75
238.624	80.75
238.858	80.75
239.091	77.75
239.325	86.75
239.559	85.75
239.793	66.75
240.027	70.75
240.26	84.75
240.494	65.75
240.728	60.75
240.961	80.75
241.195	78.75
241.429	78.75
241.662	78.75
241.896	76.75
242.13	76.75
242.363	86.75
242.597	74.75
242.83	81.75
243.064	88.75
243.298	77.75
243.531	76.75
243.765	76.75
243.998	71.75
244.232	86.75
244.465	74.75
244.699	74.75
244.932	75.75
245.166	68.75
245.399	103.75
245.633	70.75
245.866	70.75
246.099	66.75
246.333	82.75
246.566	75.75
246.8	88.75
247.033	69.75
247.266	83.75
247.5	69.75
247.733	79.75
247.966	98.75
248.2	65.75
248.433	76.75
248.666	86.75
248.899	86.75
249.133	92.75
249.366	101.75
249.599	80.75
249.832	82.75
250.066	82.75
250.299	87.75
250.532	93.75
250.765	73.75
250.998	78.75
251.231	90.75
251.465	78.75
251.698	77.75
251.931	78.75
252.164	78.75
252.397	71.75
252.63	82.75
252.863	66.75
253.096	81.75
253.329	73.75
253.562	88.75
253.795	74.75
254.028	79.75
254.261	67.75
254.494	83.75
254.727	82.75
254.96	62.75
255.193	83.75
255.426	74.75
255.659	86.75
255.892	82.75
256.124	72.75
256.357	68.75
256.59	82.75
256.823	67.75
257.056	90.75
257.289	80.75
257.521	84.75
257.754	74.75
257.987	83.75
258.22	85.75
258.452	93.75
258.685	85.75
258.918	74.75
259.151	75.75
259.383	72.75
259.616	70.75
259.849	79.75
260.081	86.75
260.314	92.75
260.547	86.75
260.779	87.75
261.012	78.75
261.244	90.75
261.477	98.75
261.71	95.75
261.942	113.75
262.175	112.75
262.407	87.75
262.64	85.75
262.872	87.75
263.105	82.75
263.337	89.75
263.57	93.75
263.802	81.75
264.035	72.75
264.267	74.75
264.499	78.75
264.732	78.75
264.964	84.75
265.197	73.75
265.429	92.75
265.661	68.75
265.894	79.75
266.126	78.75
266.358	73.75
266.591	67.75
266.823	81.75
267.055	77.75
267.287	80.75
267.52	88.75
267.752	91.75
267.984	82.75
268.216	83.75
268.448	91.75
268.681	77.75
268.913	88.75
269.145	92.75
269.377	88.75
269.609	65.75
269.841	70.75
270.073	85.75
270.306	83.75
270.538	83.75
270.77	82.75
271.002	80.75
271.234	80.75
271.466	84.75
271.698	86.75
271.93	85.75
272.162	85.75
272.394	77.75
272.626	82.75
272.858	72.75
273.09	83.75
273.322	83.75
273.553	90.75
273.785	82.75
274.017	82.75
274.249	82.75
274.481	85.75
274.713	79.75
274.945	81.75
275.176	99.75
275.408	101.75
275.64	84.75
275.872	100.75
276.104	86.75
276.335	84.75
276.567	89.75
276.799	106.75
277.031	101.75
277.262	100.75
277.494	92.75
277.726	81.75
277.957	77.75
278.189	78.75
278.421	86.75
278.652	67.75
278.884	84.75
279.115	79.75
279.347	77.75
279.579	88.75
279.81	94.75
280.042	93.75
280.273	83.75
280.505	97.75
280.736	85.75
280.968	94.75
281.199	82.75
281.431	89.75
281.662	89.75
281.894	84.75
282.125	96.75
282.356	106.75
282.588	136.75
282.819	117.75
283.051	92.75
283.282	68.75
283.513	102.75
283.745	92.75
283.976	94.75
284.207	89.75
284.439	88.75
284.67	77.75
284.901	79.75
285.132	77.75
285.364	86.75
285.595	96.75
285.826	88.75
286.057	97.75
286.288	96.75
286.52	88.75
286.751	93.75
286.982	78.75
287.213	88.75
287.444	91.75
287.675	82.75
287.906	95.75
288.138	91.75
288.369	79.75
288.6	88.75
288.831	98.75
289.062	88.75
289.293	83.75
289.524	93.75
289.755	81.75
289.986	76.75
290.217	93.75
290.448	90.75
290.679	83.75
290.91	84.75
291.141	95.75
291.371	90.75
291.602	84.75
291.833	94.75
292.064	87.75
292.295	85.75
292.526	73.75
292.757	94.75
292.987	90.75
293.218	83.75
293.449	85.75
293.68	86.75
293.91	76.75
294.141	87.75
294.372	101.75
294.603	81.75
294.833	92.75
295.064	97.75
295.295	102.75
295.525	103.75
295.756	91.75
295.987	107.75
296.217	135.75
296.448	134.75
296.679	95.75
296.909	92.75
297.14	93.75
297.37	99.75
297.601	86.75
297.831	85.75
298.062	86.75
298.292	78.75
298.523	97.75
298.753	90.75
298.984	83.75
299.214	78.75
299.445	98.75
299.675	86.75
299.905	87.75
300.136	89.75
300.366	90.75
300.597	86.75
300.827	88.75
301.057	92.75
301.288	102.75
301.518	101.75
301.748	94.75
301.979	95.75
302.209	83.75
302.439	89.75
302.669	94.75
302.9	82.75
303.13	85.75
303.36	90.75
303.59	103.75
303.82	92.75
304.051	88.75
304.281	91.75
304.511	92.75
304.741	83.75
304.971	75.75
305.201	87.75
305.431	96.75
305.661	89.75
305.891	88.75
306.121	102.75
306.352	96.75
306.582	101.75
306.812	92.75
307.042	102.75
307.272	98.75
307.502	93.75
307.731	112.75
307.961	94.75
308.191	77.75
308.421	101.75
308.651	84.75
308.881	80.75
309.111	99.75
309.341	89.75
309.571	91.75
309.8	99.75
310.03	86.75
310.26	85.75
310.49	87.75
310.72	92.75
310.949	104.75
311.179	98.75
311.409	91.75
311.639	91.75
311.868	88.75
312.098	101.75
312.328	85.75
312.557	92.75
312.787	103.75
313.017	101.75
313.246	105.75
313.476	96.75
313.706	92.75
313.935	83.75
314.165	90.75
314.394	98.75
314.624	107.75
314.853	89.75
315.083	89.75
315.312	84.75
315.542	90.75
315.771	92.75
316.001	83.75
316.23	80.75
316.46	83.75
316.689	89.75
316.919	78.75
317.148	88.75
317.377	87.75
317.607	89.75
317.836	96.75
318.065	86.75
318.295	83.75
318.524	85.75
318.753	82.75
318.983	103.75
319.212	101.75
319.441	84.75
319.67	101.75
319.9	92.75
320.129	94.75
320.358	82.75
320.587	100.75
320.816	96.75
321.046	72.75
321.275	103.75
321.504	93.75
321.733	102.75
321.962	97.75
322.191	87.75
322.42	95.75
322.649	111.75
322.878	123.75
323.108	122.75
323.337	107.75
323.566	131.75
323.795	142.75
324.024	209.75
324.253	381.75
324.482	823.75
324.71	1639.75
324.939	2150.75
325.168	786.75
325.397	230.75
325.626	147.75
325.855	135.75
326.084	126.75
326.313	122.75
326.542	152.75
326.77	228.75
326.999	449.75
327.228	888.75
327.457	1673.75
327.686	1314.75
327.914	371.75
328.143	207.75
328.372	175.75
328.6	125.75
328.829	121.75
329.058	122.75
329.287	135.75
329.515	104.75
329.744	137.75
329.972	128.75
330.201	154.75
330.43	190.75
330.658	147.75
330.887	130.75
331.115	126.75
331.344	97.75
331.572	90.75
331.801	101.75
332.03	107.75
332.258	107.75
332.486	91.75
332.715	99.75
332.943	95.75
333.172	95.75
333.4	96.75
333.629	103.75
333.857	117.75
334.085	128.75
334.314	168.75
334.542	234.75
334.771	229.75
334.999	125.75
335.227	113.75
335.455	96.75
335.684	87.75
335.912	106.75
336.14	100.75
336.369	104.75
336.597	98.75
336.825	101.75
337.053	88.75
337.281	96.75
337.51	88.75
337.738	90.75
337.966	104.75
338.194	96.75
338.422	88.75
338.65	90.75
338.878	101.75
339.106	93.75
339.334	78.75
339.562	99.75
339.79	86.75
340.018	100.75
340.246	85.75
340.474	93.75
340.702	119.75
340.93	77.75
341.158	94.75
341.386	88.75
341.614	96.75
341.842	117.75
342.07	95.75
342.298	74.75
342.526	82.75
342.754	94.75
342.981	93.75
343.209	95.75
343.437	106.75
343.665	88.75
343.893	93.75
344.12	82.75
344.348	87.75
344.576	80.75
344.804	102.75
345.031	99.75
345.259	83.75
345.487	95.75
345.714	87.75
345.942	71.75
346.17	91.75
346.397	85.75
346.625	95.75
346.853	88.75
347.08	79.75
347.308	91.75
347.535	98.75
347.763	77.75
347.99	88.75
348.218	95.75
348.445	98.75
348.673	87.75
348.9	80.75
349.128	103.75
349.355	83.75
349.583	86.75
349.81	100.75
350.037	85.75
350.265	94.75
350.492	83.75
350.72	97.75
350.947	100.75
351.174	117.75
351.402	98.75
351.629	76.75
351.856	103.75
352.083	107.75
352.311	100.75
352.538	105.75
352.765	104.75
352.992	102.75
353.22	102.75
353.447	98.75
353.674	107.75
353.901	79.75
354.128	94.75
354.355	94.75
354.583	98.75
354.81	95.75
355.037	108.75
355.264	101.75
355.491	91.75
355.718	88.75
355.945	87.75
356.172	86.75
356.399	94.75
356.626	88.75
356.853	82.75
357.08	87.75
357.307	99.75
357.534	98.75
357.761	94.75
357.988	83.75
358.215	107.75
358.441	83.75
358.668	91.75
358.895	94.75
359.122	92.75
359.349	82.75
359.576	90.75
359.802	102.75
360.029	113.75
360.256	106.75
360.483	100.75
360.709	79.75
360.936	96.75
361.163	89.75
361.39	98.75
361.616	99.75
361.843	92.75
362.07	95.75
362.296	96.75
362.523	77.75
362.749	100.75
362.976	94.75
363.203	88.75
363.429	93.75
363.656	96.75
363.882	91.75
364.109	95.75
364.335	105.75
364.562	85.75
364.788	89.75
365.015	99.75
365.241	94.75
365.468	88.75
365.694	113.75
365.92	104.75
366.147	107.75
366.373	87.75
366.599	86.75
366.826	103.75
367.052	102.75
367.278	97.75
367.505	87.75
367.731	85.75
367.957	82.75
368.184	81.75
368.41	88.75
368.636	105.75
368.862	127.75
369.089	100.75
369.315	95.75
369.541	76.75
369.767	91.75
369.993	86.75
370.219	86.75
370.445	77.75
370.672	92.75
370.898	87.75
371.124	74.75
371.35	82.75
371.576	88.75
371.802	87.75
372.028	92.75
372.254	88.75
372.48	89.75
372.706	88.75
372.932	83.75
373.158	84.75
373.384	87.75
373.61	92.75
373.835	100.75
374.061	83.75
374.287	90.75
374.513	97.75
374.739	77.75
374.965	81.75
375.191	86.75
375.416	79.75
375.642	92.75
375.868	85.75
376.094	89.75
376.319	93.75
376.545	93.75
376.771	94.75
376.997	96.75
377.222	72.75
377.448	91.75
377.674	92.75
377.899	70.75
378.125	98.75
378.35	90.75
378.576	90.75
378.802	80.75
379.027	93.75
379.253	85.75
379.478	96.75
379.704	90.75
379.929	78.75
380.155	88.75
380.38	94.75
380.606	87.75
380.831	84.75
381.057	100.75
381.282	107.75
381.507	84.75
381.733	84.75
381.958	91.75
382.184	93.75
382.409	91.75
382.634	106.75
382.86	111.75
383.085	92.75
383.31	92.75
383.535	100.75
383.761	100.75
383.986	85.75
384.211	95.75
384.436	113.75
384.662	96.75
384.887	98.75
385.112	91.75
385.337	92.75
385.562	103.75
385.787	109.75
386.013	112.75
386.238	91.75
386.463	112.75
386.688	116.75
386.913	94.75
387.138	106.75
387.363	100.75
387.588	95.75
387.813	109.75
388.038	100.75
388.263	110.75
388.488	103.75
388.713	90.75
388.938	102.75
389.163	102.75
389.387	97.75
389.612	102.75
389.837	88.75
390.062	94.75
390.287	83.75
390.512	86.75
390.736	96.75
390.961	106.75
391.186	91.75
391.411	99.75
391.636	85.75
391.86	87.75
392.085	101.75
392.31	93.75
392.534	84.75
392.759	93.75
392.984	89.75
393.208	93.75
393.433	78.75
393.658	90.75
393.882	83.75
394.107	96.75
394.331	84.75
394.556	87.75
394.78	84.75
395.005	79.75
395.229	83.75
395.454	108.75
395.678	88.75
395.903	90.75
396.127	86.75
396.352	83.75
396.576	92.75
396.801	91.75
397.025	74.75
397.249	78.75
397.474	86.75
397.698	86.75
397.922	85.75
398.147	89.75
398.371	74.75
398.595	92.75
398.82	78.75
399.044	73.75
399.268	95.75
399.492	83.75
399.717	80.75
399.941	112.75
400.165	96.75
400.389	96.75
400.613	93.75
400.837	84.75
401.062	78.75
401.286	87.75
401.51	87.75
401.734	93.75
401.958	100.75
402.182	145.75
402.406	145.75
402.63	106.75
402.854	82.75
403.078	97.75
403.302	86.75
403.526	94.75
403.75	92.75
403.974	88.75
404.198	87.75
404.422	87.75
404.645	88.75
404.869	87.75
405.093	90.75
405.317	112.75
405.541	100.75
405.765	96.75
405.988	100.75
406.212	158.75
406.436	215.75
406.66	149.75
406.883	99.75
407.107	96.75
407.331	86.75
407.555	87.75
407.778	106.75
408.002	98.75
408.226	91.75
408.449	92.75
408.673	75.75
408.896	89.75
409.12	96.75
409.344	94.75
409.567	96.75
409.791	87.75
410.014	93.75
410.238	96.75
410.461	92.75
410.685	115.75
410.908	111.75
411.132	103.75
411.355	107.75
411.578	95.75
411.802	90.75
412.025	85.75
412.249	92.75
412.472	97.75
412.695	91.75
412.919	100.75
413.142	93.75
413.365	86.75
413.589	84.75
413.812	72.75
414.035	92.75
414.258	81.75
414.482	79.75
414.705	91.75
414.928	89.75
415.151	88.75
415.374	76.75
415.597	82.75
415.821	78.75
416.044	85.75
416.267	80.75
416.49	78.75
416.713	87.75
416.936	92.75
417.159	87.75
417.382	87.75
417.605	91.75
417.828	91.75
418.051	92.75
418.274	76.75
418.497	92.75
418.72	95.75
418.943	86.75
419.166	83.75
419.389	85.75
419.611	85.75
419.834	82.75
420.057	88.75
420.28	100.75
420.503	79.75
420.726	84.75
420.948	82.75
421.171	104.75
421.394	79.75
421.617	96.75
421.839	86.75
422.062	86.75
422.285	93.75
422.507	102.75
422.73	84.75
422.953	85.75
423.175	90.75
423.398	85.75
423.621	87.75
423.843	78.75
424.066	80.75
424.288	75.75
424.511	96.75
424.733	86.75
424.956	113.75
425.178	99.75
425.401	101.75
425.623	106.75
425.846	78.75
426.068	95.75
426.291	72.75
426.513	81.75
426.735	88.75
426.958	95.75
427.18	115.75
427.402	129.75
427.625	160.75
427.847	125.75
428.069	123.75
428.292	87.75
428.514	86.75
428.736	80.75
428.958	100.75
429.181	93.75
429.403	92.75
429.625	103.75
429.847	85.75
430.069	87.75
430.292	95.75
430.514	85.75
430.736	78.75
430.958	92.75
431.18	88.75
431.402	88.75
431.624	87.75
431.846	106.75
432.068	93.75
432.29	94.75
432.512	98.75
432.734	93.75
432.956	92.75
433.178	95.75
433.4	93.75
433.622	88.75
433.844	97.75
434.066	106.75
434.287	91.75
434.509	88.75
434.731	94.75
434.953	96.75
435.175	82.75
435.397	79.75
435.618	83.75
435.84	108.75
436.062	113.75
436.284	111.75
436.505	103.75
436.727	92.75
436.949	101.75
437.17	83.75
437.392	80.75
437.614	96.75
437.835	106.75
438.057	97.75
438.278	118.75
438.5	98.75
438.721	113.75
438.943	102.75
439.165	86.75
439.386	80.75
439.608	100.75
439.829	100.75
440.05	107.75
440.272	132.75
440.493	93.75
440.715	84.75
440.936	80.75
441.158	87.75
441.379	78.75
441.6	91.75
441.822	95.75
442.043	95.75
442.264	86.75
442.486	91.75
442.707	84.75
442.928	91.75
443.149	123.75
443.371	118.75
443.592	106.75
443.813	117.75
444.034	102.75
444.255	103.75
444.476	81.75
444.698	90.75
444.919	91.75
445.14	132.75
445.361	118.75
445.582	112.75
445.803	118.75
446.024	124.75
446.245	119.75
446.466	98.75
446.687	87.75
446.908	89.75
447.129	83.75
447.35	96.75
447.571	84.75
447.792	107.75
448.013	104.75
448.234	102.75
448.455	103.75
448.675	108.75
448.896	102.75
449.117	99.75
449.338	88.75
449.559	123.75
449.779	132.75
450	103.75
450.221	90.75
450.442	79.75
450.662	87.75
450.883	93.75
451.104	113.75
451.324	99.75
451.545	86.75
451.766	77.75
451.986	77.75
452.207	88.75
452.428	106.75
452.648	95.75
452.869	115.75
453.089	112.75
453.31	122.75
453.53	100.75
453.751	91.75
453.971	99.75
454.192	96.75
454.412	68.75
454.633	85.75
454.853	88.75
455.073	92.75
455.294	90.75
455.514	100.75
455.734	82.75
455.955	78.75
456.175	77.75
456.395	76.75
456.616	77.75
456.836	85.75
457.056	101.75
457.276	94.75
457.497	88.75
457.717	80.75
457.937	86.75
458.157	87.75
458.377	90.75
458.598	90.75
458.818	138.75
459.038	160.75
459.258	118.75
459.478	90.75
459.698	98.75
459.918	86.75
460.138	91.75
460.358	85.75
460.578	79.75
460.798	98.75
461.018	81.75
461.238	90.75
461.458	88.75
461.678	88.75
461.898	93.75
462.118	77.75
462.338	88.75
462.558	89.75
462.777	89.75
462.997	91.75
463.217	66.75
463.437	77.75
463.657	87.75
463.876	70.75
464.096	87.75
464.316	85.75
464.536	103.75
464.755	99.75
464.975	104.75
465.195	152.75
465.414	141.75
465.634	93.75
465.854	92.75
466.073	86.75
466.293	88.75
466.512	87.75
466.732	92.75
466.951	92.75
467.171	85.75
467.391	88.75
467.61	119.75
467.829	94.75
468.049	138.75
468.268	144.75
468.488	95.75
468.707	97.75
468.927	87.75
469.146	87.75
469.365	89.75
469.585	84.75
469.804	90.75
470.023	94.75
470.243	96.75
470.462	84.75
470.681	99.75
470.901	98.75
471.12	98.75
471.339	89.75
471.558	81.75
471.777	92.75
471.997	109.75
472.216	181.75
472.435	287.75
472.654	115.75
472.873	94.75
473.092	105.75
473.311	98.75
473.53	72.75
473.749	87.75
473.968	90.75
474.187	99.75
474.406	84.75
474.625	77.75
474.844	87.75
475.063	85.75
475.282	86.75
475.501	94.75
475.72	89.75
475.939	93.75
476.158	91.75
476.377	83.75
476.596	85.75
476.814	83.75
477.033	82.75
477.252	97.75
477.471	83.75
477.69	85.75
477.908	82.75
478.127	93.75
478.346	95.75
478.564	88.75
478.783	95.75
479.002	94.75
479.22	89.75
479.439	104.75
479.658	102.75
479.876	102.75
480.095	100.75
480.313	98.75
480.532	97.75
480.751	119.75
480.969	187.75
481.188	459.75
481.406	308.75
481.624	127.75
481.843	88.75
482.061	91.75
482.28	96.75
482.498	77.75
482.717	85.75
482.935	87.75
483.153	98.75
483.372	94.75
483.59	102.75
483.808	86.75
484.027	71.75
484.245	96.75
484.463	94.75
484.681	113.75
484.9	108.75
485.118	94.75
485.336	98.75
485.554	91.75
485.772	106.75
485.99	108.75
486.209	106.75
486.427	79.75
486.645	98.75
486.863	104.75
487.081	96.75
487.299	85.75
487.517	83.75
487.735	99.75
487.953	95.75
488.171	95.75
488.389	86.75
488.607	107.75
488.825	79.75
489.043	88.75
489.261	84.75
489.479	87.75
489.696	100.75
489.914	88.75
490.132	98.75
490.35	92.75
490.568	94.75
490.786	84.75
491.003	97.75
491.221	88.75
491.439	86.75
491.657	100.75
491.874	93.75
492.092	86.75
492.31	71.75
492.527	80.75
492.745	97.75
492.963	83.75
493.18	102.75
493.398	94.75
493.615	112.75
493.833	107.75
494.05	71.75
494.268	86.75
494.485	90.75
494.703	92.75
494.92	83.75
495.138	95.75
495.355	96.75
495.573	94.75
495.79	85.75
496.008	107.75
496.225	99.75
496.442	84.75
496.66	98.75
496.877	91.75
497.094	96.75
497.312	98.75
497.529	88.75
497.746	86.75
497.963	85.75
498.181	94.75
498.398	91.75
498.615	104.75
498.832	106.75
499.049	95.75
499.267	99.75
499.484	88.75
499.701	88.75
499.918	93.75
500.135	83.75
500.352	87.75
500.569	84.75
500.786	101.75
501.003	97.75
501.22	93.75
501.437	90.75
501.654	85.75
501.871	109.75
502.088	83.75
502.305	103.75
502.522	100.75
502.739	102.75
502.956	94.75
503.172	88.75
503.389	96.75
503.606	85.75
503.823	83.75
504.04	76.75
504.256	92.75
504.473	76.75
504.69	86.75
504.907	79.75
505.123	76.75
505.34	84.75
505.557	91.75
505.773	86.75
505.99	98.75
506.207	85.75
506.423	86.75
506.64	79.75
506.856	98.75
507.073	110.75
507.289	93.75
507.506	107.75
507.722	104.75
507.939	110.75
508.155	83.75
508.372	98.75
508.588	98.75
508.805	110.75
509.021	106.75
509.238	89.75
509.454	83.75
509.67	104.75
509.887	107.75
510.103	129.75
510.319	216.75
510.536	734.75
510.752	2429.75
510.968	667.75
511.184	150.75
511.401	119.75
511.617	92.75
511.833	80.75
512.049	91.75
512.265	82.75
512.481	87.75
512.698	88.75
512.914	100.75
513.13	93.75
513.346	95.75
513.562	90.75
513.778	94.75
513.994	101.75
514.21	88.75
514.426	113.75
514.642	127.75
514.858	122.75
515.074	160.75
515.29	426.75
515.506	1462.75
515.721	555.75
515.937	145.75
