Data from Circ_2005_H10_HRD10591_00030.txt Node
Date: Wed Jan 03 10:29:57 EST 2024
User: Yrep
Spectrometer: HR+D1059
Trigger mode: 1
Integration Time (sec): 1.000000E-1
Scans to average: 1
Electric dark correction enabled: true
Nonlinearity correction enabled: false
Boxcar width: 0
XAxis mode: Wavelengths
Number of Pixels in Spectrum: 2048
>>>>>Begin Spectral Data<<<<<
223.165	-7.75
223.4	-7.75
223.635	-7.75
223.869	-19.75
224.104	-16.75
224.338	-7.75
224.573	-18.75
224.808	-17.75
225.042	-0.75
225.277	-4.75
225.511	-9.75
225.746	11.25
225.98	5.25
226.215	9.25
226.449	14.25
226.683	21.25
226.918	19.25
227.152	23.25
227.387	37.25
227.621	47.25
227.856	39.25
228.09	48.25
228.324	52.25
228.559	64.25
228.793	63.25
229.027	68.25
229.262	75.25
229.496	72.25
229.73	79.25
229.964	83.25
230.199	77.25
230.433	67.25
230.667	79.25
230.901	78.25
231.136	75.25
231.37	71.25
231.604	78.25
231.838	83.25
232.072	78.25
232.306	86.25
232.541	93.25
232.775	82.25
233.009	69.25
233.243	82.25
233.477	75.25
233.711	78.25
233.945	77.25
234.179	75.25
234.413	89.25
234.647	75.25
234.881	94.25
235.115	78.25
235.349	86.25
235.583	77.25
235.817	75.25
236.051	82.25
236.285	70.25
236.519	86.25
236.753	82.25
236.987	83.25
237.221	80.25
237.455	84.25
237.689	80.25
237.922	94.25
238.156	76.25
238.39	79.25
238.624	72.25
238.858	82.25
239.091	64.25
239.325	79.25
239.559	80.25
239.793	86.25
240.027	79.25
240.26	83.25
240.494	85.25
240.728	80.25
240.961	76.25
241.195	90.25
241.429	71.25
241.662	69.25
241.896	80.25
242.13	67.25
242.363	65.25
242.597	76.25
242.83	81.25
243.064	79.25
243.298	59.25
243.531	68.25
243.765	91.25
243.998	75.25
244.232	81.25
244.465	78.25
244.699	83.25
244.932	80.25
245.166	65.25
245.399	90.25
245.633	79.25
245.866	89.25
246.099	86.25
246.333	79.25
246.566	70.25
246.8	88.25
247.033	54.25
247.266	55.25
247.5	83.25
247.733	77.25
247.966	79.25
248.2	75.25
248.433	76.25
248.666	70.25
248.899	81.25
249.133	80.25
249.366	90.25
249.599	101.25
249.832	92.25
250.066	81.25
250.299	75.25
250.532	87.25
250.765	86.25
250.998	84.25
251.231	80.25
251.465	82.25
251.698	74.25
251.931	84.25
252.164	79.25
252.397	82.25
252.63	81.25
252.863	85.25
253.096	88.25
253.329	75.25
253.562	87.25
253.795	73.25
254.028	88.25
254.261	74.25
254.494	85.25
254.727	82.25
254.96	80.25
255.193	76.25
255.426	74.25
255.659	82.25
255.892	76.25
256.124	78.25
256.357	77.25
256.59	77.25
256.823	85.25
257.056	73.25
257.289	85.25
257.521	76.25
257.754	77.25
257.987	86.25
258.22	87.25
258.452	72.25
258.685	66.25
258.918	77.25
259.151	91.25
259.383	64.25
259.616	78.25
259.849	77.25
260.081	74.25
260.314	72.25
260.547	82.25
260.779	86.25
261.012	91.25
261.244	90.25
261.477	95.25
261.71	86.25
261.942	105.25
262.175	108.25
262.407	88.25
262.64	77.25
262.872	82.25
263.105	79.25
263.337	78.25
263.57	76.25
263.802	93.25
264.035	87.25
264.267	71.25
264.499	81.25
264.732	87.25
264.964	64.25
265.197	84.25
265.429	84.25
265.661	71.25
265.894	86.25
266.126	78.25
266.358	81.25
266.591	90.25
266.823	79.25
267.055	74.25
267.287	83.25
267.52	77.25
267.752	86.25
267.984	83.25
268.216	86.25
268.448	81.25
268.681	92.25
268.913	92.25
269.145	81.25
269.377	79.25
269.609	76.25
269.841	80.25
270.073	85.25
270.306	70.25
270.538	81.25
270.77	78.25
271.002	88.25
271.234	73.25
271.466	80.25
271.698	84.25
271.93	73.25
272.162	91.25
272.394	87.25
272.626	91.25
272.858	79.25
273.09	88.25
273.322	82.25
273.553	62.25
273.785	81.25
274.017	86.25
274.249	95.25
274.481	78.25
274.713	96.25
274.945	89.25
275.176	89.25
275.408	89.25
275.64	84.25
275.872	87.25
276.104	86.25
276.335	95.25
276.567	100.25
276.799	104.25
277.031	97.25
277.262	93.25
277.494	85.25
277.726	81.25
277.957	79.25
278.189	91.25
278.421	85.25
278.652	83.25
278.884	76.25
279.115	91.25
279.347	77.25
279.579	94.25
279.81	91.25
280.042	100.25
280.273	89.25
280.505	93.25
280.736	85.25
280.968	92.25
281.199	68.25
281.431	80.25
281.662	87.25
281.894	84.25
282.125	92.25
282.356	114.25
282.588	124.25
282.819	124.25
283.051	93.25
283.282	91.25
283.513	75.25
283.745	86.25
283.976	77.25
284.207	79.25
284.439	87.25
284.67	91.25
284.901	89.25
285.132	89.25
285.364	82.25
285.595	82.25
285.826	77.25
286.057	79.25
286.288	85.25
286.52	91.25
286.751	81.25
286.982	73.25
287.213	85.25
287.444	82.25
287.675	87.25
287.906	84.25
288.138	84.25
288.369	95.25
288.6	96.25
288.831	82.25
289.062	81.25
289.293	90.25
289.524	83.25
289.755	87.25
289.986	91.25
290.217	87.25
290.448	88.25
290.679	86.25
290.91	92.25
291.141	89.25
291.371	96.25
291.602	88.25
291.833	86.25
292.064	93.25
292.295	100.25
292.526	76.25
292.757	97.25
292.987	93.25
293.218	73.25
293.449	93.25
293.68	92.25
293.91	73.25
294.141	95.25
294.372	86.25
294.603	81.25
294.833	82.25
295.064	105.25
295.295	93.25
295.525	97.25
295.756	98.25
295.987	119.25
296.217	139.25
296.448	122.25
296.679	100.25
296.909	88.25
297.14	103.25
297.37	89.25
297.601	102.25
297.831	83.25
298.062	103.25
298.292	89.25
298.523	106.25
298.753	92.25
298.984	92.25
299.214	95.25
299.445	100.25
299.675	89.25
299.905	107.25
300.136	101.25
300.366	101.25
300.597	88.25
300.827	97.25
301.057	92.25
301.288	94.25
301.518	95.25
301.748	86.25
301.979	92.25
302.209	93.25
302.439	88.25
302.669	95.25
302.9	92.25
303.13	99.25
303.36	101.25
303.59	89.25
303.82	92.25
304.051	97.25
304.281	83.25
304.511	95.25
304.741	84.25
304.971	91.25
305.201	95.25
305.431	101.25
305.661	85.25
305.891	90.25
306.121	95.25
306.352	110.25
306.582	98.25
306.812	99.25
307.042	88.25
307.272	91.25
307.502	97.25
307.731	85.25
307.961	89.25
308.191	88.25
308.421	84.25
308.651	101.25
308.881	91.25
309.111	85.25
309.341	90.25
309.571	96.25
309.8	101.25
310.03	103.25
310.26	99.25
310.49	97.25
310.72	91.25
310.949	96.25
311.179	92.25
311.409	112.25
311.639	101.25
311.868	101.25
312.098	87.25
312.328	78.25
312.557	96.25
312.787	114.25
313.017	109.25
313.246	95.25
313.476	88.25
313.706	89.25
313.935	101.25
314.165	97.25
314.394	104.25
314.624	96.25
314.853	89.25
315.083	101.25
315.312	97.25
315.542	100.25
315.771	101.25
316.001	91.25
316.23	92.25
316.46	84.25
316.689	86.25
316.919	95.25
317.148	85.25
317.377	92.25
317.607	108.25
317.836	83.25
318.065	86.25
318.295	83.25
318.524	86.25
318.753	94.25
318.983	92.25
319.212	98.25
319.441	99.25
319.67	113.25
319.9	96.25
320.129	90.25
320.358	91.25
320.587	100.25
320.816	99.25
321.046	103.25
321.275	91.25
321.504	91.25
321.733	104.25
321.962	110.25
322.191	93.25
322.42	102.25
322.649	116.25
322.878	112.25
323.108	129.25
323.337	116.25
323.566	142.25
323.795	157.25
324.024	204.25
324.253	419.25
324.482	862.25
324.71	1757.25
324.939	2356.25
325.168	845.25
325.397	256.25
325.626	169.25
325.855	129.25
326.084	129.25
326.313	139.25
326.542	168.25
326.77	237.25
326.999	476.25
327.228	983.25
327.457	1821.25
327.686	1427.25
327.914	391.25
328.143	194.25
328.372	153.25
328.6	133.25
328.829	125.25
329.058	124.25
329.287	139.25
329.515	102.25
329.744	106.25
329.972	98.25
330.201	113.25
330.43	130.25
330.658	133.25
330.887	144.25
331.115	126.25
331.344	109.25
331.572	100.25
331.801	101.25
332.03	98.25
332.258	85.25
332.486	90.25
332.715	92.25
332.943	96.25
333.172	92.25
333.4	93.25
333.629	109.25
333.857	109.25
334.085	112.25
334.314	110.25
334.542	137.25
334.771	105.25
334.999	99.25
335.227	90.25
335.455	104.25
335.684	107.25
335.912	93.25
336.14	107.25
336.369	93.25
336.597	97.25
336.825	108.25
337.053	97.25
337.281	74.25
337.51	88.25
337.738	87.25
337.966	99.25
338.194	82.25
338.422	101.25
338.65	84.25
338.878	79.25
339.106	85.25
339.334	101.25
339.562	77.25
339.79	96.25
340.018	96.25
340.246	89.25
340.474	88.25
340.702	101.25
340.93	109.25
341.158	109.25
341.386	104.25
341.614	85.25
341.842	100.25
342.07	84.25
342.298	94.25
342.526	96.25
342.754	88.25
342.981	95.25
343.209	95.25
343.437	104.25
343.665	89.25
343.893	87.25
344.12	88.25
344.348	78.25
344.576	83.25
344.804	99.25
345.031	113.25
345.259	100.25
345.487	100.25
345.714	97.25
345.942	91.25
346.17	102.25
346.397	95.25
346.625	103.25
346.853	105.25
347.08	94.25
347.308	80.25
347.535	114.25
347.763	101.25
347.99	110.25
348.218	117.25
348.445	99.25
348.673	94.25
348.9	95.25
349.128	102.25
349.355	92.25
349.583	88.25
349.81	95.25
350.037	79.25
350.265	97.25
350.492	97.25
350.72	93.25
350.947	95.25
351.174	116.25
351.402	103.25
351.629	111.25
351.856	91.25
352.083	104.25
352.311	112.25
352.538	102.25
352.765	112.25
352.992	113.25
353.22	111.25
353.447	111.25
353.674	98.25
353.901	99.25
354.128	84.25
354.355	85.25
354.583	103.25
354.81	99.25
355.037	79.25
355.264	104.25
355.491	95.25
355.718	101.25
355.945	109.25
356.172	94.25
356.399	86.25
356.626	91.25
356.853	92.25
357.08	97.25
357.307	94.25
357.534	75.25
357.761	98.25
357.988	83.25
358.215	84.25
358.441	95.25
358.668	93.25
358.895	87.25
359.122	78.25
359.349	84.25
359.576	90.25
359.802	98.25
360.029	125.25
360.256	101.25
360.483	99.25
360.709	86.25
360.936	88.25
361.163	89.25
361.39	98.25
361.616	103.25
361.843	87.25
362.07	88.25
362.296	89.25
362.523	96.25
362.749	75.25
362.976	91.25
363.203	95.25
363.429	73.25
363.656	86.25
363.882	89.25
364.109	92.25
364.335	95.25
364.562	92.25
364.788	97.25
365.015	101.25
365.241	103.25
365.468	96.25
365.694	116.25
365.92	97.25
366.147	105.25
366.373	104.25
366.599	94.25
366.826	83.25
367.052	110.25
367.278	93.25
367.505	94.25
367.731	96.25
367.957	96.25
368.184	86.25
368.41	86.25
368.636	102.25
368.862	117.25
369.089	105.25
369.315	94.25
369.541	91.25
369.767	92.25
369.993	82.25
370.219	95.25
370.445	92.25
370.672	81.25
370.898	89.25
371.124	84.25
371.35	100.25
371.576	94.25
371.802	92.25
372.028	91.25
372.254	88.25
372.48	94.25
372.706	89.25
372.932	104.25
373.158	82.25
373.384	99.25
373.61	105.25
373.835	84.25
374.061	79.25
374.287	85.25
374.513	83.25
374.739	96.25
374.965	78.25
375.191	79.25
375.416	72.25
375.642	102.25
375.868	115.25
376.094	93.25
376.319	88.25
376.545	96.25
376.771	95.25
376.997	79.25
377.222	81.25
377.448	100.25
377.674	94.25
377.899	92.25
378.125	89.25
378.35	86.25
378.576	84.25
378.802	102.25
379.027	93.25
379.253	87.25
379.478	91.25
379.704	90.25
379.929	92.25
380.155	107.25
380.38	89.25
380.606	99.25
380.831	89.25
381.057	88.25
381.282	90.25
381.507	101.25
381.733	109.25
381.958	89.25
382.184	106.25
382.409	108.25
382.634	95.25
382.86	93.25
383.085	104.25
383.31	92.25
383.535	113.25
383.761	92.25
383.986	99.25
384.211	98.25
384.436	97.25
384.662	84.25
384.887	88.25
385.112	107.25
385.337	107.25
385.562	118.25
385.787	117.25
386.013	100.25
386.238	127.25
386.463	114.25
386.688	104.25
386.913	101.25
387.138	114.25
387.363	100.25
387.588	116.25
387.813	112.25
388.038	126.25
388.263	114.25
388.488	112.25
388.713	112.25
388.938	86.25
389.163	93.25
389.387	100.25
389.612	94.25
389.837	92.25
390.062	90.25
390.287	95.25
390.512	91.25
390.736	107.25
390.961	82.25
391.186	92.25
391.411	91.25
391.636	100.25
391.86	97.25
392.085	74.25
392.31	88.25
392.534	90.25
392.759	87.25
392.984	97.25
393.208	81.25
393.433	98.25
393.658	88.25
393.882	96.25
394.107	97.25
394.331	75.25
394.556	79.25
394.78	95.25
395.005	95.25
395.229	88.25
395.454	97.25
395.678	90.25
395.903	94.25
396.127	88.25
396.352	93.25
396.576	83.25
396.801	93.25
397.025	83.25
397.249	89.25
397.474	92.25
397.698	75.25
397.922	83.25
398.147	94.25
398.371	83.25
398.595	91.25
398.82	89.25
399.044	85.25
399.268	76.25
399.492	100.25
399.717	88.25
399.941	85.25
400.165	89.25
400.389	97.25
400.613	88.25
400.837	111.25
401.062	95.25
401.286	74.25
401.51	97.25
401.734	99.25
401.958	104.25
402.182	123.25
402.406	167.25
402.63	133.25
402.854	100.25
403.078	93.25
403.302	96.25
403.526	90.25
403.75	87.25
403.974	102.25
404.198	90.25
404.422	92.25
404.645	82.25
404.869	92.25
405.093	100.25
405.317	85.25
405.541	106.25
405.765	100.25
405.988	118.25
406.212	171.25
406.436	232.25
406.66	147.25
406.883	98.25
407.107	86.25
407.331	81.25
407.555	93.25
407.778	105.25
408.002	82.25
408.226	81.25
408.449	96.25
408.673	93.25
408.896	112.25
409.12	103.25
409.344	103.25
409.567	89.25
409.791	91.25
410.014	97.25
410.238	87.25
410.461	98.25
410.685	90.25
410.908	95.25
411.132	101.25
411.355	89.25
411.578	76.25
411.802	87.25
412.025	79.25
412.249	83.25
412.472	85.25
412.695	94.25
412.919	101.25
413.142	93.25
413.365	79.25
413.589	71.25
413.812	97.25
414.035	94.25
414.258	92.25
414.482	92.25
414.705	82.25
414.928	80.25
415.151	85.25
415.374	88.25
415.597	99.25
415.821	104.25
416.044	89.25
416.267	90.25
416.49	76.25
416.713	86.25
416.936	74.25
417.159	92.25
417.382	103.25
417.605	79.25
417.828	95.25
418.051	89.25
418.274	111.25
418.497	102.25
418.72	83.25
418.943	76.25
419.166	78.25
419.389	89.25
419.611	104.25
419.834	99.25
420.057	74.25
420.28	72.25
420.503	84.25
420.726	98.25
420.948	94.25
421.171	87.25
421.394	100.25
421.617	71.25
421.839	88.25
422.062	93.25
422.285	107.25
422.507	99.25
422.73	101.25
422.953	95.25
423.175	84.25
423.398	99.25
423.621	86.25
423.843	96.25
424.066	85.25
424.288	93.25
424.511	73.25
424.733	83.25
424.956	100.25
425.178	101.25
425.401	117.25
425.623	103.25
425.846	91.25
426.068	82.25
426.291	95.25
426.513	94.25
426.735	88.25
426.958	86.25
427.18	114.25
427.402	146.25
427.625	163.25
427.847	134.25
428.069	118.25
428.292	88.25
428.514	73.25
428.736	79.25
428.958	82.25
429.181	93.25
429.403	81.25
429.625	84.25
429.847	87.25
430.069	113.25
430.292	104.25
430.514	79.25
430.736	91.25
430.958	93.25
431.18	83.25
431.402	85.25
431.624	78.25
431.846	87.25
432.068	89.25
432.29	87.25
432.512	109.25
432.734	73.25
432.956	91.25
433.178	98.25
433.4	111.25
433.622	93.25
433.844	87.25
434.066	94.25
434.287	83.25
434.509	92.25
434.731	88.25
434.953	94.25
435.175	86.25
435.397	95.25
435.618	86.25
435.84	95.25
436.062	136.25
436.284	123.25
436.505	105.25
436.727	100.25
436.949	92.25
437.17	83.25
437.392	69.25
437.614	99.25
437.835	100.25
438.057	124.25
438.278	111.25
438.5	110.25
438.721	112.25
438.943	111.25
439.165	88.25
439.386	78.25
439.608	77.25
439.829	103.25
440.05	131.25
440.272	152.25
440.493	110.25
440.715	101.25
440.936	92.25
441.158	91.25
441.379	100.25
441.6	84.25
441.822	80.25
442.043	96.25
442.264	95.25
442.486	94.25
442.707	88.25
442.928	117.25
443.149	142.25
443.371	133.25
443.592	112.25
443.813	110.25
444.034	111.25
444.255	93.25
444.476	95.25
444.698	91.25
444.919	88.25
445.14	145.25
445.361	139.25
445.582	120.25
445.803	147.25
446.024	139.25
446.245	134.25
446.466	109.25
446.687	76.25
446.908	81.25
447.129	101.25
447.35	91.25
447.571	77.25
447.792	89.25
448.013	99.25
448.234	108.25
448.455	105.25
448.675	131.25
448.896	126.25
449.117	99.25
449.338	112.25
449.559	127.25
449.779	129.25
450	92.25
450.221	95.25
450.442	104.25
450.662	83.25
450.883	119.25
451.104	117.25
451.324	94.25
451.545	97.25
451.766	93.25
451.986	95.25
452.207	110.25
452.428	94.25
452.648	100.25
452.869	99.25
453.089	106.25
453.31	125.25
453.53	101.25
453.751	98.25
453.971	94.25
454.192	92.25
454.412	104.25
454.633	81.25
454.853	94.25
455.073	97.25
455.294	98.25
455.514	97.25
455.734	90.25
455.955	95.25
456.175	83.25
456.395	60.25
456.616	81.25
456.836	67.25
457.056	76.25
457.276	84.25
457.497	73.25
457.717	60.25
457.937	82.25
458.157	77.25
458.377	95.25
458.598	104.25
458.818	158.25
459.038	165.25
459.258	114.25
459.478	93.25
459.698	85.25
459.918	83.25
460.138	83.25
460.358	93.25
460.578	86.25
460.798	85.25
461.018	87.25
461.238	94.25
461.458	83.25
461.678	99.25
461.898	87.25
462.118	86.25
462.338	85.25
462.558	89.25
462.777	88.25
462.997	89.25
463.217	79.25
463.437	73.25
463.657	88.25
463.876	94.25
464.096	89.25
464.316	75.25
464.536	86.25
464.755	106.25
464.975	112.25
465.195	164.25
465.414	182.25
465.634	100.25
465.854	101.25
466.073	91.25
466.293	87.25
466.512	81.25
466.732	93.25
466.951	86.25
467.171	103.25
467.391	92.25
467.61	79.25
467.829	90.25
468.049	93.25
468.268	100.25
468.488	101.25
468.707	87.25
468.927	72.25
469.146	90.25
469.365	84.25
469.585	86.25
469.804	97.25
470.023	103.25
470.243	101.25
470.462	110.25
470.681	121.25
470.901	101.25
471.12	79.25
471.339	71.25
471.558	88.25
471.777	76.25
471.997	85.25
472.216	107.25
472.435	133.25
472.654	100.25
472.873	87.25
473.092	79.25
473.311	87.25
473.53	90.25
473.749	85.25
473.968	94.25
474.187	114.25
474.406	90.25
474.625	91.25
474.844	79.25
475.063	104.25
475.282	84.25
475.501	83.25
475.72	91.25
475.939	79.25
476.158	94.25
476.377	86.25
476.596	90.25
476.814	103.25
477.033	73.25
477.252	88.25
477.471	93.25
477.69	88.25
477.908	95.25
478.127	88.25
478.346	79.25
478.564	83.25
478.783	93.25
479.002	96.25
479.22	95.25
479.439	100.25
479.658	98.25
479.876	96.25
480.095	88.25
480.313	90.25
480.532	85.25
480.751	85.25
480.969	99.25
481.188	166.25
481.406	124.25
481.624	78.25
481.843	93.25
482.061	92.25
482.28	85.25
482.498	88.25
482.717	78.25
482.935	92.25
483.153	83.25
483.372	87.25
483.59	88.25
483.808	91.25
484.027	90.25
484.245	74.25
484.463	75.25
484.681	92.25
484.9	92.25
485.118	85.25
485.336	91.25
485.554	92.25
485.772	112.25
485.99	113.25
486.209	107.25
486.427	104.25
486.645	102.25
486.863	112.25
487.081	96.25
487.299	94.25
487.517	98.25
487.735	93.25
487.953	103.25
488.171	88.25
488.389	104.25
488.607	104.25
488.825	93.25
489.043	81.25
489.261	82.25
489.479	89.25
489.696	89.25
489.914	81.25
490.132	94.25
490.35	97.25
490.568	82.25
490.786	90.25
491.003	94.25
491.221	94.25
491.439	84.25
491.657	91.25
491.874	81.25
492.092	84.25
492.31	94.25
492.527	93.25
492.745	93.25
492.963	85.25
493.18	89.25
493.398	90.25
493.615	82.25
493.833	81.25
494.05	94.25
494.268	91.25
494.485	83.25
494.703	94.25
494.92	99.25
495.138	95.25
495.355	94.25
495.573	78.25
495.79	96.25
496.008	95.25
496.225	92.25
496.442	87.25
496.66	92.25
496.877	94.25
497.094	88.25
497.312	94.25
497.529	95.25
497.746	107.25
497.963	85.25
498.181	85.25
498.398	102.25
498.615	105.25
498.832	108.25
499.049	104.25
499.267	101.25
499.484	82.25
499.701	74.25
499.918	93.25
500.135	80.25
500.352	103.25
500.569	74.25
500.786	80.25
501.003	90.25
501.22	99.25
501.437	97.25
501.654	99.25
501.871	94.25
502.088	109.25
502.305	102.25
502.522	90.25
502.739	98.25
502.956	106.25
503.172	95.25
503.389	83.25
503.606	104.25
503.823	100.25
504.04	98.25
504.256	82.25
504.473	100.25
504.69	80.25
504.907	95.25
505.123	89.25
505.34	98.25
505.557	89.25
505.773	89.25
505.99	79.25
506.207	102.25
506.423	81.25
506.64	76.25
506.856	83.25
507.073	93.25
507.289	110.25
507.506	110.25
507.722	101.25
507.939	120.25
508.155	97.25
508.372	92.25
508.588	78.25
508.805	105.25
509.021	80.25
509.238	107.25
509.454	100.25
509.67	90.25
509.887	112.25
510.103	129.25
510.319	191.25
510.536	767.25
510.752	2411.25
510.968	665.25
511.184	156.25
511.401	111.25
511.617	90.25
511.833	95.25
512.049	81.25
512.265	101.25
512.481	95.25
512.698	107.25
512.914	79.25
513.13	99.25
513.346	87.25
513.562	107.25
513.778	92.25
513.994	95.25
514.21	100.25
514.426	113.25
514.642	120.25
514.858	134.25
515.074	154.25
515.29	445.25
