Data from Circ_2005_H10_HRD10591_00053.txt Node
Date: Wed Jan 03 10:30:01 EST 2024
User: Yrep
Spectrometer: HR+D1059
Trigger mode: 1
Integration Time (sec): 1.000000E-1
Scans to average: 1
Electric dark correction enabled: true
Nonlinearity correction enabled: false
Boxcar width: 0
XAxis mode: Wavelengths
Number of Pixels in Spectrum: 2048
>>>>>Begin Spectral Data<<<<<
223.165	-28.12
223.4	-28.12
223.635	-28.12
223.869	-25.12
224.104	-12.12
224.338	-20.12
224.573	-11.12
224.808	-9.12
225.042	-1.12
225.277	-1.12
225.511	2.88
225.746	-13.12
225.98	6.88
226.215	20.88
226.449	14.88
226.683	17.88
226.918	21.88
227.152	35.88
227.387	32.88
227.621	56.88
227.856	43.88
228.09	42.88
228.324	58.88
228.559	60.88
228.793	55.88
229.027	49.88
229.262	70.88
229.496	66.88
229.73	74.88
229.964	78.88
230.199	65.88
230.433	71.88
230.667	60.88
230.901	78.88
231.136	74.88
231.37	72.88
231.604	71.88
231.838	58.88
232.072	75.88
232.306	83.88
232.541	78.88
232.775	83.88
233.009	71.88
233.243	78.88
233.477	82.88
233.711	74.88
233.945	66.88
234.179	72.88
234.413	79.88
234.647	78.88
234.881	96.88
235.115	77.88
235.349	73.88
235.583	86.88
235.817	77.88
236.051	81.88
236.285	83.88
236.519	71.88
236.753	69.88
236.987	73.88
237.221	76.88
237.455	82.88
237.689	91.88
237.922	65.88
238.156	62.88
238.39	91.88
238.624	71.88
238.858	74.88
239.091	80.88
239.325	74.88
239.559	81.88
239.793	75.88
240.027	77.88
240.26	67.88
240.494	79.88
240.728	76.88
240.961	56.88
241.195	77.88
241.429	73.88
241.662	64.88
241.896	60.88
242.13	85.88
242.363	75.88
242.597	71.88
242.83	82.88
243.064	75.88
243.298	63.88
243.531	82.88
243.765	75.88
243.998	62.88
244.232	80.88
244.465	78.88
244.699	91.88
244.932	70.88
245.166	74.88
245.399	85.88
245.633	76.88
245.866	79.88
246.099	63.88
246.333	76.88
246.566	68.88
246.8	64.88
247.033	64.88
247.266	70.88
247.5	68.88
247.733	79.88
247.966	67.88
248.2	76.88
248.433	72.88
248.666	83.88
248.899	80.88
249.133	94.88
249.366	92.88
249.599	90.88
249.832	75.88
250.066	84.88
250.299	54.88
250.532	77.88
250.765	64.88
250.998	70.88
251.231	91.88
251.465	75.88
251.698	79.88
251.931	79.88
252.164	90.88
252.397	83.88
252.63	70.88
252.863	80.88
253.096	87.88
253.329	68.88
253.562	77.88
253.795	67.88
254.028	81.88
254.261	77.88
254.494	73.88
254.727	86.88
254.96	66.88
255.193	55.88
255.426	70.88
255.659	71.88
255.892	67.88
256.124	66.88
256.357	87.88
256.59	60.88
256.823	80.88
257.056	80.88
257.289	77.88
257.521	82.88
257.754	89.88
257.987	75.88
258.22	65.88
258.452	76.88
258.685	79.88
258.918	66.88
259.151	78.88
259.383	83.88
259.616	76.88
259.849	70.88
260.081	91.88
260.314	73.88
260.547	77.88
260.779	84.88
261.012	85.88
261.244	101.88
261.477	86.88
261.71	86.88
261.942	109.88
262.175	113.88
262.407	89.88
262.64	76.88
262.872	73.88
263.105	71.88
263.337	82.88
263.57	70.88
263.802	88.88
264.035	79.88
264.267	82.88
264.499	79.88
264.732	86.88
264.964	79.88
265.197	76.88
265.429	88.88
265.661	84.88
265.894	66.88
266.126	92.88
266.358	89.88
266.591	66.88
266.823	78.88
267.055	74.88
267.287	79.88
267.52	67.88
267.752	68.88
267.984	84.88
268.216	79.88
268.448	88.88
268.681	77.88
268.913	78.88
269.145	90.88
269.377	94.88
269.609	89.88
269.841	82.88
270.073	80.88
270.306	85.88
270.538	81.88
270.77	65.88
271.002	68.88
271.234	77.88
271.466	74.88
271.698	68.88
271.93	79.88
272.162	83.88
272.394	84.88
272.626	78.88
272.858	87.88
273.09	84.88
273.322	74.88
273.553	87.88
273.785	85.88
274.017	70.88
274.249	80.88
274.481	78.88
274.713	90.88
274.945	65.88
275.176	91.88
275.408	98.88
275.64	82.88
275.872	88.88
276.104	90.88
276.335	94.88
276.567	100.88
276.799	97.88
277.031	102.88
277.262	89.88
277.494	86.88
277.726	75.88
277.957	78.88
278.189	78.88
278.421	91.88
278.652	85.88
278.884	72.88
279.115	81.88
279.347	66.88
279.579	77.88
279.81	90.88
280.042	81.88
280.273	94.88
280.505	83.88
280.736	82.88
280.968	82.88
281.199	78.88
281.431	90.88
281.662	80.88
281.894	89.88
282.125	84.88
282.356	99.88
282.588	135.88
282.819	100.88
283.051	94.88
283.282	89.88
283.513	88.88
283.745	82.88
283.976	87.88
284.207	74.88
284.439	76.88
284.67	90.88
284.901	79.88
285.132	80.88
285.364	74.88
285.595	78.88
285.826	69.88
286.057	75.88
286.288	64.88
286.52	75.88
286.751	94.88
286.982	79.88
287.213	85.88
287.444	71.88
287.675	83.88
287.906	78.88
288.138	88.88
288.369	97.88
288.6	85.88
288.831	72.88
289.062	94.88
289.293	90.88
289.524	98.88
289.755	95.88
289.986	87.88
290.217	79.88
290.448	90.88
290.679	89.88
290.91	63.88
291.141	72.88
291.371	85.88
291.602	82.88
291.833	82.88
292.064	94.88
292.295	70.88
292.526	86.88
292.757	72.88
292.987	72.88
293.218	100.88
293.449	87.88
293.68	98.88
293.91	87.88
294.141	95.88
294.372	83.88
294.603	90.88
294.833	95.88
295.064	72.88
295.295	83.88
295.525	81.88
295.756	87.88
295.987	103.88
296.217	147.88
296.448	114.88
296.679	92.88
296.909	78.88
297.14	81.88
297.37	82.88
297.601	85.88
297.831	88.88
298.062	82.88
298.292	82.88
298.523	88.88
298.753	82.88
298.984	84.88
299.214	87.88
299.445	87.88
299.675	84.88
299.905	96.88
300.136	74.88
300.366	82.88
300.597	98.88
300.827	90.88
301.057	94.88
301.288	104.88
301.518	84.88
301.748	84.88
301.979	95.88
302.209	85.88
302.439	78.88
302.669	82.88
302.9	81.88
303.13	95.88
303.36	79.88
303.59	110.88
303.82	102.88
304.051	92.88
304.281	82.88
304.511	81.88
304.741	83.88
304.971	80.88
305.201	95.88
305.431	83.88
305.661	81.88
305.891	89.88
306.121	102.88
306.352	98.88
306.582	106.88
306.812	92.88
307.042	89.88
307.272	98.88
307.502	94.88
307.731	92.88
307.961	76.88
308.191	87.88
308.421	80.88
308.651	77.88
308.881	104.88
309.111	75.88
309.341	76.88
309.571	97.88
309.8	99.88
310.03	97.88
310.26	87.88
310.49	95.88
310.72	82.88
310.949	89.88
311.179	85.88
311.409	92.88
311.639	100.88
311.868	84.88
312.098	88.88
312.328	89.88
312.557	95.88
312.787	91.88
313.017	94.88
313.246	91.88
313.476	88.88
313.706	91.88
313.935	81.88
314.165	91.88
314.394	90.88
314.624	93.88
314.853	101.88
315.083	91.88
315.312	93.88
315.542	98.88
315.771	93.88
316.001	87.88
316.23	89.88
316.46	92.88
316.689	95.88
316.919	88.88
317.148	92.88
317.377	101.88
317.607	96.88
317.836	99.88
318.065	86.88
318.295	101.88
318.524	90.88
318.753	76.88
318.983	97.88
319.212	107.88
319.441	103.88
319.67	96.88
319.9	80.88
320.129	95.88
320.358	79.88
320.587	84.88
320.816	76.88
321.046	103.88
321.275	92.88
321.504	99.88
321.733	99.88
321.962	83.88
322.191	96.88
322.42	95.88
322.649	107.88
322.878	100.88
323.108	115.88
323.337	104.88
323.566	139.88
323.795	143.88
324.024	199.88
324.253	348.88
324.482	780.88
324.71	1648.88
324.939	2144.88
325.168	816.88
325.397	235.88
325.626	150.88
325.855	135.88
326.084	127.88
326.313	126.88
326.542	132.88
326.77	229.88
326.999	449.88
327.228	914.88
327.457	1651.88
327.686	1316.88
327.914	374.88
328.143	200.88
328.372	168.88
328.6	125.88
328.829	106.88
329.058	132.88
329.287	133.88
329.515	105.88
329.744	101.88
329.972	92.88
330.201	138.88
330.43	165.88
330.658	116.88
330.887	132.88
331.115	91.88
331.344	91.88
331.572	106.88
331.801	97.88
332.03	90.88
332.258	88.88
332.486	86.88
332.715	90.88
332.943	91.88
333.172	96.88
333.4	109.88
333.629	96.88
333.857	95.88
334.085	120.88
334.314	113.88
334.542	175.88
334.771	167.88
334.999	113.88
335.227	86.88
335.455	102.88
335.684	83.88
335.912	86.88
336.14	95.88
336.369	86.88
336.597	103.88
336.825	84.88
337.053	84.88
337.281	79.88
337.51	103.88
337.738	91.88
337.966	90.88
338.194	102.88
338.422	97.88
338.65	85.88
338.878	101.88
339.106	78.88
339.334	86.88
339.562	84.88
339.79	82.88
340.018	81.88
340.246	78.88
340.474	100.88
340.702	82.88
340.93	67.88
341.158	87.88
341.386	88.88
341.614	95.88
341.842	96.88
342.07	81.88
342.298	100.88
342.526	84.88
342.754	79.88
342.981	86.88
343.209	80.88
343.437	105.88
343.665	86.88
343.893	99.88
344.12	83.88
344.348	88.88
344.576	83.88
344.804	76.88
345.031	93.88
345.259	106.88
345.487	81.88
345.714	97.88
345.942	95.88
346.17	73.88
346.397	87.88
346.625	96.88
346.853	78.88
347.08	80.88
347.308	92.88
347.535	93.88
347.763	85.88
347.99	89.88
348.218	92.88
348.445	89.88
348.673	80.88
348.9	95.88
349.128	86.88
349.355	90.88
349.583	98.88
349.81	91.88
350.037	87.88
350.265	80.88
350.492	87.88
350.72	103.88
350.947	114.88
351.174	100.88
351.402	124.88
351.629	99.88
351.856	91.88
352.083	91.88
352.311	100.88
352.538	98.88
352.765	106.88
352.992	111.88
353.22	112.88
353.447	108.88
353.674	88.88
353.901	87.88
354.128	89.88
354.355	105.88
354.583	97.88
354.81	75.88
355.037	90.88
355.264	87.88
355.491	86.88
355.718	74.88
355.945	97.88
356.172	84.88
356.399	90.88
356.626	76.88
356.853	89.88
357.08	82.88
357.307	78.88
357.534	82.88
357.761	94.88
357.988	82.88
358.215	92.88
358.441	89.88
358.668	89.88
358.895	82.88
359.122	88.88
359.349	93.88
359.576	93.88
359.802	88.88
360.029	102.88
360.256	84.88
360.483	92.88
360.709	83.88
360.936	83.88
361.163	99.88
361.39	88.88
361.616	89.88
361.843	87.88
362.07	82.88
362.296	84.88
362.523	88.88
362.749	92.88
362.976	81.88
363.203	99.88
363.429	94.88
363.656	87.88
363.882	72.88
364.109	80.88
364.335	94.88
364.562	99.88
364.788	81.88
365.015	83.88
365.241	106.88
365.468	98.88
365.694	91.88
365.92	91.88
366.147	81.88
366.373	78.88
366.599	97.88
366.826	91.88
367.052	84.88
367.278	89.88
367.505	81.88
367.731	104.88
367.957	86.88
368.184	74.88
368.41	96.88
368.636	99.88
368.862	110.88
369.089	91.88
369.315	92.88
369.541	83.88
369.767	93.88
369.993	94.88
370.219	80.88
370.445	91.88
370.672	95.88
370.898	82.88
371.124	82.88
371.35	75.88
371.576	78.88
371.802	92.88
372.028	76.88
372.254	92.88
372.48	89.88
372.706	79.88
372.932	91.88
373.158	86.88
373.384	91.88
373.61	83.88
373.835	92.88
374.061	95.88
374.287	91.88
374.513	84.88
374.739	89.88
374.965	71.88
375.191	91.88
375.416	86.88
375.642	84.88
375.868	80.88
376.094	79.88
376.319	86.88
376.545	88.88
376.771	79.88
376.997	94.88
377.222	93.88
377.448	88.88
377.674	94.88
377.899	85.88
378.125	99.88
378.35	85.88
378.576	81.88
378.802	99.88
379.027	94.88
379.253	87.88
379.478	91.88
379.704	69.88
379.929	99.88
380.155	90.88
380.38	109.88
380.606	104.88
380.831	97.88
381.057	90.88
381.282	84.88
381.507	83.88
381.733	80.88
381.958	89.88
382.184	87.88
382.409	97.88
382.634	108.88
382.86	107.88
383.085	95.88
383.31	95.88
383.535	102.88
383.761	88.88
383.986	87.88
384.211	87.88
384.436	94.88
384.662	88.88
384.887	105.88
385.112	102.88
385.337	96.88
385.562	90.88
385.787	100.88
386.013	94.88
386.238	101.88
386.463	107.88
386.688	108.88
386.913	107.88
387.138	108.88
387.363	95.88
387.588	97.88
387.813	102.88
388.038	90.88
388.263	100.88
388.488	109.88
388.713	99.88
388.938	79.88
389.163	83.88
389.387	82.88
389.612	90.88
389.837	87.88
390.062	91.88
390.287	99.88
390.512	89.88
390.736	84.88
390.961	84.88
391.186	95.88
391.411	90.88
391.636	103.88
391.86	86.88
392.085	79.88
392.31	84.88
392.534	88.88
392.759	75.88
392.984	71.88
393.208	89.88
393.433	78.88
393.658	77.88
393.882	82.88
394.107	82.88
394.331	78.88
394.556	77.88
394.78	71.88
395.005	90.88
395.229	82.88
395.454	78.88
395.678	78.88
395.903	84.88
396.127	85.88
396.352	76.88
396.576	83.88
396.801	73.88
397.025	74.88
397.249	72.88
397.474	87.88
397.698	91.88
397.922	90.88
398.147	75.88
398.371	80.88
398.595	69.88
398.82	66.88
399.044	80.88
399.268	78.88
399.492	94.88
399.717	73.88
399.941	91.88
400.165	86.88
400.389	89.88
400.613	84.88
400.837	84.88
401.062	77.88
401.286	75.88
401.51	90.88
401.734	97.88
401.958	100.88
402.182	114.88
402.406	160.88
402.63	124.88
402.854	82.88
403.078	95.88
403.302	83.88
403.526	76.88
403.75	91.88
403.974	79.88
404.198	83.88
404.422	93.88
404.645	86.88
404.869	80.88
405.093	91.88
405.317	96.88
405.541	93.88
405.765	93.88
405.988	106.88
406.212	163.88
406.436	215.88
406.66	137.88
406.883	79.88
407.107	89.88
407.331	84.88
407.555	97.88
407.778	86.88
408.002	95.88
408.226	99.88
408.449	82.88
408.673	91.88
408.896	99.88
409.12	95.88
409.344	92.88
409.567	81.88
409.791	77.88
410.014	80.88
410.238	89.88
410.461	84.88
410.685	93.88
410.908	97.88
411.132	90.88
411.355	86.88
411.578	91.88
411.802	81.88
412.025	74.88
412.249	73.88
412.472	98.88
412.695	88.88
412.919	96.88
413.142	96.88
413.365	83.88
413.589	87.88
413.812	87.88
414.035	85.88
414.258	84.88
414.482	86.88
414.705	78.88
414.928	79.88
415.151	99.88
415.374	83.88
415.597	74.88
415.821	83.88
416.044	82.88
416.267	87.88
416.49	74.88
416.713	73.88
416.936	85.88
417.159	101.88
417.382	90.88
417.605	100.88
417.828	100.88
418.051	98.88
418.274	89.88
418.497	76.88
418.72	85.88
418.943	91.88
419.166	88.88
419.389	70.88
419.611	79.88
419.834	91.88
420.057	83.88
420.28	89.88
420.503	80.88
420.726	80.88
420.948	88.88
421.171	99.88
421.394	91.88
421.617	94.88
421.839	103.88
422.062	78.88
422.285	95.88
422.507	94.88
422.73	82.88
422.953	89.88
423.175	89.88
423.398	85.88
423.621	80.88
423.843	99.88
424.066	79.88
424.288	80.88
424.511	74.88
424.733	88.88
424.956	95.88
425.178	93.88
425.401	83.88
425.623	83.88
425.846	81.88
426.068	75.88
426.291	85.88
426.513	84.88
426.735	76.88
426.958	84.88
427.18	80.88
427.402	145.88
427.625	147.88
427.847	124.88
428.069	104.88
428.292	99.88
428.514	90.88
428.736	80.88
428.958	82.88
429.181	81.88
429.403	78.88
429.625	107.88
429.847	100.88
430.069	71.88
430.292	86.88
430.514	77.88
430.736	73.88
430.958	86.88
431.18	84.88
431.402	85.88
431.624	76.88
431.846	75.88
432.068	83.88
432.29	93.88
432.512	86.88
432.734	84.88
432.956	84.88
433.178	98.88
433.4	114.88
433.622	97.88
433.844	97.88
434.066	84.88
434.287	83.88
434.509	77.88
434.731	86.88
434.953	87.88
435.175	79.88
435.397	71.88
435.618	92.88
435.84	87.88
436.062	114.88
436.284	113.88
436.505	95.88
436.727	105.88
436.949	87.88
437.17	75.88
437.392	82.88
437.614	84.88
437.835	101.88
438.057	115.88
438.278	116.88
438.5	95.88
438.721	118.88
438.943	87.88
439.165	98.88
439.386	88.88
439.608	69.88
439.829	95.88
440.05	103.88
440.272	135.88
440.493	91.88
440.715	80.88
440.936	82.88
441.158	88.88
441.379	74.88
441.6	89.88
441.822	94.88
442.043	87.88
442.264	103.88
442.486	101.88
442.707	91.88
442.928	103.88
443.149	124.88
443.371	128.88
443.592	107.88
443.813	96.88
444.034	95.88
444.255	94.88
444.476	82.88
444.698	83.88
444.919	91.88
445.14	126.88
445.361	110.88
445.582	108.88
445.803	124.88
446.024	110.88
446.245	126.88
446.466	97.88
446.687	84.88
446.908	86.88
447.129	82.88
447.35	90.88
447.571	93.88
447.792	90.88
448.013	95.88
448.234	109.88
448.455	113.88
448.675	111.88
448.896	112.88
449.117	107.88
449.338	91.88
449.559	116.88
449.779	122.88
450	92.88
450.221	82.88
450.442	91.88
450.662	93.88
450.883	88.88
451.104	94.88
451.324	96.88
451.545	84.88
451.766	87.88
451.986	84.88
452.207	82.88
452.428	98.88
452.648	81.88
452.869	87.88
453.089	90.88
453.31	111.88
453.53	105.88
453.751	79.88
453.971	105.88
454.192	96.88
454.412	84.88
454.633	77.88
454.853	83.88
455.073	76.88
455.294	75.88
455.514	87.88
455.734	93.88
455.955	73.88
456.175	77.88
456.395	78.88
456.616	79.88
456.836	84.88
457.056	85.88
457.276	89.88
457.497	92.88
457.717	84.88
457.937	88.88
458.157	69.88
458.377	76.88
458.598	108.88
458.818	142.88
459.038	147.88
459.258	105.88
459.478	91.88
459.698	89.88
459.918	72.88
460.138	73.88
460.358	70.88
460.578	78.88
460.798	83.88
461.018	89.88
461.238	79.88
461.458	87.88
461.678	72.88
461.898	88.88
462.118	74.88
462.338	88.88
462.558	77.88
462.777	82.88
462.997	79.88
463.217	80.88
463.437	88.88
463.657	73.88
463.876	84.88
464.096	82.88
464.316	86.88
464.536	93.88
464.755	82.88
464.975	83.88
465.195	133.88
465.414	139.88
465.634	84.88
465.854	98.88
466.073	87.88
466.293	95.88
466.512	81.88
466.732	102.88
466.951	81.88
467.171	85.88
467.391	74.88
467.61	90.88
467.829	97.88
468.049	104.88
468.268	122.88
468.488	86.88
468.707	82.88
468.927	80.88
469.146	83.88
469.365	87.88
469.585	80.88
469.804	90.88
470.023	86.88
470.243	78.88
470.462	98.88
470.681	87.88
470.901	89.88
471.12	91.88
471.339	84.88
471.558	71.88
471.777	81.88
471.997	90.88
472.216	142.88
472.435	209.88
472.654	120.88
472.873	91.88
473.092	88.88
473.311	97.88
473.53	82.88
473.749	84.88
473.968	92.88
474.187	92.88
474.406	95.88
474.625	92.88
474.844	90.88
475.063	74.88
475.282	81.88
475.501	84.88
475.72	74.88
475.939	79.88
476.158	80.88
476.377	76.88
476.596	78.88
476.814	102.88
477.033	72.88
477.252	87.88
477.471	68.88
477.69	83.88
477.908	77.88
478.127	91.88
478.346	72.88
478.564	94.88
478.783	84.88
479.002	76.88
479.22	89.88
479.439	97.88
479.658	100.88
479.876	95.88
480.095	80.88
480.313	82.88
480.532	95.88
480.751	86.88
480.969	135.88
481.188	307.88
481.406	216.88
481.624	100.88
481.843	86.88
482.061	84.88
482.28	85.88
482.498	89.88
482.717	70.88
482.935	80.88
483.153	80.88
483.372	76.88
483.59	78.88
483.808	84.88
484.027	90.88
484.245	80.88
484.463	85.88
484.681	94.88
484.9	87.88
485.118	86.88
485.336	83.88
485.554	87.88
485.772	99.88
485.99	94.88
486.209	98.88
486.427	118.88
486.645	114.88
486.863	95.88
487.081	86.88
487.299	85.88
487.517	95.88
487.735	91.88
487.953	99.88
488.171	85.88
488.389	88.88
488.607	102.88
488.825	88.88
489.043	66.88
489.261	83.88
489.479	92.88
489.696	83.88
489.914	92.88
490.132	70.88
490.35	76.88
490.568	104.88
490.786	93.88
491.003	91.88
491.221	97.88
491.439	82.88
491.657	101.88
491.874	90.88
492.092	97.88
492.31	97.88
492.527	89.88
492.745	89.88
492.963	80.88
493.18	86.88
493.398	90.88
493.615	88.88
493.833	81.88
494.05	74.88
494.268	88.88
494.485	81.88
494.703	74.88
494.92	83.88
495.138	79.88
495.355	72.88
495.573	87.88
495.79	92.88
496.008	92.88
496.225	77.88
496.442	79.88
496.66	87.88
496.877	79.88
497.094	97.88
497.312	86.88
497.529	77.88
497.746	98.88
497.963	87.88
498.181	83.88
498.398	87.88
498.615	100.88
498.832	109.88
499.049	92.88
499.267	87.88
499.484	80.88
499.701	88.88
499.918	91.88
500.135	93.88
500.352	73.88
500.569	81.88
500.786	85.88
501.003	96.88
501.22	82.88
501.437	80.88
501.654	84.88
501.871	80.88
502.088	79.88
502.305	88.88
502.522	79.88
502.739	96.88
502.956	87.88
503.172	91.88
503.389	95.88
503.606	103.88
503.823	101.88
504.04	94.88
504.256	94.88
504.473	91.88
504.69	97.88
504.907	100.88
505.123	87.88
505.34	100.88
505.557	92.88
505.773	98.88
505.99	75.88
506.207	66.88
506.423	96.88
506.64	103.88
506.856	88.88
507.073	87.88
507.289	88.88
507.506	93.88
507.722	105.88
507.939	109.88
508.155	89.88
508.372	102.88
508.588	92.88
508.805	100.88
509.021	106.88
509.238	88.88
509.454	95.88
509.67	96.88
509.887	100.88
510.103	127.88
510.319	190.88
510.536	765.88
510.752	2337.88
510.968	643.88
511.184	153.88
511.401	118.88
511.617	87.88
511.833	81.88
512.049	104.88
512.265	93.88
512.481	100.88
512.698	93.88
512.914	93.88
513.13	96.88
513.346	91.88
513.562	104.88
513.778	86.88
513.994	95.88
514.21	103.88
514.426	103.88
514.642	120.88
514.858	130.88
515.074	163.88
515.29	424.88
515.506	1459.88
515.721	526.88
515.937	152.88
516.153	112.88
516.369	103.88
516.585	100.88
516.801	97.88
517.016	90.88
