Data from Circ_2005_H10_HRD10591_00034.txt Node
Date: Wed Jan 03 10:29:57 EST 2024
User: Yrep
Spectrometer: HR+D1059
Trigger mode: 1
Integration Time (sec): 1.000000E-1
Scans to average: 1
Electric dark correction enabled: true
Nonlinearity correction enabled: false
Boxcar width: 0
XAxis mode: Wavelengths
Number of Pixels in Spectrum: 2048
>>>>>Begin Spectral Data<<<<<
223.165	-18.75
223.4	-18.75
223.635	-18.75
223.869	-19.75
224.104	-30.75
224.338	-2.75
224.573	-14.75
224.808	-15.75
225.042	-17.75
225.277	-19.75
225.511	-8.75
225.746	5.25
225.98	10.25
226.215	19.25
226.449	34.25
226.683	24.25
226.918	32.25
227.152	23.25
227.387	38.25
227.621	47.25
227.856	37.25
228.09	58.25
228.324	52.25
228.559	63.25
228.793	56.25
229.027	60.25
229.262	71.25
229.496	68.25
229.73	87.25
229.964	100.25
230.199	80.25
230.433	78.25
230.667	86.25
230.901	91.25
231.136	76.25
231.37	84.25
231.604	71.25
231.838	70.25
232.072	79.25
232.306	81.25
232.541	83.25
232.775	84.25
233.009	72.25
233.243	74.25
233.477	82.25
233.711	73.25
233.945	70.25
234.179	71.25
234.413	97.25
234.647	84.25
234.881	69.25
235.115	78.25
235.349	83.25
235.583	83.25
235.817	76.25
236.051	82.25
236.285	65.25
236.519	78.25
236.753	67.25
236.987	87.25
237.221	83.25
237.455	97.25
237.689	81.25
237.922	78.25
238.156	72.25
238.39	78.25
238.624	80.25
238.858	89.25
239.091	71.25
239.325	81.25
239.559	104.25
239.793	90.25
240.027	86.25
240.26	74.25
240.494	71.25
240.728	88.25
240.961	90.25
241.195	81.25
241.429	95.25
241.662	65.25
241.896	70.25
242.13	78.25
242.363	82.25
242.597	68.25
242.83	85.25
243.064	80.25
243.298	70.25
243.531	84.25
243.765	80.25
243.998	64.25
244.232	89.25
244.465	87.25
244.699	75.25
244.932	65.25
245.166	67.25
245.399	71.25
245.633	87.25
245.866	67.25
246.099	84.25
246.333	73.25
246.566	80.25
246.8	89.25
247.033	82.25
247.266	79.25
247.5	88.25
247.733	85.25
247.966	80.25
248.2	90.25
248.433	66.25
248.666	82.25
248.899	88.25
249.133	75.25
249.366	109.25
249.599	114.25
249.832	81.25
250.066	84.25
250.299	72.25
250.532	87.25
250.765	78.25
250.998	72.25
251.231	74.25
251.465	66.25
251.698	80.25
251.931	79.25
252.164	82.25
252.397	71.25
252.63	88.25
252.863	82.25
253.096	78.25
253.329	70.25
253.562	87.25
253.795	89.25
254.028	88.25
254.261	79.25
254.494	86.25
254.727	73.25
254.96	93.25
255.193	91.25
255.426	89.25
255.659	93.25
255.892	81.25
256.124	87.25
256.357	89.25
256.59	96.25
256.823	82.25
257.056	81.25
257.289	88.25
257.521	79.25
257.754	84.25
257.987	81.25
258.22	77.25
258.452	84.25
258.685	69.25
258.918	85.25
259.151	68.25
259.383	87.25
259.616	81.25
259.849	82.25
260.081	76.25
260.314	79.25
260.547	73.25
260.779	81.25
261.012	90.25
261.244	81.25
261.477	91.25
261.71	84.25
261.942	117.25
262.175	124.25
262.407	90.25
262.64	86.25
262.872	101.25
263.105	83.25
263.337	89.25
263.57	84.25
263.802	87.25
264.035	84.25
264.267	76.25
264.499	93.25
264.732	90.25
264.964	90.25
265.197	90.25
265.429	76.25
265.661	91.25
265.894	84.25
266.126	90.25
266.358	76.25
266.591	81.25
266.823	75.25
267.055	86.25
267.287	86.25
267.52	91.25
267.752	85.25
267.984	78.25
268.216	85.25
268.448	87.25
268.681	84.25
268.913	98.25
269.145	82.25
269.377	77.25
269.609	89.25
269.841	77.25
270.073	86.25
270.306	84.25
270.538	88.25
270.77	93.25
271.002	85.25
271.234	92.25
271.466	87.25
271.698	81.25
271.93	95.25
272.162	90.25
272.394	88.25
272.626	98.25
272.858	97.25
273.09	84.25
273.322	87.25
273.553	74.25
273.785	84.25
274.017	73.25
274.249	88.25
274.481	91.25
274.713	83.25
274.945	101.25
275.176	84.25
275.408	100.25
275.64	85.25
275.872	94.25
276.104	88.25
276.335	94.25
276.567	92.25
276.799	106.25
277.031	112.25
277.262	92.25
277.494	85.25
277.726	88.25
277.957	96.25
278.189	78.25
278.421	85.25
278.652	97.25
278.884	101.25
279.115	85.25
279.347	89.25
279.579	106.25
279.81	82.25
280.042	87.25
280.273	78.25
280.505	77.25
280.736	80.25
280.968	88.25
281.199	98.25
281.431	94.25
281.662	78.25
281.894	93.25
282.125	90.25
282.356	117.25
282.588	146.25
282.819	130.25
283.051	75.25
283.282	96.25
283.513	93.25
283.745	91.25
283.976	93.25
284.207	81.25
284.439	79.25
284.67	90.25
284.901	86.25
285.132	88.25
285.364	93.25
285.595	90.25
285.826	81.25
286.057	92.25
286.288	85.25
286.52	69.25
286.751	87.25
286.982	83.25
287.213	87.25
287.444	92.25
287.675	93.25
287.906	81.25
288.138	96.25
288.369	111.25
288.6	83.25
288.831	83.25
289.062	89.25
289.293	95.25
289.524	89.25
289.755	85.25
289.986	71.25
290.217	85.25
290.448	86.25
290.679	95.25
290.91	96.25
291.141	100.25
291.371	87.25
291.602	86.25
291.833	83.25
292.064	98.25
292.295	96.25
292.526	88.25
292.757	87.25
292.987	98.25
293.218	96.25
293.449	85.25
293.68	85.25
293.91	99.25
294.141	97.25
294.372	96.25
294.603	92.25
294.833	90.25
295.064	88.25
295.295	96.25
295.525	100.25
295.756	120.25
295.987	121.25
296.217	150.25
296.448	147.25
296.679	98.25
296.909	100.25
297.14	98.25
297.37	87.25
297.601	94.25
297.831	103.25
298.062	88.25
298.292	96.25
298.523	92.25
298.753	93.25
298.984	92.25
299.214	93.25
299.445	91.25
299.675	86.25
299.905	106.25
300.136	104.25
300.366	98.25
300.597	87.25
300.827	90.25
301.057	113.25
301.288	104.25
301.518	86.25
301.748	93.25
301.979	106.25
302.209	94.25
302.439	95.25
302.669	88.25
302.9	98.25
303.13	92.25
303.36	94.25
303.59	114.25
303.82	106.25
304.051	85.25
304.281	63.25
304.511	92.25
304.741	90.25
304.971	98.25
305.201	92.25
305.431	101.25
305.661	90.25
305.891	83.25
306.121	86.25
306.352	104.25
306.582	108.25
306.812	95.25
307.042	93.25
307.272	93.25
307.502	89.25
307.731	96.25
307.961	91.25
308.191	84.25
308.421	85.25
308.651	88.25
308.881	90.25
309.111	101.25
309.341	87.25
309.571	108.25
309.8	88.25
310.03	98.25
310.26	97.25
310.49	98.25
310.72	100.25
310.949	113.25
311.179	103.25
311.409	93.25
311.639	91.25
311.868	102.25
312.098	101.25
312.328	108.25
312.557	109.25
312.787	114.25
313.017	118.25
313.246	96.25
313.476	102.25
313.706	104.25
313.935	96.25
314.165	77.25
314.394	111.25
314.624	99.25
314.853	93.25
315.083	112.25
315.312	83.25
315.542	96.25
315.771	100.25
316.001	102.25
316.23	104.25
316.46	105.25
316.689	94.25
316.919	91.25
317.148	102.25
317.377	91.25
317.607	97.25
317.836	100.25
318.065	97.25
318.295	93.25
318.524	90.25
318.753	107.25
318.983	96.25
319.212	97.25
319.441	121.25
319.67	106.25
319.9	100.25
320.129	98.25
320.358	113.25
320.587	101.25
320.816	102.25
321.046	109.25
321.275	109.25
321.504	109.25
321.733	100.25
321.962	107.25
322.191	100.25
322.42	97.25
322.649	113.25
322.878	129.25
323.108	124.25
323.337	132.25
323.566	156.25
323.795	173.25
324.024	247.25
324.253	493.25
324.482	1054.25
324.71	2205.25
324.939	2943.25
325.168	1029.25
325.397	299.25
325.626	173.25
325.855	138.25
326.084	137.25
326.313	146.25
326.542	188.25
326.77	272.25
326.999	573.25
327.228	1207.25
327.457	2232.25
327.686	1772.25
327.914	441.25
328.143	210.25
328.372	177.25
328.6	135.25
328.829	141.25
329.058	140.25
329.287	129.25
329.515	114.25
329.744	102.25
329.972	125.25
330.201	155.25
330.43	159.25
330.658	154.25
330.887	157.25
331.115	125.25
331.344	102.25
331.572	105.25
331.801	97.25
332.03	109.25
332.258	100.25
332.486	105.25
332.715	98.25
332.943	106.25
333.172	116.25
333.4	100.25
333.629	101.25
333.857	129.25
334.085	121.25
334.314	130.25
334.542	148.25
334.771	150.25
334.999	121.25
335.227	105.25
335.455	108.25
335.684	94.25
335.912	106.25
336.14	103.25
336.369	96.25
336.597	97.25
336.825	94.25
337.053	105.25
337.281	92.25
337.51	91.25
337.738	94.25
337.966	82.25
338.194	103.25
338.422	102.25
338.65	99.25
338.878	101.25
339.106	87.25
339.334	105.25
339.562	79.25
339.79	99.25
340.018	100.25
340.246	96.25
340.474	109.25
340.702	85.25
340.93	84.25
341.158	98.25
341.386	104.25
341.614	90.25
341.842	100.25
342.07	101.25
342.298	93.25
342.526	98.25
342.754	88.25
342.981	91.25
343.209	95.25
343.437	104.25
343.665	85.25
343.893	105.25
344.12	99.25
344.348	106.25
344.576	90.25
344.804	80.25
345.031	102.25
345.259	119.25
345.487	112.25
345.714	100.25
345.942	86.25
346.17	89.25
346.397	100.25
346.625	108.25
346.853	104.25
347.08	103.25
347.308	106.25
347.535	92.25
347.763	101.25
347.99	109.25
348.218	96.25
348.445	109.25
348.673	99.25
348.9	98.25
349.128	97.25
349.355	94.25
349.583	95.25
349.81	94.25
350.037	98.25
350.265	103.25
350.492	85.25
350.72	84.25
350.947	98.25
351.174	115.25
351.402	96.25
351.629	105.25
351.856	119.25
352.083	112.25
352.311	119.25
352.538	113.25
352.765	109.25
352.992	127.25
353.22	109.25
353.447	102.25
353.674	93.25
353.901	101.25
354.128	90.25
354.355	105.25
354.583	99.25
354.81	93.25
355.037	96.25
355.264	98.25
355.491	103.25
355.718	91.25
355.945	97.25
356.172	100.25
356.399	110.25
356.626	92.25
356.853	104.25
357.08	89.25
357.307	88.25
357.534	88.25
357.761	101.25
357.988	77.25
358.215	93.25
358.441	85.25
358.668	99.25
358.895	91.25
359.122	104.25
359.349	91.25
359.576	98.25
359.802	105.25
360.029	128.25
360.256	126.25
360.483	105.25
360.709	96.25
360.936	105.25
361.163	101.25
361.39	110.25
361.616	110.25
361.843	83.25
362.07	98.25
362.296	100.25
362.523	91.25
362.749	98.25
362.976	104.25
363.203	97.25
363.429	99.25
363.656	90.25
363.882	77.25
364.109	96.25
364.335	77.25
364.562	108.25
364.788	85.25
365.015	93.25
365.241	113.25
365.468	98.25
365.694	106.25
365.92	88.25
366.147	89.25
366.373	96.25
366.599	93.25
366.826	87.25
367.052	91.25
367.278	89.25
367.505	94.25
367.731	93.25
367.957	90.25
368.184	96.25
368.41	97.25
368.636	130.25
368.862	119.25
369.089	113.25
369.315	89.25
369.541	77.25
369.767	92.25
369.993	100.25
370.219	81.25
370.445	82.25
370.672	103.25
370.898	94.25
371.124	94.25
371.35	82.25
371.576	88.25
371.802	89.25
372.028	72.25
372.254	88.25
372.48	90.25
372.706	84.25
372.932	93.25
373.158	93.25
373.384	93.25
373.61	84.25
373.835	80.25
374.061	75.25
374.287	89.25
374.513	81.25
374.739	99.25
374.965	76.25
375.191	78.25
375.416	90.25
375.642	88.25
375.868	89.25
376.094	98.25
376.319	86.25
376.545	96.25
376.771	88.25
376.997	88.25
377.222	101.25
377.448	96.25
377.674	100.25
377.899	90.25
378.125	96.25
378.35	98.25
378.576	95.25
378.802	93.25
379.027	88.25
379.253	117.25
379.478	102.25
379.704	100.25
379.929	94.25
380.155	106.25
380.38	98.25
380.606	90.25
380.831	99.25
381.057	84.25
381.282	86.25
381.507	105.25
381.733	98.25
381.958	97.25
382.184	108.25
382.409	95.25
382.634	109.25
382.86	96.25
383.085	98.25
383.31	100.25
383.535	109.25
383.761	112.25
383.986	96.25
384.211	99.25
384.436	108.25
384.662	100.25
384.887	95.25
385.112	91.25
385.337	105.25
385.562	102.25
385.787	116.25
386.013	113.25
386.238	126.25
386.463	109.25
386.688	113.25
386.913	112.25
387.138	107.25
387.363	101.25
387.588	91.25
387.813	105.25
388.038	105.25
388.263	121.25
388.488	90.25
388.713	105.25
388.938	88.25
389.163	88.25
389.387	101.25
389.612	96.25
389.837	101.25
390.062	99.25
390.287	98.25
390.512	78.25
390.736	83.25
390.961	98.25
391.186	101.25
391.411	98.25
391.636	82.25
391.86	92.25
392.085	102.25
392.31	89.25
392.534	91.25
392.759	103.25
392.984	93.25
393.208	87.25
393.433	84.25
393.658	79.25
393.882	91.25
394.107	90.25
394.331	70.25
394.556	80.25
394.78	80.25
395.005	79.25
395.229	94.25
395.454	83.25
395.678	78.25
395.903	95.25
396.127	111.25
396.352	97.25
396.576	81.25
396.801	100.25
397.025	84.25
397.249	96.25
397.474	80.25
397.698	105.25
397.922	89.25
398.147	90.25
398.371	90.25
398.595	84.25
398.82	89.25
399.044	91.25
399.268	93.25
399.492	89.25
399.717	91.25
399.941	84.25
400.165	104.25
400.389	90.25
400.613	104.25
400.837	85.25
401.062	99.25
401.286	90.25
401.51	89.25
401.734	107.25
401.958	91.25
402.182	131.25
402.406	181.25
402.63	122.25
402.854	95.25
403.078	93.25
403.302	104.25
403.526	89.25
403.75	88.25
403.974	88.25
404.198	101.25
404.422	88.25
404.645	90.25
404.869	108.25
405.093	107.25
405.317	107.25
405.541	105.25
405.765	108.25
405.988	124.25
406.212	206.25
406.436	238.25
406.66	159.25
406.883	100.25
407.107	87.25
407.331	105.25
407.555	119.25
407.778	111.25
408.002	96.25
408.226	97.25
408.449	89.25
408.673	98.25
408.896	100.25
409.12	112.25
409.344	98.25
409.567	92.25
409.791	91.25
410.014	93.25
410.238	85.25
410.461	94.25
410.685	84.25
410.908	83.25
411.132	113.25
411.355	87.25
411.578	107.25
411.802	96.25
412.025	105.25
412.249	103.25
412.472	94.25
412.695	114.25
412.919	97.25
413.142	89.25
413.365	83.25
413.589	92.25
413.812	97.25
414.035	92.25
414.258	87.25
414.482	85.25
414.705	85.25
414.928	85.25
415.151	101.25
415.374	95.25
415.597	83.25
415.821	97.25
416.044	100.25
416.267	89.25
416.49	89.25
416.713	89.25
416.936	79.25
417.159	93.25
417.382	88.25
417.605	98.25
417.828	96.25
418.051	88.25
418.274	101.25
418.497	85.25
418.72	98.25
418.943	84.25
419.166	85.25
419.389	89.25
419.611	95.25
419.834	93.25
420.057	80.25
420.28	85.25
420.503	96.25
420.726	103.25
420.948	89.25
421.171	100.25
421.394	76.25
421.617	93.25
421.839	101.25
422.062	91.25
422.285	92.25
422.507	98.25
422.73	111.25
422.953	96.25
423.175	99.25
423.398	93.25
423.621	93.25
423.843	91.25
424.066	85.25
424.288	79.25
424.511	97.25
424.733	109.25
424.956	119.25
425.178	110.25
425.401	104.25
425.623	117.25
425.846	106.25
426.068	95.25
426.291	93.25
426.513	90.25
426.735	84.25
426.958	91.25
427.18	120.25
427.402	160.25
427.625	167.25
427.847	140.25
428.069	117.25
428.292	110.25
428.514	90.25
428.736	82.25
428.958	83.25
429.181	89.25
429.403	113.25
429.625	84.25
429.847	92.25
430.069	110.25
430.292	102.25
430.514	88.25
430.736	72.25
430.958	86.25
431.18	83.25
431.402	89.25
431.624	88.25
431.846	85.25
432.068	85.25
432.29	92.25
432.512	94.25
432.734	89.25
432.956	72.25
433.178	99.25
433.4	113.25
433.622	93.25
433.844	95.25
434.066	101.25
434.287	91.25
434.509	86.25
434.731	81.25
434.953	82.25
435.175	83.25
435.397	101.25
435.618	86.25
435.84	115.25
436.062	140.25
436.284	128.25
436.505	111.25
436.727	114.25
436.949	89.25
437.17	93.25
437.392	104.25
437.614	85.25
437.835	108.25
438.057	128.25
438.278	131.25
438.5	112.25
438.721	139.25
438.943	96.25
439.165	98.25
439.386	82.25
439.608	95.25
439.829	96.25
440.05	137.25
440.272	173.25
440.493	101.25
440.715	108.25
440.936	109.25
441.158	97.25
441.379	92.25
441.6	88.25
441.822	96.25
442.043	90.25
442.264	118.25
442.486	116.25
442.707	98.25
442.928	114.25
443.149	143.25
443.371	145.25
443.592	107.25
443.813	147.25
444.034	110.25
444.255	101.25
444.476	93.25
444.698	108.25
444.919	92.25
445.14	145.25
445.361	140.25
445.582	132.25
445.803	167.25
446.024	172.25
446.245	174.25
446.466	129.25
446.687	94.25
446.908	88.25
447.129	90.25
447.35	76.25
447.571	86.25
447.792	88.25
448.013	95.25
448.234	104.25
448.455	98.25
448.675	123.25
448.896	130.25
449.117	100.25
449.338	125.25
449.559	152.25
449.779	138.25
450	110.25
450.221	91.25
450.442	102.25
450.662	109.25
450.883	113.25
451.104	121.25
451.324	102.25
451.545	80.25
451.766	94.25
451.986	87.25
452.207	85.25
452.428	95.25
452.648	105.25
452.869	108.25
453.089	129.25
453.31	122.25
453.53	113.25
453.751	102.25
453.971	111.25
454.192	121.25
454.412	94.25
454.633	90.25
454.853	87.25
455.073	80.25
455.294	85.25
455.514	109.25
455.734	96.25
455.955	97.25
456.175	74.25
456.395	81.25
456.616	78.25
456.836	86.25
457.056	90.25
457.276	93.25
457.497	94.25
457.717	90.25
457.937	84.25
458.157	75.25
458.377	85.25
458.598	109.25
458.818	191.25
459.038	164.25
459.258	132.25
459.478	104.25
459.698	82.25
459.918	81.25
460.138	69.25
460.358	90.25
460.578	96.25
460.798	81.25
461.018	88.25
461.238	86.25
461.458	81.25
461.678	86.25
461.898	95.25
462.118	95.25
462.338	81.25
462.558	83.25
462.777	85.25
462.997	83.25
463.217	77.25
463.437	92.25
463.657	95.25
463.876	91.25
464.096	96.25
464.316	88.25
464.536	99.25
464.755	100.25
464.975	110.25
465.195	171.25
465.414	181.25
465.634	96.25
465.854	89.25
466.073	88.25
466.293	91.25
466.512	78.25
466.732	94.25
466.951	89.25
467.171	89.25
467.391	96.25
467.61	100.25
467.829	126.25
468.049	109.25
468.268	113.25
468.488	88.25
468.707	87.25
468.927	88.25
469.146	79.25
469.365	86.25
469.585	78.25
469.804	108.25
470.023	107.25
470.243	82.25
470.462	101.25
470.681	109.25
470.901	92.25
471.12	69.25
471.339	78.25
471.558	80.25
471.777	95.25
471.997	96.25
472.216	105.25
472.435	152.25
472.654	111.25
472.873	92.25
473.092	79.25
473.311	88.25
473.53	90.25
473.749	87.25
473.968	97.25
474.187	108.25
474.406	105.25
474.625	98.25
474.844	91.25
475.063	82.25
475.282	91.25
475.501	86.25
475.72	86.25
475.939	95.25
476.158	86.25
476.377	95.25
476.596	100.25
476.814	98.25
477.033	100.25
477.252	88.25
477.471	86.25
477.69	86.25
477.908	106.25
478.127	91.25
478.346	86.25
478.564	94.25
478.783	94.25
479.002	85.25
479.22	94.25
479.439	97.25
479.658	100.25
479.876	100.25
480.095	89.25
480.313	91.25
480.532	103.25
480.751	104.25
480.969	127.25
481.188	240.25
481.406	170.25
481.624	106.25
481.843	97.25
482.061	85.25
482.28	95.25
482.498	78.25
482.717	81.25
482.935	94.25
483.153	93.25
483.372	96.25
483.59	101.25
483.808	88.25
484.027	100.25
484.245	96.25
484.463	101.25
484.681	101.25
484.9	96.25
485.118	106.25
485.336	100.25
485.554	96.25
485.772	105.25
485.99	98.25
486.209	112.25
486.427	102.25
486.645	132.25
486.863	111.25
487.081	100.25
487.299	101.25
487.517	95.25
487.735	89.25
487.953	98.25
488.171	101.25
488.389	98.25
488.607	100.25
488.825	98.25
489.043	102.25
489.261	90.25
489.479	95.25
489.696	77.25
489.914	98.25
490.132	104.25
490.35	103.25
490.568	78.25
490.786	88.25
491.003	96.25
491.221	81.25
491.439	98.25
491.657	102.25
491.874	83.25
492.092	90.25
492.31	91.25
492.527	82.25
492.745	80.25
492.963	90.25
493.18	86.25
493.398	89.25
493.615	99.25
493.833	103.25
494.05	101.25
494.268	85.25
494.485	94.25
494.703	84.25
494.92	95.25
495.138	85.25
495.355	90.25
495.573	94.25
495.79	98.25
496.008	91.25
496.225	93.25
496.442	96.25
496.66	96.25
496.877	95.25
497.094	96.25
497.312	84.25
497.529	96.25
497.746	88.25
497.963	104.25
498.181	87.25
498.398	102.25
498.615	89.25
498.832	101.25
499.049	82.25
499.267	84.25
499.484	90.25
499.701	94.25
499.918	78.25
500.135	84.25
500.352	99.25
500.569	109.25
500.786	85.25
501.003	90.25
501.22	91.25
501.437	103.25
501.654	108.25
501.871	128.25
502.088	86.25
502.305	81.25
502.522	90.25
502.739	87.25
502.956	102.25
503.172	98.25
503.389	93.25
503.606	101.25
503.823	96.25
504.04	93.25
504.256	102.25
504.473	87.25
504.69	94.25
504.907	98.25
505.123	84.25
505.34	90.25
505.557	99.25
505.773	92.25
505.99	88.25
506.207	92.25
506.423	81.25
506.64	100.25
506.856	96.25
507.073	96.25
507.289	103.25
507.506	101.25
507.722	111.25
507.939	117.25
508.155	96.25
508.372	97.25
508.588	102.25
508.805	101.25
509.021	88.25
509.238	103.25
509.454	87.25
509.67	112.25
509.887	109.25
510.103	139.25
510.319	224.25
510.536	828.25
510.752	2739.25
510.968	744.25
511.184	174.25
511.401	121.25
511.617	109.25
511.833	91.25
512.049	98.25
512.265	106.25
512.481	88.25
512.698	96.25
512.914	98.25
513.13	88.25
513.346	92.25
513.562	93.25
513.778	95.25
513.994	91.25
