Data from Circ_2005_H10_HRD10591_00056.txt Node
Date: Wed Jan 03 10:30:02 EST 2024
User: Yrep
Spectrometer: HR+D1059
Trigger mode: 1
Integration Time (sec): 1.000000E-1
Scans to average: 1
Electric dark correction enabled: true
Nonlinearity correction enabled: false
Boxcar width: 0
XAxis mode: Wavelengths
Number of Pixels in Spectrum: 2048
>>>>>Begin Spectral Data<<<<<
223.165	-12.25
223.4	-12.25
223.635	-12.25
223.869	-23.25
224.104	-13.25
224.338	-18.25
224.573	-8.25
224.808	-44.25
225.042	7.75
225.277	-11.25
225.511	20.75
225.746	7.75
225.98	7.75
226.215	16.75
226.449	5.75
226.683	22.75
226.918	9.75
227.152	31.75
227.387	25.75
227.621	50.75
227.856	45.75
228.09	35.75
228.324	53.75
228.559	50.75
228.793	51.75
229.027	72.75
229.262	70.75
229.496	61.75
229.73	77.75
229.964	79.75
230.199	66.75
230.433	67.75
230.667	82.75
230.901	84.75
231.136	65.75
231.37	86.75
231.604	75.75
231.838	79.75
232.072	71.75
232.306	71.75
232.541	86.75
232.775	65.75
233.009	73.75
233.243	89.75
233.477	86.75
233.711	86.75
233.945	80.75
234.179	72.75
234.413	69.75
234.647	68.75
234.881	86.75
235.115	73.75
235.349	79.75
235.583	68.75
235.817	80.75
236.051	74.75
236.285	85.75
236.519	80.75
236.753	93.75
236.987	82.75
237.221	84.75
237.455	89.75
237.689	77.75
237.922	80.75
238.156	81.75
238.39	78.75
238.624	62.75
238.858	76.75
239.091	80.75
239.325	79.75
239.559	91.75
239.793	91.75
240.027	77.75
240.26	63.75
240.494	74.75
240.728	81.75
240.961	75.75
241.195	75.75
241.429	70.75
241.662	83.75
241.896	92.75
242.13	67.75
242.363	71.75
242.597	81.75
242.83	73.75
243.064	72.75
243.298	92.75
243.531	79.75
243.765	73.75
243.998	68.75
244.232	74.75
244.465	66.75
244.699	86.75
244.932	73.75
245.166	65.75
245.399	85.75
245.633	81.75
245.866	79.75
246.099	81.75
246.333	78.75
246.566	79.75
246.8	81.75
247.033	67.75
247.266	87.75
247.5	71.75
247.733	67.75
247.966	107.75
248.2	63.75
248.433	66.75
248.666	74.75
248.899	80.75
249.133	86.75
249.366	93.75
249.599	86.75
249.832	80.75
250.066	75.75
250.299	79.75
250.532	78.75
250.765	73.75
250.998	75.75
251.231	68.75
251.465	83.75
251.698	90.75
251.931	65.75
252.164	77.75
252.397	72.75
252.63	73.75
252.863	81.75
253.096	67.75
253.329	91.75
253.562	87.75
253.795	73.75
254.028	82.75
254.261	75.75
254.494	77.75
254.727	69.75
254.96	82.75
255.193	72.75
255.426	68.75
255.659	86.75
255.892	73.75
256.124	72.75
256.357	83.75
256.59	94.75
256.823	78.75
257.056	79.75
257.289	82.75
257.521	86.75
257.754	78.75
257.987	79.75
258.22	84.75
258.452	53.75
258.685	70.75
258.918	83.75
259.151	89.75
259.383	87.75
259.616	69.75
259.849	77.75
260.081	78.75
260.314	77.75
260.547	63.75
260.779	63.75
261.012	82.75
261.244	80.75
261.477	91.75
261.71	81.75
261.942	111.75
262.175	95.75
262.407	72.75
262.64	92.75
262.872	91.75
263.105	79.75
263.337	86.75
263.57	78.75
263.802	85.75
264.035	91.75
264.267	83.75
264.499	74.75
264.732	78.75
264.964	75.75
265.197	85.75
265.429	95.75
265.661	82.75
265.894	89.75
266.126	87.75
266.358	67.75
266.591	89.75
266.823	89.75
267.055	90.75
267.287	86.75
267.52	90.75
267.752	93.75
267.984	89.75
268.216	78.75
268.448	96.75
268.681	75.75
268.913	82.75
269.145	103.75
269.377	78.75
269.609	81.75
269.841	69.75
270.073	81.75
270.306	78.75
270.538	80.75
270.77	81.75
271.002	77.75
271.234	94.75
271.466	101.75
271.698	84.75
271.93	91.75
272.162	81.75
272.394	77.75
272.626	81.75
272.858	85.75
273.09	82.75
273.322	72.75
273.553	94.75
273.785	86.75
274.017	87.75
274.249	91.75
274.481	88.75
274.713	81.75
274.945	97.75
275.176	86.75
275.408	92.75
275.64	84.75
275.872	64.75
276.104	89.75
276.335	88.75
276.567	79.75
276.799	76.75
277.031	102.75
277.262	107.75
277.494	101.75
277.726	77.75
277.957	89.75
278.189	84.75
278.421	79.75
278.652	92.75
278.884	94.75
279.115	93.75
279.347	91.75
279.579	80.75
279.81	89.75
280.042	88.75
280.273	90.75
280.505	83.75
280.736	82.75
280.968	86.75
281.199	81.75
281.431	96.75
281.662	99.75
281.894	86.75
282.125	96.75
282.356	102.75
282.588	139.75
282.819	101.75
283.051	105.75
283.282	86.75
283.513	95.75
283.745	90.75
283.976	94.75
284.207	83.75
284.439	86.75
284.67	84.75
284.901	74.75
285.132	81.75
285.364	82.75
285.595	85.75
285.826	77.75
286.057	73.75
286.288	73.75
286.52	82.75
286.751	83.75
286.982	87.75
287.213	94.75
287.444	90.75
287.675	80.75
287.906	84.75
288.138	102.75
288.369	84.75
288.6	84.75
288.831	85.75
289.062	99.75
289.293	96.75
289.524	78.75
289.755	90.75
289.986	91.75
290.217	86.75
290.448	93.75
290.679	84.75
290.91	94.75
291.141	81.75
291.371	81.75
291.602	92.75
291.833	86.75
292.064	87.75
292.295	87.75
292.526	97.75
292.757	90.75
292.987	84.75
293.218	83.75
293.449	85.75
293.68	80.75
293.91	86.75
294.141	84.75
294.372	71.75
294.603	90.75
294.833	101.75
295.064	84.75
295.295	90.75
295.525	83.75
295.756	88.75
295.987	126.75
296.217	129.75
296.448	112.75
296.679	91.75
296.909	82.75
297.14	92.75
297.37	84.75
297.601	95.75
297.831	79.75
298.062	86.75
298.292	90.75
298.523	76.75
298.753	98.75
298.984	83.75
299.214	77.75
299.445	83.75
299.675	88.75
299.905	84.75
300.136	85.75
300.366	74.75
300.597	81.75
300.827	84.75
301.057	95.75
301.288	99.75
301.518	93.75
301.748	74.75
301.979	105.75
302.209	90.75
302.439	97.75
302.669	86.75
302.9	80.75
303.13	77.75
303.36	90.75
303.59	94.75
303.82	94.75
304.051	104.75
304.281	90.75
304.511	85.75
304.741	91.75
304.971	95.75
305.201	86.75
305.431	83.75
305.661	96.75
305.891	103.75
306.121	94.75
306.352	105.75
306.582	94.75
306.812	81.75
307.042	87.75
307.272	87.75
307.502	87.75
307.731	99.75
307.961	96.75
308.191	67.75
308.421	90.75
308.651	98.75
308.881	90.75
309.111	100.75
309.341	91.75
309.571	95.75
309.8	91.75
310.03	102.75
310.26	91.75
310.49	90.75
310.72	92.75
310.949	95.75
311.179	93.75
311.409	112.75
311.639	94.75
311.868	86.75
312.098	97.75
312.328	91.75
312.557	87.75
312.787	96.75
313.017	94.75
313.246	85.75
313.476	93.75
313.706	81.75
313.935	91.75
314.165	97.75
314.394	100.75
314.624	97.75
314.853	94.75
315.083	75.75
315.312	93.75
315.542	89.75
315.771	91.75
316.001	102.75
316.23	93.75
316.46	92.75
316.689	82.75
316.919	97.75
317.148	87.75
317.377	89.75
317.607	91.75
317.836	76.75
318.065	92.75
318.295	78.75
318.524	107.75
318.753	72.75
318.983	97.75
319.212	94.75
319.441	102.75
319.67	98.75
319.9	97.75
320.129	83.75
320.358	74.75
320.587	84.75
320.816	89.75
321.046	87.75
321.275	102.75
321.504	92.75
321.733	103.75
321.962	112.75
322.191	90.75
322.42	100.75
322.649	103.75
322.878	97.75
323.108	112.75
323.337	132.75
323.566	115.75
323.795	149.75
324.024	193.75
324.253	387.75
324.482	812.75
324.71	1663.75
324.939	2150.75
325.168	798.75
325.397	241.75
325.626	149.75
325.855	114.75
326.084	119.75
326.313	129.75
326.542	142.75
326.77	210.75
326.999	438.75
327.228	924.75
327.457	1647.75
327.686	1310.75
327.914	362.75
328.143	186.75
328.372	161.75
328.6	117.75
328.829	101.75
329.058	121.75
329.287	128.75
329.515	120.75
329.744	114.75
329.972	109.75
330.201	146.75
330.43	176.75
330.658	140.75
330.887	149.75
331.115	123.75
331.344	96.75
331.572	91.75
331.801	104.75
332.03	112.75
332.258	92.75
332.486	105.75
332.715	97.75
332.943	87.75
333.172	95.75
333.4	93.75
333.629	105.75
333.857	110.75
334.085	126.75
334.314	135.75
334.542	204.75
334.771	186.75
334.999	133.75
335.227	102.75
335.455	100.75
335.684	94.75
335.912	100.75
336.14	95.75
336.369	86.75
336.597	91.75
336.825	89.75
337.053	95.75
337.281	102.75
337.51	91.75
337.738	100.75
337.966	94.75
338.194	83.75
338.422	80.75
338.65	84.75
338.878	80.75
339.106	87.75
339.334	93.75
339.562	95.75
339.79	85.75
340.018	84.75
340.246	90.75
340.474	109.75
340.702	85.75
340.93	92.75
341.158	86.75
341.386	97.75
341.614	105.75
341.842	90.75
342.07	85.75
342.298	85.75
342.526	77.75
342.754	93.75
342.981	75.75
343.209	96.75
343.437	90.75
343.665	88.75
343.893	91.75
344.12	89.75
344.348	106.75
344.576	83.75
344.804	104.75
345.031	101.75
345.259	107.75
345.487	82.75
345.714	91.75
345.942	93.75
346.17	91.75
346.397	80.75
346.625	87.75
346.853	97.75
347.08	91.75
347.308	101.75
347.535	103.75
347.763	87.75
347.99	118.75
348.218	83.75
348.445	98.75
348.673	81.75
348.9	83.75
349.128	88.75
349.355	81.75
349.583	84.75
349.81	80.75
350.037	86.75
350.265	89.75
350.492	95.75
350.72	82.75
350.947	89.75
351.174	102.75
351.402	111.75
351.629	98.75
351.856	94.75
352.083	107.75
352.311	92.75
352.538	83.75
352.765	119.75
352.992	105.75
353.22	103.75
353.447	116.75
353.674	108.75
353.901	101.75
354.128	93.75
354.355	96.75
354.583	105.75
354.81	99.75
355.037	85.75
355.264	94.75
355.491	104.75
355.718	90.75
355.945	90.75
356.172	80.75
356.399	88.75
356.626	96.75
356.853	87.75
357.08	90.75
357.307	92.75
357.534	92.75
357.761	108.75
357.988	108.75
358.215	90.75
358.441	81.75
358.668	109.75
358.895	91.75
359.122	104.75
359.349	72.75
359.576	94.75
359.802	85.75
360.029	97.75
360.256	99.75
360.483	108.75
360.709	85.75
360.936	92.75
361.163	95.75
361.39	87.75
361.616	85.75
361.843	77.75
362.07	90.75
362.296	100.75
362.523	99.75
362.749	101.75
362.976	95.75
363.203	86.75
363.429	91.75
363.656	87.75
363.882	95.75
364.109	99.75
364.335	87.75
364.562	101.75
364.788	95.75
365.015	108.75
365.241	97.75
365.468	110.75
365.694	117.75
365.92	94.75
366.147	85.75
366.373	89.75
366.599	81.75
366.826	83.75
367.052	90.75
367.278	77.75
367.505	88.75
367.731	67.75
367.957	90.75
368.184	89.75
368.41	98.75
368.636	115.75
368.862	113.75
369.089	92.75
369.315	93.75
369.541	102.75
369.767	111.75
369.993	85.75
370.219	86.75
370.445	85.75
370.672	66.75
370.898	88.75
371.124	97.75
371.35	85.75
371.576	91.75
371.802	79.75
372.028	79.75
372.254	85.75
372.48	82.75
372.706	87.75
372.932	83.75
373.158	95.75
373.384	88.75
373.61	91.75
373.835	96.75
374.061	96.75
374.287	108.75
374.513	101.75
374.739	75.75
374.965	91.75
375.191	93.75
375.416	90.75
375.642	84.75
375.868	89.75
376.094	82.75
376.319	93.75
376.545	89.75
376.771	83.75
376.997	104.75
377.222	105.75
377.448	88.75
377.674	92.75
377.899	82.75
378.125	82.75
378.35	86.75
378.576	87.75
378.802	87.75
379.027	89.75
379.253	95.75
379.478	89.75
379.704	95.75
379.929	86.75
380.155	81.75
380.38	102.75
380.606	109.75
380.831	86.75
381.057	94.75
381.282	89.75
381.507	85.75
381.733	101.75
381.958	88.75
382.184	100.75
382.409	116.75
382.634	102.75
382.86	80.75
383.085	103.75
383.31	107.75
383.535	101.75
383.761	93.75
383.986	102.75
384.211	100.75
384.436	92.75
384.662	109.75
384.887	96.75
385.112	100.75
385.337	100.75
385.562	106.75
385.787	94.75
386.013	117.75
386.238	119.75
386.463	103.75
386.688	126.75
386.913	103.75
387.138	80.75
387.363	98.75
387.588	94.75
387.813	90.75
388.038	110.75
388.263	114.75
388.488	105.75
388.713	94.75
388.938	110.75
389.163	102.75
389.387	103.75
389.612	103.75
389.837	69.75
390.062	99.75
390.287	79.75
390.512	90.75
390.736	100.75
390.961	96.75
391.186	85.75
391.411	93.75
391.636	96.75
391.86	96.75
392.085	89.75
392.31	92.75
392.534	80.75
392.759	92.75
392.984	91.75
393.208	91.75
393.433	75.75
393.658	86.75
393.882	92.75
394.107	89.75
394.331	87.75
394.556	86.75
394.78	96.75
395.005	90.75
395.229	87.75
395.454	87.75
395.678	87.75
395.903	104.75
396.127	87.75
396.352	92.75
396.576	85.75
396.801	82.75
397.025	85.75
397.249	77.75
397.474	83.75
397.698	92.75
397.922	102.75
398.147	82.75
398.371	81.75
398.595	90.75
398.82	83.75
399.044	101.75
399.268	80.75
399.492	99.75
399.717	87.75
399.941	85.75
400.165	86.75
400.389	91.75
400.613	86.75
400.837	82.75
401.062	92.75
401.286	89.75
401.51	97.75
401.734	90.75
401.958	98.75
402.182	123.75
402.406	153.75
402.63	104.75
402.854	86.75
403.078	82.75
403.302	97.75
403.526	87.75
403.75	83.75
403.974	106.75
404.198	81.75
404.422	96.75
404.645	94.75
404.869	83.75
405.093	90.75
405.317	92.75
405.541	93.75
405.765	98.75
405.988	110.75
406.212	153.75
406.436	206.75
406.66	142.75
406.883	111.75
407.107	97.75
407.331	89.75
407.555	86.75
407.778	99.75
408.002	84.75
408.226	103.75
408.449	82.75
408.673	75.75
408.896	68.75
409.12	89.75
409.344	97.75
409.567	94.75
409.791	97.75
410.014	102.75
410.238	86.75
410.461	90.75
410.685	87.75
410.908	86.75
411.132	92.75
411.355	102.75
411.578	98.75
411.802	81.75
412.025	72.75
412.249	83.75
412.472	90.75
412.695	98.75
412.919	85.75
413.142	87.75
413.365	85.75
413.589	90.75
413.812	89.75
414.035	100.75
414.258	82.75
414.482	88.75
414.705	73.75
414.928	83.75
415.151	85.75
415.374	107.75
415.597	86.75
415.821	81.75
416.044	89.75
416.267	77.75
416.49	88.75
416.713	80.75
416.936	85.75
417.159	87.75
417.382	84.75
417.605	88.75
417.828	89.75
418.051	93.75
418.274	78.75
418.497	82.75
418.72	94.75
418.943	95.75
419.166	87.75
419.389	99.75
419.611	99.75
419.834	85.75
420.057	80.75
420.28	89.75
420.503	83.75
420.726	85.75
420.948	84.75
421.171	99.75
421.394	90.75
421.617	86.75
421.839	86.75
422.062	94.75
422.285	98.75
422.507	102.75
422.73	93.75
422.953	99.75
423.175	90.75
423.398	89.75
423.621	88.75
423.843	77.75
424.066	84.75
424.288	88.75
424.511	101.75
424.733	112.75
424.956	111.75
425.178	99.75
425.401	99.75
425.623	99.75
425.846	82.75
426.068	83.75
426.291	90.75
426.513	86.75
426.735	92.75
426.958	99.75
427.18	96.75
427.402	138.75
427.625	162.75
427.847	139.75
428.069	117.75
428.292	94.75
428.514	94.75
428.736	91.75
428.958	75.75
429.181	85.75
429.403	76.75
429.625	77.75
429.847	95.75
430.069	108.75
430.292	91.75
430.514	82.75
430.736	77.75
430.958	96.75
431.18	80.75
431.402	90.75
431.624	82.75
431.846	89.75
432.068	84.75
432.29	99.75
432.512	79.75
432.734	79.75
432.956	94.75
433.178	81.75
433.4	84.75
433.622	83.75
433.844	78.75
434.066	86.75
434.287	93.75
434.509	102.75
434.731	93.75
434.953	80.75
435.175	87.75
435.397	98.75
435.618	85.75
435.84	95.75
436.062	113.75
436.284	105.75
436.505	101.75
436.727	110.75
436.949	81.75
437.17	87.75
437.392	91.75
437.614	71.75
437.835	121.75
438.057	102.75
438.278	113.75
438.5	106.75
438.721	106.75
438.943	91.75
439.165	75.75
439.386	81.75
439.608	85.75
439.829	95.75
440.05	106.75
440.272	134.75
440.493	105.75
440.715	87.75
440.936	84.75
441.158	99.75
441.379	85.75
441.6	85.75
441.822	90.75
442.043	87.75
442.264	104.75
442.486	112.75
442.707	91.75
442.928	82.75
443.149	109.75
443.371	110.75
443.592	118.75
443.813	111.75
444.034	95.75
444.255	84.75
444.476	89.75
444.698	91.75
444.919	91.75
445.14	135.75
445.361	122.75
445.582	112.75
445.803	133.75
446.024	114.75
446.245	141.75
446.466	99.75
446.687	99.75
446.908	86.75
447.129	88.75
447.35	97.75
447.571	95.75
447.792	87.75
448.013	92.75
448.234	113.75
448.455	97.75
448.675	100.75
448.896	95.75
449.117	96.75
449.338	95.75
449.559	122.75
449.779	116.75
450	96.75
450.221	94.75
450.442	96.75
450.662	91.75
450.883	93.75
451.104	108.75
451.324	87.75
451.545	81.75
451.766	77.75
451.986	80.75
452.207	81.75
452.428	63.75
452.648	113.75
452.869	106.75
453.089	112.75
453.31	109.75
453.53	101.75
453.751	81.75
453.971	84.75
454.192	102.75
454.412	86.75
454.633	85.75
454.853	94.75
455.073	94.75
455.294	85.75
455.514	93.75
455.734	85.75
455.955	78.75
456.175	92.75
456.395	95.75
456.616	77.75
456.836	83.75
457.056	81.75
457.276	90.75
457.497	76.75
457.717	83.75
457.937	84.75
458.157	91.75
458.377	97.75
458.598	100.75
458.818	137.75
459.038	145.75
459.258	87.75
459.478	92.75
459.698	94.75
459.918	100.75
460.138	95.75
460.358	80.75
460.578	80.75
460.798	87.75
461.018	91.75
461.238	85.75
461.458	81.75
461.678	78.75
461.898	85.75
462.118	102.75
462.338	85.75
462.558	97.75
462.777	94.75
462.997	80.75
463.217	82.75
463.437	82.75
463.657	84.75
463.876	81.75
464.096	87.75
464.316	88.75
464.536	96.75
464.755	84.75
464.975	114.75
465.195	156.75
465.414	147.75
465.634	86.75
465.854	84.75
466.073	80.75
466.293	88.75
466.512	97.75
466.732	88.75
466.951	102.75
467.171	92.75
467.391	86.75
467.61	94.75
467.829	112.75
468.049	124.75
468.268	133.75
468.488	90.75
468.707	79.75
468.927	79.75
469.146	94.75
469.365	88.75
469.585	77.75
469.804	86.75
470.023	87.75
470.243	79.75
470.462	93.75
470.681	105.75
470.901	95.75
471.12	86.75
471.339	84.75
471.558	82.75
471.777	79.75
471.997	100.75
472.216	151.75
472.435	238.75
472.654	115.75
472.873	92.75
473.092	75.75
473.311	96.75
473.53	79.75
473.749	86.75
473.968	90.75
474.187	96.75
474.406	102.75
474.625	83.75
474.844	86.75
475.063	106.75
475.282	86.75
475.501	97.75
475.72	85.75
475.939	93.75
476.158	85.75
476.377	99.75
476.596	97.75
476.814	98.75
477.033	93.75
477.252	98.75
477.471	101.75
477.69	93.75
477.908	94.75
478.127	86.75
478.346	101.75
478.564	105.75
478.783	85.75
479.002	84.75
479.22	85.75
479.439	82.75
479.658	98.75
479.876	91.75
480.095	91.75
480.313	96.75
480.532	105.75
480.751	104.75
480.969	143.75
481.188	370.75
481.406	253.75
481.624	102.75
481.843	83.75
482.061	93.75
482.28	100.75
482.498	89.75
482.717	83.75
482.935	77.75
483.153	86.75
483.372	80.75
483.59	80.75
483.808	87.75
484.027	83.75
484.245	94.75
484.463	95.75
484.681	89.75
484.9	86.75
485.118	94.75
485.336	82.75
485.554	108.75
485.772	96.75
485.99	99.75
486.209	104.75
486.427	112.75
486.645	107.75
486.863	112.75
487.081	105.75
487.299	109.75
487.517	83.75
487.735	84.75
487.953	96.75
488.171	106.75
488.389	108.75
488.607	90.75
488.825	92.75
489.043	105.75
489.261	86.75
489.479	85.75
489.696	100.75
489.914	83.75
490.132	89.75
490.35	95.75
490.568	95.75
490.786	87.75
491.003	94.75
491.221	96.75
491.439	83.75
491.657	82.75
491.874	91.75
492.092	89.75
492.31	81.75
492.527	77.75
492.745	79.75
492.963	74.75
493.18	99.75
493.398	98.75
493.615	102.75
493.833	86.75
494.05	87.75
494.268	86.75
494.485	97.75
494.703	80.75
494.92	87.75
495.138	83.75
495.355	104.75
495.573	77.75
495.79	91.75
496.008	81.75
496.225	94.75
496.442	92.75
496.66	94.75
496.877	91.75
497.094	91.75
497.312	87.75
497.529	91.75
497.746	91.75
497.963	102.75
498.181	94.75
498.398	86.75
498.615	85.75
498.832	91.75
499.049	102.75
499.267	89.75
499.484	78.75
499.701	86.75
499.918	98.75
500.135	92.75
500.352	79.75
500.569	104.75
500.786	95.75
501.003	81.75
501.22	93.75
501.437	90.75
501.654	93.75
501.871	97.75
502.088	95.75
502.305	97.75
502.522	97.75
502.739	82.75
502.956	98.75
503.172	86.75
503.389	83.75
503.606	97.75
503.823	97.75
504.04	93.75
504.256	94.75
504.473	84.75
504.69	89.75
504.907	86.75
505.123	87.75
505.34	84.75
505.557	94.75
505.773	85.75
505.99	82.75
506.207	100.75
506.423	90.75
506.64	85.75
506.856	86.75
507.073	91.75
507.289	96.75
507.506	88.75
507.722	118.75
507.939	99.75
508.155	93.75
508.372	95.75
508.588	82.75
508.805	105.75
509.021	84.75
509.238	99.75
509.454	91.75
509.67	111.75
509.887	99.75
510.103	110.75
510.319	213.75
510.536	718.75
510.752	2317.75
510.968	641.75
511.184	141.75
511.401	85.75
511.617	107.75
511.833	90.75
512.049	95.75
512.265	91.75
512.481	97.75
512.698	104.75
512.914	83.75
513.13	83.75
513.346	99.75
513.562	102.75
513.778	88.75
513.994	100.75
514.21	109.75
514.426	105.75
514.642	140.75
514.858	124.75
515.074	156.75
515.29	428.75
515.506	1403.75
515.721	544.75
515.937	160.75
516.153	103.75
