Data from Circ_2005_H10_HRD10591_00095.txt Node
Date: Wed Jan 03 10:30:10 EST 2024
User: Yrep
Spectrometer: HR+D1059
Trigger mode: 1
Integration Time (sec): 1.000000E-1
Scans to average: 1
Electric dark correction enabled: true
Nonlinearity correction enabled: false
Boxcar width: 0
XAxis mode: Wavelengths
Number of Pixels in Spectrum: 2048
>>>>>Begin Spectral Data<<<<<
223.165	-16
223.4	-16
223.635	-16
223.869	-17
224.104	-28
224.338	-12
224.573	-9
224.808	-2
225.042	-18
225.277	-9
225.511	2
225.746	17
225.98	7
226.215	-5
226.449	11
226.683	34
226.918	17
227.152	28
227.387	39
227.621	38
227.856	53
228.09	41
228.324	50
228.559	58
228.793	48
229.027	53
229.262	77
229.496	64
229.73	90
229.964	96
230.199	78
230.433	71
230.667	85
230.901	76
231.136	70
231.37	80
231.604	86
231.838	84
232.072	102
232.306	76
232.541	80
232.775	80
233.009	98
233.243	90
233.477	78
233.711	86
233.945	76
234.179	91
234.413	82
234.647	74
234.881	75
235.115	76
235.349	80
235.583	77
235.817	85
236.051	76
236.285	75
236.519	81
236.753	79
236.987	87
237.221	82
237.455	96
237.689	64
237.922	75
238.156	79
238.39	72
238.624	73
238.858	76
239.091	85
239.325	80
239.559	96
239.793	74
240.027	61
240.26	68
240.494	86
240.728	90
240.961	68
241.195	84
241.429	91
241.662	69
241.896	76
242.13	78
242.363	78
242.597	68
242.83	78
243.064	81
243.298	88
243.531	78
243.765	74
243.998	90
244.232	92
244.465	75
244.699	86
244.932	78
245.166	78
245.399	73
245.633	73
245.866	68
246.099	81
246.333	92
246.566	79
246.8	78
247.033	88
247.266	74
247.5	87
247.733	86
247.966	83
248.2	81
248.433	87
248.666	82
248.899	95
249.133	84
249.366	75
249.599	101
249.832	69
250.066	79
250.299	72
250.532	83
250.765	68
250.998	73
251.231	77
251.465	73
251.698	78
251.931	80
252.164	93
252.397	69
252.63	74
252.863	82
253.096	91
253.329	82
253.562	80
253.795	92
254.028	95
254.261	74
254.494	58
254.727	79
254.96	92
255.193	82
255.426	78
255.659	68
255.892	98
256.124	87
256.357	86
256.59	78
256.823	80
257.056	82
257.289	97
257.521	81
257.754	88
257.987	82
258.22	88
258.452	94
258.685	87
258.918	74
259.151	91
259.383	89
259.616	66
259.849	75
260.081	86
260.314	83
260.547	90
260.779	88
261.012	87
261.244	83
261.477	101
261.71	88
261.942	103
262.175	110
262.407	98
262.64	85
262.872	75
263.105	68
263.337	98
263.57	79
263.802	76
264.035	79
264.267	101
264.499	86
264.732	90
264.964	69
265.197	86
265.429	77
265.661	84
265.894	74
266.126	87
266.358	84
266.591	79
266.823	88
267.055	99
267.287	80
267.52	85
267.752	82
267.984	85
268.216	64
268.448	76
268.681	88
268.913	95
269.145	84
269.377	78
269.609	80
269.841	103
270.073	77
270.306	79
270.538	94
270.77	85
271.002	80
271.234	90
271.466	88
271.698	98
271.93	94
272.162	74
272.394	82
272.626	82
272.858	76
273.09	88
273.322	86
273.553	84
273.785	76
274.017	83
274.249	89
274.481	83
274.713	92
274.945	83
275.176	94
275.408	85
275.64	88
275.872	94
276.104	92
276.335	87
276.567	98
276.799	106
277.031	103
277.262	102
277.494	88
277.726	105
277.957	91
278.189	75
278.421	86
278.652	100
278.884	96
279.115	90
279.347	71
279.579	90
279.81	90
280.042	86
280.273	99
280.505	92
280.736	79
280.968	96
281.199	84
281.431	90
281.662	91
281.894	89
282.125	82
282.356	121
282.588	117
282.819	100
283.051	93
283.282	74
283.513	91
283.745	91
283.976	91
284.207	82
284.439	67
284.67	80
284.901	63
285.132	69
285.364	88
285.595	88
285.826	85
286.057	88
286.288	99
286.52	77
286.751	93
286.982	81
287.213	85
287.444	85
287.675	83
287.906	86
288.138	82
288.369	90
288.6	86
288.831	84
289.062	89
289.293	83
289.524	74
289.755	87
289.986	80
290.217	86
290.448	88
290.679	77
290.91	90
291.141	102
291.371	100
291.602	83
291.833	63
292.064	86
292.295	97
292.526	88
292.757	87
292.987	62
293.218	101
293.449	80
293.68	82
293.91	102
294.141	91
294.372	85
294.603	92
294.833	93
295.064	78
295.295	80
295.525	84
295.756	98
295.987	110
296.217	110
296.448	119
296.679	92
296.909	90
297.14	90
297.37	87
297.601	88
297.831	76
298.062	79
298.292	85
298.523	95
298.753	94
298.984	78
299.214	99
299.445	90
299.675	98
299.905	99
300.136	100
300.366	93
300.597	89
300.827	101
301.057	105
301.288	103
301.518	76
301.748	80
301.979	80
302.209	93
302.439	90
302.669	85
302.9	92
303.13	87
303.36	86
303.59	79
303.82	114
304.051	85
304.281	79
304.511	91
304.741	83
304.971	97
305.201	81
305.431	97
305.661	106
305.891	88
306.121	90
306.352	80
306.582	85
306.812	95
307.042	101
307.272	97
307.502	100
307.731	95
307.961	95
308.191	88
308.421	85
308.651	95
308.881	81
309.111	83
309.341	81
309.571	101
309.8	95
310.03	103
310.26	88
310.49	88
310.72	92
310.949	100
311.179	93
311.409	99
311.639	93
311.868	91
312.098	86
312.328	100
312.557	101
312.787	87
313.017	87
313.246	80
313.476	82
313.706	91
313.935	95
314.165	84
314.394	103
314.624	84
314.853	99
315.083	86
315.312	76
315.542	74
315.771	86
316.001	90
316.23	92
316.46	86
316.689	83
316.919	89
317.148	94
317.377	93
317.607	91
317.836	87
318.065	68
318.295	79
318.524	85
318.753	85
318.983	86
319.212	93
319.441	94
319.67	101
319.9	92
320.129	96
320.358	95
320.587	111
320.816	93
321.046	87
321.275	98
321.504	90
321.733	105
321.962	108
322.191	103
322.42	113
322.649	101
322.878	116
323.108	97
323.337	123
323.566	129
323.795	142
324.024	202
324.253	376
324.482	764
324.71	1598
324.939	2128
325.168	779
325.397	230
325.626	146
325.855	132
326.084	111
326.313	122
326.542	145
326.77	221
326.999	446
327.228	909
327.457	1630
327.686	1299
327.914	378
328.143	230
328.372	195
328.6	134
328.829	116
329.058	108
329.287	114
329.515	104
329.744	120
329.972	140
330.201	195
330.43	260
330.658	167
330.887	145
331.115	124
331.344	96
331.572	95
331.801	99
332.03	84
332.258	107
332.486	101
332.715	91
332.943	94
333.172	99
333.4	92
333.629	98
333.857	135
334.085	135
334.314	190
334.542	303
334.771	286
334.999	129
335.227	103
335.455	97
335.684	87
335.912	88
336.14	85
336.369	94
336.597	94
336.825	100
337.053	96
337.281	79
337.51	90
337.738	95
337.966	99
338.194	95
338.422	84
338.65	87
338.878	91
339.106	91
339.334	84
339.562	98
339.79	95
340.018	91
340.246	85
340.474	88
340.702	89
340.93	92
341.158	87
341.386	98
341.614	93
341.842	82
342.07	80
342.298	86
342.526	88
342.754	88
342.981	91
343.209	92
343.437	88
343.665	101
343.893	91
344.12	93
344.348	93
344.576	75
344.804	89
345.031	98
345.259	112
345.487	83
345.714	94
345.942	84
346.17	84
346.397	106
346.625	80
346.853	102
347.08	105
347.308	94
347.535	95
347.763	95
347.99	102
348.218	78
348.445	101
348.673	99
348.9	107
349.128	100
349.355	103
349.583	88
349.81	90
350.037	80
350.265	91
350.492	104
350.72	98
350.947	85
351.174	101
351.402	103
351.629	99
351.856	97
352.083	94
352.311	87
352.538	97
352.765	99
352.992	104
353.22	114
353.447	106
353.674	94
353.901	110
354.128	96
354.355	100
354.583	104
354.81	89
355.037	98
355.264	104
355.491	97
355.718	98
355.945	95
356.172	99
356.399	91
356.626	97
356.853	94
357.08	80
357.307	88
357.534	79
357.761	76
357.988	93
358.215	93
358.441	86
358.668	94
358.895	82
359.122	88
359.349	78
359.576	82
359.802	94
360.029	102
360.256	99
360.483	98
360.709	96
360.936	95
361.163	98
361.39	87
361.616	96
361.843	78
362.07	91
362.296	92
362.523	84
362.749	98
362.976	85
363.203	90
363.429	81
363.656	98
363.882	81
364.109	86
364.335	76
364.562	91
364.788	95
365.015	98
365.241	102
365.468	112
365.694	105
365.92	104
366.147	92
366.373	75
366.599	87
366.826	74
367.052	83
367.278	87
367.505	87
367.731	83
367.957	72
368.184	79
368.41	93
368.636	96
368.862	113
369.089	98
369.315	93
369.541	81
369.767	76
369.993	95
370.219	95
370.445	93
370.672	104
370.898	85
371.124	104
371.35	95
371.576	79
371.802	85
372.028	82
372.254	87
372.48	93
372.706	78
372.932	81
373.158	95
373.384	94
373.61	87
373.835	78
374.061	98
374.287	83
374.513	83
374.739	93
374.965	85
375.191	81
375.416	74
375.642	89
375.868	92
376.094	81
376.319	96
376.545	104
376.771	95
376.997	89
377.222	87
377.448	82
377.674	72
377.899	81
378.125	91
378.35	93
378.576	90
378.802	77
379.027	79
379.253	80
379.478	78
379.704	94
379.929	97
380.155	93
380.38	92
380.606	95
380.831	87
381.057	93
381.282	102
381.507	98
381.733	96
381.958	97
382.184	102
382.409	81
382.634	100
382.86	99
383.085	89
383.31	84
383.535	98
383.761	98
383.986	98
384.211	93
384.436	108
384.662	114
384.887	108
385.112	106
385.337	93
385.562	89
385.787	97
386.013	99
386.238	106
386.463	101
386.688	101
386.913	91
387.138	100
387.363	88
387.588	100
387.813	99
388.038	96
388.263	99
388.488	100
388.713	103
388.938	104
389.163	100
389.387	89
389.612	85
389.837	84
390.062	92
390.287	92
390.512	91
390.736	95
390.961	96
391.186	98
391.411	88
391.636	70
391.86	96
392.085	90
392.31	92
392.534	80
392.759	88
392.984	85
393.208	85
393.433	90
393.658	87
393.882	85
394.107	94
394.331	79
394.556	83
394.78	96
395.005	91
395.229	76
395.454	80
395.678	71
395.903	97
396.127	99
396.352	76
396.576	84
396.801	79
397.025	84
397.249	87
397.474	90
397.698	95
397.922	82
398.147	81
398.371	101
398.595	98
398.82	97
399.044	71
399.268	88
399.492	87
399.717	101
399.941	88
400.165	95
400.389	93
400.613	86
400.837	85
401.062	84
401.286	79
401.51	93
401.734	96
401.958	96
402.182	102
402.406	154
402.63	107
402.854	97
403.078	97
403.302	91
403.526	90
403.75	77
403.974	84
404.198	83
404.422	74
404.645	100
404.869	97
405.093	106
405.317	103
405.541	116
405.765	94
405.988	100
406.212	135
406.436	188
406.66	132
406.883	99
407.107	98
407.331	83
407.555	96
407.778	96
408.002	79
408.226	94
408.449	96
408.673	88
408.896	88
409.12	80
409.344	80
409.567	86
409.791	92
410.014	84
410.238	87
410.461	84
410.685	82
410.908	84
411.132	95
411.355	90
411.578	94
411.802	87
412.025	75
412.249	94
412.472	88
412.695	104
412.919	87
413.142	104
413.365	88
413.589	80
413.812	104
414.035	95
414.258	93
414.482	101
414.705	92
414.928	84
415.151	89
415.374	110
415.597	83
415.821	84
416.044	88
416.267	85
416.49	102
416.713	79
416.936	90
417.159	88
417.382	79
417.605	108
417.828	94
418.051	93
418.274	87
418.497	98
418.72	103
418.943	87
419.166	90
419.389	113
419.611	91
419.834	89
420.057	91
420.28	89
420.503	86
420.726	84
420.948	94
421.171	81
421.394	78
421.617	83
421.839	87
422.062	78
422.285	99
422.507	94
422.73	96
422.953	101
423.175	93
423.398	92
423.621	101
423.843	76
424.066	90
424.288	79
424.511	87
424.733	95
424.956	106
425.178	96
425.401	100
425.623	93
425.846	92
426.068	95
426.291	81
426.513	94
426.735	98
426.958	91
427.18	106
427.402	122
427.625	170
427.847	150
428.069	142
428.292	92
428.514	86
428.736	82
428.958	81
429.181	82
429.403	64
429.625	79
429.847	99
430.069	100
430.292	84
430.514	76
430.736	81
430.958	71
431.18	83
431.402	90
431.624	89
431.846	81
432.068	74
432.29	85
432.512	79
432.734	92
432.956	100
433.178	87
433.4	97
433.622	88
433.844	94
434.066	81
434.287	97
434.509	92
434.731	86
434.953	88
435.175	103
435.397	83
435.618	92
435.84	100
436.062	125
436.284	102
436.505	92
436.727	100
436.949	94
437.17	72
437.392	69
437.614	86
437.835	102
438.057	106
438.278	114
438.5	87
438.721	112
438.943	83
439.165	104
439.386	102
439.608	91
439.829	94
440.05	123
440.272	125
440.493	106
440.715	89
440.936	74
441.158	92
441.379	86
441.6	74
441.822	98
442.043	102
442.264	104
442.486	100
442.707	97
442.928	87
443.149	119
443.371	136
443.592	97
443.813	110
444.034	108
444.255	82
444.476	100
444.698	98
444.919	91
445.14	123
445.361	137
445.582	112
445.803	124
446.024	116
446.245	127
446.466	103
446.687	96
446.908	90
447.129	88
447.35	87
447.571	112
447.792	93
448.013	100
448.234	97
448.455	88
448.675	111
448.896	116
449.117	78
449.338	96
449.559	130
449.779	122
450	92
450.221	88
450.442	88
450.662	98
450.883	94
451.104	118
451.324	95
451.545	82
451.766	87
451.986	78
452.207	100
452.428	91
452.648	84
452.869	115
453.089	101
453.31	116
453.53	85
453.751	94
453.971	100
454.192	116
454.412	89
454.633	80
454.853	95
455.073	75
455.294	87
455.514	95
455.734	82
455.955	83
456.175	88
456.395	92
456.616	83
456.836	87
457.056	86
457.276	91
457.497	86
457.717	71
457.937	96
458.157	99
458.377	102
458.598	91
458.818	125
459.038	159
459.258	102
459.478	92
459.698	85
459.918	87
460.138	92
460.358	79
460.578	89
460.798	98
461.018	79
461.238	77
461.458	88
461.678	90
461.898	87
462.118	101
462.338	88
462.558	93
462.777	92
462.997	85
463.217	96
463.437	92
463.657	83
463.876	89
464.096	86
464.316	91
464.536	78
464.755	88
464.975	106
465.195	139
465.414	140
465.634	96
465.854	90
466.073	81
466.293	94
466.512	72
466.732	74
466.951	91
467.171	103
467.391	101
467.61	94
467.829	114
468.049	144
468.268	191
468.488	115
468.707	96
468.927	83
469.146	92
469.365	75
469.585	94
469.804	96
470.023	82
470.243	96
470.462	99
470.681	111
470.901	89
471.12	94
471.339	88
471.558	81
471.777	83
471.997	108
472.216	230
472.435	374
472.654	138
472.873	88
473.092	72
473.311	95
473.53	78
473.749	79
473.968	90
474.187	98
474.406	93
474.625	88
474.844	83
475.063	95
475.282	84
475.501	84
475.72	91
475.939	95
476.158	92
476.377	94
476.596	95
476.814	76
477.033	92
477.252	98
477.471	94
477.69	81
477.908	82
478.127	102
478.346	89
478.564	88
478.783	88
479.002	92
479.22	95
479.439	109
479.658	88
479.876	91
480.095	90
480.313	89
480.532	91
480.751	106
480.969	223
481.188	621
481.406	435
481.624	141
481.843	98
482.061	84
482.28	93
482.498	90
482.717	80
482.935	91
483.153	77
483.372	79
483.59	87
483.808	92
484.027	87
484.245	81
484.463	110
484.681	93
484.9	94
485.118	85
485.336	93
485.554	103
485.772	94
485.99	94
486.209	88
486.427	110
486.645	116
486.863	108
487.081	101
487.299	92
487.517	100
487.735	96
487.953	97
488.171	101
488.389	93
488.607	91
488.825	99
489.043	91
489.261	90
489.479	92
489.696	103
489.914	92
490.132	75
490.35	90
490.568	94
490.786	99
491.003	89
491.221	92
491.439	84
491.657	98
491.874	88
492.092	92
492.31	99
492.527	101
492.745	72
492.963	96
493.18	89
493.398	78
493.615	87
493.833	95
494.05	99
494.268	99
494.485	90
494.703	77
494.92	87
495.138	90
495.355	67
495.573	99
495.79	93
496.008	90
496.225	108
496.442	88
496.66	87
496.877	83
497.094	78
497.312	93
497.529	82
497.746	88
497.963	94
498.181	90
498.398	96
498.615	106
498.832	99
499.049	90
499.267	87
499.484	83
499.701	86
499.918	98
500.135	91
500.352	82
500.569	86
500.786	93
501.003	102
501.22	85
501.437	87
501.654	99
501.871	115
502.088	92
502.305	85
502.522	81
502.739	91
502.956	94
503.172	83
503.389	89
503.606	100
503.823	96
504.04	79
504.256	85
504.473	88
504.69	98
504.907	100
505.123	86
505.34	90
505.557	94
505.773	101
505.99	104
506.207	76
506.423	87
506.64	82
506.856	79
507.073	95
507.289	86
507.506	99
507.722	110
507.939	115
508.155	103
508.372	87
508.588	84
508.805	90
509.021	92
509.238	92
509.454	85
509.67	99
509.887	103
510.103	133
510.319	193
510.536	648
510.752	1942
510.968	588
511.184	149
511.401	109
511.617	88
511.833	98
512.049	94
512.265	88
512.481	85
512.698	101
512.914	83
513.13	103
513.346	101
513.562	97
513.778	94
513.994	89
514.21	93
514.426	101
514.642	115
514.858	117
515.074	144
515.29	380
515.506	1211
515.721	457
515.937	148
516.153	105
516.369	110
516.585	81
516.801	93
517.016	93
517.232	94
517.448	89
517.664	92
517.879	92
518.095	108
518.311	103
518.527	86
518.742	85
518.958	80
519.173	81
519.389	87
519.605	102
519.82	106
520.036	101
520.251	106
520.467	98
520.682	105
520.898	103
521.113	92
521.329	120
521.544	170
521.76	463
521.975	1967
522.19	1228
522.406	289
522.621	132
522.836	103
523.052	98
523.267	90
523.482	83
523.698	79
523.913	97
524.128	107
524.343	82
524.559	97
524.774	90
524.989	94
525.204	100
525.419	116
525.634	100
525.849	81
526.064	88
526.28	97
526.495	88
526.71	91
526.925	82
527.14	80
527.355	94
527.57	90
527.785	85
527.999	86
528.214	92
528.429	83
528.644	100
528.859	77
529.074	92
529.289	115
529.503	176
529.718	103
529.933	81
530.148	100
530.363	102
530.577	91
530.792	87
531.007	69
531.221	94
531.436	80
531.651	94
531.865	93
532.08	81
532.295	87
532.509	86
532.724	110
532.938	98
533.153	102
533.367	102
533.582	82
533.796	82
534.011	84
534.225	95
534.44	94
534.654	79
534.868	72
535.083	88
535.297	95
535.511	98
535.726	98
535.94	117
536.154	112
536.369	80
536.583	96
536.797	88
537.011	94
537.225	88
537.44	81
537.654	88
537.868	87
538.082	84
538.296	91
538.51	89
538.724	104
538.938	87
539.153	80
539.367	105
539.581	92
539.795	81
540.009	93
540.222	83
540.436	92
540.65	91
540.864	87
541.078	99
541.292	83
541.506	76
541.72	87
541.934	81
542.147	100
542.361	103
542.575	101
542.789	82
543.002	86
543.216	91
543.43	93
543.644	97
543.857	99
544.071	99
544.285	91
544.498	81
544.712	98
544.925	83
545.139	77
545.352	92
545.566	94
545.779	84
545.993	114
546.206	96
546.42	91
546.633	85
546.847	84
547.06	85
547.274	81
547.487	104
547.7	94
547.914	79
548.127	79
548.34	85
548.554	88
548.767	81
548.98	93
549.193	86
549.407	79
549.62	88
549.833	79
550.046	91
550.259	96
550.473	104
550.686	70
550.899	80
551.112	92
551.325	100
551.538	86
551.751	83
551.964	68
552.177	84
552.39	95
552.603	83
552.816	86
553.029	85
553.242	86
553.455	84
553.667	109
553.88	103
554.093	96
554.306	88
554.519	96
554.732	84
554.944	92
555.157	92
555.37	86
555.583	96
555.795	87
556.008	100
556.221	76
556.433	96
556.646	83
556.859	84
557.071	86
557.284	88
557.496	94
557.709	78
557.921	79
558.134	101
558.346	85
558.559	92
558.771	107
558.984	95
559.196	91
559.409	93
559.621	85
559.833	88
560.046	84
560.258	86
560.47	73
560.683	98
560.895	84
561.107	72
561.32	86
561.532	79
561.744	82
561.956	90
562.168	85
562.381	95
562.593	85
562.805	91
563.017	86
563.229	87
563.441	91
563.653	80
563.865	80
564.077	78
564.289	101
564.501	93
564.713	88
564.925	99
565.137	82
565.349	92
565.561	88
565.773	96
565.985	86
566.197	88
566.408	107
566.62	85
566.832	66
567.044	81
567.255	91
567.467	93
567.679	100
567.891	88
568.102	78
568.314	96
568.526	88
568.737	90
568.949	90
569.161	83
569.372	81
569.584	88
569.795	99
570.007	103
570.218	212
570.43	117
570.641	99
570.853	86
571.064	84
571.276	102
571.487	83
571.698	92
571.91	88
572.121	87
572.333	82
572.544	91
572.755	78
572.966	97
573.178	68
573.389	99
573.6	97
573.811	87
574.023	73
574.234	83
574.445	84
574.656	90
574.867	74
575.078	77
575.289	75
575.501	71
575.712	74
575.923	80
576.134	88
576.345	91
576.556	105
576.767	102
576.978	102
577.188	80
577.399	91
577.61	84
577.821	84
578.032	92
578.243	217
578.454	640
578.665	194
578.875	106
579.086	103
579.297	73
579.508	89
579.718	96
579.929	98
580.14	85
580.35	98
580.561	83
580.772	77
580.982	93
581.193	85
581.403	78
581.614	94
581.825	86
582.035	88
582.246	76
582.456	78
582.667	83
582.877	92
583.087	75
583.298	86
583.508	78
583.719	89
583.929	86
584.139	90
584.35	88
584.56	86
584.77	88
584.981	92
