Data from Circ_2005_H10_HRD10591_00066.txt Node
Date: Wed Jan 03 10:30:04 EST 2024
User: Yrep
Spectrometer: HR+D1059
Trigger mode: 1
Integration Time (sec): 1.000000E-1
Scans to average: 1
Electric dark correction enabled: true
Nonlinearity correction enabled: false
Boxcar width: 0
XAxis mode: Wavelengths
Number of Pixels in Spectrum: 2048
>>>>>Begin Spectral Data<<<<<
223.165	-21.12
223.4	-21.12
223.635	-21.12
223.869	-23.12
224.104	-16.12
224.338	-1.12
224.573	-15.12
224.808	-7.12
225.042	2.88
225.277	1.88
225.511	2.88
225.746	-12.12
225.98	8.88
226.215	3.88
226.449	6.88
226.683	21.88
226.918	16.88
227.152	29.88
227.387	26.88
227.621	29.88
227.856	47.88
228.09	45.88
228.324	56.88
228.559	58.88
228.793	52.88
229.027	58.88
229.262	86.88
229.496	72.88
229.73	70.88
229.964	69.88
230.199	78.88
230.433	66.88
230.667	76.88
230.901	67.88
231.136	73.88
231.37	78.88
231.604	74.88
231.838	84.88
232.072	85.88
232.306	76.88
232.541	80.88
232.775	73.88
233.009	71.88
233.243	91.88
233.477	70.88
233.711	80.88
233.945	71.88
234.179	78.88
234.413	71.88
234.647	83.88
234.881	80.88
235.115	69.88
235.349	68.88
235.583	87.88
235.817	78.88
236.051	84.88
236.285	72.88
236.519	82.88
236.753	84.88
236.987	72.88
237.221	87.88
237.455	90.88
237.689	75.88
237.922	83.88
238.156	68.88
238.39	69.88
238.624	72.88
238.858	80.88
239.091	75.88
239.325	88.88
239.559	83.88
239.793	66.88
240.027	75.88
240.26	73.88
240.494	70.88
240.728	71.88
240.961	79.88
241.195	81.88
241.429	67.88
241.662	64.88
241.896	73.88
242.13	96.88
242.363	79.88
242.597	73.88
242.83	67.88
243.064	79.88
243.298	82.88
243.531	77.88
243.765	75.88
243.998	87.88
244.232	80.88
244.465	83.88
244.699	70.88
244.932	82.88
245.166	85.88
245.399	79.88
245.633	78.88
245.866	76.88
246.099	79.88
246.333	67.88
246.566	76.88
246.8	84.88
247.033	75.88
247.266	77.88
247.5	80.88
247.733	79.88
247.966	72.88
248.2	82.88
248.433	80.88
248.666	80.88
248.899	84.88
249.133	89.88
249.366	97.88
249.599	84.88
249.832	82.88
250.066	84.88
250.299	66.88
250.532	72.88
250.765	82.88
250.998	84.88
251.231	75.88
251.465	77.88
251.698	83.88
251.931	79.88
252.164	61.88
252.397	77.88
252.63	75.88
252.863	63.88
253.096	70.88
253.329	81.88
253.562	72.88
253.795	74.88
254.028	83.88
254.261	83.88
254.494	88.88
254.727	70.88
254.96	76.88
255.193	79.88
255.426	67.88
255.659	70.88
255.892	78.88
256.124	75.88
256.357	73.88
256.59	68.88
256.823	67.88
257.056	91.88
257.289	80.88
257.521	84.88
257.754	67.88
257.987	67.88
258.22	83.88
258.452	80.88
258.685	78.88
258.918	70.88
259.151	66.88
259.383	74.88
259.616	79.88
259.849	68.88
260.081	88.88
260.314	91.88
260.547	74.88
260.779	68.88
261.012	92.88
261.244	77.88
261.477	94.88
261.71	83.88
261.942	114.88
262.175	114.88
262.407	78.88
262.64	82.88
262.872	82.88
263.105	79.88
263.337	75.88
263.57	83.88
263.802	78.88
264.035	84.88
264.267	81.88
264.499	69.88
264.732	64.88
264.964	67.88
265.197	80.88
265.429	97.88
265.661	92.88
265.894	75.88
266.126	77.88
266.358	80.88
266.591	80.88
266.823	73.88
267.055	84.88
267.287	77.88
267.52	86.88
267.752	77.88
267.984	86.88
268.216	81.88
268.448	72.88
268.681	75.88
268.913	84.88
269.145	81.88
269.377	85.88
269.609	76.88
269.841	86.88
270.073	76.88
270.306	91.88
270.538	79.88
270.77	67.88
271.002	84.88
271.234	89.88
271.466	77.88
271.698	70.88
271.93	81.88
272.162	72.88
272.394	80.88
272.626	72.88
272.858	74.88
273.09	92.88
273.322	89.88
273.553	76.88
273.785	94.88
274.017	81.88
274.249	85.88
274.481	78.88
274.713	67.88
274.945	85.88
275.176	80.88
275.408	79.88
275.64	91.88
275.872	89.88
276.104	93.88
276.335	96.88
276.567	93.88
276.799	97.88
277.031	91.88
277.262	105.88
277.494	90.88
277.726	79.88
277.957	84.88
278.189	102.88
278.421	84.88
278.652	82.88
278.884	99.88
279.115	86.88
279.347	89.88
279.579	85.88
279.81	96.88
280.042	80.88
280.273	96.88
280.505	90.88
280.736	85.88
280.968	96.88
281.199	89.88
281.431	68.88
281.662	87.88
281.894	69.88
282.125	101.88
282.356	108.88
282.588	123.88
282.819	121.88
283.051	83.88
283.282	68.88
283.513	89.88
283.745	77.88
283.976	85.88
284.207	89.88
284.439	88.88
284.67	101.88
284.901	71.88
285.132	77.88
285.364	72.88
285.595	82.88
285.826	80.88
286.057	79.88
286.288	76.88
286.52	77.88
286.751	81.88
286.982	79.88
287.213	94.88
287.444	87.88
287.675	92.88
287.906	89.88
288.138	87.88
288.369	83.88
288.6	81.88
288.831	83.88
289.062	85.88
289.293	93.88
289.524	89.88
289.755	78.88
289.986	83.88
290.217	80.88
290.448	89.88
290.679	71.88
290.91	85.88
291.141	80.88
291.371	81.88
291.602	81.88
291.833	86.88
292.064	65.88
292.295	96.88
292.526	97.88
292.757	97.88
292.987	100.88
293.218	89.88
293.449	83.88
293.68	92.88
293.91	80.88
294.141	82.88
294.372	80.88
294.603	88.88
294.833	76.88
295.064	86.88
295.295	99.88
295.525	86.88
295.756	80.88
295.987	100.88
296.217	139.88
296.448	95.88
296.679	96.88
296.909	92.88
297.14	83.88
297.37	93.88
297.601	89.88
297.831	86.88
298.062	93.88
298.292	85.88
298.523	102.88
298.753	84.88
298.984	93.88
299.214	89.88
299.445	99.88
299.675	82.88
299.905	90.88
300.136	86.88
300.366	89.88
300.597	97.88
300.827	90.88
301.057	99.88
301.288	106.88
301.518	92.88
301.748	56.88
301.979	84.88
302.209	85.88
302.439	75.88
302.669	94.88
302.9	80.88
303.13	67.88
303.36	93.88
303.59	106.88
303.82	100.88
304.051	98.88
304.281	97.88
304.511	92.88
304.741	80.88
304.971	88.88
305.201	83.88
305.431	85.88
305.661	88.88
305.891	104.88
306.121	87.88
306.352	108.88
306.582	87.88
306.812	96.88
307.042	83.88
307.272	100.88
307.502	98.88
307.731	93.88
307.961	87.88
308.191	80.88
308.421	95.88
308.651	73.88
308.881	91.88
309.111	96.88
309.341	99.88
309.571	91.88
309.8	90.88
310.03	97.88
310.26	105.88
310.49	111.88
310.72	85.88
310.949	110.88
311.179	90.88
311.409	99.88
311.639	97.88
311.868	87.88
312.098	85.88
312.328	89.88
312.557	96.88
312.787	87.88
313.017	94.88
313.246	91.88
313.476	83.88
313.706	86.88
313.935	86.88
314.165	97.88
314.394	90.88
314.624	88.88
314.853	92.88
315.083	89.88
315.312	88.88
315.542	99.88
315.771	89.88
316.001	92.88
316.23	98.88
316.46	82.88
316.689	83.88
316.919	96.88
317.148	91.88
317.377	89.88
317.607	91.88
317.836	89.88
318.065	78.88
318.295	76.88
318.524	89.88
318.753	88.88
318.983	87.88
319.212	100.88
319.441	106.88
319.67	100.88
319.9	76.88
320.129	93.88
320.358	97.88
320.587	92.88
320.816	91.88
321.046	99.88
321.275	99.88
321.504	75.88
321.733	86.88
321.962	90.88
322.191	95.88
322.42	108.88
322.649	99.88
322.878	111.88
323.108	110.88
323.337	107.88
323.566	117.88
323.795	134.88
324.024	191.88
324.253	376.88
324.482	760.88
324.71	1558.88
324.939	2007.88
325.168	766.88
325.397	243.88
325.626	138.88
325.855	128.88
326.084	130.88
326.313	128.88
326.542	141.88
326.77	202.88
326.999	423.88
327.228	877.88
327.457	1569.88
327.686	1251.88
327.914	353.88
328.143	189.88
328.372	161.88
328.6	116.88
328.829	111.88
329.058	118.88
329.287	115.88
329.515	111.88
329.744	122.88
329.972	118.88
330.201	160.88
330.43	190.88
330.658	163.88
330.887	130.88
331.115	122.88
331.344	85.88
331.572	98.88
331.801	109.88
332.03	90.88
332.258	94.88
332.486	91.88
332.715	79.88
332.943	83.88
333.172	82.88
333.4	101.88
333.629	94.88
333.857	105.88
334.085	124.88
334.314	159.88
334.542	200.88
334.771	194.88
334.999	100.88
335.227	95.88
335.455	85.88
335.684	90.88
335.912	84.88
336.14	107.88
336.369	96.88
336.597	87.88
336.825	85.88
337.053	97.88
337.281	101.88
337.51	90.88
337.738	76.88
337.966	101.88
338.194	94.88
338.422	96.88
338.65	92.88
338.878	90.88
339.106	77.88
339.334	92.88
339.562	86.88
339.79	85.88
340.018	91.88
340.246	89.88
340.474	95.88
340.702	83.88
340.93	74.88
341.158	90.88
341.386	98.88
341.614	74.88
341.842	97.88
342.07	88.88
342.298	84.88
342.526	88.88
342.754	86.88
342.981	90.88
343.209	80.88
343.437	98.88
343.665	92.88
343.893	94.88
344.12	96.88
344.348	103.88
344.576	91.88
344.804	93.88
345.031	81.88
345.259	81.88
345.487	84.88
345.714	85.88
345.942	94.88
346.17	84.88
346.397	87.88
346.625	95.88
346.853	86.88
347.08	95.88
347.308	110.88
347.535	85.88
347.763	99.88
347.99	95.88
348.218	98.88
348.445	109.88
348.673	98.88
348.9	87.88
349.128	98.88
349.355	86.88
349.583	90.88
349.81	91.88
350.037	81.88
350.265	105.88
350.492	95.88
350.72	105.88
350.947	97.88
351.174	108.88
351.402	122.88
351.629	96.88
351.856	97.88
352.083	99.88
352.311	96.88
352.538	91.88
352.765	102.88
352.992	94.88
353.22	95.88
353.447	116.88
353.674	104.88
353.901	88.88
354.128	89.88
354.355	81.88
354.583	96.88
354.81	94.88
355.037	86.88
355.264	100.88
355.491	86.88
355.718	97.88
355.945	105.88
356.172	99.88
356.399	84.88
356.626	85.88
356.853	86.88
357.08	83.88
357.307	88.88
357.534	92.88
357.761	97.88
357.988	92.88
358.215	92.88
358.441	101.88
358.668	85.88
358.895	89.88
359.122	75.88
359.349	93.88
359.576	86.88
359.802	74.88
360.029	108.88
360.256	101.88
360.483	90.88
360.709	79.88
360.936	76.88
361.163	84.88
361.39	81.88
361.616	96.88
361.843	69.88
362.07	82.88
362.296	92.88
362.523	91.88
362.749	79.88
362.976	91.88
363.203	94.88
363.429	88.88
363.656	75.88
363.882	90.88
364.109	91.88
364.335	82.88
364.562	85.88
364.788	95.88
365.015	81.88
365.241	91.88
365.468	100.88
365.694	118.88
365.92	96.88
366.147	84.88
366.373	83.88
366.599	84.88
366.826	71.88
367.052	96.88
367.278	86.88
367.505	89.88
367.731	98.88
367.957	90.88
368.184	93.88
368.41	105.88
368.636	97.88
368.862	103.88
369.089	100.88
369.315	85.88
369.541	84.88
369.767	83.88
369.993	98.88
370.219	91.88
370.445	86.88
370.672	94.88
370.898	98.88
371.124	81.88
371.35	87.88
371.576	71.88
371.802	80.88
372.028	90.88
372.254	88.88
372.48	93.88
372.706	74.88
372.932	86.88
373.158	86.88
373.384	86.88
373.61	91.88
373.835	84.88
374.061	81.88
374.287	81.88
374.513	88.88
374.739	86.88
374.965	93.88
375.191	82.88
375.416	78.88
375.642	91.88
375.868	86.88
376.094	100.88
376.319	86.88
376.545	92.88
376.771	83.88
376.997	96.88
377.222	85.88
377.448	111.88
377.674	97.88
377.899	88.88
378.125	87.88
378.35	104.88
378.576	86.88
378.802	80.88
379.027	74.88
379.253	85.88
379.478	90.88
379.704	92.88
379.929	92.88
380.155	101.88
380.38	90.88
380.606	101.88
380.831	90.88
381.057	88.88
381.282	107.88
381.507	87.88
381.733	101.88
381.958	95.88
382.184	91.88
382.409	101.88
382.634	108.88
382.86	93.88
383.085	100.88
383.31	105.88
383.535	91.88
383.761	99.88
383.986	94.88
384.211	100.88
384.436	100.88
384.662	87.88
384.887	98.88
385.112	102.88
385.337	91.88
385.562	106.88
385.787	107.88
386.013	107.88
386.238	92.88
386.463	103.88
386.688	107.88
386.913	102.88
387.138	101.88
387.363	98.88
387.588	89.88
387.813	91.88
388.038	95.88
388.263	117.88
388.488	104.88
388.713	102.88
388.938	90.88
389.163	86.88
389.387	80.88
389.612	86.88
389.837	91.88
390.062	83.88
390.287	72.88
390.512	98.88
390.736	78.88
390.961	98.88
391.186	92.88
391.411	99.88
391.636	99.88
391.86	96.88
392.085	91.88
392.31	83.88
392.534	80.88
392.759	80.88
392.984	88.88
393.208	83.88
393.433	84.88
393.658	83.88
393.882	73.88
394.107	101.88
394.331	86.88
394.556	80.88
394.78	102.88
395.005	94.88
395.229	81.88
395.454	72.88
395.678	76.88
395.903	74.88
396.127	91.88
396.352	72.88
396.576	78.88
396.801	75.88
397.025	78.88
397.249	88.88
397.474	83.88
397.698	83.88
397.922	78.88
398.147	79.88
398.371	93.88
398.595	82.88
398.82	88.88
399.044	86.88
399.268	74.88
399.492	85.88
399.717	97.88
399.941	90.88
400.165	83.88
400.389	84.88
400.613	85.88
400.837	97.88
401.062	97.88
401.286	74.88
401.51	93.88
401.734	92.88
401.958	107.88
402.182	114.88
402.406	163.88
402.63	106.88
402.854	88.88
403.078	90.88
403.302	85.88
403.526	89.88
403.75	75.88
403.974	81.88
404.198	79.88
404.422	88.88
404.645	94.88
404.869	83.88
405.093	94.88
405.317	82.88
405.541	83.88
405.765	85.88
405.988	106.88
406.212	144.88
406.436	208.88
406.66	138.88
406.883	99.88
407.107	96.88
407.331	97.88
407.555	92.88
407.778	97.88
408.002	70.88
408.226	99.88
408.449	80.88
408.673	81.88
408.896	101.88
409.12	100.88
409.344	85.88
409.567	87.88
409.791	89.88
410.014	90.88
410.238	85.88
410.461	95.88
410.685	99.88
410.908	96.88
411.132	101.88
411.355	104.88
411.578	97.88
411.802	89.88
412.025	83.88
412.249	88.88
412.472	91.88
412.695	84.88
412.919	90.88
413.142	91.88
413.365	86.88
413.589	92.88
413.812	96.88
414.035	80.88
414.258	84.88
414.482	77.88
414.705	76.88
414.928	97.88
415.151	83.88
415.374	89.88
415.597	78.88
415.821	93.88
416.044	88.88
416.267	87.88
416.49	90.88
416.713	79.88
416.936	84.88
417.159	85.88
417.382	73.88
417.605	87.88
417.828	92.88
418.051	90.88
418.274	83.88
418.497	77.88
418.72	83.88
418.943	82.88
419.166	86.88
419.389	80.88
419.611	74.88
419.834	86.88
420.057	78.88
420.28	76.88
420.503	82.88
420.726	75.88
420.948	79.88
421.171	95.88
421.394	93.88
421.617	80.88
421.839	83.88
422.062	92.88
422.285	92.88
422.507	92.88
422.73	97.88
422.953	101.88
423.175	92.88
423.398	93.88
423.621	85.88
423.843	88.88
424.066	75.88
424.288	88.88
424.511	89.88
424.733	84.88
424.956	82.88
425.178	109.88
425.401	106.88
425.623	96.88
425.846	70.88
426.068	82.88
426.291	76.88
426.513	79.88
426.735	82.88
426.958	95.88
427.18	92.88
427.402	126.88
427.625	147.88
427.847	137.88
428.069	113.88
428.292	94.88
428.514	86.88
428.736	90.88
428.958	78.88
429.181	84.88
429.403	78.88
429.625	96.88
429.847	104.88
430.069	89.88
430.292	99.88
430.514	76.88
430.736	82.88
430.958	86.88
431.18	91.88
431.402	98.88
431.624	100.88
431.846	90.88
432.068	80.88
432.29	87.88
432.512	73.88
432.734	88.88
432.956	84.88
433.178	90.88
433.4	87.88
433.622	98.88
433.844	96.88
434.066	80.88
434.287	90.88
434.509	85.88
434.731	90.88
434.953	93.88
435.175	84.88
435.397	80.88
435.618	79.88
435.84	104.88
436.062	118.88
436.284	101.88
436.505	90.88
436.727	98.88
436.949	90.88
437.17	84.88
437.392	85.88
437.614	85.88
437.835	95.88
438.057	110.88
438.278	96.88
438.5	115.88
438.721	109.88
438.943	90.88
439.165	81.88
439.386	92.88
439.608	92.88
439.829	92.88
440.05	131.88
440.272	125.88
440.493	102.88
440.715	92.88
440.936	94.88
441.158	97.88
441.379	78.88
441.6	96.88
441.822	91.88
442.043	90.88
442.264	85.88
442.486	89.88
442.707	83.88
442.928	91.88
443.149	129.88
443.371	111.88
443.592	97.88
443.813	107.88
444.034	112.88
444.255	87.88
444.476	70.88
444.698	77.88
444.919	90.88
445.14	136.88
445.361	117.88
445.582	98.88
445.803	115.88
446.024	120.88
446.245	136.88
446.466	111.88
446.687	88.88
446.908	86.88
447.129	83.88
447.35	85.88
447.571	82.88
447.792	81.88
448.013	95.88
448.234	117.88
448.455	95.88
448.675	100.88
448.896	101.88
449.117	92.88
449.338	108.88
449.559	110.88
449.779	118.88
450	96.88
450.221	93.88
450.442	78.88
450.662	96.88
450.883	102.88
451.104	107.88
451.324	95.88
451.545	88.88
451.766	84.88
451.986	67.88
452.207	81.88
452.428	80.88
452.648	103.88
452.869	94.88
453.089	110.88
453.31	108.88
453.53	92.88
453.751	85.88
453.971	96.88
454.192	93.88
454.412	83.88
454.633	90.88
454.853	87.88
455.073	96.88
455.294	81.88
455.514	85.88
455.734	84.88
455.955	81.88
456.175	76.88
456.395	88.88
456.616	88.88
456.836	69.88
457.056	73.88
457.276	77.88
457.497	78.88
457.717	78.88
457.937	71.88
458.157	87.88
458.377	86.88
458.598	88.88
458.818	135.88
459.038	147.88
459.258	101.88
459.478	96.88
459.698	107.88
459.918	81.88
460.138	86.88
460.358	82.88
460.578	76.88
460.798	79.88
461.018	82.88
461.238	81.88
461.458	74.88
461.678	76.88
461.898	78.88
462.118	74.88
462.338	82.88
462.558	80.88
462.777	79.88
462.997	87.88
463.217	95.88
463.437	82.88
463.657	82.88
463.876	69.88
464.096	80.88
464.316	84.88
464.536	92.88
464.755	90.88
464.975	103.88
465.195	151.88
465.414	151.88
465.634	102.88
465.854	87.88
466.073	85.88
466.293	84.88
466.512	80.88
466.732	94.88
466.951	95.88
467.171	81.88
467.391	96.88
467.61	94.88
467.829	98.88
468.049	113.88
468.268	132.88
468.488	92.88
468.707	82.88
468.927	92.88
469.146	85.88
469.365	81.88
469.585	88.88
469.804	90.88
470.023	93.88
470.243	86.88
470.462	97.88
470.681	96.88
470.901	83.88
471.12	71.88
471.339	88.88
471.558	74.88
471.777	84.88
471.997	100.88
472.216	172.88
472.435	290.88
472.654	133.88
472.873	94.88
473.092	88.88
473.311	93.88
473.53	97.88
473.749	83.88
473.968	83.88
474.187	103.88
474.406	92.88
474.625	82.88
474.844	94.88
475.063	90.88
475.282	105.88
475.501	97.88
475.72	86.88
475.939	69.88
476.158	93.88
476.377	74.88
476.596	85.88
476.814	96.88
477.033	88.88
477.252	93.88
477.471	79.88
477.69	80.88
477.908	68.88
478.127	82.88
478.346	76.88
478.564	96.88
478.783	88.88
479.002	99.88
479.22	77.88
479.439	90.88
479.658	109.88
479.876	104.88
480.095	87.88
480.313	92.88
480.532	87.88
480.751	105.88
480.969	159.88
481.188	438.88
481.406	300.88
481.624	110.88
481.843	79.88
482.061	91.88
482.28	85.88
482.498	84.88
482.717	93.88
482.935	90.88
483.153	83.88
483.372	76.88
483.59	90.88
483.808	87.88
484.027	97.88
484.245	82.88
484.463	85.88
484.681	98.88
484.9	92.88
485.118	96.88
485.336	90.88
485.554	92.88
485.772	85.88
485.99	98.88
486.209	95.88
486.427	103.88
486.645	96.88
486.863	93.88
487.081	107.88
487.299	91.88
487.517	75.88
487.735	78.88
487.953	86.88
488.171	95.88
488.389	108.88
488.607	93.88
488.825	93.88
489.043	93.88
489.261	94.88
489.479	90.88
489.696	85.88
489.914	84.88
490.132	85.88
490.35	78.88
490.568	88.88
490.786	73.88
491.003	86.88
491.221	92.88
491.439	97.88
491.657	73.88
491.874	85.88
492.092	97.88
492.31	95.88
492.527	74.88
492.745	70.88
492.963	99.88
493.18	88.88
493.398	98.88
493.615	89.88
493.833	101.88
494.05	100.88
494.268	86.88
494.485	95.88
494.703	98.88
494.92	84.88
495.138	76.88
495.355	83.88
495.573	89.88
495.79	88.88
496.008	92.88
496.225	85.88
496.442	88.88
496.66	88.88
496.877	89.88
497.094	98.88
497.312	96.88
497.529	84.88
497.746	80.88
497.963	78.88
498.181	95.88
498.398	79.88
498.615	111.88
498.832	97.88
499.049	84.88
499.267	84.88
499.484	87.88
499.701	86.88
499.918	86.88
500.135	94.88
500.352	93.88
500.569	82.88
500.786	74.88
501.003	89.88
501.22	90.88
501.437	87.88
501.654	88.88
501.871	103.88
502.088	94.88
502.305	94.88
502.522	93.88
502.739	83.88
502.956	83.88
503.172	84.88
503.389	82.88
503.606	80.88
503.823	91.88
504.04	99.88
504.256	88.88
504.473	71.88
504.69	92.88
504.907	101.88
505.123	86.88
505.34	77.88
505.557	85.88
505.773	87.88
505.99	86.88
506.207	91.88
506.423	79.88
506.64	85.88
506.856	89.88
507.073	79.88
507.289	77.88
507.506	94.88
507.722	117.88
507.939	93.88
508.155	86.88
508.372	78.88
508.588	74.88
508.805	89.88
509.021	88.88
509.238	92.88
509.454	92.88
509.67	91.88
509.887	103.88
510.103	111.88
510.319	196.88
510.536	691.88
510.752	2249.88
510.968	634.88
511.184	143.88
511.401	116.88
511.617	95.88
511.833	85.88
512.049	84.88
512.265	88.88
512.481	85.88
512.698	92.88
512.914	82.88
513.13	86.88
513.346	104.88
513.562	93.88
513.778	96.88
513.994	84.88
514.21	90.88
514.426	112.88
514.642	128.88
514.858	112.88
515.074	148.88
515.29	406.88
515.506	1348.88
515.721	514.88
515.937	147.88
516.153	117.88
516.369	90.88
516.585	100.88
516.801	76.88
517.016	90.88
