Data from Circ_2005_H10_HRD10591_00076.txt Node
Date: Wed Jan 03 10:30:06 EST 2024
User: Yrep
Spectrometer: HR+D1059
Trigger mode: 1
Integration Time (sec): 1.000000E-1
Scans to average: 1
Electric dark correction enabled: true
Nonlinearity correction enabled: false
Boxcar width: 0
XAxis mode: Wavelengths
Number of Pixels in Spectrum: 2048
>>>>>Begin Spectral Data<<<<<
223.165	-2.81
223.4	-2.81
223.635	-2.81
223.869	-13.81
224.104	-14.81
224.338	-28.81
224.573	-17.81
224.808	-14.81
225.042	-5.81
225.277	-4.81
225.511	3.19
225.746	14.19
225.98	6.19
226.215	7.19
226.449	18.19
226.683	8.19
226.918	12.19
227.152	34.19
227.387	25.19
227.621	32.19
227.856	41.19
228.09	52.19
228.324	38.19
228.559	55.19
228.793	55.19
229.027	66.19
229.262	84.19
229.496	75.19
229.73	77.19
229.964	82.19
230.199	76.19
230.433	69.19
230.667	60.19
230.901	76.19
231.136	82.19
231.37	76.19
231.604	87.19
231.838	69.19
232.072	85.19
232.306	82.19
232.541	74.19
232.775	88.19
233.009	78.19
233.243	83.19
233.477	72.19
233.711	90.19
233.945	82.19
234.179	78.19
234.413	86.19
234.647	74.19
234.881	99.19
235.115	72.19
235.349	76.19
235.583	88.19
235.817	75.19
236.051	76.19
236.285	71.19
236.519	75.19
236.753	68.19
236.987	85.19
237.221	79.19
237.455	68.19
237.689	90.19
237.922	83.19
238.156	70.19
238.39	62.19
238.624	69.19
238.858	68.19
239.091	76.19
239.325	87.19
239.559	83.19
239.793	68.19
240.027	71.19
240.26	80.19
240.494	64.19
240.728	78.19
240.961	70.19
241.195	71.19
241.429	87.19
241.662	90.19
241.896	78.19
242.13	75.19
242.363	62.19
242.597	67.19
242.83	74.19
243.064	76.19
243.298	78.19
243.531	67.19
243.765	75.19
243.998	88.19
244.232	70.19
244.465	72.19
244.699	83.19
244.932	82.19
245.166	81.19
245.399	80.19
245.633	66.19
245.866	67.19
246.099	78.19
246.333	82.19
246.566	72.19
246.8	71.19
247.033	77.19
247.266	102.19
247.5	83.19
247.733	76.19
247.966	77.19
248.2	78.19
248.433	68.19
248.666	74.19
248.899	68.19
249.133	86.19
249.366	97.19
249.599	87.19
249.832	74.19
250.066	79.19
250.299	87.19
250.532	79.19
250.765	68.19
250.998	84.19
251.231	91.19
251.465	89.19
251.698	82.19
251.931	80.19
252.164	87.19
252.397	78.19
252.63	79.19
252.863	78.19
253.096	80.19
253.329	77.19
253.562	74.19
253.795	85.19
254.028	74.19
254.261	72.19
254.494	80.19
254.727	80.19
254.96	72.19
255.193	79.19
255.426	88.19
255.659	87.19
255.892	76.19
256.124	87.19
256.357	95.19
256.59	88.19
256.823	77.19
257.056	89.19
257.289	86.19
257.521	88.19
257.754	92.19
257.987	79.19
258.22	86.19
258.452	88.19
258.685	93.19
258.918	80.19
259.151	82.19
259.383	72.19
259.616	86.19
259.849	79.19
260.081	86.19
260.314	78.19
260.547	91.19
260.779	92.19
261.012	88.19
261.244	74.19
261.477	78.19
261.71	92.19
261.942	112.19
262.175	106.19
262.407	101.19
262.64	60.19
262.872	72.19
263.105	86.19
263.337	99.19
263.57	83.19
263.802	77.19
264.035	70.19
264.267	91.19
264.499	94.19
264.732	76.19
264.964	82.19
265.197	84.19
265.429	84.19
265.661	78.19
265.894	82.19
266.126	81.19
266.358	81.19
266.591	77.19
266.823	77.19
267.055	71.19
267.287	88.19
267.52	71.19
267.752	81.19
267.984	82.19
268.216	73.19
268.448	101.19
268.681	83.19
268.913	80.19
269.145	85.19
269.377	87.19
269.609	84.19
269.841	79.19
270.073	95.19
270.306	86.19
270.538	89.19
270.77	81.19
271.002	97.19
271.234	79.19
271.466	90.19
271.698	90.19
271.93	101.19
272.162	86.19
272.394	86.19
272.626	77.19
272.858	91.19
273.09	88.19
273.322	86.19
273.553	76.19
273.785	89.19
274.017	81.19
274.249	84.19
274.481	83.19
274.713	86.19
274.945	72.19
275.176	76.19
275.408	80.19
275.64	91.19
275.872	86.19
276.104	87.19
276.335	88.19
276.567	95.19
276.799	98.19
277.031	90.19
277.262	83.19
277.494	93.19
277.726	74.19
277.957	84.19
278.189	88.19
278.421	94.19
278.652	82.19
278.884	83.19
279.115	87.19
279.347	82.19
279.579	99.19
279.81	86.19
280.042	96.19
280.273	95.19
280.505	88.19
280.736	83.19
280.968	83.19
281.199	80.19
281.431	87.19
281.662	78.19
281.894	85.19
282.125	102.19
282.356	119.19
282.588	139.19
282.819	99.19
283.051	76.19
283.282	98.19
283.513	85.19
283.745	83.19
283.976	82.19
284.207	68.19
284.439	85.19
284.67	77.19
284.901	94.19
285.132	91.19
285.364	79.19
285.595	82.19
285.826	86.19
286.057	80.19
286.288	71.19
286.52	90.19
286.751	84.19
286.982	83.19
287.213	86.19
287.444	76.19
287.675	95.19
287.906	97.19
288.138	83.19
288.369	91.19
288.6	92.19
288.831	82.19
289.062	84.19
289.293	91.19
289.524	88.19
289.755	96.19
289.986	94.19
290.217	81.19
290.448	84.19
290.679	104.19
290.91	80.19
291.141	83.19
291.371	78.19
291.602	78.19
291.833	65.19
292.064	83.19
292.295	101.19
292.526	76.19
292.757	78.19
292.987	76.19
293.218	88.19
293.449	83.19
293.68	101.19
293.91	84.19
294.141	96.19
294.372	82.19
294.603	94.19
294.833	90.19
295.064	91.19
295.295	90.19
295.525	87.19
295.756	98.19
295.987	116.19
296.217	135.19
296.448	121.19
296.679	83.19
296.909	87.19
297.14	90.19
297.37	86.19
297.601	99.19
297.831	102.19
298.062	93.19
298.292	89.19
298.523	89.19
298.753	91.19
298.984	83.19
299.214	96.19
299.445	87.19
299.675	84.19
299.905	76.19
300.136	77.19
300.366	80.19
300.597	75.19
300.827	93.19
301.057	92.19
301.288	100.19
301.518	94.19
301.748	98.19
301.979	105.19
302.209	87.19
302.439	77.19
302.669	79.19
302.9	95.19
303.13	97.19
303.36	83.19
303.59	99.19
303.82	100.19
304.051	87.19
304.281	89.19
304.511	87.19
304.741	91.19
304.971	78.19
305.201	95.19
305.431	89.19
305.661	77.19
305.891	75.19
306.121	91.19
306.352	85.19
306.582	96.19
306.812	108.19
307.042	93.19
307.272	87.19
307.502	101.19
307.731	88.19
307.961	102.19
308.191	95.19
308.421	98.19
308.651	95.19
308.881	86.19
309.111	84.19
309.341	104.19
309.571	92.19
309.8	73.19
310.03	94.19
310.26	102.19
310.49	99.19
310.72	88.19
310.949	92.19
311.179	89.19
311.409	93.19
311.639	96.19
311.868	98.19
312.098	104.19
312.328	104.19
312.557	106.19
312.787	99.19
313.017	96.19
313.246	101.19
313.476	87.19
313.706	92.19
313.935	78.19
314.165	77.19
314.394	96.19
314.624	89.19
314.853	100.19
315.083	81.19
315.312	85.19
315.542	80.19
315.771	85.19
316.001	90.19
316.23	94.19
316.46	73.19
316.689	84.19
316.919	99.19
317.148	100.19
317.377	103.19
317.607	86.19
317.836	83.19
318.065	85.19
318.295	87.19
318.524	97.19
318.753	92.19
318.983	87.19
319.212	84.19
319.441	105.19
319.67	102.19
319.9	75.19
320.129	92.19
320.358	74.19
320.587	79.19
320.816	90.19
321.046	101.19
321.275	111.19
321.504	91.19
321.733	86.19
321.962	100.19
322.191	112.19
322.42	100.19
322.649	117.19
322.878	109.19
323.108	112.19
323.337	110.19
323.566	136.19
323.795	147.19
324.024	197.19
324.253	354.19
324.482	744.19
324.71	1492.19
324.939	1934.19
325.168	720.19
325.397	224.19
325.626	129.19
325.855	122.19
326.084	117.19
326.313	115.19
326.542	152.19
326.77	212.19
326.999	436.19
327.228	861.19
327.457	1541.19
327.686	1194.19
327.914	345.19
328.143	195.19
328.372	168.19
328.6	131.19
328.829	115.19
329.058	116.19
329.287	136.19
329.515	109.19
329.744	95.19
329.972	124.19
330.201	153.19
330.43	192.19
330.658	130.19
330.887	106.19
331.115	122.19
331.344	93.19
331.572	93.19
331.801	88.19
332.03	96.19
332.258	119.19
332.486	84.19
332.715	87.19
332.943	101.19
333.172	88.19
333.4	90.19
333.629	115.19
333.857	111.19
334.085	104.19
334.314	155.19
334.542	212.19
334.771	209.19
334.999	124.19
335.227	103.19
335.455	91.19
335.684	87.19
335.912	98.19
336.14	94.19
336.369	102.19
336.597	85.19
336.825	94.19
337.053	91.19
337.281	91.19
337.51	89.19
337.738	105.19
337.966	104.19
338.194	101.19
338.422	103.19
338.65	88.19
338.878	98.19
339.106	102.19
339.334	93.19
339.562	97.19
339.79	92.19
340.018	97.19
340.246	81.19
340.474	94.19
340.702	90.19
340.93	92.19
341.158	88.19
341.386	77.19
341.614	86.19
341.842	103.19
342.07	93.19
342.298	97.19
342.526	88.19
342.754	71.19
342.981	98.19
343.209	94.19
343.437	105.19
343.665	90.19
343.893	76.19
344.12	94.19
344.348	77.19
344.576	99.19
344.804	84.19
345.031	86.19
345.259	92.19
345.487	87.19
345.714	74.19
345.942	87.19
346.17	96.19
346.397	100.19
346.625	89.19
346.853	89.19
347.08	83.19
347.308	104.19
347.535	107.19
347.763	92.19
347.99	95.19
348.218	95.19
348.445	106.19
348.673	84.19
348.9	93.19
349.128	92.19
349.355	90.19
349.583	97.19
349.81	89.19
350.037	94.19
350.265	93.19
350.492	101.19
350.72	85.19
350.947	95.19
351.174	96.19
351.402	88.19
351.629	85.19
351.856	93.19
352.083	96.19
352.311	94.19
352.538	99.19
352.765	104.19
352.992	100.19
353.22	100.19
353.447	94.19
353.674	93.19
353.901	87.19
354.128	84.19
354.355	99.19
354.583	103.19
354.81	92.19
355.037	103.19
355.264	96.19
355.491	89.19
355.718	79.19
355.945	79.19
356.172	87.19
356.399	97.19
356.626	106.19
356.853	92.19
357.08	91.19
357.307	91.19
357.534	88.19
357.761	88.19
357.988	92.19
358.215	89.19
358.441	91.19
358.668	80.19
358.895	80.19
359.122	91.19
359.349	83.19
359.576	94.19
359.802	80.19
360.029	101.19
360.256	96.19
360.483	98.19
360.709	92.19
360.936	100.19
361.163	86.19
361.39	96.19
361.616	86.19
361.843	79.19
362.07	95.19
362.296	86.19
362.523	79.19
362.749	104.19
362.976	99.19
363.203	85.19
363.429	100.19
363.656	95.19
363.882	79.19
364.109	95.19
364.335	101.19
364.562	92.19
364.788	89.19
365.015	88.19
365.241	97.19
365.468	113.19
365.694	105.19
365.92	99.19
366.147	86.19
366.373	92.19
366.599	83.19
366.826	72.19
367.052	94.19
367.278	93.19
367.505	81.19
367.731	97.19
367.957	90.19
368.184	82.19
368.41	85.19
368.636	101.19
368.862	101.19
369.089	115.19
369.315	77.19
369.541	83.19
369.767	112.19
369.993	78.19
370.219	84.19
370.445	95.19
370.672	89.19
370.898	86.19
371.124	99.19
371.35	81.19
371.576	76.19
371.802	96.19
372.028	87.19
372.254	80.19
372.48	86.19
372.706	80.19
372.932	103.19
373.158	81.19
373.384	83.19
373.61	94.19
373.835	81.19
374.061	85.19
374.287	98.19
374.513	79.19
374.739	78.19
374.965	81.19
375.191	90.19
375.416	94.19
375.642	86.19
375.868	81.19
376.094	85.19
376.319	88.19
376.545	86.19
376.771	92.19
376.997	99.19
377.222	81.19
377.448	78.19
377.674	92.19
377.899	88.19
378.125	88.19
378.35	87.19
378.576	101.19
378.802	101.19
379.027	78.19
379.253	91.19
379.478	96.19
379.704	98.19
379.929	85.19
380.155	83.19
380.38	106.19
380.606	87.19
380.831	98.19
381.057	92.19
381.282	105.19
381.507	80.19
381.733	99.19
381.958	82.19
382.184	89.19
382.409	103.19
382.634	101.19
382.86	97.19
383.085	91.19
383.31	92.19
383.535	100.19
383.761	97.19
383.986	109.19
384.211	106.19
384.436	93.19
384.662	94.19
384.887	87.19
385.112	114.19
385.337	97.19
385.562	106.19
385.787	93.19
386.013	88.19
386.238	117.19
386.463	97.19
386.688	109.19
386.913	106.19
387.138	100.19
387.363	89.19
387.588	92.19
387.813	106.19
388.038	109.19
388.263	101.19
388.488	89.19
388.713	86.19
388.938	90.19
389.163	93.19
389.387	87.19
389.612	99.19
389.837	98.19
390.062	100.19
390.287	93.19
390.512	98.19
390.736	93.19
390.961	70.19
391.186	93.19
391.411	99.19
391.636	85.19
391.86	88.19
392.085	84.19
392.31	80.19
392.534	93.19
392.759	88.19
392.984	91.19
393.208	101.19
393.433	90.19
393.658	76.19
393.882	84.19
394.107	70.19
394.331	88.19
394.556	77.19
394.78	93.19
395.005	79.19
395.229	78.19
395.454	82.19
395.678	93.19
395.903	94.19
396.127	97.19
396.352	84.19
396.576	83.19
396.801	81.19
397.025	88.19
397.249	98.19
397.474	89.19
397.698	98.19
397.922	87.19
398.147	87.19
398.371	82.19
398.595	98.19
398.82	84.19
399.044	86.19
399.268	92.19
399.492	79.19
399.717	80.19
399.941	94.19
400.165	83.19
400.389	81.19
400.613	68.19
400.837	79.19
401.062	78.19
401.286	88.19
401.51	81.19
401.734	88.19
401.958	90.19
402.182	122.19
402.406	149.19
402.63	105.19
402.854	90.19
403.078	82.19
403.302	98.19
403.526	92.19
403.75	87.19
403.974	78.19
404.198	81.19
404.422	81.19
404.645	91.19
404.869	104.19
405.093	126.19
405.317	110.19
405.541	112.19
405.765	108.19
405.988	111.19
406.212	156.19
406.436	202.19
406.66	136.19
406.883	101.19
407.107	94.19
407.331	98.19
407.555	106.19
407.778	105.19
408.002	104.19
408.226	77.19
408.449	86.19
408.673	93.19
408.896	94.19
409.12	88.19
409.344	92.19
409.567	88.19
409.791	91.19
410.014	87.19
410.238	105.19
410.461	71.19
410.685	91.19
410.908	90.19
411.132	93.19
411.355	93.19
411.578	95.19
411.802	92.19
412.025	72.19
412.249	81.19
412.472	79.19
412.695	94.19
412.919	99.19
413.142	76.19
413.365	78.19
413.589	77.19
413.812	93.19
414.035	88.19
414.258	86.19
414.482	80.19
414.705	71.19
414.928	76.19
415.151	97.19
415.374	90.19
415.597	77.19
415.821	91.19
416.044	90.19
416.267	83.19
416.49	91.19
416.713	95.19
416.936	99.19
417.159	81.19
417.382	75.19
417.605	86.19
417.828	78.19
418.051	89.19
418.274	86.19
418.497	90.19
418.72	77.19
418.943	83.19
419.166	102.19
419.389	82.19
419.611	87.19
419.834	86.19
420.057	94.19
420.28	75.19
420.503	87.19
420.726	93.19
420.948	105.19
421.171	82.19
421.394	82.19
421.617	85.19
421.839	68.19
422.062	75.19
422.285	85.19
422.507	95.19
422.73	96.19
422.953	95.19
423.175	94.19
423.398	82.19
423.621	86.19
423.843	92.19
424.066	85.19
424.288	88.19
424.511	85.19
424.733	80.19
424.956	98.19
425.178	93.19
425.401	95.19
425.623	92.19
425.846	86.19
426.068	97.19
426.291	96.19
426.513	94.19
426.735	80.19
426.958	87.19
427.18	99.19
427.402	127.19
427.625	150.19
427.847	119.19
428.069	122.19
428.292	92.19
428.514	70.19
428.736	83.19
428.958	74.19
429.181	77.19
429.403	88.19
429.625	80.19
429.847	78.19
430.069	98.19
430.292	91.19
430.514	81.19
430.736	80.19
430.958	78.19
431.18	87.19
431.402	106.19
431.624	76.19
431.846	89.19
432.068	98.19
432.29	95.19
432.512	84.19
432.734	87.19
432.956	99.19
433.178	93.19
433.4	86.19
433.622	85.19
433.844	85.19
434.066	102.19
434.287	103.19
434.509	79.19
434.731	88.19
434.953	77.19
435.175	83.19
435.397	80.19
435.618	101.19
435.84	102.19
436.062	118.19
436.284	103.19
436.505	99.19
436.727	110.19
436.949	86.19
437.17	88.19
437.392	91.19
437.614	93.19
437.835	100.19
438.057	110.19
438.278	101.19
438.5	117.19
438.721	102.19
438.943	109.19
439.165	100.19
439.386	93.19
439.608	80.19
439.829	97.19
440.05	115.19
440.272	118.19
440.493	82.19
440.715	84.19
440.936	93.19
441.158	97.19
441.379	94.19
441.6	97.19
441.822	92.19
442.043	94.19
442.264	90.19
442.486	106.19
442.707	83.19
442.928	101.19
443.149	120.19
443.371	116.19
443.592	112.19
443.813	99.19
444.034	98.19
444.255	94.19
444.476	77.19
444.698	92.19
444.919	84.19
445.14	119.19
445.361	111.19
445.582	103.19
445.803	114.19
446.024	124.19
446.245	132.19
446.466	99.19
446.687	91.19
446.908	87.19
447.129	76.19
447.35	90.19
447.571	85.19
447.792	98.19
448.013	86.19
448.234	99.19
448.455	103.19
448.675	106.19
448.896	116.19
449.117	111.19
449.338	86.19
449.559	107.19
449.779	133.19
450	92.19
450.221	92.19
450.442	79.19
450.662	94.19
450.883	103.19
451.104	96.19
451.324	89.19
451.545	92.19
451.766	95.19
451.986	96.19
452.207	79.19
452.428	93.19
452.648	102.19
452.869	113.19
453.089	116.19
453.31	93.19
453.53	93.19
453.751	81.19
453.971	90.19
454.192	106.19
454.412	99.19
454.633	84.19
454.853	94.19
455.073	103.19
455.294	71.19
455.514	87.19
455.734	89.19
455.955	87.19
456.175	95.19
456.395	78.19
456.616	83.19
456.836	82.19
457.056	94.19
457.276	71.19
457.497	93.19
457.717	80.19
457.937	85.19
458.157	91.19
458.377	86.19
458.598	89.19
458.818	119.19
459.038	156.19
459.258	117.19
459.478	80.19
459.698	69.19
459.918	90.19
460.138	84.19
460.358	70.19
460.578	85.19
460.798	84.19
461.018	85.19
461.238	89.19
461.458	77.19
461.678	88.19
461.898	75.19
462.118	97.19
462.338	84.19
462.558	87.19
462.777	91.19
462.997	81.19
463.217	90.19
463.437	88.19
463.657	74.19
463.876	84.19
464.096	80.19
464.316	89.19
464.536	83.19
464.755	94.19
464.975	94.19
465.195	141.19
465.414	152.19
465.634	96.19
465.854	80.19
466.073	87.19
466.293	71.19
466.512	89.19
466.732	76.19
466.951	66.19
467.171	93.19
467.391	103.19
467.61	96.19
467.829	91.19
468.049	123.19
468.268	131.19
468.488	87.19
468.707	84.19
468.927	98.19
469.146	92.19
469.365	88.19
469.585	73.19
469.804	88.19
470.023	93.19
470.243	81.19
470.462	96.19
470.681	92.19
470.901	86.19
471.12	80.19
471.339	96.19
471.558	94.19
471.777	74.19
471.997	97.19
472.216	171.19
472.435	272.19
472.654	94.19
472.873	85.19
473.092	87.19
473.311	100.19
473.53	74.19
473.749	84.19
473.968	94.19
474.187	96.19
474.406	95.19
474.625	90.19
474.844	100.19
475.063	87.19
475.282	79.19
475.501	86.19
475.72	75.19
475.939	72.19
476.158	74.19
476.377	84.19
476.596	100.19
476.814	91.19
477.033	94.19
477.252	96.19
477.471	85.19
477.69	91.19
477.908	87.19
478.127	83.19
478.346	85.19
478.564	87.19
478.783	94.19
479.002	76.19
479.22	90.19
479.439	100.19
479.658	110.19
479.876	96.19
480.095	79.19
480.313	89.19
480.532	94.19
480.751	112.19
480.969	164.19
481.188	417.19
481.406	284.19
481.624	117.19
481.843	99.19
482.061	92.19
482.28	88.19
482.498	95.19
482.717	93.19
482.935	80.19
483.153	78.19
483.372	90.19
483.59	97.19
483.808	90.19
484.027	100.19
484.245	78.19
484.463	98.19
484.681	95.19
484.9	79.19
485.118	102.19
485.336	79.19
485.554	94.19
485.772	100.19
485.99	96.19
486.209	91.19
486.427	103.19
486.645	111.19
486.863	96.19
487.081	99.19
487.299	85.19
487.517	95.19
487.735	103.19
487.953	92.19
488.171	92.19
488.389	90.19
488.607	79.19
488.825	92.19
489.043	90.19
489.261	95.19
489.479	94.19
489.696	88.19
489.914	84.19
490.132	83.19
490.35	82.19
490.568	81.19
490.786	93.19
491.003	82.19
491.221	93.19
491.439	90.19
491.657	92.19
491.874	88.19
492.092	85.19
492.31	94.19
492.527	84.19
492.745	94.19
492.963	86.19
493.18	83.19
493.398	94.19
493.615	88.19
493.833	94.19
494.05	84.19
494.268	96.19
494.485	82.19
494.703	79.19
494.92	88.19
495.138	80.19
495.355	87.19
495.573	96.19
495.79	85.19
496.008	103.19
496.225	93.19
496.442	87.19
496.66	76.19
496.877	87.19
497.094	88.19
497.312	94.19
497.529	83.19
497.746	85.19
497.963	87.19
498.181	87.19
498.398	86.19
498.615	91.19
498.832	97.19
499.049	89.19
499.267	90.19
499.484	78.19
499.701	82.19
499.918	91.19
500.135	97.19
500.352	94.19
500.569	88.19
500.786	102.19
501.003	94.19
501.22	71.19
501.437	91.19
501.654	84.19
501.871	105.19
502.088	87.19
502.305	94.19
502.522	85.19
502.739	76.19
502.956	79.19
503.172	101.19
503.389	94.19
503.606	110.19
503.823	96.19
504.04	86.19
504.256	100.19
504.473	74.19
504.69	86.19
504.907	87.19
505.123	80.19
505.34	84.19
505.557	86.19
505.773	96.19
505.99	85.19
506.207	88.19
506.423	93.19
506.64	90.19
506.856	91.19
507.073	86.19
507.289	86.19
507.506	88.19
507.722	100.19
507.939	94.19
508.155	97.19
508.372	97.19
508.588	95.19
508.805	93.19
509.021	98.19
509.238	110.19
509.454	96.19
509.67	111.19
509.887	99.19
510.103	125.19
510.319	204.19
510.536	672.19
510.752	2110.19
510.968	606.19
511.184	157.19
511.401	105.19
511.617	102.19
511.833	90.19
512.049	75.19
512.265	96.19
512.481	106.19
512.698	79.19
512.914	85.19
513.13	85.19
513.346	104.19
513.562	91.19
513.778	95.19
513.994	105.19
514.21	90.19
514.426	122.19
514.642	122.19
514.858	118.19
515.074	154.19
515.29	385.19
515.506	1242.19
515.721	486.19
515.937	145.19
516.153	110.19
516.369	85.19
516.585	92.19
