Data from Circ_2005_H10_HRD10591_00001.txt Node
Date: Wed Jan 03 10:29:51 EST 2024
User: Yrep
Spectrometer: HR+D1059
Trigger mode: 1
Integration Time (sec): 1.000000E-1
Scans to average: 1
Electric dark correction enabled: true
Nonlinearity correction enabled: false
Boxcar width: 0
XAxis mode: Wavelengths
Number of Pixels in Spectrum: 2048
>>>>>Begin Spectral Data<<<<<
223.165	-13.69
223.4	-13.69
223.635	-13.69
223.869	-15.69
224.104	-23.69
224.338	-27.69
224.573	-19.69
224.808	2.31
225.042	-12.69
225.277	3.31
225.511	0.31
225.746	12.31
225.98	8.31
226.215	3.31
226.449	7.31
226.683	17.31
226.918	28.31
227.152	30.31
227.387	30.31
227.621	39.31
227.856	46.31
228.09	51.31
228.324	47.31
228.559	50.31
228.793	62.31
229.027	64.31
229.262	66.31
229.496	75.31
229.73	75.31
229.964	71.31
230.199	60.31
230.433	65.31
230.667	87.31
230.901	70.31
231.136	87.31
231.37	83.31
231.604	85.31
231.838	86.31
232.072	92.31
232.306	88.31
232.541	78.31
232.775	70.31
233.009	93.31
233.243	82.31
233.477	92.31
233.711	78.31
233.945	92.31
234.179	97.31
234.413	74.31
234.647	86.31
234.881	92.31
235.115	87.31
235.349	81.31
235.583	76.31
235.817	76.31
236.051	88.31
236.285	75.31
236.519	71.31
236.753	84.31
236.987	87.31
237.221	85.31
237.455	84.31
237.689	69.31
237.922	84.31
238.156	85.31
238.39	69.31
238.624	59.31
238.858	73.31
239.091	74.31
239.325	79.31
239.559	83.31
239.793	69.31
240.027	81.31
240.26	79.31
240.494	76.31
240.728	72.31
240.961	71.31
241.195	88.31
241.429	81.31
241.662	84.31
241.896	77.31
242.13	68.31
242.363	90.31
242.597	84.31
242.83	80.31
243.064	76.31
243.298	69.31
243.531	80.31
243.765	94.31
243.998	77.31
244.232	73.31
244.465	82.31
244.699	90.31
244.932	70.31
245.166	77.31
245.399	89.31
245.633	96.31
245.866	77.31
246.099	91.31
246.333	76.31
246.566	74.31
246.8	83.31
247.033	74.31
247.266	88.31
247.5	76.31
247.733	96.31
247.966	81.31
248.2	77.31
248.433	66.31
248.666	88.31
248.899	80.31
249.133	84.31
249.366	93.31
249.599	95.31
249.832	69.31
250.066	73.31
250.299	76.31
250.532	88.31
250.765	82.31
250.998	84.31
251.231	75.31
251.465	81.31
251.698	70.31
251.931	66.31
252.164	79.31
252.397	86.31
252.63	76.31
252.863	88.31
253.096	84.31
253.329	86.31
253.562	81.31
253.795	85.31
254.028	84.31
254.261	104.31
254.494	103.31
254.727	88.31
254.96	88.31
255.193	81.31
255.426	83.31
255.659	90.31
255.892	71.31
256.124	80.31
256.357	72.31
256.59	84.31
256.823	66.31
257.056	91.31
257.289	94.31
257.521	91.31
257.754	80.31
257.987	82.31
258.22	84.31
258.452	86.31
258.685	89.31
258.918	67.31
259.151	78.31
259.383	95.31
259.616	76.31
259.849	80.31
260.081	89.31
260.314	86.31
260.547	81.31
260.779	83.31
261.012	78.31
261.244	73.31
261.477	91.31
261.71	86.31
261.942	105.31
262.175	96.31
262.407	84.31
262.64	87.31
262.872	88.31
263.105	84.31
263.337	71.31
263.57	96.31
263.802	77.31
264.035	76.31
264.267	82.31
264.499	89.31
264.732	90.31
264.964	94.31
265.197	84.31
265.429	79.31
265.661	85.31
265.894	67.31
266.126	87.31
266.358	83.31
266.591	82.31
266.823	90.31
267.055	80.31
267.287	73.31
267.52	90.31
267.752	81.31
267.984	88.31
268.216	87.31
268.448	89.31
268.681	85.31
268.913	75.31
269.145	82.31
269.377	93.31
269.609	85.31
269.841	85.31
270.073	88.31
270.306	84.31
270.538	78.31
270.77	77.31
271.002	90.31
271.234	88.31
271.466	98.31
271.698	83.31
271.93	81.31
272.162	83.31
272.394	89.31
272.626	85.31
272.858	85.31
273.09	64.31
273.322	75.31
273.553	82.31
273.785	80.31
274.017	95.31
274.249	102.31
274.481	84.31
274.713	91.31
274.945	90.31
275.176	98.31
275.408	78.31
275.64	86.31
275.872	84.31
276.104	93.31
276.335	85.31
276.567	96.31
276.799	89.31
277.031	90.31
277.262	89.31
277.494	87.31
277.726	83.31
277.957	95.31
278.189	89.31
278.421	92.31
278.652	76.31
278.884	92.31
279.115	79.31
279.347	72.31
279.579	94.31
279.81	97.31
280.042	94.31
280.273	92.31
280.505	84.31
280.736	85.31
280.968	89.31
281.199	89.31
281.431	84.31
281.662	86.31
281.894	86.31
282.125	95.31
282.356	111.31
282.588	134.31
282.819	101.31
283.051	91.31
283.282	79.31
283.513	89.31
283.745	96.31
283.976	97.31
284.207	88.31
284.439	82.31
284.67	76.31
284.901	84.31
285.132	90.31
285.364	89.31
285.595	83.31
285.826	80.31
286.057	93.31
286.288	96.31
286.52	80.31
286.751	94.31
286.982	81.31
287.213	90.31
287.444	80.31
287.675	78.31
287.906	94.31
288.138	94.31
288.369	95.31
288.6	95.31
288.831	87.31
289.062	79.31
289.293	87.31
289.524	97.31
289.755	79.31
289.986	87.31
290.217	88.31
290.448	86.31
290.679	74.31
290.91	80.31
291.141	83.31
291.371	84.31
291.602	90.31
291.833	86.31
292.064	89.31
292.295	83.31
292.526	85.31
292.757	87.31
292.987	88.31
293.218	103.31
293.449	93.31
293.68	99.31
293.91	85.31
294.141	87.31
294.372	93.31
294.603	88.31
294.833	74.31
295.064	85.31
295.295	93.31
295.525	94.31
295.756	93.31
295.987	119.31
296.217	128.31
296.448	111.31
296.679	92.31
296.909	110.31
297.14	95.31
297.37	100.31
297.601	90.31
297.831	80.31
298.062	99.31
298.292	87.31
298.523	89.31
298.753	90.31
298.984	85.31
299.214	84.31
299.445	97.31
299.675	84.31
299.905	82.31
300.136	80.31
300.366	87.31
300.597	76.31
300.827	100.31
301.057	91.31
301.288	89.31
301.518	96.31
301.748	85.31
301.979	90.31
302.209	100.31
302.439	89.31
302.669	96.31
302.9	99.31
303.13	90.31
303.36	93.31
303.59	98.31
303.82	101.31
304.051	76.31
304.281	95.31
304.511	97.31
304.741	94.31
304.971	88.31
305.201	96.31
305.431	87.31
305.661	86.31
305.891	92.31
306.121	99.31
306.352	104.31
306.582	102.31
306.812	95.31
307.042	99.31
307.272	79.31
307.502	95.31
307.731	90.31
307.961	88.31
308.191	80.31
308.421	88.31
308.651	95.31
308.881	103.31
309.111	89.31
309.341	96.31
309.571	103.31
309.8	101.31
310.03	112.31
310.26	109.31
310.49	99.31
310.72	98.31
310.949	102.31
311.179	88.31
311.409	101.31
311.639	91.31
311.868	99.31
312.098	105.31
312.328	82.31
312.557	97.31
312.787	101.31
313.017	95.31
313.246	90.31
313.476	95.31
313.706	92.31
313.935	94.31
314.165	96.31
314.394	97.31
314.624	93.31
314.853	84.31
315.083	90.31
315.312	109.31
315.542	97.31
315.771	94.31
316.001	90.31
316.23	86.31
316.46	95.31
316.689	96.31
316.919	101.31
317.148	100.31
317.377	89.31
317.607	101.31
317.836	89.31
318.065	104.31
318.295	88.31
318.524	89.31
318.753	109.31
318.983	106.31
319.212	114.31
319.441	96.31
319.67	100.31
319.9	91.31
320.129	100.31
320.358	95.31
320.587	89.31
320.816	96.31
321.046	96.31
321.275	98.31
321.504	100.31
321.733	91.31
321.962	91.31
322.191	92.31
322.42	103.31
322.649	117.31
322.878	103.31
323.108	102.31
323.337	120.31
323.566	130.31
323.795	143.31
324.024	181.31
324.253	361.31
324.482	751.31
324.71	1552.31
324.939	2000.31
325.168	767.31
325.397	230.31
325.626	142.31
325.855	127.31
326.084	118.31
326.313	151.31
326.542	144.31
326.77	205.31
326.999	431.31
327.228	863.31
327.457	1552.31
327.686	1264.31
327.914	341.31
328.143	180.31
328.372	129.31
328.6	113.31
328.829	107.31
329.058	106.31
329.287	120.31
329.515	99.31
329.744	108.31
329.972	100.31
330.201	89.31
330.43	117.31
330.658	105.31
330.887	124.31
331.115	127.31
331.344	80.31
331.572	91.31
331.801	107.31
332.03	103.31
332.258	90.31
332.486	100.31
332.715	111.31
332.943	105.31
333.172	96.31
333.4	77.31
333.629	99.31
333.857	101.31
334.085	100.31
334.314	93.31
334.542	100.31
334.771	117.31
334.999	89.31
335.227	90.31
335.455	102.31
335.684	98.31
335.912	87.31
336.14	87.31
336.369	93.31
336.597	106.31
336.825	117.31
337.053	109.31
337.281	83.31
337.51	74.31
337.738	89.31
337.966	109.31
338.194	101.31
338.422	102.31
338.65	95.31
338.878	89.31
339.106	101.31
339.334	114.31
339.562	87.31
339.79	87.31
340.018	102.31
340.246	101.31
340.474	94.31
340.702	92.31
340.93	97.31
341.158	100.31
341.386	105.31
341.614	98.31
341.842	96.31
342.07	95.31
342.298	93.31
342.526	80.31
342.754	96.31
342.981	99.31
343.209	82.31
343.437	106.31
343.665	86.31
343.893	97.31
344.12	90.31
344.348	94.31
344.576	98.31
344.804	96.31
345.031	84.31
345.259	104.31
345.487	86.31
345.714	95.31
345.942	93.31
346.17	87.31
346.397	87.31
346.625	95.31
346.853	101.31
347.08	99.31
347.308	84.31
347.535	99.31
347.763	89.31
347.99	97.31
348.218	94.31
348.445	99.31
348.673	98.31
348.9	97.31
349.128	101.31
349.355	91.31
349.583	96.31
349.81	90.31
350.037	91.31
350.265	100.31
350.492	95.31
350.72	111.31
350.947	89.31
351.174	105.31
351.402	105.31
351.629	109.31
351.856	113.31
352.083	107.31
352.311	101.31
352.538	98.31
352.765	107.31
352.992	118.31
353.22	108.31
353.447	107.31
353.674	95.31
353.901	124.31
354.128	91.31
354.355	94.31
354.583	97.31
354.81	101.31
355.037	97.31
355.264	102.31
355.491	110.31
355.718	105.31
355.945	103.31
356.172	88.31
356.399	97.31
356.626	111.31
356.853	103.31
357.08	102.31
357.307	108.31
357.534	96.31
357.761	95.31
357.988	97.31
358.215	96.31
358.441	93.31
358.668	100.31
358.895	91.31
359.122	102.31
359.349	95.31
359.576	108.31
359.802	89.31
360.029	101.31
360.256	106.31
360.483	102.31
360.709	89.31
360.936	93.31
361.163	90.31
361.39	81.31
361.616	102.31
361.843	95.31
362.07	89.31
362.296	100.31
362.523	91.31
362.749	100.31
362.976	116.31
363.203	96.31
363.429	96.31
363.656	97.31
363.882	98.31
364.109	98.31
364.335	96.31
364.562	79.31
364.788	91.31
365.015	93.31
365.241	98.31
365.468	96.31
365.694	98.31
365.92	95.31
366.147	96.31
366.373	85.31
366.599	99.31
366.826	98.31
367.052	86.31
367.278	110.31
367.505	106.31
367.731	104.31
367.957	97.31
368.184	98.31
368.41	81.31
368.636	116.31
368.862	105.31
369.089	96.31
369.315	97.31
369.541	104.31
369.767	86.31
369.993	86.31
370.219	99.31
370.445	96.31
370.672	98.31
370.898	95.31
371.124	89.31
371.35	103.31
371.576	97.31
371.802	88.31
372.028	89.31
372.254	84.31
372.48	77.31
372.706	102.31
372.932	101.31
373.158	97.31
373.384	90.31
373.61	85.31
373.835	88.31
374.061	98.31
374.287	88.31
374.513	92.31
374.739	88.31
374.965	100.31
375.191	85.31
375.416	84.31
375.642	86.31
375.868	85.31
376.094	94.31
376.319	94.31
376.545	99.31
376.771	103.31
376.997	86.31
377.222	85.31
377.448	94.31
377.674	90.31
377.899	93.31
378.125	98.31
378.35	100.31
378.576	94.31
378.802	93.31
379.027	98.31
379.253	92.31
379.478	102.31
379.704	100.31
379.929	85.31
380.155	94.31
380.38	114.31
380.606	92.31
380.831	115.31
381.057	108.31
381.282	111.31
381.507	84.31
381.733	106.31
381.958	109.31
382.184	114.31
382.409	107.31
382.634	112.31
382.86	113.31
383.085	105.31
383.31	106.31
383.535	107.31
383.761	114.31
383.986	113.31
384.211	101.31
384.436	105.31
384.662	122.31
384.887	118.31
385.112	114.31
385.337	129.31
385.562	114.31
385.787	121.31
386.013	131.31
386.238	121.31
386.463	112.31
386.688	135.31
386.913	122.31
387.138	116.31
387.363	105.31
387.588	120.31
387.813	112.31
388.038	114.31
388.263	141.31
388.488	133.31
388.713	96.31
388.938	88.31
389.163	86.31
389.387	102.31
389.612	85.31
389.837	94.31
390.062	94.31
390.287	102.31
390.512	99.31
390.736	96.31
390.961	90.31
391.186	93.31
391.411	95.31
391.636	89.31
391.86	98.31
392.085	87.31
392.31	84.31
392.534	93.31
392.759	93.31
392.984	93.31
393.208	94.31
393.433	99.31
393.658	94.31
393.882	99.31
394.107	85.31
394.331	85.31
394.556	91.31
394.78	82.31
395.005	96.31
395.229	91.31
395.454	90.31
395.678	86.31
395.903	84.31
396.127	88.31
396.352	97.31
396.576	87.31
396.801	96.31
397.025	94.31
397.249	84.31
397.474	92.31
397.698	89.31
397.922	89.31
398.147	77.31
398.371	91.31
398.595	94.31
398.82	94.31
399.044	83.31
399.268	72.31
399.492	80.31
399.717	88.31
399.941	98.31
400.165	108.31
400.389	93.31
400.613	88.31
400.837	74.31
401.062	84.31
401.286	85.31
401.51	92.31
401.734	77.31
401.958	91.31
402.182	127.31
402.406	129.31
402.63	105.31
402.854	93.31
403.078	94.31
403.302	89.31
403.526	96.31
403.75	86.31
403.974	97.31
404.198	83.31
404.422	95.31
404.645	98.31
404.869	80.31
405.093	103.31
405.317	83.31
405.541	88.31
405.765	80.31
405.988	101.31
406.212	140.31
406.436	184.31
406.66	125.31
406.883	99.31
407.107	90.31
407.331	92.31
407.555	107.31
407.778	100.31
408.002	91.31
408.226	97.31
408.449	79.31
408.673	94.31
408.896	104.31
409.12	98.31
409.344	94.31
409.567	80.31
409.791	84.31
410.014	101.31
410.238	96.31
410.461	88.31
410.685	92.31
410.908	89.31
411.132	113.31
411.355	108.31
411.578	86.31
411.802	101.31
412.025	100.31
412.249	82.31
412.472	84.31
412.695	81.31
412.919	97.31
413.142	83.31
413.365	93.31
413.589	85.31
413.812	85.31
414.035	102.31
414.258	96.31
414.482	102.31
414.705	98.31
414.928	90.31
415.151	91.31
415.374	96.31
415.597	84.31
415.821	101.31
416.044	94.31
416.267	94.31
416.49	98.31
416.713	90.31
416.936	76.31
417.159	82.31
417.382	88.31
417.605	92.31
417.828	93.31
418.051	94.31
418.274	96.31
418.497	71.31
418.72	89.31
418.943	88.31
419.166	103.31
419.389	90.31
419.611	89.31
419.834	94.31
420.057	92.31
420.28	92.31
420.503	98.31
420.726	94.31
420.948	96.31
421.171	87.31
421.394	97.31
421.617	90.31
421.839	89.31
422.062	85.31
422.285	85.31
422.507	89.31
422.73	89.31
422.953	96.31
423.175	90.31
423.398	101.31
423.621	82.31
423.843	88.31
424.066	81.31
424.288	94.31
424.511	115.31
424.733	93.31
424.956	100.31
425.178	104.31
425.401	94.31
425.623	108.31
425.846	104.31
426.068	76.31
426.291	91.31
426.513	77.31
426.735	84.31
426.958	94.31
427.18	106.31
427.402	141.31
427.625	134.31
427.847	112.31
428.069	92.31
428.292	94.31
428.514	81.31
428.736	83.31
428.958	84.31
429.181	89.31
429.403	84.31
429.625	82.31
429.847	78.31
430.069	88.31
430.292	94.31
430.514	80.31
430.736	77.31
430.958	88.31
431.18	89.31
431.402	88.31
431.624	100.31
431.846	71.31
432.068	95.31
432.29	96.31
432.512	96.31
432.734	87.31
432.956	94.31
433.178	108.31
433.4	101.31
433.622	96.31
433.844	89.31
434.066	89.31
434.287	107.31
434.509	94.31
434.731	92.31
434.953	87.31
435.175	87.31
435.397	78.31
435.618	96.31
435.84	98.31
436.062	108.31
436.284	117.31
436.505	96.31
436.727	100.31
436.949	86.31
437.17	89.31
437.392	86.31
437.614	91.31
437.835	108.31
438.057	115.31
438.278	119.31
438.5	108.31
438.721	116.31
438.943	103.31
439.165	85.31
439.386	103.31
439.608	96.31
439.829	94.31
440.05	115.31
440.272	134.31
440.493	95.31
440.715	101.31
440.936	82.31
441.158	89.31
441.379	87.31
441.6	86.31
441.822	88.31
442.043	102.31
442.264	112.31
442.486	98.31
442.707	101.31
442.928	105.31
443.149	100.31
443.371	117.31
443.592	104.31
443.813	112.31
444.034	97.31
444.255	101.31
444.476	96.31
444.698	86.31
444.919	96.31
445.14	134.31
445.361	122.31
445.582	118.31
445.803	119.31
446.024	135.31
446.245	138.31
446.466	112.31
446.687	99.31
446.908	80.31
447.129	95.31
447.35	105.31
447.571	100.31
447.792	99.31
448.013	93.31
448.234	113.31
448.455	95.31
448.675	106.31
448.896	105.31
449.117	98.31
449.338	97.31
449.559	117.31
449.779	121.31
450	92.31
450.221	94.31
450.442	96.31
450.662	81.31
450.883	100.31
451.104	110.31
451.324	80.31
451.545	88.31
451.766	93.31
451.986	80.31
452.207	90.31
452.428	76.31
452.648	96.31
452.869	105.31
453.089	115.31
453.31	98.31
453.53	79.31
453.751	95.31
453.971	91.31
454.192	119.31
454.412	88.31
454.633	90.31
454.853	105.31
455.073	79.31
455.294	74.31
455.514	96.31
455.734	74.31
455.955	85.31
456.175	92.31
456.395	82.31
456.616	78.31
456.836	94.31
457.056	80.31
457.276	94.31
457.497	104.31
457.717	89.31
457.937	84.31
458.157	74.31
458.377	83.31
458.598	82.31
458.818	122.31
459.038	121.31
459.258	111.31
459.478	95.31
459.698	81.31
459.918	85.31
460.138	78.31
460.358	83.31
460.578	66.31
460.798	84.31
461.018	82.31
461.238	101.31
461.458	80.31
461.678	93.31
461.898	72.31
462.118	89.31
462.338	94.31
462.558	96.31
462.777	99.31
462.997	99.31
463.217	74.31
463.437	86.31
463.657	88.31
463.876	92.31
464.096	96.31
464.316	76.31
464.536	70.31
464.755	84.31
464.975	113.31
465.195	146.31
465.414	140.31
465.634	97.31
465.854	89.31
466.073	93.31
466.293	85.31
466.512	95.31
466.732	75.31
466.951	97.31
467.171	93.31
467.391	103.31
467.61	99.31
467.829	86.31
468.049	79.31
468.268	92.31
468.488	88.31
468.707	93.31
468.927	96.31
469.146	97.31
469.365	91.31
469.585	98.31
469.804	90.31
470.023	107.31
470.243	94.31
470.462	95.31
470.681	86.31
470.901	87.31
471.12	79.31
471.339	84.31
471.558	84.31
471.777	95.31
471.997	83.31
472.216	93.31
472.435	92.31
472.654	98.31
472.873	94.31
473.092	79.31
473.311	81.31
473.53	84.31
473.749	87.31
473.968	84.31
474.187	101.31
474.406	96.31
474.625	94.31
474.844	98.31
475.063	90.31
475.282	88.31
475.501	80.31
475.72	78.31
475.939	84.31
476.158	84.31
476.377	88.31
476.596	89.31
476.814	94.31
477.033	93.31
477.252	93.31
477.471	73.31
477.69	86.31
477.908	80.31
478.127	90.31
478.346	92.31
478.564	81.31
478.783	103.31
479.002	103.31
479.22	86.31
479.439	89.31
479.658	100.31
479.876	92.31
480.095	85.31
480.313	107.31
480.532	98.31
480.751	90.31
480.969	97.31
481.188	100.31
481.406	108.31
481.624	87.31
481.843	102.31
482.061	95.31
482.28	98.31
482.498	102.31
482.717	89.31
482.935	81.31
483.153	88.31
483.372	84.31
483.59	79.31
483.808	76.31
484.027	97.31
484.245	82.31
484.463	103.31
484.681	102.31
484.9	95.31
485.118	110.31
485.336	88.31
485.554	105.31
485.772	100.31
485.99	100.31
486.209	104.31
486.427	105.31
486.645	105.31
486.863	104.31
487.081	100.31
487.299	83.31
487.517	99.31
487.735	101.31
487.953	105.31
488.171	93.31
488.389	83.31
488.607	104.31
488.825	94.31
489.043	85.31
489.261	87.31
489.479	77.31
489.696	88.31
489.914	89.31
490.132	100.31
490.35	94.31
490.568	87.31
490.786	96.31
491.003	86.31
491.221	105.31
491.439	75.31
491.657	103.31
491.874	94.31
492.092	94.31
492.31	95.31
492.527	84.31
492.745	92.31
492.963	87.31
493.18	88.31
493.398	86.31
493.615	87.31
493.833	94.31
494.05	91.31
494.268	93.31
494.485	90.31
494.703	94.31
494.92	90.31
495.138	96.31
495.355	87.31
495.573	74.31
495.79	96.31
496.008	98.31
496.225	86.31
496.442	89.31
496.66	92.31
496.877	83.31
497.094	102.31
497.312	102.31
497.529	87.31
497.746	82.31
497.963	88.31
498.181	96.31
498.398	89.31
498.615	93.31
498.832	108.31
499.049	96.31
499.267	80.31
499.484	80.31
499.701	98.31
499.918	89.31
500.135	92.31
500.352	105.31
500.569	84.31
500.786	76.31
501.003	81.31
501.22	88.31
501.437	103.31
501.654	96.31
501.871	107.31
502.088	81.31
502.305	84.31
502.522	101.31
502.739	104.31
502.956	100.31
503.172	99.31
503.389	78.31
503.606	99.31
503.823	95.31
504.04	94.31
504.256	98.31
504.473	85.31
504.69	83.31
504.907	98.31
505.123	89.31
505.34	83.31
505.557	87.31
505.773	98.31
505.99	84.31
506.207	84.31
506.423	94.31
506.64	109.31
506.856	93.31
507.073	84.31
507.289	105.31
507.506	84.31
507.722	95.31
507.939	111.31
508.155	96.31
508.372	101.31
508.588	90.31
508.805	101.31
509.021	105.31
509.238	89.31
509.454	82.31
509.67	99.31
509.887	120.31
510.103	122.31
510.319	201.31
510.536	589.31
510.752	1925.31
510.968	569.31
511.184	156.31
511.401	111.31
511.617	94.31
511.833	95.31
512.049	91.31
512.265	85.31
512.481	98.31
512.698	105.31
512.914	103.31
513.13	103.31
513.346	88.31
513.562	97.31
513.778	86.31
513.994	92.31
514.21	101.31
514.426	111.31
514.642	134.31
514.858	109.31
515.074	146.31
515.29	345.31
515.506	1162.31
