Data from Circ_2005_H10_HRD10591_00048.txt Node
Date: Wed Jan 03 10:30:00 EST 2024
User: Yrep
Spectrometer: HR+D1059
Trigger mode: 1
Integration Time (sec): 1.000000E-1
Scans to average: 1
Electric dark correction enabled: true
Nonlinearity correction enabled: false
Boxcar width: 0
XAxis mode: Wavelengths
Number of Pixels in Spectrum: 2048
>>>>>Begin Spectral Data<<<<<
223.165	-38
223.4	-38
223.635	-38
223.869	-17
224.104	-9
224.338	-6
224.573	-22
224.808	-12
225.042	-14
225.277	-9
225.511	0
225.746	1
225.98	11
226.215	7
226.449	22
226.683	17
226.918	24
227.152	45
227.387	38
227.621	45
227.856	40
228.09	45
228.324	46
228.559	55
228.793	166
229.027	462
229.262	570
229.496	640
229.73	849
229.964	880
230.199	585
230.433	493
230.667	506
230.901	478
231.136	481
231.37	469
231.604	459
231.838	451
232.072	469
232.306	470
232.541	454
232.775	476
233.009	493
233.243	469
233.477	482
233.711	491
233.945	493
234.179	532
234.413	527
234.647	512
234.881	524
235.115	528
235.349	546
235.583	589
235.817	618
236.051	639
236.285	627
236.519	627
236.753	719
236.987	957
237.221	1497
237.455	1598
237.689	943
237.922	766
238.156	744
238.39	678
238.624	670
238.858	678
239.091	667
239.325	683
239.559	723
239.793	722
240.027	784
240.26	948
240.494	1009
240.728	981
240.961	919
241.195	835
241.429	844
241.662	785
241.896	790
242.13	773
242.363	777
242.597	803
242.83	830
243.064	804
243.298	849
243.531	811
243.765	845
243.998	867
244.232	855
244.465	912
244.699	884
244.932	927
245.166	917
245.399	883
245.633	921
245.866	914
246.099	944
246.333	959
246.566	955
246.8	980
247.033	1018
247.266	1067
247.5	1104
247.733	1174
247.966	1169
248.2	1156
248.433	1148
248.666	1219
248.899	1393
249.133	1501
249.366	1492
249.599	1357
249.832	1248
250.066	1293
250.299	1480
250.532	1653
250.765	1800
250.998	1894
251.231	1774
251.465	1591
251.698	1436
251.931	1444
252.164	1426
252.397	1422
252.63	1478
252.863	1574
253.096	1730
253.329	1782
253.562	1678
253.795	1592
254.028	1591
254.261	1665
254.494	1916
254.727	2282
254.96	2329
255.193	2044
255.426	1880
255.659	1870
255.892	2132
256.124	2366
256.357	2122
256.59	1823
256.823	1704
257.056	1654
257.289	1642
257.521	1609
257.754	1599
257.987	1536
258.22	1560
258.452	1555
258.685	1588
258.918	1612
259.151	1653
259.383	1779
259.616	1747
259.849	1807
260.081	1980
260.314	2160
260.547	2060
260.779	1893
261.012	1815
261.244	1787
261.477	1708
261.71	1773
261.942	1872
262.175	1877
262.407	1725
262.64	1697
262.872	1694
263.105	1680
263.337	1715
263.57	1681
263.802	1699
264.035	1731
264.267	1700
264.499	1737
264.732	1710
264.964	1751
265.197	1728
265.429	1759
265.661	1770
265.894	1754
266.126	1777
266.358	1807
266.591	1836
266.823	1897
267.055	1914
267.287	1922
267.52	1869
267.752	1899
267.984	1921
268.216	1960
268.448	2008
268.681	2048
268.913	2264
269.145	2382
269.377	2448
269.609	2314
269.841	2301
270.073	2422
270.306	2779
270.538	2910
270.77	2734
271.002	2573
271.234	2528
271.466	2675
271.698	2839
271.93	2852
272.162	2855
272.394	2783
272.626	2585
272.858	2443
273.09	2367
273.322	2369
273.553	2269
273.785	2284
274.017	2312
274.249	2279
274.481	2315
274.713	2378
274.945	2393
275.176	2400
275.408	2340
275.64	2352
275.872	2322
276.104	2408
276.335	2401
276.567	2511
276.799	2735
277.031	2997
277.262	3078
277.494	2901
277.726	2710
277.957	2630
278.189	2491
278.421	2467
278.652	2466
278.884	2419
279.115	2437
279.347	2471
279.579	2440
279.81	2434
280.042	2496
280.273	2526
280.505	2490
280.736	2508
280.968	2488
281.199	2503
281.431	2510
281.662	2550
281.894	2541
282.125	2586
282.356	2792
282.588	2987
282.819	2746
283.051	2610
283.282	2608
283.513	2648
283.745	2656
283.976	2684
284.207	2733
284.439	2723
284.67	2667
284.901	2630
285.132	2641
285.364	2687
285.595	2702
285.826	2651
286.057	2685
286.288	2737
286.52	2706
286.751	2719
286.982	2730
287.213	2720
287.444	2818
287.675	2879
287.906	2937
288.138	3022
288.369	3003
288.6	2983
288.831	2886
289.062	2862
289.293	2869
289.524	2843
289.755	2876
289.986	2812
290.217	2861
290.448	2834
290.679	2854
290.91	2839
291.141	2866
291.371	2904
291.602	2864
291.833	2830
292.064	2918
292.295	2858
292.526	2870
292.757	2879
292.987	2889
293.218	2877
293.449	2864
293.68	2903
293.91	2896
294.141	2890
294.372	2866
294.603	2897
294.833	2854
295.064	2962
295.295	2959
295.525	2964
295.756	3028
295.987	3110
296.217	3342
296.448	3198
296.679	3034
296.909	2991
297.14	3032
297.37	3038
297.601	3079
297.831	3070
298.062	3102
298.292	3138
298.523	3214
298.753	3186
298.984	3121
299.214	3157
299.445	3139
299.675	3160
299.905	3196
300.136	3223
300.366	3195
300.597	3174
300.827	3284
301.057	3476
301.288	3485
301.518	3441
301.748	3429
301.979	3410
302.209	3462
302.439	3468
302.669	3402
302.9	3339
303.13	3319
303.36	3407
303.59	3470
303.82	3461
304.051	3408
304.281	3367
304.511	3235
304.741	3283
304.971	3301
305.201	3298
305.431	3285
305.661	3322
305.891	3258
306.121	3356
306.352	3410
306.582	3375
306.812	3248
307.042	3396
307.272	3396
307.502	3399
307.731	3390
307.961	3382
308.191	3388
308.421	3335
308.651	3395
308.881	3412
309.111	3455
309.341	3468
309.571	3585
309.8	3696
310.03	3693
310.26	3716
310.49	3779
310.72	3949
310.949	4014
311.179	3934
311.409	3767
311.639	3807
311.868	3778
312.098	3864
312.328	3942
312.557	4165
312.787	4270
313.017	4102
313.246	3930
313.476	3848
313.706	3861
313.935	4057
314.165	4064
314.394	4162
314.624	4100
314.853	3923
315.083	3867
315.312	3883
315.542	3834
315.771	3746
316.001	3807
316.23	3802
316.46	3837
316.689	3799
316.919	3918
317.148	3969
317.377	3904
317.607	3907
317.836	3841
318.065	3765
318.295	3784
318.524	3790
318.753	3753
318.983	3790
319.212	3810
319.441	3934
319.67	3914
319.9	3744
320.129	3867
320.358	3800
320.587	3888
320.816	3928
321.046	3988
321.275	3949
321.504	3992
321.733	4087
321.962	4068
322.191	4235
322.42	4345
322.649	4385
322.878	4543
323.108	4694
323.337	4924
323.566	5088
323.795	5500
324.024	6324
324.253	8678
324.482	13058
324.71	15608
324.939	15608
325.168	14488
325.397	7539
325.626	5846
325.855	5229
326.084	5147
326.313	5173
326.542	5454
326.77	6231
326.999	8239
327.228	12360
327.457	15608
327.686	15155
327.914	8669
328.143	7052
328.372	6714
328.6	6233
328.829	5968
329.058	6275
329.287	6237
329.515	5651
329.744	5657
329.972	6087
330.201	6800
330.43	7345
330.658	6914
330.887	6856
331.115	6196
331.344	5419
331.572	5361
331.801	5492
332.03	5422
332.258	5245
332.486	5247
332.715	5359
332.943	5460
333.172	5683
333.4	5921
333.629	6158
333.857	6484
334.085	6885
334.314	7512
334.542	8316
334.771	7927
334.999	6407
335.227	5845
335.455	5545
335.684	5366
335.912	5247
336.14	5177
336.369	5093
336.597	5226
336.825	5165
337.053	5004
337.281	4953
337.51	4909
337.738	4936
337.966	4886
338.194	4932
338.422	4827
338.65	4706
338.878	4683
339.106	4660
339.334	4626
339.562	4558
339.79	4517
340.018	4561
340.246	4551
340.474	4535
340.702	4531
340.93	4470
341.158	4594
341.386	4490
341.614	4567
341.842	4556
342.07	4495
342.298	4453
342.526	4435
342.754	4398
342.981	4413
343.209	4508
343.437	4653
343.665	4976
343.893	5201
344.12	5241
344.348	5066
344.576	4811
344.804	4902
345.031	4868
345.259	4793
345.487	4548
345.714	4499
345.942	4394
346.17	4354
346.397	4257
346.625	4334
346.853	4271
347.08	4305
347.308	4408
347.535	4484
347.763	4532
347.99	4459
348.218	4482
348.445	4565
348.673	4407
348.9	4303
349.128	4259
349.355	4154
349.583	4143
349.81	4127
350.037	4163
350.265	4143
350.492	4142
350.72	4192
350.947	4213
351.174	4375
351.402	4332
351.629	4367
351.856	4344
352.083	4425
352.311	4440
352.538	4504
352.765	4445
352.992	4309
353.22	4256
353.447	4276
353.674	4157
353.901	4084
354.128	4044
354.355	4084
354.583	4023
354.81	4068
355.037	4117
355.264	4004
355.491	4002
355.718	4060
355.945	4007
356.172	4013
356.399	4010
356.626	3993
356.853	4072
357.08	3996
357.307	4010
357.534	4017
357.761	4007
357.988	4055
358.215	4090
358.441	4135
358.668	4137
358.895	4175
359.122	4182
359.349	4284
359.576	4470
359.802	4724
360.029	4945
360.256	4929
360.483	4671
360.709	4375
360.936	4295
361.163	4394
361.39	4384
361.616	4414
361.843	4316
362.07	4414
362.296	4339
362.523	4270
362.749	4374
362.976	4236
363.203	4134
363.429	4213
363.656	4186
363.882	4149
364.109	4086
364.335	4122
364.562	4129
364.788	4198
365.015	4160
365.241	4115
365.468	4206
365.694	4287
365.92	4175
366.147	4143
366.373	4100
366.599	4138
366.826	4085
367.052	4122
367.278	4108
367.505	4183
367.731	4135
367.957	4127
368.184	4187
368.41	4285
368.636	4399
368.862	4320
369.089	4232
369.315	4257
369.541	4201
369.767	4275
369.993	4226
370.219	4246
370.445	4274
370.672	4322
370.898	4314
371.124	4318
371.35	4361
371.576	4337
371.802	4319
372.028	4295
372.254	4372
372.48	4340
372.706	4491
372.932	4450
373.158	4398
373.384	4375
373.61	4338
373.835	4394
374.061	4446
374.287	4562
374.513	4551
374.739	4641
374.965	4780
375.191	4717
375.416	4693
375.642	4531
375.868	4547
376.094	4454
376.319	4423
376.545	4413
376.771	4427
376.997	4353
377.222	4364
377.448	4300
377.674	4326
377.899	4316
378.125	4320
378.35	4293
378.576	4271
378.802	4307
379.027	4334
379.253	4277
379.478	4269
379.704	4310
379.929	4315
380.155	4385
380.38	4387
380.606	4395
380.831	4356
381.057	4314
381.282	4332
381.507	4414
381.733	4424
381.958	4412
382.184	4515
382.409	4566
382.634	4526
382.86	4538
383.085	4641
383.31	4662
383.535	4772
383.761	4830
383.986	4834
384.211	5015
384.436	4999
384.662	5098
384.887	5216
385.112	5110
385.337	5178
385.562	5239
385.787	5274
386.013	5334
386.238	5324
386.463	5330
386.688	5323
386.913	5191
387.138	5152
387.363	5188
387.588	5114
387.813	5116
388.038	5171
388.263	5135
388.488	5215
388.713	5110
388.938	5166
389.163	5126
389.387	5078
389.612	5056
389.837	5082
390.062	4981
390.287	5121
390.512	5087
390.736	5144
390.961	5252
391.186	5291
391.411	5434
391.636	5516
391.86	5734
392.085	5870
392.31	5662
392.534	5551
392.759	5495
392.984	5373
393.208	5340
393.433	5434
393.658	5390
393.882	5315
394.107	5390
394.331	5429
394.556	5366
394.78	5442
395.005	5523
395.229	5552
395.454	5674
395.678	5779
395.903	5841
396.127	5872
396.352	5678
396.576	5540
396.801	5372
397.025	5590
397.249	5679
397.474	5787
397.698	5835
397.922	5940
398.147	6119
398.371	6174
398.595	6326
398.82	6508
399.044	7196
399.268	7844
399.492	8830
399.717	9474
399.941	9239
400.165	8772
400.389	8080
400.613	7283
400.837	6862
401.062	6624
401.286	6560
401.51	6538
401.734	6491
401.958	6694
402.182	6751
402.406	6879
402.63	6958
402.854	7002
403.078	7107
403.302	7263
403.526	7354
403.75	7421
403.974	7420
404.198	7412
404.422	7591
404.645	7632
404.869	7490
405.093	8033
405.317	8286
405.541	8314
405.765	7584
405.988	7454
406.212	7621
406.436	7793
406.66	7895
406.883	7900
407.107	8343
407.331	8891
407.555	9450
407.778	9140
408.002	8287
408.226	7887
408.449	7807
408.673	7630
408.896	7862
409.12	8000
409.344	7507
409.567	7187
409.791	7136
410.014	7102
410.238	6981
410.461	7005
410.685	7107
410.908	7174
411.132	7418
411.355	7454
411.578	7043
411.802	6829
412.025	6870
412.249	7175
412.472	7437
412.695	7819
412.919	7213
413.142	6836
413.365	6818
413.589	6640
413.812	6433
414.035	6327
414.258	6453
414.482	6427
414.705	6501
414.928	6448
415.151	6399
415.374	6389
415.597	6365
415.821	6304
416.044	6281
416.267	6342
416.49	6168
416.713	6197
416.936	6336
417.159	6314
417.382	6410
417.605	6480
417.828	6588
418.051	6708
418.274	6518
418.497	6440
418.72	6596
418.943	6442
419.166	6913
419.389	7263
419.611	7245
419.834	7076
420.057	7088
420.28	6946
420.503	6775
420.726	6819
420.948	6820
421.171	7151
421.394	7104
421.617	6537
421.839	6476
422.062	6542
422.285	6917
422.507	7458
422.73	8084
422.953	7430
423.175	6994
423.398	7022
423.621	7029
423.843	7408
424.066	7235
424.288	7103
424.511	7447
424.733	7881
424.956	8434
425.178	8000
425.401	8032
425.623	7845
425.846	6868
426.068	6690
426.291	6650
426.513	6687
426.735	6756
426.958	7266
427.18	8191
427.402	9426
427.625	9649
427.847	8451
428.069	7777
428.292	6831
428.514	6249
428.736	6108
428.958	6146
429.181	5923
429.403	5890
429.625	6104
429.847	6445
430.069	6958
430.292	6464
430.514	5848
430.736	5830
430.958	5755
431.18	5720
431.402	5708
431.624	5645
431.846	5748
432.068	5766
432.29	5866
432.512	5747
432.734	5830
432.956	5804
433.178	5864
433.4	5855
433.622	5767
433.844	5808
434.066	5780
434.287	5887
434.509	6052
434.731	6345
434.953	6497
435.175	6664
435.397	6799
435.618	6691
435.84	7214
436.062	8050
436.284	7968
436.505	6760
436.727	6356
436.949	6034
437.17	5967
437.392	5909
437.614	6159
437.835	6669
438.057	7633
438.278	8267
438.5	8334
438.721	8954
438.943	7805
439.165	6464
439.386	6396
439.608	6427
439.829	6561
440.05	7051
440.272	7409
440.493	6643
440.715	6258
440.936	6175
441.158	6274
441.379	6372
441.6	6693
441.822	6886
442.043	7415
442.264	8295
442.486	7932
442.707	6984
442.928	6882
443.149	7079
443.371	7436
443.592	7888
443.813	8908
444.034	8804
444.255	7595
444.476	7371
444.698	7566
444.919	7578
445.14	7537
445.361	7333
445.582	7690
445.803	8496
446.024	9154
446.245	8754
446.466	7741
446.687	6575
446.908	6259
447.129	5941
447.35	5819
447.571	5687
447.792	5682
448.013	5779
448.234	6032
448.455	6759
448.675	7976
448.896	8534
449.117	6905
449.338	7182
449.559	8675
449.779	8817
450	6551
450.221	5935
450.442	5633
450.662	5588
450.883	5790
451.104	5950
451.324	5726
451.545	5527
451.766	5278
451.986	5157
452.207	5163
452.428	5154
452.648	5247
452.869	5252
453.089	5361
453.31	5391
453.53	5170
453.751	5171
453.971	5213
454.192	5347
454.412	5095
454.633	5013
454.853	5006
455.073	5051
455.294	5477
455.514	6045
455.734	5474
455.955	4941
456.175	4809
456.395	4750
456.616	4714
456.836	4703
457.056	4720
457.276	4618
457.497	4805
457.717	4792
457.937	4861
458.157	4938
458.377	5110
458.598	5451
458.818	6321
459.038	7267
459.258	6991
459.478	6119
459.698	5916
459.918	5910
460.138	6065
460.358	6309
460.578	6323
460.798	6370
461.018	6396
461.238	6219
461.458	6231
461.678	6155
461.898	6320
462.118	6256
462.338	6706
462.558	6845
462.777	7218
462.997	7628
463.217	8082
463.437	7875
463.657	7291
463.876	7153
464.096	7149
464.316	7310
464.536	7301
464.755	7025
464.975	7036
465.195	7420
465.414	7581
465.634	6564
465.854	6055
466.073	5828
466.293	5618
466.512	5483
466.732	5265
466.951	5342
467.171	5353
467.391	5357
467.61	5524
467.829	5532
468.049	5558
468.268	5598
468.488	5310
468.707	5193
468.927	5078
469.146	5084
469.365	5149
469.585	5188
469.804	5385
470.023	5599
470.243	5533
470.462	5581
470.681	5790
470.901	5620
471.12	5474
471.339	5418
471.558	5423
471.777	5365
471.997	5333
472.216	5702
472.435	6737
472.654	6034
472.873	5397
473.092	5316
473.311	5176
473.53	5228
473.749	5378
473.968	5933
474.187	7077
474.406	6471
474.625	5473
474.844	5236
475.063	5163
475.282	5096
475.501	5227
475.72	5214
475.939	5276
476.158	5250
476.377	5329
476.596	5373
476.814	5436
477.033	5525
477.252	5607
477.471	5631
477.69	5740
477.908	5878
478.127	5962
478.346	5990
478.564	6189
478.783	6294
479.002	6416
479.22	6417
479.439	6516
479.658	6723
479.876	6810
480.095	6952
480.313	7451
480.532	7284
480.751	7240
480.969	7657
481.188	9330
481.406	9301
481.624	7538
481.843	6914
482.061	6555
482.28	6312
482.498	6270
482.717	6122
482.935	6119
483.153	6033
483.372	6059
483.59	6113
483.808	6062
484.027	5983
484.245	6130
484.463	6168
484.681	6200
484.9	6186
485.118	6391
485.336	6310
485.554	6394
485.772	6417
485.99	6424
486.209	6524
486.427	6434
486.645	6595
486.863	6789
487.081	6691
487.299	6528
487.517	6464
487.735	6479
487.953	6422
488.171	6444
488.389	6458
488.607	6480
488.825	6484
489.043	6527
489.261	6511
489.479	6632
489.696	6693
489.914	6707
490.132	6802
490.35	6938
490.568	6947
490.786	7117
491.003	7223
491.221	7492
491.439	7632
491.657	7702
491.874	7790
492.092	7781
492.31	7905
492.527	7910
492.745	7975
492.963	8048
493.18	8066
493.398	8102
493.615	8164
493.833	8074
494.05	8142
494.268	7979
494.485	7878
494.703	7838
494.92	7861
495.138	7835
495.355	7832
495.573	7887
495.79	7849
496.008	7855
496.225	7759
496.442	7741
496.66	7791
496.877	7833
497.094	7931
497.312	8111
497.529	8281
497.746	8456
497.963	8712
498.181	9119
498.398	9287
498.615	9680
498.832	10163
499.049	10620
499.267	11218
499.484	11980
499.701	12610
499.918	13397
500.135	14222
500.352	14847
500.569	15010
500.786	14887
501.003	14452
501.22	13832
501.437	13139
501.654	12378
501.871	11708
502.088	10897
502.305	10352
502.522	9688
502.739	9481
502.956	8979
503.172	8800
503.389	8536
503.606	8421
503.823	8289
504.04	8232
504.256	8249
504.473	8416
504.69	8405
504.907	8158
505.123	7854
505.34	7550
505.557	7509
505.773	7379
505.99	7283
506.207	7232
506.423	7103
506.64	7029
506.856	6835
507.073	6847
507.289	6804
507.506	6863
507.722	6905
507.939	7066
508.155	6725
508.372	6632
508.588	6563
508.805	6471
509.021	6634
509.238	6804
509.454	6728
509.67	6653
509.887	6460
510.103	6480
510.319	6629
510.536	8203
510.752	12514
510.968	8152
511.184	6304
511.401	6371
511.617	6311
511.833	6480
512.049	6410
512.265	6268
512.481	6213
512.698	6135
512.914	6092
513.13	6077
513.346	5985
513.562	6154
513.778	6161
513.994	6259
514.21	6344
514.426	6626
514.642	7026
514.858	7263
515.074	7799
515.29	9572
515.506	12825
515.721	9114
515.937	7399
516.153	7023
516.369	6985
516.585	6961
516.801	7100
517.016	7136
517.232	7465
517.448	7596
517.664	7817
517.879	7803
518.095	7659
518.311	7589
518.527	7211
518.742	7093
518.958	6863
519.173	6627
519.389	6594
519.605	6427
519.82	6446
520.036	6525
520.251	6705
520.467	6869
520.682	6786
520.898	6864
521.113	7003
521.329	7539
521.544	8563
521.76	10991
521.975	15236
522.19	12822
522.406	7989
522.621	6720
522.836	6178
523.052	5904
523.267	5701
523.482	5546
523.698	5489
523.913	5493
524.128	5496
524.343	5329
524.559	5240
524.774	5141
524.989	5169
525.204	5219
525.419	5208
525.634	5130
525.849	5105
526.064	4988
526.28	4927
526.495	4878
526.71	4860
526.925	4872
527.14	4872
527.355	4816
527.57	4843
527.785	4889
527.999	4788
528.214	4884
528.429	4875
528.644	4906
528.859	4848
529.074	4907
529.289	5143
529.503	5988
529.718	5536
529.933	5157
530.148	4985
530.363	4924
530.577	4867
530.792	4818
531.007	4823
531.221	4755
531.436	4806
531.651	4753
531.865	4739
532.08	4763
532.295	4783
532.509	4737
532.724	4736
532.938	4758
533.153	4679
533.367	4744
533.582	4650
533.796	4636
534.011	4673
534.225	4701
534.44	4543
534.654	4600
534.868	4571
535.083	4580
535.297	4607
535.511	4636
535.726	4689
535.94	4704
536.154	4607
536.369	4519
536.583	4406
536.797	4385
537.011	4351
537.225	4322
537.44	4376
537.654	4393
537.868	4371
538.082	4381
538.296	4436
538.51	4394
538.724	4399
538.938	4334
539.153	4279
539.367	4454
539.581	4390
539.795	4322
540.009	4260
540.222	4320
540.436	4314
540.65	4341
540.864	4356
541.078	4384
541.292	4316
541.506	4252
541.72	4239
541.934	4091
542.147	4182
