Data from Circ_2005_H10_HRD10591_00080.txt Node
Date: Wed Jan 03 10:30:07 EST 2024
User: Yrep
Spectrometer: HR+D1059
Trigger mode: 1
Integration Time (sec): 1.000000E-1
Scans to average: 1
Electric dark correction enabled: true
Nonlinearity correction enabled: false
Boxcar width: 0
XAxis mode: Wavelengths
Number of Pixels in Spectrum: 2048
>>>>>Begin Spectral Data<<<<<
223.165	-25.81
223.4	-25.81
223.635	-25.81
223.869	-21.81
224.104	-1.81
224.338	-13.81
224.573	-21.81
224.808	-11.81
225.042	-20.81
225.277	-11.81
225.511	1.19
225.746	-4.81
225.98	11.19
226.215	22.19
226.449	10.19
226.683	18.19
226.918	28.19
227.152	43.19
227.387	29.19
227.621	40.19
227.856	32.19
228.09	46.19
228.324	47.19
228.559	46.19
228.793	61.19
229.027	68.19
229.262	89.19
229.496	78.19
229.73	93.19
229.964	80.19
230.199	71.19
230.433	74.19
230.667	81.19
230.901	76.19
231.136	86.19
231.37	71.19
231.604	79.19
231.838	81.19
232.072	83.19
232.306	74.19
232.541	85.19
232.775	82.19
233.009	78.19
233.243	78.19
233.477	77.19
233.711	74.19
233.945	75.19
234.179	78.19
234.413	88.19
234.647	88.19
234.881	70.19
235.115	88.19
235.349	74.19
235.583	96.19
235.817	71.19
236.051	76.19
236.285	75.19
236.519	71.19
236.753	65.19
236.987	76.19
237.221	84.19
237.455	91.19
237.689	84.19
237.922	52.19
238.156	64.19
238.39	80.19
238.624	68.19
238.858	80.19
239.091	91.19
239.325	70.19
239.559	69.19
239.793	90.19
240.027	67.19
240.26	72.19
240.494	67.19
240.728	74.19
240.961	67.19
241.195	72.19
241.429	77.19
241.662	76.19
241.896	76.19
242.13	77.19
242.363	73.19
242.597	56.19
242.83	70.19
243.064	74.19
243.298	76.19
243.531	64.19
243.765	69.19
243.998	78.19
244.232	90.19
244.465	76.19
244.699	66.19
244.932	75.19
245.166	77.19
245.399	86.19
245.633	96.19
245.866	80.19
246.099	83.19
246.333	87.19
246.566	78.19
246.8	93.19
247.033	87.19
247.266	84.19
247.5	79.19
247.733	85.19
247.966	79.19
248.2	68.19
248.433	74.19
248.666	68.19
248.899	80.19
249.133	83.19
249.366	97.19
249.599	92.19
249.832	84.19
250.066	83.19
250.299	81.19
250.532	86.19
250.765	80.19
250.998	73.19
251.231	95.19
251.465	88.19
251.698	79.19
251.931	73.19
252.164	76.19
252.397	72.19
252.63	91.19
252.863	72.19
253.096	70.19
253.329	91.19
253.562	78.19
253.795	80.19
254.028	96.19
254.261	88.19
254.494	75.19
254.727	95.19
254.96	80.19
255.193	72.19
255.426	87.19
255.659	77.19
255.892	97.19
256.124	106.19
256.357	87.19
256.59	92.19
256.823	90.19
257.056	83.19
257.289	83.19
257.521	79.19
257.754	76.19
257.987	70.19
258.22	83.19
258.452	85.19
258.685	87.19
258.918	88.19
259.151	91.19
259.383	91.19
259.616	71.19
259.849	81.19
260.081	67.19
260.314	74.19
260.547	86.19
260.779	85.19
261.012	77.19
261.244	99.19
261.477	87.19
261.71	94.19
261.942	105.19
262.175	98.19
262.407	83.19
262.64	94.19
262.872	82.19
263.105	90.19
263.337	93.19
263.57	80.19
263.802	77.19
264.035	82.19
264.267	79.19
264.499	84.19
264.732	81.19
264.964	89.19
265.197	87.19
265.429	82.19
265.661	74.19
265.894	67.19
266.126	84.19
266.358	80.19
266.591	82.19
266.823	82.19
267.055	78.19
267.287	83.19
267.52	89.19
267.752	88.19
267.984	76.19
268.216	84.19
268.448	80.19
268.681	102.19
268.913	80.19
269.145	95.19
269.377	90.19
269.609	95.19
269.841	78.19
270.073	85.19
270.306	89.19
270.538	91.19
270.77	83.19
271.002	86.19
271.234	80.19
271.466	88.19
271.698	90.19
271.93	88.19
272.162	84.19
272.394	88.19
272.626	80.19
272.858	80.19
273.09	100.19
273.322	74.19
273.553	86.19
273.785	94.19
274.017	86.19
274.249	76.19
274.481	99.19
274.713	79.19
274.945	94.19
275.176	80.19
275.408	91.19
275.64	91.19
275.872	69.19
276.104	91.19
276.335	86.19
276.567	94.19
276.799	96.19
277.031	103.19
277.262	103.19
277.494	89.19
277.726	79.19
277.957	77.19
278.189	92.19
278.421	74.19
278.652	95.19
278.884	76.19
279.115	87.19
279.347	77.19
279.579	80.19
279.81	81.19
280.042	98.19
280.273	110.19
280.505	92.19
280.736	82.19
280.968	83.19
281.199	80.19
281.431	87.19
281.662	82.19
281.894	83.19
282.125	91.19
282.356	117.19
282.588	133.19
282.819	105.19
283.051	82.19
283.282	78.19
283.513	87.19
283.745	87.19
283.976	91.19
284.207	77.19
284.439	91.19
284.67	97.19
284.901	92.19
285.132	99.19
285.364	88.19
285.595	77.19
285.826	84.19
286.057	83.19
286.288	75.19
286.52	84.19
286.751	88.19
286.982	92.19
287.213	88.19
287.444	85.19
287.675	78.19
287.906	97.19
288.138	92.19
288.369	76.19
288.6	94.19
288.831	101.19
289.062	89.19
289.293	78.19
289.524	80.19
289.755	84.19
289.986	82.19
290.217	80.19
290.448	88.19
290.679	86.19
290.91	88.19
291.141	99.19
291.371	94.19
291.602	92.19
291.833	82.19
292.064	79.19
292.295	86.19
292.526	91.19
292.757	85.19
292.987	87.19
293.218	84.19
293.449	87.19
293.68	83.19
293.91	82.19
294.141	87.19
294.372	83.19
294.603	82.19
294.833	83.19
295.064	96.19
295.295	104.19
295.525	98.19
295.756	111.19
295.987	116.19
296.217	139.19
296.448	126.19
296.679	87.19
296.909	97.19
297.14	100.19
297.37	88.19
297.601	99.19
297.831	93.19
298.062	86.19
298.292	85.19
298.523	86.19
298.753	80.19
298.984	96.19
299.214	85.19
299.445	94.19
299.675	92.19
299.905	90.19
300.136	93.19
300.366	88.19
300.597	93.19
300.827	92.19
301.057	91.19
301.288	91.19
301.518	100.19
301.748	82.19
301.979	85.19
302.209	92.19
302.439	84.19
302.669	108.19
302.9	94.19
303.13	84.19
303.36	81.19
303.59	88.19
303.82	117.19
304.051	92.19
304.281	83.19
304.511	101.19
304.741	74.19
304.971	98.19
305.201	96.19
305.431	82.19
305.661	85.19
305.891	86.19
306.121	113.19
306.352	103.19
306.582	111.19
306.812	87.19
307.042	92.19
307.272	97.19
307.502	80.19
307.731	99.19
307.961	89.19
308.191	97.19
308.421	95.19
308.651	86.19
308.881	90.19
309.111	91.19
309.341	87.19
309.571	103.19
309.8	90.19
310.03	84.19
310.26	98.19
310.49	107.19
310.72	103.19
310.949	96.19
311.179	85.19
311.409	98.19
311.639	84.19
311.868	93.19
312.098	88.19
312.328	84.19
312.557	97.19
312.787	87.19
313.017	98.19
313.246	76.19
313.476	101.19
313.706	86.19
313.935	98.19
314.165	85.19
314.394	87.19
314.624	80.19
314.853	114.19
315.083	88.19
315.312	89.19
315.542	97.19
315.771	80.19
316.001	95.19
316.23	81.19
316.46	81.19
316.689	96.19
316.919	98.19
317.148	100.19
317.377	94.19
317.607	101.19
317.836	94.19
318.065	94.19
318.295	96.19
318.524	103.19
318.753	93.19
318.983	82.19
319.212	90.19
319.441	108.19
319.67	109.19
319.9	91.19
320.129	81.19
320.358	90.19
320.587	83.19
320.816	83.19
321.046	95.19
321.275	92.19
321.504	89.19
321.733	93.19
321.962	77.19
322.191	88.19
322.42	97.19
322.649	110.19
322.878	99.19
323.108	105.19
323.337	121.19
323.566	123.19
323.795	135.19
324.024	189.19
324.253	364.19
324.482	751.19
324.71	1504.19
324.939	1986.19
325.168	731.19
325.397	230.19
325.626	167.19
325.855	150.19
326.084	106.19
326.313	116.19
326.542	143.19
326.77	223.19
326.999	431.19
327.228	851.19
327.457	1550.19
327.686	1221.19
327.914	356.19
328.143	208.19
328.372	178.19
328.6	141.19
328.829	111.19
329.058	120.19
329.287	129.19
329.515	102.19
329.744	117.19
329.972	131.19
330.201	178.19
330.43	230.19
330.658	162.19
330.887	141.19
331.115	124.19
331.344	95.19
331.572	113.19
331.801	99.19
332.03	100.19
332.258	106.19
332.486	94.19
332.715	106.19
332.943	87.19
333.172	92.19
333.4	92.19
333.629	116.19
333.857	108.19
334.085	133.19
334.314	178.19
334.542	252.19
334.771	229.19
334.999	115.19
335.227	99.19
335.455	114.19
335.684	102.19
335.912	93.19
336.14	103.19
336.369	93.19
336.597	97.19
336.825	89.19
337.053	98.19
337.281	91.19
337.51	99.19
337.738	90.19
337.966	93.19
338.194	85.19
338.422	100.19
338.65	102.19
338.878	95.19
339.106	87.19
339.334	89.19
339.562	98.19
339.79	92.19
340.018	91.19
340.246	98.19
340.474	88.19
340.702	99.19
340.93	87.19
341.158	91.19
341.386	88.19
341.614	104.19
341.842	86.19
342.07	84.19
342.298	94.19
342.526	95.19
342.754	91.19
342.981	89.19
343.209	80.19
343.437	100.19
343.665	92.19
343.893	78.19
344.12	76.19
344.348	92.19
344.576	98.19
344.804	98.19
345.031	99.19
345.259	95.19
345.487	100.19
345.714	102.19
345.942	91.19
346.17	76.19
346.397	88.19
346.625	95.19
346.853	79.19
347.08	88.19
347.308	91.19
347.535	76.19
347.763	93.19
347.99	102.19
348.218	101.19
348.445	98.19
348.673	99.19
348.9	96.19
349.128	106.19
349.355	90.19
349.583	98.19
349.81	97.19
350.037	99.19
350.265	93.19
350.492	100.19
350.72	96.19
350.947	111.19
351.174	99.19
351.402	94.19
351.629	96.19
351.856	97.19
352.083	85.19
352.311	98.19
352.538	104.19
352.765	106.19
352.992	115.19
353.22	109.19
353.447	94.19
353.674	91.19
353.901	83.19
354.128	100.19
354.355	86.19
354.583	96.19
354.81	100.19
355.037	106.19
355.264	81.19
355.491	84.19
355.718	101.19
355.945	101.19
356.172	94.19
356.399	94.19
356.626	91.19
356.853	94.19
357.08	79.19
357.307	94.19
357.534	96.19
357.761	84.19
357.988	94.19
358.215	98.19
358.441	99.19
358.668	95.19
358.895	87.19
359.122	76.19
359.349	81.19
359.576	93.19
359.802	87.19
360.029	112.19
360.256	101.19
360.483	102.19
360.709	81.19
360.936	92.19
361.163	91.19
361.39	109.19
361.616	115.19
361.843	90.19
362.07	92.19
362.296	100.19
362.523	91.19
362.749	78.19
362.976	94.19
363.203	92.19
363.429	88.19
363.656	98.19
363.882	90.19
364.109	85.19
364.335	93.19
364.562	79.19
364.788	86.19
365.015	101.19
365.241	97.19
365.468	103.19
365.694	122.19
365.92	86.19
366.147	107.19
366.373	91.19
366.599	95.19
366.826	82.19
367.052	82.19
367.278	96.19
367.505	78.19
367.731	105.19
367.957	101.19
368.184	98.19
368.41	88.19
368.636	95.19
368.862	117.19
369.089	108.19
369.315	90.19
369.541	82.19
369.767	95.19
369.993	97.19
370.219	89.19
370.445	89.19
370.672	93.19
370.898	91.19
371.124	85.19
371.35	89.19
371.576	92.19
371.802	87.19
372.028	85.19
372.254	90.19
372.48	87.19
372.706	85.19
372.932	89.19
373.158	106.19
373.384	83.19
373.61	92.19
373.835	94.19
374.061	94.19
374.287	82.19
374.513	83.19
374.739	80.19
374.965	86.19
375.191	92.19
375.416	92.19
375.642	90.19
375.868	80.19
376.094	95.19
376.319	99.19
376.545	85.19
376.771	83.19
376.997	89.19
377.222	84.19
377.448	91.19
377.674	98.19
377.899	95.19
378.125	97.19
378.35	94.19
378.576	97.19
378.802	92.19
379.027	89.19
379.253	102.19
379.478	95.19
379.704	101.19
379.929	91.19
380.155	104.19
380.38	90.19
380.606	86.19
380.831	79.19
381.057	90.19
381.282	98.19
381.507	96.19
381.733	86.19
381.958	77.19
382.184	97.19
382.409	86.19
382.634	90.19
382.86	87.19
383.085	96.19
383.31	114.19
383.535	99.19
383.761	108.19
383.986	91.19
384.211	101.19
384.436	98.19
384.662	94.19
384.887	98.19
385.112	100.19
385.337	106.19
385.562	107.19
385.787	103.19
386.013	107.19
386.238	98.19
386.463	111.19
386.688	115.19
386.913	88.19
387.138	94.19
387.363	107.19
387.588	99.19
387.813	103.19
388.038	102.19
388.263	106.19
388.488	111.19
388.713	94.19
388.938	86.19
389.163	88.19
389.387	103.19
389.612	88.19
389.837	88.19
390.062	95.19
390.287	83.19
390.512	85.19
390.736	93.19
390.961	82.19
391.186	89.19
391.411	97.19
391.636	95.19
391.86	89.19
392.085	94.19
392.31	81.19
392.534	75.19
392.759	84.19
392.984	86.19
393.208	84.19
393.433	94.19
393.658	83.19
393.882	94.19
394.107	90.19
394.331	86.19
394.556	83.19
394.78	88.19
395.005	81.19
395.229	72.19
395.454	93.19
395.678	95.19
395.903	99.19
396.127	100.19
396.352	73.19
396.576	74.19
396.801	88.19
397.025	89.19
397.249	91.19
397.474	93.19
397.698	82.19
397.922	92.19
398.147	79.19
398.371	83.19
398.595	86.19
398.82	88.19
399.044	81.19
399.268	74.19
399.492	85.19
399.717	82.19
399.941	89.19
400.165	81.19
400.389	92.19
400.613	83.19
400.837	93.19
401.062	87.19
401.286	85.19
401.51	96.19
401.734	98.19
401.958	86.19
402.182	126.19
402.406	135.19
402.63	111.19
402.854	98.19
403.078	98.19
403.302	78.19
403.526	78.19
403.75	90.19
403.974	98.19
404.198	82.19
404.422	81.19
404.645	91.19
404.869	94.19
405.093	103.19
405.317	110.19
405.541	89.19
405.765	94.19
405.988	104.19
406.212	135.19
406.436	204.19
406.66	138.19
406.883	88.19
407.107	91.19
407.331	87.19
407.555	94.19
407.778	102.19
408.002	86.19
408.226	86.19
408.449	94.19
408.673	100.19
408.896	105.19
409.12	92.19
409.344	101.19
409.567	85.19
409.791	94.19
410.014	116.19
410.238	96.19
410.461	92.19
410.685	78.19
410.908	76.19
411.132	87.19
411.355	111.19
411.578	88.19
411.802	93.19
412.025	90.19
412.249	99.19
412.472	89.19
412.695	104.19
412.919	103.19
413.142	88.19
413.365	91.19
413.589	98.19
413.812	88.19
414.035	97.19
414.258	92.19
414.482	99.19
414.705	104.19
414.928	91.19
415.151	67.19
415.374	87.19
415.597	95.19
415.821	75.19
416.044	96.19
416.267	93.19
416.49	85.19
416.713	81.19
416.936	78.19
417.159	85.19
417.382	89.19
417.605	104.19
417.828	94.19
418.051	88.19
418.274	89.19
418.497	79.19
418.72	84.19
418.943	96.19
419.166	76.19
419.389	79.19
419.611	86.19
419.834	79.19
420.057	82.19
420.28	89.19
420.503	98.19
420.726	82.19
420.948	99.19
421.171	97.19
421.394	88.19
421.617	92.19
421.839	90.19
422.062	92.19
422.285	85.19
422.507	93.19
422.73	102.19
422.953	86.19
423.175	83.19
423.398	86.19
423.621	98.19
423.843	90.19
424.066	82.19
424.288	88.19
424.511	85.19
424.733	96.19
424.956	98.19
425.178	75.19
425.401	107.19
425.623	100.19
425.846	102.19
426.068	88.19
426.291	114.19
426.513	86.19
426.735	91.19
426.958	85.19
427.18	104.19
427.402	115.19
427.625	157.19
427.847	139.19
428.069	116.19
428.292	87.19
428.514	95.19
428.736	87.19
428.958	84.19
429.181	73.19
429.403	86.19
429.625	91.19
429.847	88.19
430.069	100.19
430.292	100.19
430.514	99.19
430.736	78.19
430.958	82.19
431.18	84.19
431.402	85.19
431.624	93.19
431.846	68.19
432.068	81.19
432.29	84.19
432.512	94.19
432.734	80.19
432.956	95.19
433.178	106.19
433.4	83.19
433.622	71.19
433.844	77.19
434.066	80.19
434.287	98.19
434.509	88.19
434.731	85.19
434.953	98.19
435.175	85.19
435.397	96.19
435.618	92.19
435.84	106.19
436.062	110.19
436.284	112.19
436.505	102.19
436.727	99.19
436.949	88.19
437.17	87.19
437.392	81.19
437.614	92.19
437.835	108.19
438.057	115.19
438.278	98.19
438.5	106.19
438.721	107.19
438.943	90.19
439.165	94.19
439.386	76.19
439.608	76.19
439.829	94.19
440.05	90.19
440.272	137.19
440.493	111.19
440.715	86.19
440.936	73.19
441.158	80.19
441.379	97.19
441.6	86.19
441.822	98.19
442.043	94.19
442.264	104.19
442.486	96.19
442.707	94.19
442.928	72.19
443.149	113.19
443.371	119.19
443.592	92.19
443.813	99.19
444.034	96.19
444.255	77.19
444.476	96.19
444.698	94.19
444.919	88.19
445.14	130.19
445.361	126.19
445.582	109.19
445.803	121.19
446.024	123.19
446.245	123.19
446.466	99.19
446.687	77.19
446.908	92.19
447.129	85.19
447.35	73.19
447.571	92.19
447.792	107.19
448.013	87.19
448.234	104.19
448.455	86.19
448.675	110.19
448.896	116.19
449.117	97.19
449.338	98.19
449.559	116.19
449.779	124.19
450	87.19
450.221	86.19
450.442	95.19
450.662	98.19
450.883	90.19
451.104	108.19
451.324	106.19
451.545	84.19
451.766	90.19
451.986	91.19
452.207	96.19
452.428	77.19
452.648	80.19
452.869	93.19
453.089	111.19
453.31	120.19
453.53	92.19
453.751	101.19
453.971	101.19
454.192	105.19
454.412	95.19
454.633	82.19
454.853	81.19
455.073	87.19
455.294	85.19
455.514	96.19
455.734	88.19
455.955	83.19
456.175	80.19
456.395	98.19
456.616	99.19
456.836	95.19
457.056	87.19
457.276	78.19
457.497	97.19
457.717	80.19
457.937	102.19
458.157	87.19
458.377	94.19
458.598	90.19
458.818	140.19
459.038	144.19
459.258	100.19
459.478	93.19
459.698	75.19
459.918	88.19
460.138	96.19
460.358	70.19
460.578	94.19
460.798	88.19
461.018	90.19
461.238	84.19
461.458	95.19
461.678	63.19
461.898	93.19
462.118	83.19
462.338	83.19
462.558	84.19
462.777	91.19
462.997	84.19
463.217	79.19
463.437	90.19
463.657	83.19
463.876	87.19
464.096	90.19
464.316	92.19
464.536	84.19
464.755	91.19
464.975	121.19
465.195	144.19
465.414	131.19
465.634	102.19
465.854	91.19
466.073	94.19
466.293	93.19
466.512	79.19
466.732	88.19
466.951	74.19
467.171	95.19
467.391	87.19
467.61	115.19
467.829	106.19
468.049	126.19
468.268	145.19
468.488	95.19
468.707	73.19
468.927	81.19
469.146	79.19
469.365	84.19
469.585	86.19
469.804	81.19
470.023	92.19
470.243	87.19
470.462	98.19
470.681	101.19
470.901	78.19
471.12	96.19
471.339	89.19
471.558	86.19
471.777	77.19
471.997	110.19
472.216	193.19
472.435	331.19
472.654	144.19
472.873	95.19
473.092	94.19
473.311	91.19
473.53	84.19
473.749	92.19
473.968	78.19
474.187	79.19
474.406	94.19
474.625	92.19
474.844	76.19
475.063	87.19
475.282	80.19
475.501	99.19
475.72	93.19
475.939	87.19
476.158	92.19
476.377	90.19
476.596	74.19
476.814	91.19
477.033	79.19
477.252	89.19
477.471	76.19
477.69	85.19
477.908	92.19
478.127	80.19
478.346	81.19
478.564	94.19
478.783	100.19
479.002	88.19
479.22	98.19
479.439	116.19
479.658	95.19
479.876	95.19
480.095	107.19
480.313	84.19
480.532	104.19
480.751	116.19
480.969	194.19
481.188	551.19
481.406	356.19
481.624	113.19
481.843	88.19
482.061	84.19
482.28	78.19
482.498	86.19
482.717	90.19
482.935	90.19
483.153	93.19
483.372	80.19
483.59	80.19
483.808	83.19
484.027	93.19
484.245	88.19
484.463	90.19
484.681	92.19
484.9	90.19
485.118	92.19
485.336	88.19
485.554	101.19
485.772	95.19
485.99	90.19
486.209	90.19
486.427	114.19
486.645	116.19
486.863	111.19
487.081	92.19
487.299	78.19
487.517	100.19
487.735	86.19
487.953	94.19
488.171	85.19
488.389	87.19
488.607	77.19
488.825	81.19
489.043	83.19
489.261	86.19
489.479	94.19
489.696	94.19
489.914	83.19
490.132	86.19
490.35	85.19
490.568	81.19
490.786	86.19
491.003	88.19
491.221	92.19
491.439	89.19
491.657	106.19
491.874	99.19
492.092	108.19
492.31	95.19
492.527	85.19
492.745	92.19
492.963	83.19
493.18	90.19
493.398	83.19
493.615	102.19
493.833	84.19
494.05	86.19
494.268	83.19
494.485	85.19
494.703	93.19
494.92	78.19
495.138	87.19
495.355	97.19
495.573	93.19
495.79	86.19
496.008	84.19
496.225	88.19
496.442	98.19
496.66	90.19
496.877	100.19
497.094	92.19
497.312	83.19
497.529	88.19
497.746	99.19
497.963	74.19
498.181	85.19
498.398	88.19
498.615	101.19
498.832	95.19
499.049	88.19
499.267	82.19
499.484	84.19
499.701	86.19
499.918	99.19
500.135	93.19
500.352	92.19
500.569	86.19
500.786	98.19
501.003	95.19
501.22	95.19
501.437	86.19
501.654	92.19
501.871	102.19
502.088	82.19
502.305	92.19
502.522	72.19
502.739	77.19
502.956	97.19
503.172	91.19
503.389	93.19
503.606	100.19
503.823	100.19
504.04	82.19
504.256	90.19
504.473	81.19
504.69	96.19
504.907	86.19
505.123	89.19
505.34	82.19
505.557	94.19
505.773	94.19
505.99	95.19
506.207	95.19
506.423	77.19
506.64	79.19
506.856	84.19
507.073	84.19
507.289	82.19
507.506	86.19
507.722	102.19
507.939	101.19
508.155	95.19
508.372	90.19
508.588	85.19
508.805	90.19
509.021	84.19
509.238	87.19
509.454	82.19
509.67	101.19
509.887	110.19
510.103	125.19
510.319	203.19
510.536	662.19
510.752	2087.19
510.968	591.19
511.184	148.19
511.401	116.19
511.617	88.19
511.833	92.19
512.049	101.19
512.265	90.19
512.481	68.19
512.698	102.19
512.914	98.19
513.13	91.19
513.346	81.19
513.562	76.19
513.778	80.19
513.994	96.19
514.21	94.19
514.426	108.19
514.642	109.19
514.858	126.19
515.074	158.19
515.29	393.19
515.506	1266.19
515.721	480.19
515.937	154.19
516.153	133.19
516.369	82.19
