Data from Circ_2005_H10_HRD10591_00033.txt Node
Date: Wed Jan 03 10:29:57 EST 2024
User: Yrep
Spectrometer: HR+D1059
Trigger mode: 1
Integration Time (sec): 1.000000E-1
Scans to average: 1
Electric dark correction enabled: true
Nonlinearity correction enabled: false
Boxcar width: 0
XAxis mode: Wavelengths
Number of Pixels in Spectrum: 2048
>>>>>Begin Spectral Data<<<<<
223.165	-9.75
223.4	-9.75
223.635	-9.75
223.869	-17.75
224.104	-22.75
224.338	-22.75
224.573	-13.75
224.808	-14.75
225.042	-9.75
225.277	-6.75
225.511	10.25
225.746	-6.75
225.98	13.25
226.215	16.25
226.449	15.25
226.683	25.25
226.918	17.25
227.152	27.25
227.387	48.25
227.621	36.25
227.856	49.25
228.09	46.25
228.324	45.25
228.559	50.25
228.793	50.25
229.027	71.25
229.262	52.25
229.496	79.25
229.73	88.25
229.964	78.25
230.199	65.25
230.433	87.25
230.667	90.25
230.901	81.25
231.136	88.25
231.37	64.25
231.604	81.25
231.838	85.25
232.072	85.25
232.306	91.25
232.541	82.25
232.775	85.25
233.009	73.25
233.243	81.25
233.477	73.25
233.711	84.25
233.945	90.25
234.179	87.25
234.413	81.25
234.647	80.25
234.881	78.25
235.115	75.25
235.349	81.25
235.583	83.25
235.817	87.25
236.051	73.25
236.285	79.25
236.519	90.25
236.753	76.25
236.987	85.25
237.221	94.25
237.455	78.25
237.689	83.25
237.922	86.25
238.156	69.25
238.39	82.25
238.624	75.25
238.858	82.25
239.091	83.25
239.325	83.25
239.559	90.25
239.793	76.25
240.027	85.25
240.26	80.25
240.494	70.25
240.728	80.25
240.961	75.25
241.195	78.25
241.429	72.25
241.662	82.25
241.896	76.25
242.13	82.25
242.363	84.25
242.597	81.25
242.83	72.25
243.064	83.25
243.298	78.25
243.531	70.25
243.765	88.25
243.998	73.25
244.232	99.25
244.465	74.25
244.699	89.25
244.932	92.25
245.166	93.25
245.399	81.25
245.633	85.25
245.866	78.25
246.099	89.25
246.333	81.25
246.566	72.25
246.8	86.25
247.033	86.25
247.266	82.25
247.5	86.25
247.733	84.25
247.966	89.25
248.2	87.25
248.433	78.25
248.666	96.25
248.899	98.25
249.133	86.25
249.366	93.25
249.599	80.25
249.832	74.25
250.066	79.25
250.299	84.25
250.532	77.25
250.765	86.25
250.998	87.25
251.231	88.25
251.465	77.25
251.698	87.25
251.931	89.25
252.164	86.25
252.397	81.25
252.63	86.25
252.863	87.25
253.096	73.25
253.329	99.25
253.562	86.25
253.795	77.25
254.028	95.25
254.261	81.25
254.494	79.25
254.727	66.25
254.96	84.25
255.193	75.25
255.426	77.25
255.659	74.25
255.892	82.25
256.124	83.25
256.357	79.25
256.59	65.25
256.823	73.25
257.056	97.25
257.289	89.25
257.521	86.25
257.754	88.25
257.987	68.25
258.22	95.25
258.452	87.25
258.685	88.25
258.918	95.25
259.151	69.25
259.383	88.25
259.616	79.25
259.849	96.25
260.081	81.25
260.314	67.25
260.547	94.25
260.779	91.25
261.012	86.25
261.244	75.25
261.477	78.25
261.71	91.25
261.942	102.25
262.175	111.25
262.407	96.25
262.64	86.25
262.872	77.25
263.105	86.25
263.337	82.25
263.57	87.25
263.802	76.25
264.035	86.25
264.267	94.25
264.499	93.25
264.732	84.25
264.964	102.25
265.197	89.25
265.429	93.25
265.661	93.25
265.894	88.25
266.126	82.25
266.358	96.25
266.591	79.25
266.823	84.25
267.055	86.25
267.287	81.25
267.52	86.25
267.752	89.25
267.984	89.25
268.216	82.25
268.448	100.25
268.681	82.25
268.913	99.25
269.145	90.25
269.377	88.25
269.609	83.25
269.841	84.25
270.073	93.25
270.306	90.25
270.538	97.25
270.77	83.25
271.002	82.25
271.234	85.25
271.466	72.25
271.698	90.25
271.93	79.25
272.162	89.25
272.394	99.25
272.626	92.25
272.858	79.25
273.09	91.25
273.322	87.25
273.553	92.25
273.785	97.25
274.017	87.25
274.249	86.25
274.481	95.25
274.713	87.25
274.945	91.25
275.176	97.25
275.408	97.25
275.64	90.25
275.872	95.25
276.104	87.25
276.335	90.25
276.567	94.25
276.799	114.25
277.031	99.25
277.262	96.25
277.494	118.25
277.726	91.25
277.957	87.25
278.189	93.25
278.421	97.25
278.652	77.25
278.884	86.25
279.115	85.25
279.347	87.25
279.579	81.25
279.81	85.25
280.042	92.25
280.273	88.25
280.505	90.25
280.736	78.25
280.968	91.25
281.199	80.25
281.431	70.25
281.662	81.25
281.894	88.25
282.125	106.25
282.356	113.25
282.588	139.25
282.819	127.25
283.051	79.25
283.282	97.25
283.513	73.25
283.745	77.25
283.976	95.25
284.207	94.25
284.439	77.25
284.67	78.25
284.901	90.25
285.132	87.25
285.364	87.25
285.595	86.25
285.826	93.25
286.057	87.25
286.288	88.25
286.52	80.25
286.751	98.25
286.982	91.25
287.213	97.25
287.444	95.25
287.675	84.25
287.906	85.25
288.138	103.25
288.369	81.25
288.6	91.25
288.831	94.25
289.062	84.25
289.293	98.25
289.524	89.25
289.755	94.25
289.986	90.25
290.217	87.25
290.448	86.25
290.679	90.25
290.91	84.25
291.141	87.25
291.371	103.25
291.602	94.25
291.833	85.25
292.064	69.25
292.295	94.25
292.526	99.25
292.757	93.25
292.987	96.25
293.218	89.25
293.449	83.25
293.68	93.25
293.91	94.25
294.141	94.25
294.372	98.25
294.603	111.25
294.833	93.25
295.064	81.25
295.295	82.25
295.525	92.25
295.756	117.25
295.987	94.25
296.217	134.25
296.448	125.25
296.679	99.25
296.909	84.25
297.14	98.25
297.37	103.25
297.601	104.25
297.831	104.25
298.062	90.25
298.292	89.25
298.523	94.25
298.753	79.25
298.984	89.25
299.214	87.25
299.445	87.25
299.675	88.25
299.905	100.25
300.136	105.25
300.366	101.25
300.597	114.25
300.827	89.25
301.057	95.25
301.288	88.25
301.518	87.25
301.748	93.25
301.979	102.25
302.209	85.25
302.439	82.25
302.669	91.25
302.9	100.25
303.13	95.25
303.36	104.25
303.59	112.25
303.82	113.25
304.051	95.25
304.281	92.25
304.511	100.25
304.741	98.25
304.971	92.25
305.201	95.25
305.431	81.25
305.661	85.25
305.891	89.25
306.121	88.25
306.352	97.25
306.582	104.25
306.812	83.25
307.042	93.25
307.272	86.25
307.502	99.25
307.731	84.25
307.961	93.25
308.191	93.25
308.421	101.25
308.651	95.25
308.881	87.25
309.111	103.25
309.341	105.25
309.571	96.25
309.8	107.25
310.03	84.25
310.26	94.25
310.49	95.25
310.72	90.25
310.949	92.25
311.179	95.25
311.409	103.25
311.639	96.25
311.868	95.25
312.098	97.25
312.328	79.25
312.557	93.25
312.787	118.25
313.017	94.25
313.246	94.25
313.476	87.25
313.706	85.25
313.935	92.25
314.165	107.25
314.394	110.25
314.624	97.25
314.853	92.25
315.083	87.25
315.312	80.25
315.542	98.25
315.771	94.25
316.001	95.25
316.23	108.25
316.46	96.25
316.689	95.25
316.919	99.25
317.148	109.25
317.377	99.25
317.607	91.25
317.836	84.25
318.065	108.25
318.295	85.25
318.524	94.25
318.753	100.25
318.983	93.25
319.212	96.25
319.441	104.25
319.67	111.25
319.9	104.25
320.129	96.25
320.358	92.25
320.587	107.25
320.816	95.25
321.046	103.25
321.275	105.25
321.504	94.25
321.733	108.25
321.962	98.25
322.191	100.25
322.42	104.25
322.649	108.25
322.878	119.25
323.108	117.25
323.337	132.25
323.566	138.25
323.795	165.25
324.024	235.25
324.253	427.25
324.482	926.25
324.71	1917.25
324.939	2517.25
325.168	891.25
325.397	253.25
325.626	162.25
325.855	119.25
326.084	131.25
326.313	158.25
326.542	173.25
326.77	244.25
326.999	515.25
327.228	1041.25
327.457	1933.25
327.686	1555.25
327.914	396.25
328.143	207.25
328.372	161.25
328.6	137.25
328.829	113.25
329.058	132.25
329.287	126.25
329.515	127.25
329.744	105.25
329.972	115.25
330.201	137.25
330.43	146.25
330.658	144.25
330.887	144.25
331.115	131.25
331.344	97.25
331.572	97.25
331.801	108.25
332.03	108.25
332.258	99.25
332.486	87.25
332.715	89.25
332.943	89.25
333.172	97.25
333.4	82.25
333.629	94.25
333.857	121.25
334.085	114.25
334.314	117.25
334.542	137.25
334.771	121.25
334.999	95.25
335.227	111.25
335.455	94.25
335.684	108.25
335.912	93.25
336.14	88.25
336.369	103.25
336.597	109.25
336.825	114.25
337.053	103.25
337.281	108.25
337.51	98.25
337.738	105.25
337.966	95.25
338.194	109.25
338.422	105.25
338.65	99.25
338.878	95.25
339.106	84.25
339.334	83.25
339.562	86.25
339.79	85.25
340.018	86.25
340.246	90.25
340.474	101.25
340.702	97.25
340.93	98.25
341.158	96.25
341.386	101.25
341.614	91.25
341.842	83.25
342.07	96.25
342.298	104.25
342.526	103.25
342.754	105.25
342.981	92.25
343.209	110.25
343.437	101.25
343.665	88.25
343.893	86.25
344.12	98.25
344.348	88.25
344.576	89.25
344.804	87.25
345.031	106.25
345.259	97.25
345.487	101.25
345.714	85.25
345.942	97.25
346.17	85.25
346.397	104.25
346.625	96.25
346.853	104.25
347.08	103.25
347.308	80.25
347.535	106.25
347.763	105.25
347.99	119.25
348.218	123.25
348.445	107.25
348.673	110.25
348.9	89.25
349.128	91.25
349.355	94.25
349.583	85.25
349.81	86.25
350.037	94.25
350.265	84.25
350.492	94.25
350.72	101.25
350.947	110.25
351.174	126.25
351.402	122.25
351.629	110.25
351.856	103.25
352.083	97.25
352.311	105.25
352.538	110.25
352.765	115.25
352.992	106.25
353.22	120.25
353.447	114.25
353.674	116.25
353.901	86.25
354.128	106.25
354.355	102.25
354.583	105.25
354.81	101.25
355.037	105.25
355.264	99.25
355.491	95.25
355.718	106.25
355.945	86.25
356.172	97.25
356.399	102.25
356.626	98.25
356.853	94.25
357.08	87.25
357.307	82.25
357.534	100.25
357.761	88.25
357.988	96.25
358.215	103.25
358.441	105.25
358.668	90.25
358.895	104.25
359.122	80.25
359.349	87.25
359.576	87.25
359.802	95.25
360.029	112.25
360.256	111.25
360.483	93.25
360.709	91.25
360.936	102.25
361.163	90.25
361.39	91.25
361.616	104.25
361.843	106.25
362.07	103.25
362.296	101.25
362.523	96.25
362.749	90.25
362.976	93.25
363.203	88.25
363.429	94.25
363.656	93.25
363.882	89.25
364.109	100.25
364.335	93.25
364.562	99.25
364.788	85.25
365.015	97.25
365.241	108.25
365.468	105.25
365.694	87.25
365.92	100.25
366.147	87.25
366.373	100.25
366.599	91.25
366.826	88.25
367.052	80.25
367.278	90.25
367.505	97.25
367.731	95.25
367.957	95.25
368.184	90.25
368.41	100.25
368.636	124.25
368.862	120.25
369.089	88.25
369.315	88.25
369.541	85.25
369.767	97.25
369.993	107.25
370.219	103.25
370.445	101.25
370.672	95.25
370.898	94.25
371.124	90.25
371.35	87.25
371.576	79.25
371.802	97.25
372.028	87.25
372.254	89.25
372.48	82.25
372.706	100.25
372.932	89.25
373.158	83.25
373.384	101.25
373.61	90.25
373.835	74.25
374.061	91.25
374.287	111.25
374.513	100.25
374.739	95.25
374.965	91.25
375.191	85.25
375.416	87.25
375.642	88.25
375.868	107.25
376.094	87.25
376.319	86.25
376.545	91.25
376.771	85.25
376.997	92.25
377.222	87.25
377.448	74.25
377.674	100.25
377.899	97.25
378.125	96.25
378.35	104.25
378.576	85.25
378.802	93.25
379.027	109.25
379.253	109.25
379.478	89.25
379.704	104.25
379.929	98.25
380.155	107.25
380.38	107.25
380.606	98.25
380.831	99.25
381.057	104.25
381.282	104.25
381.507	102.25
381.733	118.25
381.958	105.25
382.184	91.25
382.409	100.25
382.634	92.25
382.86	104.25
383.085	106.25
383.31	111.25
383.535	111.25
383.761	109.25
383.986	112.25
384.211	95.25
384.436	108.25
384.662	96.25
384.887	108.25
385.112	111.25
385.337	109.25
385.562	92.25
385.787	92.25
386.013	123.25
386.238	111.25
386.463	110.25
386.688	106.25
386.913	101.25
387.138	115.25
387.363	109.25
387.588	109.25
387.813	105.25
388.038	104.25
388.263	113.25
388.488	108.25
388.713	99.25
388.938	102.25
389.163	97.25
389.387	112.25
389.612	104.25
389.837	94.25
390.062	99.25
390.287	89.25
390.512	87.25
390.736	90.25
390.961	89.25
391.186	88.25
391.411	96.25
391.636	94.25
391.86	89.25
392.085	89.25
392.31	93.25
392.534	98.25
392.759	76.25
392.984	91.25
393.208	83.25
393.433	102.25
393.658	96.25
393.882	91.25
394.107	89.25
394.331	83.25
394.556	89.25
394.78	104.25
395.005	86.25
395.229	85.25
395.454	91.25
395.678	92.25
395.903	77.25
396.127	91.25
396.352	94.25
396.576	93.25
396.801	106.25
397.025	101.25
397.249	94.25
397.474	81.25
397.698	91.25
397.922	82.25
398.147	88.25
398.371	83.25
398.595	81.25
398.82	79.25
399.044	88.25
399.268	94.25
399.492	87.25
399.717	83.25
399.941	92.25
400.165	96.25
400.389	101.25
400.613	98.25
400.837	81.25
401.062	88.25
401.286	87.25
401.51	95.25
401.734	86.25
401.958	102.25
402.182	128.25
402.406	169.25
402.63	123.25
402.854	91.25
403.078	102.25
403.302	101.25
403.526	81.25
403.75	91.25
403.974	103.25
404.198	85.25
404.422	105.25
404.645	85.25
404.869	86.25
405.093	96.25
405.317	95.25
405.541	91.25
405.765	94.25
405.988	114.25
406.212	170.25
406.436	238.25
406.66	146.25
406.883	117.25
407.107	98.25
407.331	82.25
407.555	98.25
407.778	99.25
408.002	95.25
408.226	91.25
408.449	94.25
408.673	82.25
408.896	101.25
409.12	103.25
409.344	100.25
409.567	101.25
409.791	102.25
410.014	100.25
410.238	108.25
410.461	95.25
410.685	90.25
410.908	110.25
411.132	107.25
411.355	93.25
411.578	97.25
411.802	77.25
412.025	83.25
412.249	93.25
412.472	104.25
412.695	105.25
412.919	96.25
413.142	105.25
413.365	103.25
413.589	85.25
413.812	100.25
414.035	99.25
414.258	75.25
414.482	97.25
414.705	95.25
414.928	81.25
415.151	85.25
415.374	81.25
415.597	92.25
415.821	90.25
416.044	93.25
416.267	89.25
416.49	86.25
416.713	92.25
416.936	85.25
417.159	86.25
417.382	86.25
417.605	87.25
417.828	99.25
418.051	93.25
418.274	93.25
418.497	78.25
418.72	96.25
418.943	72.25
419.166	79.25
419.389	80.25
419.611	91.25
419.834	79.25
420.057	96.25
420.28	95.25
420.503	98.25
420.726	98.25
420.948	97.25
421.171	94.25
421.394	99.25
421.617	91.25
421.839	101.25
422.062	90.25
422.285	116.25
422.507	86.25
422.73	101.25
422.953	79.25
423.175	86.25
423.398	96.25
423.621	82.25
423.843	96.25
424.066	86.25
424.288	101.25
424.511	93.25
424.733	96.25
424.956	125.25
425.178	98.25
425.401	85.25
425.623	98.25
425.846	101.25
426.068	100.25
426.291	101.25
426.513	97.25
426.735	81.25
426.958	98.25
427.18	103.25
427.402	154.25
427.625	181.25
427.847	135.25
428.069	120.25
428.292	100.25
428.514	80.25
428.736	93.25
428.958	105.25
429.181	82.25
429.403	93.25
429.625	86.25
429.847	96.25
430.069	96.25
430.292	107.25
430.514	78.25
430.736	75.25
430.958	93.25
431.18	91.25
431.402	95.25
431.624	86.25
431.846	98.25
432.068	81.25
432.29	105.25
432.512	86.25
432.734	73.25
432.956	96.25
433.178	104.25
433.4	110.25
433.622	94.25
433.844	88.25
434.066	95.25
434.287	88.25
434.509	102.25
434.731	99.25
434.953	103.25
435.175	90.25
435.397	95.25
435.618	107.25
435.84	98.25
436.062	128.25
436.284	109.25
436.505	106.25
436.727	126.25
436.949	84.25
437.17	81.25
437.392	90.25
437.614	76.25
437.835	116.25
438.057	115.25
438.278	105.25
438.5	113.25
438.721	126.25
438.943	104.25
439.165	102.25
439.386	81.25
439.608	88.25
439.829	99.25
440.05	124.25
440.272	149.25
440.493	102.25
440.715	87.25
440.936	95.25
441.158	92.25
441.379	95.25
441.6	81.25
441.822	95.25
442.043	95.25
442.264	115.25
442.486	101.25
442.707	97.25
442.928	110.25
443.149	117.25
443.371	122.25
443.592	118.25
443.813	114.25
444.034	107.25
444.255	99.25
444.476	105.25
444.698	95.25
444.919	80.25
445.14	137.25
445.361	126.25
445.582	121.25
445.803	141.25
446.024	141.25
446.245	153.25
446.466	124.25
446.687	96.25
446.908	97.25
447.129	86.25
447.35	82.25
447.571	90.25
447.792	92.25
448.013	113.25
448.234	102.25
448.455	109.25
448.675	112.25
448.896	115.25
449.117	103.25
449.338	96.25
449.559	133.25
449.779	141.25
450	107.25
450.221	93.25
450.442	91.25
450.662	107.25
450.883	110.25
451.104	100.25
451.324	91.25
451.545	102.25
451.766	72.25
451.986	98.25
452.207	97.25
452.428	114.25
452.648	97.25
452.869	118.25
453.089	122.25
453.31	114.25
453.53	101.25
453.751	82.25
453.971	84.25
454.192	127.25
454.412	101.25
454.633	94.25
454.853	85.25
455.073	88.25
455.294	96.25
455.514	90.25
455.734	91.25
455.955	89.25
456.175	94.25
456.395	97.25
456.616	93.25
456.836	82.25
457.056	104.25
457.276	71.25
457.497	91.25
457.717	79.25
457.937	67.25
458.157	81.25
458.377	79.25
458.598	110.25
458.818	144.25
459.038	157.25
459.258	119.25
459.478	105.25
459.698	91.25
459.918	85.25
460.138	96.25
460.358	95.25
460.578	85.25
460.798	98.25
461.018	85.25
461.238	95.25
461.458	84.25
461.678	92.25
461.898	91.25
462.118	95.25
462.338	83.25
462.558	92.25
462.777	103.25
462.997	94.25
463.217	74.25
463.437	92.25
463.657	79.25
463.876	94.25
464.096	91.25
464.316	86.25
464.536	94.25
464.755	88.25
464.975	103.25
465.195	173.25
465.414	165.25
465.634	102.25
465.854	86.25
466.073	91.25
466.293	95.25
466.512	86.25
466.732	100.25
466.951	96.25
467.171	86.25
467.391	103.25
467.61	102.25
467.829	100.25
468.049	88.25
468.268	111.25
468.488	94.25
468.707	78.25
468.927	84.25
469.146	94.25
469.365	91.25
469.585	91.25
469.804	93.25
470.023	99.25
470.243	106.25
470.462	110.25
470.681	105.25
470.901	90.25
471.12	91.25
471.339	96.25
471.558	87.25
471.777	89.25
471.997	96.25
472.216	105.25
472.435	153.25
472.654	95.25
472.873	85.25
473.092	82.25
473.311	93.25
473.53	86.25
473.749	88.25
473.968	86.25
474.187	107.25
474.406	95.25
474.625	71.25
474.844	80.25
475.063	83.25
475.282	95.25
475.501	95.25
475.72	89.25
475.939	85.25
476.158	86.25
476.377	86.25
476.596	86.25
476.814	98.25
477.033	91.25
477.252	87.25
477.471	81.25
477.69	107.25
477.908	93.25
478.127	94.25
478.346	95.25
478.564	88.25
478.783	99.25
479.002	96.25
479.22	99.25
479.439	92.25
479.658	100.25
479.876	107.25
480.095	84.25
480.313	100.25
480.532	95.25
480.751	94.25
480.969	108.25
481.188	173.25
481.406	144.25
481.624	108.25
481.843	86.25
482.061	86.25
482.28	82.25
482.498	97.25
482.717	105.25
482.935	92.25
483.153	96.25
483.372	88.25
483.59	91.25
483.808	94.25
484.027	94.25
484.245	88.25
484.463	91.25
484.681	98.25
484.9	105.25
485.118	98.25
485.336	91.25
485.554	97.25
485.772	82.25
485.99	102.25
486.209	105.25
486.427	98.25
486.645	131.25
486.863	119.25
487.081	113.25
487.299	105.25
487.517	91.25
487.735	97.25
487.953	97.25
488.171	104.25
488.389	102.25
488.607	98.25
488.825	80.25
489.043	101.25
489.261	96.25
489.479	78.25
489.696	89.25
489.914	91.25
490.132	83.25
490.35	88.25
490.568	85.25
490.786	90.25
491.003	94.25
491.221	99.25
491.439	100.25
491.657	94.25
491.874	87.25
492.092	81.25
492.31	97.25
492.527	102.25
492.745	100.25
492.963	86.25
493.18	86.25
493.398	92.25
493.615	88.25
493.833	101.25
494.05	78.25
494.268	96.25
494.485	89.25
494.703	93.25
494.92	95.25
495.138	83.25
495.355	81.25
495.573	88.25
495.79	101.25
496.008	93.25
496.225	100.25
496.442	94.25
496.66	92.25
496.877	95.25
497.094	99.25
497.312	91.25
497.529	96.25
497.746	89.25
497.963	85.25
498.181	95.25
498.398	97.25
498.615	114.25
498.832	107.25
499.049	90.25
499.267	92.25
499.484	87.25
499.701	99.25
499.918	99.25
500.135	97.25
500.352	86.25
500.569	89.25
500.786	74.25
501.003	94.25
501.22	90.25
501.437	104.25
501.654	99.25
501.871	104.25
502.088	110.25
502.305	88.25
502.522	98.25
502.739	80.25
502.956	101.25
503.172	104.25
503.389	105.25
503.606	105.25
503.823	105.25
504.04	87.25
504.256	92.25
504.473	89.25
504.69	99.25
504.907	101.25
505.123	85.25
505.34	105.25
505.557	104.25
505.773	97.25
505.99	87.25
506.207	98.25
506.423	98.25
506.64	81.25
506.856	91.25
507.073	104.25
507.289	106.25
507.506	98.25
507.722	137.25
507.939	107.25
508.155	92.25
508.372	84.25
508.588	96.25
508.805	85.25
509.021	105.25
509.238	95.25
509.454	98.25
509.67	102.25
509.887	112.25
510.103	132.25
510.319	217.25
510.536	746.25
510.752	2571.25
510.968	733.25
511.184	173.25
511.401	103.25
511.617	97.25
511.833	91.25
512.049	103.25
512.265	93.25
512.481	99.25
512.698	86.25
512.914	91.25
513.13	107.25
513.346	104.25
513.562	91.25
513.778	89.25
513.994	98.25
514.21	97.25
514.426	118.25
