Data from Circ_2005_H10_HRD10591_00002.txt Node
Date: Wed Jan 03 10:29:51 EST 2024
User: Yrep
Spectrometer: HR+D1059
Trigger mode: 1
Integration Time (sec): 1.000000E-1
Scans to average: 1
Electric dark correction enabled: true
Nonlinearity correction enabled: false
Boxcar width: 0
XAxis mode: Wavelengths
Number of Pixels in Spectrum: 2048
>>>>>Begin Spectral Data<<<<<
223.165	-20
223.4	-20
223.635	-20
223.869	-28
224.104	-19
224.338	-6
224.573	-22
224.808	-4
225.042	6
225.277	-3
225.511	10
225.746	-1
225.98	-2
226.215	12
226.449	21
226.683	16
226.918	10
227.152	30
227.387	25
227.621	44
227.856	36
228.09	36
228.324	39
228.559	66
228.793	48
229.027	68
229.262	71
229.496	74
229.73	78
229.964	74
230.199	56
230.433	77
230.667	67
230.901	56
231.136	79
231.37	78
231.604	83
231.838	84
232.072	72
232.306	65
232.541	88
232.775	90
233.009	72
233.243	76
233.477	70
233.711	82
233.945	95
234.179	80
234.413	88
234.647	85
234.881	66
235.115	76
235.349	85
235.583	85
235.817	86
236.051	83
236.285	68
236.519	90
236.753	58
236.987	95
237.221	68
237.455	76
237.689	77
237.922	59
238.156	75
238.39	64
238.624	67
238.858	77
239.091	75
239.325	56
239.559	91
239.793	66
240.027	80
240.26	82
240.494	77
240.728	61
240.961	50
241.195	86
241.429	65
241.662	72
241.896	72
242.13	60
242.363	58
242.597	75
242.83	73
243.064	80
243.298	79
243.531	68
243.765	74
243.998	72
244.232	74
244.465	68
244.699	83
244.932	67
245.166	64
245.399	91
245.633	77
245.866	72
246.099	77
246.333	85
246.566	69
246.8	68
247.033	81
247.266	82
247.5	71
247.733	75
247.966	98
248.2	68
248.433	89
248.666	78
248.899	88
249.133	93
249.366	89
249.599	73
249.832	83
250.066	89
250.299	89
250.532	77
250.765	79
250.998	76
251.231	81
251.465	76
251.698	76
251.931	64
252.164	80
252.397	72
252.63	75
252.863	81
253.096	80
253.329	63
253.562	85
253.795	72
254.028	72
254.261	77
254.494	78
254.727	80
254.96	75
255.193	67
255.426	81
255.659	82
255.892	84
256.124	71
256.357	71
256.59	70
256.823	79
257.056	81
257.289	74
257.521	79
257.754	69
257.987	78
258.22	78
258.452	71
258.685	70
258.918	70
259.151	69
259.383	72
259.616	93
259.849	81
260.081	88
260.314	82
260.547	73
260.779	85
261.012	94
261.244	74
261.477	104
261.71	81
261.942	113
262.175	115
262.407	82
262.64	91
262.872	88
263.105	77
263.337	85
263.57	78
263.802	79
264.035	81
264.267	73
264.499	81
264.732	84
264.964	86
265.197	71
265.429	68
265.661	65
265.894	97
266.126	81
266.358	88
266.591	69
266.823	74
267.055	82
267.287	89
267.52	84
267.752	88
267.984	96
268.216	82
268.448	73
268.681	77
268.913	78
269.145	72
269.377	74
269.609	80
269.841	79
270.073	75
270.306	88
270.538	75
270.77	67
271.002	96
271.234	73
271.466	73
271.698	75
271.93	77
272.162	87
272.394	93
272.626	80
272.858	72
273.09	78
273.322	80
273.553	84
273.785	81
274.017	87
274.249	87
274.481	85
274.713	82
274.945	84
275.176	86
275.408	89
275.64	73
275.872	83
276.104	86
276.335	78
276.567	84
276.799	108
277.031	86
277.262	91
277.494	84
277.726	81
277.957	83
278.189	70
278.421	72
278.652	86
278.884	81
279.115	81
279.347	97
279.579	81
279.81	83
280.042	94
280.273	92
280.505	75
280.736	90
280.968	74
281.199	89
281.431	96
281.662	78
281.894	77
282.125	84
282.356	99
282.588	135
282.819	104
283.051	96
283.282	89
283.513	78
283.745	77
283.976	80
284.207	88
284.439	87
284.67	87
284.901	78
285.132	79
285.364	93
285.595	92
285.826	93
286.057	73
286.288	86
286.52	66
286.751	78
286.982	82
287.213	84
287.444	70
287.675	76
287.906	81
288.138	85
288.369	96
288.6	89
288.831	83
289.062	91
289.293	77
289.524	81
289.755	91
289.986	81
290.217	65
290.448	76
290.679	79
290.91	74
291.141	78
291.371	83
291.602	75
291.833	92
292.064	97
292.295	85
292.526	96
292.757	89
292.987	90
293.218	78
293.449	83
293.68	86
293.91	63
294.141	84
294.372	70
294.603	76
294.833	75
295.064	79
295.295	82
295.525	82
295.756	94
295.987	121
296.217	124
296.448	112
296.679	88
296.909	86
297.14	88
297.37	86
297.601	88
297.831	83
298.062	92
298.292	75
298.523	76
298.753	78
298.984	86
299.214	84
299.445	70
299.675	89
299.905	79
300.136	93
300.366	72
300.597	101
300.827	92
301.057	99
301.288	86
301.518	98
301.748	86
301.979	104
302.209	96
302.439	88
302.669	84
302.9	84
303.13	86
303.36	91
303.59	89
303.82	97
304.051	95
304.281	86
304.511	88
304.741	87
304.971	80
305.201	82
305.431	103
305.661	89
305.891	84
306.121	91
306.352	91
306.582	101
306.812	89
307.042	78
307.272	89
307.502	94
307.731	80
307.961	76
308.191	70
308.421	89
308.651	78
308.881	86
309.111	88
309.341	105
309.571	99
309.8	96
310.03	89
310.26	100
310.49	80
310.72	90
310.949	102
311.179	101
311.409	83
311.639	83
311.868	92
312.098	85
312.328	94
312.557	92
312.787	103
313.017	88
313.246	86
313.476	79
313.706	86
313.935	94
314.165	93
314.394	105
314.624	92
314.853	91
315.083	86
315.312	83
315.542	88
315.771	82
316.001	88
316.23	89
316.46	91
316.689	96
316.919	94
317.148	86
317.377	94
317.607	77
317.836	77
318.065	93
318.295	82
318.524	78
318.753	93
318.983	86
319.212	98
319.441	105
319.67	99
319.9	97
320.129	80
320.358	81
320.587	81
320.816	98
321.046	102
321.275	87
321.504	95
321.733	100
321.962	80
322.191	86
322.42	97
322.649	112
322.878	94
323.108	106
323.337	107
323.566	120
323.795	139
324.024	180
324.253	343
324.482	734
324.71	1502
324.939	1958
325.168	720
325.397	236
325.626	139
325.855	131
326.084	123
326.313	119
326.542	157
326.77	213
326.999	429
327.228	842
327.457	1568
327.686	1230
327.914	304
328.143	173
328.372	138
328.6	109
328.829	93
329.058	133
329.287	123
329.515	113
329.744	100
329.972	97
330.201	84
330.43	106
330.658	105
330.887	124
331.115	102
331.344	93
331.572	97
331.801	111
332.03	90
332.258	99
332.486	91
332.715	90
332.943	93
333.172	89
333.4	91
333.629	108
333.857	99
334.085	102
334.314	97
334.542	77
334.771	94
334.999	81
335.227	93
335.455	106
335.684	99
335.912	91
336.14	84
336.369	86
336.597	99
336.825	96
337.053	88
337.281	90
337.51	88
337.738	87
337.966	91
338.194	76
338.422	88
338.65	90
338.878	92
339.106	93
339.334	96
339.562	91
339.79	93
340.018	89
340.246	79
340.474	82
340.702	89
340.93	78
341.158	103
341.386	94
341.614	85
341.842	80
342.07	84
342.298	85
342.526	92
342.754	81
342.981	86
343.209	86
343.437	108
343.665	80
343.893	78
344.12	89
344.348	85
344.576	82
344.804	90
345.031	102
345.259	94
345.487	98
345.714	87
345.942	91
346.17	78
346.397	90
346.625	90
346.853	79
347.08	73
347.308	95
347.535	114
347.763	105
347.99	89
348.218	81
348.445	82
348.673	99
348.9	105
349.128	83
349.355	85
349.583	79
349.81	89
350.037	84
350.265	94
350.492	86
350.72	92
350.947	100
351.174	113
351.402	111
351.629	77
351.856	102
352.083	88
352.311	91
352.538	96
352.765	110
352.992	102
353.22	101
353.447	110
353.674	98
353.901	87
354.128	105
354.355	89
354.583	103
354.81	101
355.037	91
355.264	93
355.491	92
355.718	84
355.945	86
356.172	88
356.399	96
356.626	103
356.853	88
357.08	78
357.307	93
357.534	83
357.761	94
357.988	88
358.215	99
358.441	93
358.668	102
358.895	84
359.122	80
359.349	92
359.576	81
359.802	96
360.029	97
360.256	99
360.483	76
360.709	81
360.936	85
361.163	95
361.39	81
361.616	94
361.843	82
362.07	93
362.296	93
362.523	95
362.749	86
362.976	105
363.203	79
363.429	79
363.656	82
363.882	88
364.109	86
364.335	86
364.562	79
364.788	84
365.015	92
365.241	95
365.468	97
365.694	90
365.92	105
366.147	85
366.373	80
366.599	72
366.826	94
367.052	109
367.278	104
367.505	90
367.731	83
367.957	80
368.184	84
368.41	82
368.636	97
368.862	111
369.089	105
369.315	98
369.541	100
369.767	91
369.993	94
370.219	84
370.445	82
370.672	83
370.898	98
371.124	91
371.35	92
371.576	103
371.802	92
372.028	77
372.254	86
372.48	81
372.706	74
372.932	94
373.158	82
373.384	88
373.61	91
373.835	84
374.061	85
374.287	96
374.513	86
374.739	69
374.965	88
375.191	69
375.416	88
375.642	95
375.868	75
376.094	87
376.319	93
376.545	95
376.771	82
376.997	95
377.222	88
377.448	78
377.674	101
377.899	79
378.125	88
378.35	101
378.576	85
378.802	92
379.027	89
379.253	97
379.478	84
379.704	81
379.929	94
380.155	95
380.38	92
380.606	95
380.831	96
381.057	98
381.282	96
381.507	90
381.733	91
381.958	103
382.184	101
382.409	107
382.634	101
382.86	112
383.085	95
383.31	115
383.535	112
383.761	98
383.986	93
384.211	114
384.436	109
384.662	104
384.887	122
385.112	125
385.337	124
385.562	122
385.787	110
386.013	119
386.238	117
386.463	124
386.688	116
386.913	106
387.138	121
387.363	103
387.588	105
387.813	98
388.038	120
388.263	136
388.488	115
388.713	86
388.938	84
389.163	92
389.387	81
389.612	92
389.837	92
390.062	94
390.287	90
390.512	93
390.736	79
390.961	101
391.186	98
391.411	92
391.636	96
391.86	88
392.085	90
392.31	78
392.534	68
392.759	76
392.984	91
393.208	86
393.433	88
393.658	89
393.882	85
394.107	79
394.331	85
394.556	76
394.78	83
395.005	67
395.229	73
395.454	92
395.678	88
395.903	83
396.127	90
396.352	89
396.576	73
396.801	80
397.025	100
397.249	77
397.474	81
397.698	79
397.922	75
398.147	73
398.371	90
398.595	95
398.82	86
399.044	85
399.268	73
399.492	90
399.717	84
399.941	78
400.165	85
400.389	77
400.613	76
400.837	83
401.062	78
401.286	93
401.51	82
401.734	81
401.958	102
402.182	128
402.406	126
402.63	105
402.854	100
403.078	73
403.302	79
403.526	85
403.75	87
403.974	80
404.198	96
404.422	90
404.645	84
404.869	85
405.093	73
405.317	87
405.541	102
405.765	101
405.988	101
406.212	140
406.436	175
406.66	143
406.883	88
407.107	86
407.331	88
407.555	89
407.778	106
408.002	98
408.226	84
408.449	85
408.673	92
408.896	96
409.12	97
409.344	83
409.567	89
409.791	107
410.014	90
410.238	92
410.461	91
410.685	97
410.908	89
411.132	102
411.355	96
411.578	91
411.802	87
412.025	81
412.249	82
412.472	78
412.695	91
412.919	86
413.142	79
413.365	80
413.589	98
413.812	91
414.035	84
414.258	84
414.482	85
414.705	86
414.928	81
415.151	83
415.374	97
415.597	89
415.821	73
416.044	83
416.267	90
416.49	75
416.713	92
416.936	98
417.159	92
417.382	82
417.605	84
417.828	86
418.051	90
418.274	81
418.497	77
418.72	91
418.943	87
419.166	92
419.389	99
419.611	104
419.834	90
420.057	85
420.28	75
420.503	89
420.726	76
420.948	92
421.171	93
421.394	87
421.617	94
421.839	87
422.062	77
422.285	78
422.507	107
422.73	97
422.953	74
423.175	87
423.398	83
423.621	72
423.843	94
424.066	76
424.288	89
424.511	85
424.733	100
424.956	113
425.178	109
425.401	111
425.623	91
425.846	86
426.068	97
426.291	72
426.513	94
426.735	75
426.958	97
427.18	101
427.402	115
427.625	130
427.847	108
428.069	96
428.292	80
428.514	97
428.736	93
428.958	88
429.181	95
429.403	82
429.625	69
429.847	82
430.069	100
430.292	85
430.514	85
430.736	80
430.958	79
431.18	85
431.402	82
431.624	77
431.846	75
432.068	91
432.29	93
432.512	82
432.734	81
432.956	99
433.178	90
433.4	102
433.622	84
433.844	97
434.066	78
434.287	76
434.509	92
434.731	92
434.953	84
435.175	84
435.397	89
435.618	79
435.84	105
436.062	114
436.284	110
436.505	93
436.727	90
436.949	81
437.17	77
437.392	97
437.614	78
437.835	107
438.057	100
438.278	107
438.5	94
438.721	116
438.943	100
439.165	77
439.386	79
439.608	94
439.829	106
440.05	101
440.272	126
440.493	106
440.715	72
440.936	78
441.158	73
441.379	83
441.6	86
441.822	80
442.043	91
442.264	90
442.486	94
442.707	93
442.928	93
443.149	112
443.371	106
443.592	98
443.813	100
444.034	93
444.255	85
444.476	80
444.698	75
444.919	89
445.14	115
445.361	111
445.582	96
445.803	114
446.024	117
446.245	107
446.466	100
446.687	93
446.908	87
447.129	83
447.35	88
447.571	92
447.792	88
448.013	98
448.234	92
448.455	92
448.675	105
448.896	121
449.117	80
449.338	98
449.559	125
449.779	130
450	90
450.221	70
450.442	81
450.662	97
450.883	96
451.104	95
451.324	87
451.545	83
451.766	87
451.986	75
452.207	99
452.428	80
452.648	85
452.869	106
453.089	108
453.31	99
453.53	94
453.751	91
453.971	101
454.192	92
454.412	79
454.633	80
454.853	87
455.073	74
455.294	82
455.514	88
455.734	90
455.955	82
456.175	101
456.395	83
456.616	87
456.836	81
457.056	85
457.276	78
457.497	86
457.717	95
457.937	82
458.157	77
458.377	79
458.598	92
458.818	117
459.038	129
459.258	105
459.478	87
459.698	80
459.918	78
460.138	77
460.358	79
460.578	91
460.798	77
461.018	80
461.238	86
461.458	86
461.678	92
461.898	89
462.118	75
462.338	91
462.558	76
462.777	85
462.997	88
463.217	93
463.437	99
463.657	83
463.876	95
464.096	89
464.316	88
464.536	88
464.755	93
464.975	102
465.195	125
465.414	124
465.634	89
465.854	96
466.073	87
466.293	82
466.512	76
466.732	87
466.951	88
467.171	86
467.391	95
467.61	83
467.829	95
468.049	76
468.268	81
468.488	72
468.707	95
468.927	81
469.146	76
469.365	79
469.585	89
469.804	92
470.023	90
470.243	85
470.462	98
470.681	105
470.901	90
471.12	95
471.339	72
471.558	90
471.777	84
471.997	78
472.216	90
472.435	77
472.654	80
472.873	78
473.092	93
473.311	84
473.53	69
473.749	94
473.968	84
474.187	98
474.406	87
474.625	81
474.844	94
475.063	90
475.282	80
475.501	79
475.72	83
475.939	81
476.158	77
476.377	88
476.596	80
476.814	96
477.033	105
477.252	97
477.471	85
477.69	98
477.908	81
478.127	82
478.346	77
478.564	72
478.783	90
479.002	92
479.22	96
479.439	78
479.658	98
479.876	90
480.095	93
480.313	99
480.532	86
480.751	91
480.969	84
481.188	110
481.406	100
481.624	80
481.843	84
482.061	85
482.28	77
482.498	76
482.717	86
482.935	79
483.153	96
483.372	92
483.59	99
483.808	84
484.027	90
484.245	91
484.463	102
484.681	80
484.9	74
485.118	80
485.336	81
485.554	101
485.772	108
485.99	100
486.209	98
486.427	98
486.645	99
486.863	102
487.081	95
487.299	95
487.517	100
487.735	86
487.953	89
488.171	89
488.389	89
488.607	91
488.825	101
489.043	89
489.261	86
489.479	89
489.696	85
489.914	94
490.132	81
490.35	79
490.568	90
490.786	85
491.003	86
491.221	90
491.439	83
491.657	75
491.874	77
492.092	103
492.31	78
492.527	83
492.745	81
492.963	92
493.18	85
493.398	99
493.615	89
493.833	86
494.05	69
494.268	96
494.485	84
494.703	85
494.92	68
495.138	94
495.355	97
495.573	91
495.79	90
496.008	85
496.225	80
496.442	88
496.66	81
496.877	88
497.094	80
497.312	85
497.529	85
497.746	78
497.963	80
498.181	94
498.398	97
498.615	96
498.832	93
499.049	84
499.267	100
499.484	88
499.701	99
499.918	89
500.135	69
500.352	85
500.569	78
500.786	83
501.003	82
501.22	82
501.437	82
501.654	85
501.871	86
502.088	86
502.305	90
502.522	80
502.739	82
502.956	77
503.172	78
503.389	98
503.606	89
503.823	100
504.04	86
504.256	96
504.473	100
504.69	106
504.907	95
505.123	76
505.34	92
505.557	91
505.773	88
505.99	92
506.207	87
506.423	86
506.64	85
506.856	101
507.073	92
507.289	107
507.506	82
507.722	101
507.939	106
508.155	89
508.372	90
508.588	94
508.805	89
509.021	86
509.238	97
509.454	89
509.67	85
509.887	94
510.103	119
510.319	185
510.536	560
510.752	1726
510.968	536
511.184	140
511.401	94
511.617	100
511.833	92
512.049	100
512.265	85
512.481	90
512.698	77
512.914	83
513.13	78
513.346	100
513.562	93
513.778	87
513.994	94
514.21	91
514.426	107
514.642	112
514.858	104
515.074	140
515.29	339
515.506	1038
515.721	406
515.937	142
516.153	102
516.369	90
516.585	95
516.801	68
517.016	82
517.232	92
517.448	82
517.664	91
517.879	88
518.095	78
518.311	88
518.527	107
518.742	71
518.958	91
519.173	92
519.389	86
519.605	86
519.82	86
520.036	102
520.251	100
520.467	103
520.682	93
520.898	100
521.113	105
521.329	113
521.544	176
521.76	404
521.975	1708
522.19	1043
522.406	244
522.621	122
522.836	104
523.052	87
523.267	88
523.482	93
523.698	92
523.913	115
524.128	92
524.343	86
524.559	110
524.774	98
524.989	98
525.204	107
525.419	83
525.634	87
525.849	85
526.064	91
526.28	89
526.495	88
526.71	101
526.925	93
527.14	93
527.355	100
527.57	90
527.785	90
527.999	94
528.214	90
528.429	87
528.644	90
528.859	71
529.074	90
529.289	114
529.503	139
529.718	105
529.933	96
530.148	82
530.363	80
530.577	94
530.792	101
531.007	79
531.221	89
531.436	80
531.651	86
531.865	80
532.08	81
532.295	95
532.509	101
532.724	95
532.938	94
533.153	90
533.367	96
533.582	94
533.796	87
534.011	87
534.225	83
534.44	81
534.654	83
534.868	93
535.083	87
535.297	80
535.511	111
535.726	86
535.94	95
536.154	94
536.369	95
536.583	88
536.797	100
537.011	88
537.225	72
537.44	91
537.654	99
537.868	78
538.082	84
538.296	85
538.51	91
538.724	77
538.938	90
539.153	88
539.367	84
539.581	91
539.795	77
540.009	86
540.222	82
540.436	83
540.65	85
540.864	97
541.078	79
541.292	94
541.506	82
541.72	106
541.934	97
542.147	91
542.361	82
542.575	85
542.789	101
543.002	86
543.216	77
543.43	89
543.644	99
543.857	90
544.071	88
544.285	91
544.498	84
544.712	86
544.925	97
545.139	89
545.352	98
545.566	90
545.779	89
545.993	100
546.206	99
546.42	83
546.633	85
546.847	98
547.06	96
547.274	90
547.487	85
547.7	87
547.914	73
548.127	95
548.34	73
548.554	84
548.767	88
548.98	83
549.193	91
549.407	92
549.62	80
549.833	82
550.046	93
550.259	98
550.473	79
550.686	93
550.899	82
551.112	79
551.325	84
551.538	89
551.751	82
551.964	83
552.177	101
552.39	81
552.603	88
552.816	79
553.029	82
553.242	88
553.455	88
553.667	84
553.88	82
554.093	99
554.306	84
554.519	72
554.732	91
554.944	84
555.157	79
555.37	94
555.583	95
555.795	80
556.008	75
556.221	99
556.433	101
556.646	105
556.859	83
557.071	84
557.284	94
557.496	110
557.709	89
557.921	92
558.134	91
558.346	89
558.559	82
558.771	88
558.984	91
559.196	79
559.409	85
559.621	89
559.833	86
560.046	88
560.258	94
560.47	83
560.683	84
560.895	83
561.107	94
561.32	80
561.532	80
561.744	93
561.956	100
562.168	85
562.381	87
562.593	92
562.805	86
563.017	85
563.229	98
563.441	81
563.653	86
563.865	77
564.077	70
564.289	99
564.501	90
564.713	77
564.925	94
565.137	86
565.349	74
565.561	94
565.773	91
565.985	86
566.197	80
566.408	75
566.62	80
566.832	84
567.044	95
567.255	91
567.467	102
567.679	85
567.891	91
568.102	83
568.314	95
568.526	86
568.737	75
568.949	90
569.161	91
569.372	89
569.584	80
569.795	94
570.007	112
570.218	180
570.43	106
570.641	91
570.853	87
571.064	78
571.276	89
571.487	81
571.698	77
571.91	82
572.121	88
572.333	90
572.544	66
572.755	76
572.966	89
573.178	85
573.389	95
573.6	83
573.811	82
574.023	95
574.234	97
574.445	87
574.656	78
574.867	76
575.078	87
575.289	90
575.501	81
575.712	71
575.923	94
576.134	71
576.345	90
576.556	96
576.767	86
576.978	67
577.188	82
577.399	76
577.61	82
577.821	94
578.032	94
578.243	214
578.454	558
578.665	178
578.875	90
579.086	109
579.297	79
579.508	86
579.718	96
579.929	82
580.14	81
580.35	89
580.561	85
580.772	76
580.982	86
581.193	80
581.403	79
581.614	92
581.825	105
582.035	86
582.246	96
582.456	85
582.667	79
582.877	82
583.087	83
583.298	81
583.508	74
583.719	66
583.929	75
584.139	99
584.35	86
584.56	78
584.77	69
584.981	90
585.191	80
585.401	88
585.611	84
585.821	83
586.032	80
586.242	76
