Data from Circ_2005_H10_HRD10591_00038.txt Node
Date: Wed Jan 03 10:29:58 EST 2024
User: Yrep
Spectrometer: HR+D1059
Trigger mode: 1
Integration Time (sec): 1.000000E-1
Scans to average: 1
Electric dark correction enabled: true
Nonlinearity correction enabled: false
Boxcar width: 0
XAxis mode: Wavelengths
Number of Pixels in Spectrum: 2048
>>>>>Begin Spectral Data<<<<<
223.165	-7.38
223.4	-7.38
223.635	-7.38
223.869	-6.38
224.104	-27.38
224.338	-11.38
224.573	-0.38
224.808	-18.38
225.042	-13.38
225.277	-9.38
225.511	8.62
225.746	0.62
225.98	4.62
226.215	14.62
226.449	14.62
226.683	11.62
226.918	20.62
227.152	18.62
227.387	32.62
227.621	35.62
227.856	65.62
228.09	46.62
228.324	48.62
228.559	54.62
228.793	68.62
229.027	50.62
229.262	71.62
229.496	83.62
229.73	80.62
229.964	85.62
230.199	69.62
230.433	81.62
230.667	82.62
230.901	85.62
231.136	59.62
231.37	81.62
231.604	84.62
231.838	75.62
232.072	76.62
232.306	76.62
232.541	71.62
232.775	74.62
233.009	82.62
233.243	78.62
233.477	88.62
233.711	82.62
233.945	69.62
234.179	86.62
234.413	85.62
234.647	71.62
234.881	76.62
235.115	68.62
235.349	71.62
235.583	86.62
235.817	90.62
236.051	65.62
236.285	85.62
236.519	95.62
236.753	82.62
236.987	79.62
237.221	85.62
237.455	84.62
237.689	87.62
237.922	77.62
238.156	80.62
238.39	82.62
238.624	84.62
238.858	72.62
239.091	77.62
239.325	77.62
239.559	75.62
239.793	79.62
240.027	73.62
240.26	76.62
240.494	74.62
240.728	93.62
240.961	77.62
241.195	81.62
241.429	66.62
241.662	91.62
241.896	80.62
242.13	67.62
242.363	92.62
242.597	74.62
242.83	72.62
243.064	67.62
243.298	66.62
243.531	78.62
243.765	84.62
243.998	102.62
244.232	86.62
244.465	82.62
244.699	71.62
244.932	76.62
245.166	70.62
245.399	84.62
245.633	86.62
245.866	98.62
246.099	89.62
246.333	78.62
246.566	73.62
246.8	85.62
247.033	76.62
247.266	79.62
247.5	63.62
247.733	69.62
247.966	81.62
248.2	69.62
248.433	77.62
248.666	85.62
248.899	72.62
249.133	82.62
249.366	107.62
249.599	105.62
249.832	87.62
250.066	74.62
250.299	86.62
250.532	81.62
250.765	79.62
250.998	73.62
251.231	70.62
251.465	86.62
251.698	76.62
251.931	74.62
252.164	78.62
252.397	68.62
252.63	81.62
252.863	96.62
253.096	88.62
253.329	79.62
253.562	89.62
253.795	77.62
254.028	93.62
254.261	93.62
254.494	90.62
254.727	73.62
254.96	75.62
255.193	83.62
255.426	78.62
255.659	89.62
255.892	88.62
256.124	93.62
256.357	78.62
256.59	76.62
256.823	77.62
257.056	81.62
257.289	69.62
257.521	75.62
257.754	89.62
257.987	94.62
258.22	86.62
258.452	86.62
258.685	91.62
258.918	87.62
259.151	77.62
259.383	82.62
259.616	90.62
259.849	88.62
260.081	93.62
260.314	90.62
260.547	85.62
260.779	84.62
261.012	78.62
261.244	90.62
261.477	102.62
261.71	86.62
261.942	121.62
262.175	131.62
262.407	81.62
262.64	71.62
262.872	105.62
263.105	81.62
263.337	103.62
263.57	89.62
263.802	88.62
264.035	98.62
264.267	78.62
264.499	88.62
264.732	85.62
264.964	73.62
265.197	86.62
265.429	82.62
265.661	83.62
265.894	96.62
266.126	80.62
266.358	84.62
266.591	96.62
266.823	82.62
267.055	74.62
267.287	87.62
267.52	93.62
267.752	74.62
267.984	86.62
268.216	79.62
268.448	77.62
268.681	78.62
268.913	78.62
269.145	81.62
269.377	86.62
269.609	69.62
269.841	85.62
270.073	88.62
270.306	69.62
270.538	81.62
270.77	93.62
271.002	78.62
271.234	92.62
271.466	99.62
271.698	88.62
271.93	90.62
272.162	85.62
272.394	86.62
272.626	93.62
272.858	88.62
273.09	86.62
273.322	73.62
273.553	80.62
273.785	80.62
274.017	85.62
274.249	89.62
274.481	95.62
274.713	81.62
274.945	87.62
275.176	90.62
275.408	103.62
275.64	83.62
275.872	98.62
276.104	71.62
276.335	96.62
276.567	100.62
276.799	114.62
277.031	102.62
277.262	98.62
277.494	93.62
277.726	79.62
277.957	72.62
278.189	72.62
278.421	102.62
278.652	88.62
278.884	70.62
279.115	87.62
279.347	78.62
279.579	78.62
279.81	80.62
280.042	81.62
280.273	96.62
280.505	85.62
280.736	82.62
280.968	76.62
281.199	81.62
281.431	94.62
281.662	92.62
281.894	100.62
282.125	104.62
282.356	128.62
282.588	148.62
282.819	114.62
283.051	88.62
283.282	87.62
283.513	78.62
283.745	93.62
283.976	87.62
284.207	89.62
284.439	90.62
284.67	87.62
284.901	86.62
285.132	94.62
285.364	91.62
285.595	79.62
285.826	101.62
286.057	80.62
286.288	85.62
286.52	76.62
286.751	85.62
286.982	79.62
287.213	90.62
287.444	89.62
287.675	86.62
287.906	91.62
288.138	91.62
288.369	95.62
288.6	102.62
288.831	85.62
289.062	89.62
289.293	82.62
289.524	81.62
289.755	101.62
289.986	90.62
290.217	88.62
290.448	83.62
290.679	82.62
290.91	89.62
291.141	86.62
291.371	94.62
291.602	79.62
291.833	85.62
292.064	102.62
292.295	83.62
292.526	88.62
292.757	95.62
292.987	80.62
293.218	89.62
293.449	97.62
293.68	89.62
293.91	80.62
294.141	102.62
294.372	78.62
294.603	89.62
294.833	83.62
295.064	94.62
295.295	86.62
295.525	88.62
295.756	103.62
295.987	125.62
296.217	147.62
296.448	127.62
296.679	94.62
296.909	106.62
297.14	98.62
297.37	96.62
297.601	94.62
297.831	98.62
298.062	93.62
298.292	98.62
298.523	94.62
298.753	100.62
298.984	94.62
299.214	82.62
299.445	78.62
299.675	110.62
299.905	100.62
300.136	95.62
300.366	87.62
300.597	96.62
300.827	87.62
301.057	101.62
301.288	104.62
301.518	83.62
301.748	91.62
301.979	99.62
302.209	92.62
302.439	89.62
302.669	92.62
302.9	80.62
303.13	85.62
303.36	88.62
303.59	113.62
303.82	109.62
304.051	110.62
304.281	85.62
304.511	80.62
304.741	86.62
304.971	91.62
305.201	94.62
305.431	92.62
305.661	93.62
305.891	94.62
306.121	113.62
306.352	104.62
306.582	108.62
306.812	113.62
307.042	104.62
307.272	106.62
307.502	114.62
307.731	102.62
307.961	93.62
308.191	99.62
308.421	89.62
308.651	84.62
308.881	90.62
309.111	82.62
309.341	92.62
309.571	111.62
309.8	95.62
310.03	82.62
310.26	100.62
310.49	89.62
310.72	108.62
310.949	114.62
311.179	99.62
311.409	87.62
311.639	103.62
311.868	108.62
312.098	96.62
312.328	100.62
312.557	94.62
312.787	85.62
313.017	99.62
313.246	102.62
313.476	92.62
313.706	100.62
313.935	102.62
314.165	90.62
314.394	96.62
314.624	89.62
314.853	94.62
315.083	97.62
315.312	99.62
315.542	93.62
315.771	79.62
316.001	99.62
316.23	87.62
316.46	108.62
316.689	85.62
316.919	80.62
317.148	88.62
317.377	94.62
317.607	83.62
317.836	108.62
318.065	91.62
318.295	82.62
318.524	89.62
318.753	89.62
318.983	105.62
319.212	107.62
319.441	127.62
319.67	114.62
319.9	98.62
320.129	92.62
320.358	109.62
320.587	87.62
320.816	112.62
321.046	91.62
321.275	97.62
321.504	81.62
321.733	100.62
321.962	113.62
322.191	120.62
322.42	106.62
322.649	120.62
322.878	122.62
323.108	120.62
323.337	139.62
323.566	148.62
323.795	157.62
324.024	230.62
324.253	453.62
324.482	1023.62
324.71	2115.62
324.939	2784.62
325.168	1010.62
325.397	261.62
325.626	156.62
325.855	150.62
326.084	141.62
326.313	135.62
326.542	170.62
326.77	247.62
326.999	548.62
327.228	1146.62
327.457	2153.62
327.686	1647.62
327.914	451.62
328.143	215.62
328.372	158.62
328.6	125.62
328.829	136.62
329.058	124.62
329.287	141.62
329.515	108.62
329.744	113.62
329.972	111.62
330.201	121.62
330.43	161.62
330.658	144.62
330.887	150.62
331.115	129.62
331.344	111.62
331.572	103.62
331.801	95.62
332.03	100.62
332.258	75.62
332.486	97.62
332.715	95.62
332.943	89.62
333.172	96.62
333.4	111.62
333.629	112.62
333.857	117.62
334.085	131.62
334.314	120.62
334.542	161.62
334.771	158.62
334.999	103.62
335.227	111.62
335.455	99.62
335.684	110.62
335.912	96.62
336.14	102.62
336.369	92.62
336.597	86.62
336.825	91.62
337.053	94.62
337.281	97.62
337.51	89.62
337.738	92.62
337.966	85.62
338.194	101.62
338.422	101.62
338.65	85.62
338.878	100.62
339.106	81.62
339.334	104.62
339.562	94.62
339.79	89.62
340.018	86.62
340.246	90.62
340.474	102.62
340.702	91.62
340.93	95.62
341.158	89.62
341.386	102.62
341.614	113.62
341.842	97.62
342.07	82.62
342.298	97.62
342.526	96.62
342.754	87.62
342.981	90.62
343.209	100.62
343.437	91.62
343.665	75.62
343.893	105.62
344.12	87.62
344.348	84.62
344.576	98.62
344.804	98.62
345.031	86.62
345.259	119.62
345.487	96.62
345.714	90.62
345.942	78.62
346.17	80.62
346.397	88.62
346.625	100.62
346.853	88.62
347.08	96.62
347.308	101.62
347.535	87.62
347.763	102.62
347.99	104.62
348.218	105.62
348.445	116.62
348.673	100.62
348.9	99.62
349.128	89.62
349.355	105.62
349.583	101.62
349.81	109.62
350.037	106.62
350.265	104.62
350.492	110.62
350.72	103.62
350.947	116.62
351.174	105.62
351.402	120.62
351.629	106.62
351.856	96.62
352.083	108.62
352.311	108.62
352.538	105.62
352.765	104.62
352.992	109.62
353.22	125.62
353.447	99.62
353.674	97.62
353.901	103.62
354.128	99.62
354.355	86.62
354.583	93.62
354.81	115.62
355.037	100.62
355.264	91.62
355.491	85.62
355.718	101.62
355.945	94.62
356.172	86.62
356.399	93.62
356.626	83.62
356.853	109.62
357.08	80.62
357.307	92.62
357.534	101.62
357.761	94.62
357.988	95.62
358.215	97.62
358.441	85.62
358.668	85.62
358.895	97.62
359.122	89.62
359.349	83.62
359.576	93.62
359.802	110.62
360.029	126.62
360.256	103.62
360.483	98.62
360.709	98.62
360.936	79.62
361.163	115.62
361.39	110.62
361.616	88.62
361.843	102.62
362.07	93.62
362.296	92.62
362.523	84.62
362.749	104.62
362.976	106.62
363.203	91.62
363.429	93.62
363.656	98.62
363.882	90.62
364.109	90.62
364.335	107.62
364.562	83.62
364.788	106.62
365.015	102.62
365.241	90.62
365.468	103.62
365.694	123.62
365.92	110.62
366.147	95.62
366.373	81.62
366.599	93.62
366.826	92.62
367.052	86.62
367.278	89.62
367.505	95.62
367.731	100.62
367.957	98.62
368.184	109.62
368.41	104.62
368.636	100.62
368.862	126.62
369.089	102.62
369.315	87.62
369.541	88.62
369.767	83.62
369.993	97.62
370.219	93.62
370.445	81.62
370.672	90.62
370.898	99.62
371.124	93.62
371.35	78.62
371.576	85.62
371.802	102.62
372.028	79.62
372.254	95.62
372.48	68.62
372.706	100.62
372.932	109.62
373.158	75.62
373.384	103.62
373.61	106.62
373.835	76.62
374.061	78.62
374.287	86.62
374.513	93.62
374.739	99.62
374.965	82.62
375.191	96.62
375.416	91.62
375.642	91.62
375.868	85.62
376.094	87.62
376.319	89.62
376.545	94.62
376.771	95.62
376.997	89.62
377.222	95.62
377.448	91.62
377.674	87.62
377.899	91.62
378.125	92.62
378.35	103.62
378.576	103.62
378.802	94.62
379.027	97.62
379.253	101.62
379.478	91.62
379.704	84.62
379.929	96.62
380.155	90.62
380.38	92.62
380.606	121.62
380.831	111.62
381.057	82.62
381.282	98.62
381.507	100.62
381.733	87.62
381.958	108.62
382.184	109.62
382.409	103.62
382.634	95.62
382.86	100.62
383.085	97.62
383.31	102.62
383.535	108.62
383.761	94.62
383.986	95.62
384.211	89.62
384.436	103.62
384.662	102.62
384.887	111.62
385.112	108.62
385.337	108.62
385.562	95.62
385.787	110.62
386.013	118.62
386.238	118.62
386.463	107.62
386.688	104.62
386.913	113.62
387.138	97.62
387.363	110.62
387.588	94.62
387.813	120.62
388.038	104.62
388.263	124.62
388.488	121.62
388.713	107.62
388.938	83.62
389.163	111.62
389.387	92.62
389.612	83.62
389.837	87.62
390.062	102.62
390.287	110.62
390.512	101.62
390.736	84.62
390.961	90.62
391.186	92.62
391.411	91.62
391.636	103.62
391.86	84.62
392.085	85.62
392.31	81.62
392.534	90.62
392.759	91.62
392.984	87.62
393.208	98.62
393.433	87.62
393.658	95.62
393.882	93.62
394.107	98.62
394.331	79.62
394.556	83.62
394.78	79.62
395.005	92.62
395.229	90.62
395.454	77.62
395.678	88.62
395.903	92.62
396.127	89.62
396.352	89.62
396.576	85.62
396.801	84.62
397.025	87.62
397.249	96.62
397.474	98.62
397.698	100.62
397.922	97.62
398.147	100.62
398.371	77.62
398.595	78.62
398.82	79.62
399.044	66.62
399.268	78.62
399.492	82.62
399.717	95.62
399.941	92.62
400.165	85.62
400.389	93.62
400.613	87.62
400.837	92.62
401.062	98.62
401.286	96.62
401.51	94.62
401.734	86.62
401.958	98.62
402.182	132.62
402.406	166.62
402.63	131.62
402.854	90.62
403.078	79.62
403.302	90.62
403.526	85.62
403.75	88.62
403.974	80.62
404.198	90.62
404.422	95.62
404.645	73.62
404.869	88.62
405.093	111.62
405.317	92.62
405.541	98.62
405.765	89.62
405.988	118.62
406.212	194.62
406.436	265.62
406.66	166.62
406.883	118.62
407.107	100.62
407.331	101.62
407.555	103.62
407.778	103.62
408.002	103.62
408.226	95.62
408.449	95.62
408.673	106.62
408.896	97.62
409.12	87.62
409.344	89.62
409.567	92.62
409.791	92.62
410.014	86.62
410.238	93.62
410.461	85.62
410.685	85.62
410.908	110.62
411.132	124.62
411.355	111.62
411.578	104.62
411.802	95.62
412.025	85.62
412.249	91.62
412.472	92.62
412.695	84.62
412.919	70.62
413.142	88.62
413.365	85.62
413.589	87.62
413.812	83.62
414.035	92.62
414.258	93.62
414.482	93.62
414.705	78.62
414.928	100.62
415.151	92.62
415.374	88.62
415.597	89.62
415.821	88.62
416.044	97.62
416.267	105.62
416.49	79.62
416.713	98.62
416.936	104.62
417.159	95.62
417.382	92.62
417.605	91.62
417.828	102.62
418.051	96.62
418.274	89.62
418.497	85.62
418.72	90.62
418.943	85.62
419.166	87.62
419.389	94.62
419.611	91.62
419.834	83.62
420.057	94.62
420.28	79.62
420.503	86.62
420.726	93.62
420.948	94.62
421.171	103.62
421.394	95.62
421.617	96.62
421.839	94.62
422.062	98.62
422.285	89.62
422.507	105.62
422.73	100.62
422.953	94.62
423.175	85.62
423.398	89.62
423.621	89.62
423.843	98.62
424.066	85.62
424.288	90.62
424.511	89.62
424.733	98.62
424.956	108.62
425.178	97.62
425.401	96.62
425.623	103.62
425.846	84.62
426.068	81.62
426.291	90.62
426.513	99.62
426.735	92.62
426.958	99.62
427.18	115.62
427.402	145.62
427.625	175.62
427.847	150.62
428.069	117.62
428.292	87.62
428.514	95.62
428.736	104.62
428.958	84.62
429.181	78.62
429.403	96.62
429.625	91.62
429.847	103.62
430.069	106.62
430.292	97.62
430.514	84.62
430.736	92.62
430.958	89.62
431.18	85.62
431.402	90.62
431.624	88.62
431.846	75.62
432.068	73.62
432.29	86.62
432.512	100.62
432.734	89.62
432.956	85.62
433.178	110.62
433.4	89.62
433.622	98.62
433.844	74.62
434.066	96.62
434.287	103.62
434.509	93.62
434.731	86.62
434.953	102.62
435.175	94.62
435.397	76.62
435.618	97.62
435.84	103.62
436.062	137.62
436.284	118.62
436.505	114.62
436.727	114.62
436.949	90.62
437.17	93.62
437.392	96.62
437.614	96.62
437.835	138.62
438.057	138.62
438.278	102.62
438.5	121.62
438.721	141.62
438.943	117.62
439.165	99.62
439.386	92.62
439.608	92.62
439.829	112.62
440.05	126.62
440.272	152.62
440.493	101.62
440.715	103.62
440.936	94.62
441.158	95.62
441.379	84.62
441.6	83.62
441.822	82.62
442.043	102.62
442.264	117.62
442.486	105.62
442.707	107.62
442.928	120.62
443.149	140.62
443.371	142.62
443.592	120.62
443.813	126.62
444.034	104.62
444.255	107.62
444.476	94.62
444.698	95.62
444.919	102.62
445.14	135.62
445.361	129.62
445.582	127.62
445.803	166.62
446.024	160.62
446.245	154.62
446.466	117.62
446.687	94.62
446.908	92.62
447.129	94.62
447.35	89.62
447.571	85.62
447.792	108.62
448.013	97.62
448.234	114.62
448.455	115.62
448.675	117.62
448.896	116.62
449.117	102.62
449.338	100.62
449.559	132.62
449.779	154.62
450	103.62
450.221	88.62
450.442	96.62
450.662	96.62
450.883	111.62
451.104	117.62
451.324	98.62
451.545	85.62
451.766	96.62
451.986	77.62
452.207	102.62
452.428	94.62
452.648	105.62
452.869	122.62
453.089	136.62
453.31	134.62
453.53	115.62
453.751	95.62
453.971	106.62
454.192	136.62
454.412	91.62
454.633	88.62
454.853	87.62
455.073	90.62
455.294	88.62
455.514	116.62
455.734	72.62
455.955	89.62
456.175	84.62
456.395	86.62
456.616	87.62
456.836	84.62
457.056	74.62
457.276	69.62
457.497	90.62
457.717	84.62
457.937	88.62
458.157	78.62
458.377	88.62
458.598	110.62
458.818	150.62
459.038	179.62
459.258	120.62
459.478	96.62
459.698	81.62
459.918	78.62
460.138	69.62
460.358	99.62
460.578	94.62
460.798	95.62
461.018	95.62
461.238	91.62
461.458	96.62
461.678	84.62
461.898	84.62
462.118	90.62
462.338	77.62
462.558	90.62
462.777	77.62
462.997	96.62
463.217	96.62
463.437	95.62
463.657	90.62
463.876	92.62
464.096	99.62
464.316	96.62
464.536	110.62
464.755	101.62
464.975	111.62
465.195	178.62
465.414	182.62
465.634	94.62
465.854	87.62
466.073	89.62
466.293	83.62
466.512	86.62
466.732	97.62
466.951	82.62
467.171	109.62
467.391	112.62
467.61	85.62
467.829	113.62
468.049	105.62
468.268	112.62
468.488	95.62
468.707	85.62
468.927	102.62
469.146	97.62
469.365	86.62
469.585	83.62
469.804	80.62
470.023	112.62
470.243	83.62
470.462	105.62
470.681	112.62
470.901	100.62
471.12	90.62
471.339	94.62
471.558	104.62
471.777	85.62
471.997	103.62
472.216	132.62
472.435	183.62
472.654	114.62
472.873	83.62
473.092	87.62
473.311	72.62
473.53	84.62
473.749	90.62
473.968	96.62
474.187	96.62
474.406	109.62
474.625	85.62
474.844	84.62
475.063	97.62
475.282	93.62
475.501	86.62
475.72	87.62
475.939	95.62
476.158	84.62
476.377	85.62
476.596	93.62
476.814	93.62
477.033	92.62
477.252	95.62
477.471	95.62
477.69	82.62
477.908	80.62
478.127	85.62
478.346	97.62
478.564	97.62
478.783	87.62
479.002	79.62
479.22	95.62
479.439	101.62
479.658	112.62
479.876	99.62
480.095	84.62
480.313	82.62
480.532	86.62
480.751	100.62
480.969	127.62
481.188	270.62
481.406	200.62
481.624	98.62
481.843	92.62
482.061	95.62
482.28	85.62
482.498	82.62
482.717	88.62
482.935	88.62
483.153	80.62
483.372	74.62
483.59	97.62
483.808	85.62
484.027	98.62
484.245	89.62
484.463	83.62
484.681	87.62
484.9	80.62
485.118	92.62
485.336	81.62
485.554	98.62
485.772	90.62
485.99	99.62
486.209	121.62
486.427	99.62
486.645	110.62
486.863	95.62
487.081	86.62
487.299	89.62
487.517	103.62
487.735	89.62
487.953	81.62
488.171	82.62
488.389	83.62
488.607	102.62
488.825	89.62
489.043	97.62
489.261	98.62
489.479	97.62
489.696	95.62
489.914	86.62
490.132	78.62
490.35	95.62
490.568	84.62
490.786	96.62
491.003	73.62
491.221	97.62
491.439	92.62
491.657	96.62
491.874	97.62
492.092	87.62
492.31	91.62
492.527	89.62
492.745	75.62
492.963	82.62
493.18	101.62
493.398	100.62
493.615	103.62
493.833	109.62
494.05	91.62
494.268	105.62
494.485	90.62
494.703	93.62
494.92	104.62
495.138	102.62
495.355	82.62
495.573	107.62
495.79	79.62
496.008	87.62
496.225	87.62
496.442	88.62
496.66	100.62
496.877	84.62
497.094	90.62
497.312	90.62
497.529	88.62
497.746	80.62
497.963	96.62
498.181	81.62
498.398	101.62
498.615	118.62
498.832	115.62
499.049	90.62
499.267	88.62
499.484	99.62
499.701	92.62
499.918	92.62
500.135	86.62
500.352	79.62
500.569	84.62
500.786	92.62
501.003	78.62
501.22	85.62
501.437	101.62
501.654	97.62
501.871	112.62
502.088	101.62
502.305	96.62
502.522	98.62
502.739	90.62
502.956	84.62
503.172	97.62
503.389	92.62
503.606	104.62
503.823	103.62
504.04	83.62
504.256	79.62
504.473	82.62
504.69	103.62
504.907	86.62
505.123	103.62
505.34	98.62
505.557	93.62
505.773	86.62
505.99	102.62
506.207	89.62
506.423	79.62
506.64	82.62
506.856	81.62
507.073	94.62
507.289	108.62
507.506	97.62
507.722	120.62
507.939	112.62
508.155	102.62
508.372	89.62
508.588	104.62
508.805	95.62
509.021	93.62
509.238	112.62
509.454	104.62
509.67	85.62
509.887	106.62
510.103	145.62
510.319	229.62
510.536	879.62
510.752	2784.62
510.968	782.62
511.184	172.62
511.401	111.62
511.617	103.62
511.833	102.62
512.049	80.62
512.265	90.62
512.481	90.62
512.698	93.62
512.914	98.62
513.13	99.62
513.346	97.62
513.562	103.62
513.778	110.62
513.994	90.62
514.21	114.62
514.426	125.62
