Data from Circ_2005_H10_HRD10591_00051.txt Node
Date: Wed Jan 03 10:30:01 EST 2024
User: Yrep
Spectrometer: HR+D1059
Trigger mode: 1
Integration Time (sec): 1.000000E-1
Scans to average: 1
Electric dark correction enabled: true
Nonlinearity correction enabled: false
Boxcar width: 0
XAxis mode: Wavelengths
Number of Pixels in Spectrum: 2048
>>>>>Begin Spectral Data<<<<<
223.165	-23.5
223.4	-23.5
223.635	-23.5
223.869	-14.5
224.104	-24.5
224.338	-26.5
224.573	-12.5
224.808	-27.5
225.042	-16.5
225.277	2.5
225.511	8.5
225.746	12.5
225.98	22.5
226.215	14.5
226.449	9.5
226.683	15.5
226.918	29.5
227.152	30.5
227.387	15.5
227.621	41.5
227.856	45.5
228.09	51.5
228.324	43.5
228.559	60.5
228.793	42.5
229.027	47.5
229.262	68.5
229.496	71.5
229.73	74.5
229.964	75.5
230.199	64.5
230.433	82.5
230.667	70.5
230.901	78.5
231.136	66.5
231.37	66.5
231.604	87.5
231.838	76.5
232.072	81.5
232.306	66.5
232.541	76.5
232.775	78.5
233.009	85.5
233.243	80.5
233.477	78.5
233.711	76.5
233.945	68.5
234.179	81.5
234.413	78.5
234.647	86.5
234.881	84.5
235.115	73.5
235.349	69.5
235.583	78.5
235.817	62.5
236.051	68.5
236.285	85.5
236.519	84.5
236.753	71.5
236.987	77.5
237.221	82.5
237.455	77.5
237.689	88.5
237.922	80.5
238.156	77.5
238.39	78.5
238.624	71.5
238.858	66.5
239.091	60.5
239.325	90.5
239.559	80.5
239.793	79.5
240.027	79.5
240.26	74.5
240.494	75.5
240.728	64.5
240.961	67.5
241.195	73.5
241.429	56.5
241.662	79.5
241.896	77.5
242.13	88.5
242.363	59.5
242.597	76.5
242.83	73.5
243.064	75.5
243.298	68.5
243.531	78.5
243.765	86.5
243.998	75.5
244.232	72.5
244.465	81.5
244.699	73.5
244.932	73.5
245.166	78.5
245.399	72.5
245.633	75.5
245.866	91.5
246.099	73.5
246.333	83.5
246.566	71.5
246.8	81.5
247.033	80.5
247.266	60.5
247.5	62.5
247.733	75.5
247.966	73.5
248.2	86.5
248.433	83.5
248.666	68.5
248.899	76.5
249.133	82.5
249.366	109.5
249.599	97.5
249.832	74.5
250.066	90.5
250.299	80.5
250.532	69.5
250.765	69.5
250.998	66.5
251.231	77.5
251.465	79.5
251.698	75.5
251.931	72.5
252.164	81.5
252.397	83.5
252.63	85.5
252.863	77.5
253.096	73.5
253.329	73.5
253.562	91.5
253.795	88.5
254.028	78.5
254.261	84.5
254.494	76.5
254.727	65.5
254.96	92.5
255.193	63.5
255.426	79.5
255.659	78.5
255.892	86.5
256.124	76.5
256.357	76.5
256.59	85.5
256.823	79.5
257.056	82.5
257.289	78.5
257.521	66.5
257.754	84.5
257.987	95.5
258.22	63.5
258.452	86.5
258.685	71.5
258.918	82.5
259.151	79.5
259.383	79.5
259.616	84.5
259.849	78.5
260.081	83.5
260.314	74.5
260.547	76.5
260.779	83.5
261.012	84.5
261.244	83.5
261.477	89.5
261.71	89.5
261.942	115.5
262.175	114.5
262.407	85.5
262.64	81.5
262.872	83.5
263.105	82.5
263.337	85.5
263.57	84.5
263.802	81.5
264.035	82.5
264.267	79.5
264.499	80.5
264.732	73.5
264.964	66.5
265.197	76.5
265.429	68.5
265.661	80.5
265.894	90.5
266.126	81.5
266.358	95.5
266.591	83.5
266.823	91.5
267.055	80.5
267.287	82.5
267.52	75.5
267.752	78.5
267.984	75.5
268.216	76.5
268.448	95.5
268.681	82.5
268.913	72.5
269.145	86.5
269.377	77.5
269.609	93.5
269.841	90.5
270.073	82.5
270.306	97.5
270.538	73.5
270.77	80.5
271.002	74.5
271.234	91.5
271.466	88.5
271.698	79.5
271.93	62.5
272.162	79.5
272.394	77.5
272.626	85.5
272.858	74.5
273.09	85.5
273.322	81.5
273.553	72.5
273.785	75.5
274.017	92.5
274.249	84.5
274.481	82.5
274.713	79.5
274.945	85.5
275.176	89.5
275.408	94.5
275.64	87.5
275.872	99.5
276.104	84.5
276.335	98.5
276.567	112.5
276.799	110.5
277.031	91.5
277.262	97.5
277.494	80.5
277.726	83.5
277.957	70.5
278.189	78.5
278.421	83.5
278.652	72.5
278.884	62.5
279.115	81.5
279.347	95.5
279.579	92.5
279.81	88.5
280.042	105.5
280.273	94.5
280.505	91.5
280.736	88.5
280.968	82.5
281.199	83.5
281.431	85.5
281.662	93.5
281.894	83.5
282.125	112.5
282.356	108.5
282.588	152.5
282.819	128.5
283.051	89.5
283.282	74.5
283.513	84.5
283.745	92.5
283.976	86.5
284.207	82.5
284.439	75.5
284.67	78.5
284.901	92.5
285.132	88.5
285.364	94.5
285.595	81.5
285.826	83.5
286.057	93.5
286.288	80.5
286.52	87.5
286.751	87.5
286.982	82.5
287.213	92.5
287.444	78.5
287.675	89.5
287.906	85.5
288.138	89.5
288.369	96.5
288.6	75.5
288.831	74.5
289.062	88.5
289.293	80.5
289.524	70.5
289.755	88.5
289.986	87.5
290.217	97.5
290.448	84.5
290.679	93.5
290.91	88.5
291.141	73.5
291.371	90.5
291.602	80.5
291.833	84.5
292.064	92.5
292.295	83.5
292.526	73.5
292.757	91.5
292.987	73.5
293.218	80.5
293.449	84.5
293.68	93.5
293.91	98.5
294.141	101.5
294.372	91.5
294.603	97.5
294.833	92.5
295.064	97.5
295.295	80.5
295.525	93.5
295.756	95.5
295.987	111.5
296.217	130.5
296.448	136.5
296.679	95.5
296.909	93.5
297.14	102.5
297.37	90.5
297.601	85.5
297.831	85.5
298.062	88.5
298.292	89.5
298.523	112.5
298.753	99.5
298.984	77.5
299.214	82.5
299.445	91.5
299.675	77.5
299.905	95.5
300.136	92.5
300.366	81.5
300.597	96.5
300.827	93.5
301.057	98.5
301.288	96.5
301.518	88.5
301.748	83.5
301.979	110.5
302.209	89.5
302.439	90.5
302.669	86.5
302.9	98.5
303.13	85.5
303.36	112.5
303.59	99.5
303.82	99.5
304.051	101.5
304.281	92.5
304.511	77.5
304.741	81.5
304.971	91.5
305.201	89.5
305.431	81.5
305.661	99.5
305.891	78.5
306.121	94.5
306.352	101.5
306.582	109.5
306.812	93.5
307.042	82.5
307.272	97.5
307.502	92.5
307.731	90.5
307.961	90.5
308.191	72.5
308.421	91.5
308.651	76.5
308.881	99.5
309.111	96.5
309.341	103.5
309.571	107.5
309.8	100.5
310.03	72.5
310.26	106.5
310.49	110.5
310.72	86.5
310.949	91.5
311.179	100.5
311.409	85.5
311.639	88.5
311.868	107.5
312.098	93.5
312.328	92.5
312.557	109.5
312.787	99.5
313.017	97.5
313.246	91.5
313.476	82.5
313.706	82.5
313.935	80.5
314.165	97.5
314.394	99.5
314.624	95.5
314.853	94.5
315.083	84.5
315.312	86.5
315.542	86.5
315.771	89.5
316.001	97.5
316.23	103.5
316.46	85.5
316.689	97.5
316.919	92.5
317.148	98.5
317.377	79.5
317.607	85.5
317.836	85.5
318.065	104.5
318.295	78.5
318.524	94.5
318.753	98.5
318.983	100.5
319.212	88.5
319.441	121.5
319.67	96.5
319.9	84.5
320.129	90.5
320.358	87.5
320.587	100.5
320.816	98.5
321.046	102.5
321.275	92.5
321.504	89.5
321.733	92.5
321.962	96.5
322.191	108.5
322.42	107.5
322.649	123.5
322.878	113.5
323.108	121.5
323.337	120.5
323.566	145.5
323.795	156.5
324.024	222.5
324.253	443.5
324.482	952.5
324.71	2008.5
324.939	2680.5
325.168	972.5
325.397	284.5
325.626	153.5
325.855	128.5
326.084	133.5
326.313	148.5
326.542	158.5
326.77	258.5
326.999	522.5
327.228	1105.5
327.457	2051.5
327.686	1583.5
327.914	412.5
328.143	227.5
328.372	174.5
328.6	150.5
328.829	133.5
329.058	144.5
329.287	148.5
329.515	104.5
329.744	103.5
329.972	121.5
330.201	172.5
330.43	218.5
330.658	179.5
330.887	156.5
331.115	124.5
331.344	97.5
331.572	104.5
331.801	96.5
332.03	106.5
332.258	104.5
332.486	91.5
332.715	96.5
332.943	90.5
333.172	97.5
333.4	102.5
333.629	113.5
333.857	126.5
334.085	151.5
334.314	150.5
334.542	249.5
334.771	226.5
334.999	140.5
335.227	99.5
335.455	101.5
335.684	96.5
335.912	86.5
336.14	93.5
336.369	96.5
336.597	84.5
336.825	86.5
337.053	83.5
337.281	91.5
337.51	94.5
337.738	108.5
337.966	97.5
338.194	91.5
338.422	97.5
338.65	100.5
338.878	98.5
339.106	92.5
339.334	100.5
339.562	91.5
339.79	93.5
340.018	88.5
340.246	92.5
340.474	85.5
340.702	95.5
340.93	91.5
341.158	93.5
341.386	85.5
341.614	96.5
341.842	94.5
342.07	102.5
342.298	89.5
342.526	102.5
342.754	74.5
342.981	74.5
343.209	113.5
343.437	95.5
343.665	85.5
343.893	86.5
344.12	94.5
344.348	96.5
344.576	98.5
344.804	92.5
345.031	96.5
345.259	107.5
345.487	86.5
345.714	96.5
345.942	92.5
346.17	94.5
346.397	84.5
346.625	87.5
346.853	77.5
347.08	93.5
347.308	98.5
347.535	115.5
347.763	104.5
347.99	108.5
348.218	98.5
348.445	100.5
348.673	93.5
348.9	105.5
349.128	86.5
349.355	83.5
349.583	93.5
349.81	90.5
350.037	93.5
350.265	88.5
350.492	93.5
350.72	99.5
350.947	97.5
351.174	102.5
351.402	98.5
351.629	101.5
351.856	90.5
352.083	97.5
352.311	97.5
352.538	107.5
352.765	110.5
352.992	116.5
353.22	120.5
353.447	109.5
353.674	109.5
353.901	87.5
354.128	84.5
354.355	88.5
354.583	92.5
354.81	99.5
355.037	102.5
355.264	83.5
355.491	83.5
355.718	88.5
355.945	81.5
356.172	90.5
356.399	91.5
356.626	92.5
356.853	88.5
357.08	93.5
357.307	94.5
357.534	85.5
357.761	102.5
357.988	86.5
358.215	79.5
358.441	89.5
358.668	92.5
358.895	85.5
359.122	81.5
359.349	89.5
359.576	85.5
359.802	106.5
360.029	115.5
360.256	109.5
360.483	94.5
360.709	81.5
360.936	97.5
361.163	86.5
361.39	101.5
361.616	103.5
361.843	102.5
362.07	87.5
362.296	92.5
362.523	92.5
362.749	91.5
362.976	92.5
363.203	97.5
363.429	97.5
363.656	86.5
363.882	86.5
364.109	100.5
364.335	90.5
364.562	85.5
364.788	85.5
365.015	97.5
365.241	93.5
365.468	111.5
365.694	105.5
365.92	84.5
366.147	93.5
366.373	86.5
366.599	78.5
366.826	95.5
367.052	88.5
367.278	94.5
367.505	91.5
367.731	85.5
367.957	86.5
368.184	82.5
368.41	92.5
368.636	98.5
368.862	114.5
369.089	114.5
369.315	85.5
369.541	82.5
369.767	86.5
369.993	97.5
370.219	80.5
370.445	81.5
370.672	76.5
370.898	87.5
371.124	82.5
371.35	92.5
371.576	92.5
371.802	92.5
372.028	83.5
372.254	78.5
372.48	80.5
372.706	77.5
372.932	100.5
373.158	88.5
373.384	86.5
373.61	78.5
373.835	85.5
374.061	89.5
374.287	86.5
374.513	91.5
374.739	97.5
374.965	104.5
375.191	85.5
375.416	78.5
375.642	82.5
375.868	96.5
376.094	83.5
376.319	85.5
376.545	89.5
376.771	74.5
376.997	84.5
377.222	89.5
377.448	85.5
377.674	92.5
377.899	93.5
378.125	98.5
378.35	88.5
378.576	85.5
378.802	105.5
379.027	98.5
379.253	86.5
379.478	86.5
379.704	81.5
379.929	80.5
380.155	88.5
380.38	98.5
380.606	89.5
380.831	85.5
381.057	95.5
381.282	99.5
381.507	100.5
381.733	82.5
381.958	79.5
382.184	96.5
382.409	88.5
382.634	93.5
382.86	101.5
383.085	97.5
383.31	93.5
383.535	94.5
383.761	89.5
383.986	89.5
384.211	113.5
384.436	106.5
384.662	82.5
384.887	108.5
385.112	100.5
385.337	105.5
385.562	106.5
385.787	110.5
386.013	100.5
386.238	120.5
386.463	97.5
386.688	99.5
386.913	101.5
387.138	102.5
387.363	82.5
387.588	107.5
387.813	96.5
388.038	110.5
388.263	114.5
388.488	113.5
388.713	103.5
388.938	92.5
389.163	86.5
389.387	84.5
389.612	81.5
389.837	87.5
390.062	96.5
390.287	87.5
390.512	77.5
390.736	86.5
390.961	92.5
391.186	78.5
391.411	101.5
391.636	86.5
391.86	77.5
392.085	75.5
392.31	85.5
392.534	92.5
392.759	82.5
392.984	71.5
393.208	81.5
393.433	86.5
393.658	88.5
393.882	90.5
394.107	98.5
394.331	91.5
394.556	93.5
394.78	86.5
395.005	90.5
395.229	82.5
395.454	78.5
395.678	89.5
395.903	90.5
396.127	96.5
396.352	78.5
396.576	82.5
396.801	78.5
397.025	92.5
397.249	79.5
397.474	94.5
397.698	81.5
397.922	77.5
398.147	80.5
398.371	92.5
398.595	88.5
398.82	89.5
399.044	84.5
399.268	90.5
399.492	87.5
399.717	79.5
399.941	73.5
400.165	92.5
400.389	82.5
400.613	91.5
400.837	82.5
401.062	90.5
401.286	80.5
401.51	98.5
401.734	74.5
401.958	99.5
402.182	118.5
402.406	170.5
402.63	120.5
402.854	90.5
403.078	79.5
403.302	93.5
403.526	84.5
403.75	95.5
403.974	80.5
404.198	86.5
404.422	87.5
404.645	89.5
404.869	85.5
405.093	95.5
405.317	121.5
405.541	113.5
405.765	108.5
405.988	106.5
406.212	162.5
406.436	255.5
406.66	145.5
406.883	96.5
407.107	94.5
407.331	98.5
407.555	96.5
407.778	96.5
408.002	78.5
408.226	85.5
408.449	75.5
408.673	92.5
408.896	96.5
409.12	98.5
409.344	78.5
409.567	90.5
409.791	81.5
410.014	91.5
410.238	97.5
410.461	87.5
410.685	88.5
410.908	88.5
411.132	108.5
411.355	99.5
411.578	113.5
411.802	85.5
412.025	85.5
412.249	88.5
412.472	98.5
412.695	90.5
412.919	77.5
413.142	84.5
413.365	93.5
413.589	90.5
413.812	92.5
414.035	94.5
414.258	78.5
414.482	81.5
414.705	73.5
414.928	88.5
415.151	91.5
415.374	86.5
415.597	80.5
415.821	91.5
416.044	84.5
416.267	80.5
416.49	84.5
416.713	97.5
416.936	100.5
417.159	86.5
417.382	76.5
417.605	92.5
417.828	91.5
418.051	91.5
418.274	80.5
418.497	83.5
418.72	85.5
418.943	91.5
419.166	82.5
419.389	80.5
419.611	73.5
419.834	83.5
420.057	87.5
420.28	85.5
420.503	86.5
420.726	81.5
420.948	86.5
421.171	88.5
421.394	89.5
421.617	88.5
421.839	85.5
422.062	93.5
422.285	84.5
422.507	90.5
422.73	92.5
422.953	84.5
423.175	86.5
423.398	85.5
423.621	83.5
423.843	94.5
424.066	93.5
424.288	81.5
424.511	93.5
424.733	86.5
424.956	116.5
425.178	101.5
425.401	92.5
425.623	126.5
425.846	89.5
426.068	97.5
426.291	68.5
426.513	84.5
426.735	83.5
426.958	82.5
427.18	108.5
427.402	154.5
427.625	190.5
427.847	155.5
428.069	120.5
428.292	87.5
428.514	91.5
428.736	81.5
428.958	74.5
429.181	90.5
429.403	85.5
429.625	81.5
429.847	95.5
430.069	111.5
430.292	92.5
430.514	111.5
430.736	81.5
430.958	77.5
431.18	73.5
431.402	82.5
431.624	73.5
431.846	86.5
432.068	82.5
432.29	70.5
432.512	69.5
432.734	84.5
432.956	82.5
433.178	95.5
433.4	90.5
433.622	79.5
433.844	80.5
434.066	93.5
434.287	97.5
434.509	92.5
434.731	91.5
434.953	83.5
435.175	80.5
435.397	85.5
435.618	104.5
435.84	100.5
436.062	134.5
436.284	128.5
436.505	101.5
436.727	101.5
436.949	96.5
437.17	77.5
437.392	85.5
437.614	92.5
437.835	98.5
438.057	132.5
438.278	129.5
438.5	100.5
438.721	127.5
438.943	96.5
439.165	80.5
439.386	91.5
439.608	80.5
439.829	117.5
440.05	120.5
440.272	141.5
440.493	105.5
440.715	84.5
440.936	81.5
441.158	83.5
441.379	90.5
441.6	84.5
441.822	83.5
442.043	93.5
442.264	116.5
442.486	100.5
442.707	105.5
442.928	115.5
443.149	126.5
443.371	148.5
443.592	103.5
443.813	133.5
444.034	111.5
444.255	86.5
444.476	92.5
444.698	94.5
444.919	78.5
445.14	138.5
445.361	114.5
445.582	115.5
445.803	170.5
446.024	142.5
446.245	139.5
446.466	129.5
446.687	80.5
446.908	85.5
447.129	84.5
447.35	82.5
447.571	99.5
447.792	84.5
448.013	101.5
448.234	98.5
448.455	116.5
448.675	147.5
448.896	122.5
449.117	111.5
449.338	98.5
449.559	136.5
449.779	139.5
450	92.5
450.221	99.5
450.442	95.5
450.662	89.5
450.883	101.5
451.104	111.5
451.324	112.5
451.545	93.5
451.766	76.5
451.986	84.5
452.207	66.5
452.428	86.5
452.648	96.5
452.869	111.5
453.089	106.5
453.31	125.5
453.53	89.5
453.751	102.5
453.971	100.5
454.192	117.5
454.412	97.5
454.633	83.5
454.853	89.5
455.073	87.5
455.294	98.5
455.514	97.5
455.734	88.5
455.955	80.5
456.175	82.5
456.395	79.5
456.616	77.5
456.836	88.5
457.056	75.5
457.276	74.5
457.497	86.5
457.717	80.5
457.937	86.5
458.157	85.5
458.377	82.5
458.598	107.5
458.818	146.5
459.038	156.5
459.258	111.5
459.478	90.5
459.698	87.5
459.918	94.5
460.138	73.5
460.358	78.5
460.578	78.5
460.798	89.5
461.018	91.5
461.238	85.5
461.458	93.5
461.678	80.5
461.898	76.5
462.118	78.5
462.338	91.5
462.558	69.5
462.777	91.5
462.997	81.5
463.217	77.5
463.437	73.5
463.657	93.5
463.876	80.5
464.096	87.5
464.316	88.5
464.536	103.5
464.755	87.5
464.975	106.5
465.195	177.5
465.414	187.5
465.634	96.5
465.854	98.5
466.073	72.5
466.293	72.5
466.512	89.5
466.732	86.5
466.951	80.5
467.171	94.5
467.391	92.5
467.61	94.5
467.829	100.5
468.049	121.5
468.268	115.5
468.488	88.5
468.707	79.5
468.927	86.5
469.146	86.5
469.365	94.5
469.585	90.5
469.804	92.5
470.023	100.5
470.243	103.5
470.462	102.5
470.681	103.5
470.901	85.5
471.12	80.5
471.339	84.5
471.558	97.5
471.777	92.5
471.997	89.5
472.216	165.5
472.435	273.5
472.654	112.5
472.873	80.5
473.092	79.5
473.311	71.5
473.53	72.5
473.749	89.5
473.968	102.5
474.187	106.5
474.406	94.5
474.625	86.5
474.844	93.5
475.063	77.5
475.282	90.5
475.501	88.5
475.72	69.5
475.939	94.5
476.158	75.5
476.377	85.5
476.596	97.5
476.814	80.5
477.033	91.5
477.252	89.5
477.471	85.5
477.69	73.5
477.908	94.5
478.127	82.5
478.346	91.5
478.564	99.5
478.783	81.5
479.002	90.5
479.22	89.5
479.439	112.5
479.658	105.5
479.876	90.5
480.095	89.5
480.313	86.5
480.532	102.5
480.751	101.5
480.969	162.5
481.188	430.5
481.406	288.5
481.624	112.5
481.843	91.5
482.061	85.5
482.28	96.5
482.498	84.5
482.717	84.5
482.935	85.5
483.153	86.5
483.372	83.5
483.59	95.5
483.808	85.5
484.027	88.5
484.245	84.5
484.463	81.5
484.681	96.5
484.9	96.5
485.118	87.5
485.336	91.5
485.554	93.5
485.772	94.5
485.99	104.5
486.209	100.5
486.427	111.5
486.645	115.5
486.863	124.5
487.081	101.5
487.299	99.5
487.517	93.5
487.735	86.5
487.953	97.5
488.171	90.5
488.389	94.5
488.607	105.5
488.825	102.5
489.043	93.5
489.261	74.5
489.479	87.5
489.696	90.5
489.914	76.5
490.132	91.5
490.35	86.5
490.568	94.5
490.786	98.5
491.003	68.5
491.221	91.5
491.439	87.5
491.657	95.5
491.874	91.5
492.092	91.5
492.31	85.5
492.527	77.5
492.745	80.5
492.963	88.5
493.18	99.5
493.398	99.5
493.615	80.5
493.833	88.5
494.05	93.5
494.268	86.5
494.485	80.5
494.703	91.5
494.92	82.5
495.138	95.5
495.355	90.5
495.573	73.5
495.79	90.5
496.008	85.5
496.225	92.5
496.442	78.5
496.66	93.5
496.877	84.5
497.094	89.5
497.312	84.5
497.529	70.5
497.746	102.5
497.963	86.5
498.181	95.5
498.398	92.5
498.615	97.5
498.832	94.5
499.049	80.5
499.267	97.5
499.484	80.5
499.701	66.5
499.918	108.5
500.135	97.5
500.352	81.5
500.569	81.5
500.786	87.5
501.003	95.5
501.22	100.5
501.437	101.5
501.654	92.5
501.871	86.5
502.088	86.5
502.305	79.5
502.522	104.5
502.739	79.5
502.956	82.5
503.172	77.5
503.389	98.5
503.606	101.5
503.823	83.5
504.04	85.5
504.256	92.5
504.473	96.5
504.69	92.5
504.907	94.5
505.123	91.5
505.34	90.5
505.557	85.5
505.773	75.5
505.99	89.5
506.207	87.5
506.423	89.5
506.64	82.5
506.856	96.5
507.073	92.5
507.289	102.5
507.506	101.5
507.722	114.5
507.939	107.5
508.155	107.5
508.372	84.5
508.588	94.5
508.805	86.5
509.021	101.5
509.238	89.5
509.454	101.5
509.67	93.5
509.887	112.5
510.103	117.5
510.319	211.5
510.536	765.5
510.752	2633.5
510.968	718.5
511.184	159.5
511.401	116.5
511.617	95.5
511.833	95.5
512.049	94.5
512.265	94.5
512.481	85.5
512.698	102.5
512.914	94.5
513.13	98.5
513.346	93.5
513.562	104.5
513.778	80.5
513.994	88.5
514.21	110.5
514.426	117.5
514.642	143.5
514.858	134.5
515.074	169.5
515.29	495.5
515.506	1755.5
515.721	656.5
515.937	166.5
516.153	107.5
516.369	104.5
516.585	97.5
516.801	80.5
517.016	93.5
517.232	83.5
517.448	95.5
517.664	77.5
517.879	86.5
518.095	88.5
518.311	92.5
518.527	87.5
518.742	89.5
518.958	88.5
519.173	103.5
519.389	96.5
519.605	91.5
519.82	96.5
520.036	108.5
520.251	115.5
520.467	108.5
520.682	109.5
520.898	104.5
521.113	126.5
521.329	149.5
521.544	223.5
521.76	661.5
521.975	2868.5
522.19	1763.5
522.406	360.5
522.621	134.5
522.836	86.5
523.052	93.5
523.267	94.5
523.482	90.5
523.698	104.5
523.913	114.5
524.128	98.5
524.343	92.5
524.559	91.5
524.774	90.5
524.989	97.5
525.204	88.5
525.419	98.5
525.634	81.5
525.849	97.5
526.064	92.5
526.28	94.5
526.495	94.5
526.71	82.5
526.925	88.5
527.14	86.5
527.355	86.5
527.57	84.5
527.785	82.5
527.999	89.5
528.214	84.5
528.429	84.5
528.644	85.5
528.859	94.5
529.074	101.5
529.289	132.5
529.503	185.5
529.718	113.5
529.933	101.5
530.148	91.5
530.363	81.5
530.577	82.5
530.792	88.5
531.007	88.5
531.221	98.5
531.436	86.5
531.651	87.5
531.865	81.5
532.08	70.5
532.295	108.5
532.509	88.5
532.724	81.5
532.938	98.5
533.153	101.5
533.367	79.5
533.582	109.5
533.796	80.5
534.011	82.5
534.225	81.5
534.44	94.5
534.654	79.5
534.868	76.5
535.083	79.5
535.297	84.5
535.511	95.5
535.726	101.5
