Data from Circ_2005_H10_HRD10591_00092.txt Node
Date: Wed Jan 03 10:30:09 EST 2024
User: Yrep
Spectrometer: HR+D1059
Trigger mode: 1
Integration Time (sec): 1.000000E-1
Scans to average: 1
Electric dark correction enabled: true
Nonlinearity correction enabled: false
Boxcar width: 0
XAxis mode: Wavelengths
Number of Pixels in Spectrum: 2048
>>>>>Begin Spectral Data<<<<<
223.165	-18.5
223.4	-18.5
223.635	-18.5
223.869	-10.5
224.104	-15.5
224.338	-12.5
224.573	-20.5
224.808	-8.5
225.042	-6.5
225.277	0.5
225.511	-4.5
225.746	-0.5
225.98	3.5
226.215	19.5
226.449	15.5
226.683	16.5
226.918	1.5
227.152	40.5
227.387	41.5
227.621	22.5
227.856	49.5
228.09	47.5
228.324	47.5
228.559	60.5
228.793	43.5
229.027	70.5
229.262	83.5
229.496	81.5
229.73	62.5
229.964	71.5
230.199	78.5
230.433	69.5
230.667	75.5
230.901	79.5
231.136	77.5
231.37	84.5
231.604	94.5
231.838	81.5
232.072	73.5
232.306	88.5
232.541	78.5
232.775	82.5
233.009	83.5
233.243	91.5
233.477	78.5
233.711	81.5
233.945	66.5
234.179	76.5
234.413	68.5
234.647	72.5
234.881	74.5
235.115	78.5
235.349	78.5
235.583	76.5
235.817	80.5
236.051	75.5
236.285	75.5
236.519	81.5
236.753	75.5
236.987	76.5
237.221	96.5
237.455	89.5
237.689	75.5
237.922	72.5
238.156	89.5
238.39	87.5
238.624	73.5
238.858	83.5
239.091	78.5
239.325	73.5
239.559	78.5
239.793	83.5
240.027	79.5
240.26	71.5
240.494	63.5
240.728	70.5
240.961	71.5
241.195	67.5
241.429	87.5
241.662	71.5
241.896	84.5
242.13	83.5
242.363	71.5
242.597	68.5
242.83	94.5
243.064	84.5
243.298	76.5
243.531	81.5
243.765	86.5
243.998	79.5
244.232	80.5
244.465	89.5
244.699	81.5
244.932	85.5
245.166	86.5
245.399	87.5
245.633	80.5
245.866	79.5
246.099	80.5
246.333	86.5
246.566	78.5
246.8	78.5
247.033	79.5
247.266	85.5
247.5	72.5
247.733	86.5
247.966	79.5
248.2	83.5
248.433	108.5
248.666	86.5
248.899	94.5
249.133	91.5
249.366	89.5
249.599	95.5
249.832	75.5
250.066	83.5
250.299	74.5
250.532	85.5
250.765	83.5
250.998	71.5
251.231	74.5
251.465	85.5
251.698	79.5
251.931	76.5
252.164	63.5
252.397	74.5
252.63	66.5
252.863	82.5
253.096	80.5
253.329	77.5
253.562	93.5
253.795	79.5
254.028	76.5
254.261	75.5
254.494	67.5
254.727	89.5
254.96	98.5
255.193	80.5
255.426	64.5
255.659	93.5
255.892	87.5
256.124	84.5
256.357	98.5
256.59	79.5
256.823	79.5
257.056	64.5
257.289	89.5
257.521	81.5
257.754	93.5
257.987	90.5
258.22	78.5
258.452	90.5
258.685	81.5
258.918	92.5
259.151	79.5
259.383	85.5
259.616	86.5
259.849	73.5
260.081	93.5
260.314	88.5
260.547	95.5
260.779	89.5
261.012	86.5
261.244	87.5
261.477	88.5
261.71	92.5
261.942	97.5
262.175	101.5
262.407	97.5
262.64	85.5
262.872	83.5
263.105	82.5
263.337	73.5
263.57	85.5
263.802	84.5
264.035	81.5
264.267	94.5
264.499	83.5
264.732	87.5
264.964	84.5
265.197	92.5
265.429	89.5
265.661	93.5
265.894	87.5
266.126	80.5
266.358	79.5
266.591	96.5
266.823	65.5
267.055	78.5
267.287	71.5
267.52	102.5
267.752	74.5
267.984	78.5
268.216	81.5
268.448	88.5
268.681	68.5
268.913	76.5
269.145	89.5
269.377	91.5
269.609	93.5
269.841	77.5
270.073	76.5
270.306	65.5
270.538	90.5
270.77	78.5
271.002	82.5
271.234	66.5
271.466	88.5
271.698	96.5
271.93	103.5
272.162	71.5
272.394	81.5
272.626	93.5
272.858	81.5
273.09	87.5
273.322	98.5
273.553	95.5
273.785	95.5
274.017	89.5
274.249	93.5
274.481	87.5
274.713	71.5
274.945	95.5
275.176	75.5
275.408	85.5
275.64	88.5
275.872	91.5
276.104	92.5
276.335	89.5
276.567	89.5
276.799	100.5
277.031	100.5
277.262	92.5
277.494	85.5
277.726	92.5
277.957	69.5
278.189	62.5
278.421	89.5
278.652	90.5
278.884	81.5
279.115	76.5
279.347	97.5
279.579	83.5
279.81	88.5
280.042	92.5
280.273	96.5
280.505	99.5
280.736	93.5
280.968	80.5
281.199	76.5
281.431	89.5
281.662	78.5
281.894	89.5
282.125	100.5
282.356	104.5
282.588	131.5
282.819	108.5
283.051	80.5
283.282	89.5
283.513	92.5
283.745	78.5
283.976	77.5
284.207	84.5
284.439	78.5
284.67	79.5
284.901	91.5
285.132	95.5
285.364	83.5
285.595	93.5
285.826	90.5
286.057	81.5
286.288	87.5
286.52	89.5
286.751	86.5
286.982	88.5
287.213	95.5
287.444	94.5
287.675	78.5
287.906	82.5
288.138	87.5
288.369	105.5
288.6	88.5
288.831	96.5
289.062	83.5
289.293	83.5
289.524	81.5
289.755	85.5
289.986	82.5
290.217	96.5
290.448	95.5
290.679	86.5
290.91	93.5
291.141	75.5
291.371	89.5
291.602	99.5
291.833	91.5
292.064	95.5
292.295	94.5
292.526	95.5
292.757	97.5
292.987	81.5
293.218	93.5
293.449	98.5
293.68	93.5
293.91	87.5
294.141	85.5
294.372	84.5
294.603	93.5
294.833	73.5
295.064	80.5
295.295	85.5
295.525	93.5
295.756	110.5
295.987	110.5
296.217	146.5
296.448	101.5
296.679	94.5
296.909	95.5
297.14	111.5
297.37	94.5
297.601	95.5
297.831	84.5
298.062	92.5
298.292	79.5
298.523	101.5
298.753	93.5
298.984	70.5
299.214	94.5
299.445	100.5
299.675	91.5
299.905	101.5
300.136	91.5
300.366	87.5
300.597	86.5
300.827	86.5
301.057	87.5
301.288	99.5
301.518	93.5
301.748	97.5
301.979	87.5
302.209	90.5
302.439	93.5
302.669	67.5
302.9	103.5
303.13	92.5
303.36	95.5
303.59	90.5
303.82	84.5
304.051	86.5
304.281	84.5
304.511	86.5
304.741	88.5
304.971	85.5
305.201	89.5
305.431	83.5
305.661	86.5
305.891	101.5
306.121	107.5
306.352	103.5
306.582	91.5
306.812	101.5
307.042	89.5
307.272	93.5
307.502	106.5
307.731	103.5
307.961	91.5
308.191	79.5
308.421	79.5
308.651	99.5
308.881	78.5
309.111	86.5
309.341	82.5
309.571	84.5
309.8	98.5
310.03	84.5
310.26	102.5
310.49	87.5
310.72	98.5
310.949	98.5
311.179	91.5
311.409	91.5
311.639	91.5
311.868	93.5
312.098	69.5
312.328	97.5
312.557	109.5
312.787	109.5
313.017	92.5
313.246	88.5
313.476	86.5
313.706	92.5
313.935	91.5
314.165	106.5
314.394	103.5
314.624	90.5
314.853	96.5
315.083	87.5
315.312	86.5
315.542	89.5
315.771	98.5
316.001	90.5
316.23	92.5
316.46	78.5
316.689	89.5
316.919	82.5
317.148	87.5
317.377	97.5
317.607	84.5
317.836	90.5
318.065	100.5
318.295	85.5
318.524	75.5
318.753	91.5
318.983	98.5
319.212	93.5
319.441	96.5
319.67	100.5
319.9	99.5
320.129	96.5
320.358	94.5
320.587	92.5
320.816	103.5
321.046	92.5
321.275	95.5
321.504	98.5
321.733	94.5
321.962	89.5
322.191	101.5
322.42	104.5
322.649	101.5
322.878	113.5
323.108	100.5
323.337	115.5
323.566	110.5
323.795	142.5
324.024	191.5
324.253	355.5
324.482	751.5
324.71	1551.5
324.939	2055.5
325.168	772.5
325.397	226.5
325.626	128.5
325.855	114.5
326.084	115.5
326.313	128.5
326.542	149.5
326.77	208.5
326.999	414.5
327.228	878.5
327.457	1604.5
327.686	1247.5
327.914	350.5
328.143	211.5
328.372	195.5
328.6	138.5
328.829	113.5
329.058	111.5
329.287	128.5
329.515	107.5
329.744	117.5
329.972	139.5
330.201	207.5
330.43	248.5
330.658	163.5
330.887	145.5
331.115	118.5
331.344	89.5
331.572	98.5
331.801	93.5
332.03	110.5
332.258	92.5
332.486	82.5
332.715	105.5
332.943	96.5
333.172	95.5
333.4	85.5
333.629	102.5
333.857	113.5
334.085	137.5
334.314	196.5
334.542	307.5
334.771	270.5
334.999	136.5
335.227	106.5
335.455	95.5
335.684	98.5
335.912	99.5
336.14	84.5
336.369	83.5
336.597	102.5
336.825	92.5
337.053	90.5
337.281	90.5
337.51	84.5
337.738	91.5
337.966	83.5
338.194	91.5
338.422	89.5
338.65	82.5
338.878	86.5
339.106	93.5
339.334	84.5
339.562	81.5
339.79	96.5
340.018	91.5
340.246	101.5
340.474	87.5
340.702	92.5
340.93	87.5
341.158	96.5
341.386	97.5
341.614	68.5
341.842	79.5
342.07	79.5
342.298	92.5
342.526	93.5
342.754	107.5
342.981	106.5
343.209	84.5
343.437	89.5
343.665	92.5
343.893	100.5
344.12	92.5
344.348	93.5
344.576	88.5
344.804	83.5
345.031	107.5
345.259	87.5
345.487	88.5
345.714	86.5
345.942	91.5
346.17	93.5
346.397	85.5
346.625	92.5
346.853	84.5
347.08	90.5
347.308	101.5
347.535	84.5
347.763	89.5
347.99	93.5
348.218	100.5
348.445	97.5
348.673	90.5
348.9	113.5
349.128	104.5
349.355	95.5
349.583	85.5
349.81	80.5
350.037	86.5
350.265	95.5
350.492	79.5
350.72	100.5
350.947	96.5
351.174	99.5
351.402	92.5
351.629	101.5
351.856	88.5
352.083	107.5
352.311	101.5
352.538	96.5
352.765	93.5
352.992	104.5
353.22	118.5
353.447	95.5
353.674	101.5
353.901	101.5
354.128	101.5
354.355	89.5
354.583	105.5
354.81	96.5
355.037	101.5
355.264	95.5
355.491	116.5
355.718	98.5
355.945	91.5
356.172	89.5
356.399	92.5
356.626	92.5
356.853	87.5
357.08	94.5
357.307	89.5
357.534	76.5
357.761	96.5
357.988	87.5
358.215	90.5
358.441	87.5
358.668	88.5
358.895	77.5
359.122	93.5
359.349	100.5
359.576	68.5
359.802	84.5
360.029	104.5
360.256	104.5
360.483	86.5
360.709	80.5
360.936	85.5
361.163	82.5
361.39	92.5
361.616	90.5
361.843	84.5
362.07	88.5
362.296	92.5
362.523	81.5
362.749	95.5
362.976	87.5
363.203	95.5
363.429	92.5
363.656	104.5
363.882	89.5
364.109	90.5
364.335	95.5
364.562	92.5
364.788	96.5
365.015	102.5
365.241	98.5
365.468	94.5
365.694	95.5
365.92	99.5
366.147	99.5
366.373	94.5
366.599	77.5
366.826	86.5
367.052	95.5
367.278	93.5
367.505	93.5
367.731	89.5
367.957	73.5
368.184	94.5
368.41	90.5
368.636	110.5
368.862	102.5
369.089	105.5
369.315	99.5
369.541	99.5
369.767	88.5
369.993	91.5
370.219	102.5
370.445	100.5
370.672	81.5
370.898	70.5
371.124	81.5
371.35	84.5
371.576	91.5
371.802	98.5
372.028	85.5
372.254	98.5
372.48	98.5
372.706	75.5
372.932	83.5
373.158	85.5
373.384	86.5
373.61	91.5
373.835	91.5
374.061	87.5
374.287	88.5
374.513	90.5
374.739	72.5
374.965	93.5
375.191	94.5
375.416	75.5
375.642	87.5
375.868	95.5
376.094	85.5
376.319	75.5
376.545	82.5
376.771	97.5
376.997	85.5
377.222	100.5
377.448	99.5
377.674	94.5
377.899	92.5
378.125	83.5
378.35	84.5
378.576	93.5
378.802	91.5
379.027	77.5
379.253	93.5
379.478	93.5
379.704	100.5
379.929	93.5
380.155	94.5
380.38	91.5
380.606	84.5
380.831	96.5
381.057	105.5
381.282	96.5
381.507	94.5
381.733	92.5
381.958	86.5
382.184	117.5
382.409	108.5
382.634	90.5
382.86	88.5
383.085	91.5
383.31	96.5
383.535	103.5
383.761	101.5
383.986	100.5
384.211	84.5
384.436	91.5
384.662	96.5
384.887	91.5
385.112	83.5
385.337	89.5
385.562	88.5
385.787	111.5
386.013	112.5
386.238	116.5
386.463	108.5
386.688	96.5
386.913	114.5
387.138	112.5
387.363	90.5
387.588	95.5
387.813	109.5
388.038	109.5
388.263	114.5
388.488	110.5
388.713	84.5
388.938	87.5
389.163	94.5
389.387	94.5
389.612	87.5
389.837	92.5
390.062	79.5
390.287	91.5
390.512	80.5
390.736	107.5
390.961	98.5
391.186	89.5
391.411	86.5
391.636	89.5
391.86	81.5
392.085	90.5
392.31	91.5
392.534	83.5
392.759	85.5
392.984	95.5
393.208	91.5
393.433	79.5
393.658	79.5
393.882	88.5
394.107	83.5
394.331	98.5
394.556	87.5
394.78	71.5
395.005	81.5
395.229	90.5
395.454	85.5
395.678	91.5
395.903	87.5
396.127	96.5
396.352	79.5
396.576	84.5
396.801	89.5
397.025	80.5
397.249	89.5
397.474	91.5
397.698	74.5
397.922	80.5
398.147	84.5
398.371	69.5
398.595	73.5
398.82	75.5
399.044	84.5
399.268	89.5
399.492	76.5
399.717	88.5
399.941	75.5
400.165	90.5
400.389	91.5
400.613	79.5
400.837	77.5
401.062	92.5
401.286	95.5
401.51	103.5
401.734	99.5
401.958	102.5
402.182	121.5
402.406	137.5
402.63	113.5
402.854	83.5
403.078	92.5
403.302	82.5
403.526	88.5
403.75	97.5
403.974	85.5
404.198	99.5
404.422	86.5
404.645	84.5
404.869	90.5
405.093	96.5
405.317	101.5
405.541	95.5
405.765	94.5
405.988	112.5
406.212	143.5
406.436	177.5
406.66	120.5
406.883	95.5
407.107	85.5
407.331	96.5
407.555	93.5
407.778	75.5
408.002	81.5
408.226	93.5
408.449	76.5
408.673	90.5
408.896	89.5
409.12	89.5
409.344	97.5
409.567	82.5
409.791	85.5
410.014	83.5
410.238	92.5
410.461	94.5
410.685	88.5
410.908	101.5
411.132	96.5
411.355	92.5
411.578	75.5
411.802	99.5
412.025	75.5
412.249	96.5
412.472	100.5
412.695	92.5
412.919	93.5
413.142	88.5
413.365	83.5
413.589	83.5
413.812	96.5
414.035	95.5
414.258	83.5
414.482	85.5
414.705	88.5
414.928	97.5
415.151	70.5
415.374	71.5
415.597	83.5
415.821	95.5
416.044	79.5
416.267	89.5
416.49	84.5
416.713	82.5
416.936	92.5
417.159	91.5
417.382	86.5
417.605	80.5
417.828	88.5
418.051	103.5
418.274	96.5
418.497	86.5
418.72	95.5
418.943	81.5
419.166	86.5
419.389	101.5
419.611	103.5
419.834	96.5
420.057	98.5
420.28	75.5
420.503	100.5
420.726	84.5
420.948	85.5
421.171	80.5
421.394	89.5
421.617	92.5
421.839	95.5
422.062	100.5
422.285	90.5
422.507	96.5
422.73	101.5
422.953	93.5
423.175	97.5
423.398	76.5
423.621	83.5
423.843	77.5
424.066	95.5
424.288	88.5
424.511	101.5
424.733	93.5
424.956	109.5
425.178	102.5
425.401	88.5
425.623	95.5
425.846	79.5
426.068	102.5
426.291	80.5
426.513	101.5
426.735	85.5
426.958	97.5
427.18	102.5
427.402	119.5
427.625	156.5
427.847	127.5
428.069	129.5
428.292	95.5
428.514	83.5
428.736	102.5
428.958	87.5
429.181	80.5
429.403	89.5
429.625	80.5
429.847	85.5
430.069	102.5
430.292	93.5
430.514	87.5
430.736	90.5
430.958	91.5
431.18	68.5
431.402	95.5
431.624	94.5
431.846	79.5
432.068	104.5
432.29	84.5
432.512	83.5
432.734	90.5
432.956	100.5
433.178	102.5
433.4	113.5
433.622	105.5
433.844	87.5
434.066	91.5
434.287	84.5
434.509	94.5
434.731	92.5
434.953	87.5
435.175	72.5
435.397	79.5
435.618	97.5
435.84	91.5
436.062	131.5
436.284	106.5
436.505	99.5
436.727	101.5
436.949	94.5
437.17	83.5
437.392	86.5
437.614	84.5
437.835	108.5
438.057	104.5
438.278	111.5
438.5	103.5
438.721	108.5
438.943	101.5
439.165	87.5
439.386	83.5
439.608	92.5
439.829	92.5
440.05	118.5
440.272	119.5
440.493	107.5
440.715	75.5
440.936	78.5
441.158	84.5
441.379	95.5
441.6	85.5
441.822	91.5
442.043	97.5
442.264	101.5
442.486	100.5
442.707	83.5
442.928	96.5
443.149	126.5
443.371	103.5
443.592	99.5
443.813	112.5
444.034	98.5
444.255	92.5
444.476	89.5
444.698	92.5
444.919	91.5
445.14	124.5
445.361	112.5
445.582	102.5
445.803	135.5
446.024	124.5
446.245	128.5
446.466	110.5
446.687	74.5
446.908	92.5
447.129	92.5
447.35	77.5
447.571	80.5
447.792	105.5
448.013	89.5
448.234	93.5
448.455	92.5
448.675	92.5
448.896	109.5
449.117	94.5
449.338	94.5
449.559	111.5
449.779	118.5
450	83.5
450.221	84.5
450.442	100.5
450.662	96.5
450.883	96.5
451.104	126.5
451.324	97.5
451.545	83.5
451.766	79.5
451.986	83.5
452.207	84.5
452.428	87.5
452.648	87.5
452.869	94.5
453.089	106.5
453.31	112.5
453.53	92.5
453.751	75.5
453.971	101.5
454.192	91.5
454.412	84.5
454.633	85.5
454.853	85.5
455.073	80.5
455.294	99.5
455.514	105.5
455.734	104.5
455.955	82.5
456.175	89.5
456.395	89.5
456.616	73.5
456.836	87.5
457.056	101.5
457.276	84.5
457.497	74.5
457.717	87.5
457.937	90.5
458.157	83.5
458.377	83.5
458.598	105.5
458.818	123.5
459.038	142.5
459.258	116.5
459.478	90.5
459.698	99.5
459.918	86.5
460.138	82.5
460.358	84.5
460.578	81.5
460.798	80.5
461.018	91.5
461.238	89.5
461.458	83.5
461.678	79.5
461.898	78.5
462.118	85.5
462.338	93.5
462.558	97.5
462.777	78.5
462.997	86.5
463.217	86.5
463.437	91.5
463.657	77.5
463.876	76.5
464.096	80.5
464.316	88.5
464.536	107.5
464.755	96.5
464.975	97.5
465.195	136.5
465.414	140.5
465.634	90.5
465.854	77.5
466.073	77.5
466.293	78.5
466.512	81.5
466.732	87.5
466.951	94.5
467.171	73.5
467.391	101.5
467.61	99.5
467.829	107.5
468.049	134.5
468.268	164.5
468.488	83.5
468.707	99.5
468.927	81.5
469.146	76.5
469.365	83.5
469.585	87.5
469.804	95.5
470.023	93.5
470.243	82.5
470.462	96.5
470.681	121.5
470.901	96.5
471.12	80.5
471.339	92.5
471.558	83.5
471.777	108.5
471.997	113.5
472.216	217.5
472.435	398.5
472.654	152.5
472.873	104.5
473.092	65.5
473.311	101.5
473.53	91.5
473.749	85.5
473.968	100.5
474.187	93.5
474.406	92.5
474.625	94.5
474.844	105.5
475.063	84.5
475.282	86.5
475.501	81.5
475.72	84.5
475.939	87.5
476.158	79.5
476.377	96.5
476.596	89.5
476.814	83.5
477.033	66.5
477.252	78.5
477.471	87.5
477.69	86.5
477.908	95.5
478.127	95.5
478.346	94.5
478.564	92.5
478.783	98.5
479.002	89.5
479.22	97.5
479.439	107.5
479.658	96.5
479.876	99.5
480.095	99.5
480.313	97.5
480.532	101.5
480.751	103.5
480.969	223.5
481.188	647.5
481.406	400.5
481.624	119.5
481.843	94.5
482.061	82.5
482.28	87.5
482.498	80.5
482.717	75.5
482.935	95.5
483.153	89.5
483.372	90.5
483.59	84.5
483.808	67.5
484.027	100.5
484.245	88.5
484.463	101.5
484.681	101.5
484.9	83.5
485.118	91.5
485.336	104.5
485.554	87.5
485.772	97.5
485.99	94.5
486.209	92.5
486.427	97.5
486.645	108.5
486.863	100.5
487.081	107.5
487.299	105.5
487.517	90.5
487.735	93.5
487.953	86.5
488.171	89.5
488.389	101.5
488.607	112.5
488.825	107.5
489.043	87.5
489.261	87.5
489.479	77.5
489.696	91.5
489.914	86.5
490.132	78.5
490.35	84.5
490.568	80.5
490.786	75.5
491.003	71.5
491.221	94.5
491.439	87.5
491.657	102.5
491.874	101.5
492.092	73.5
492.31	101.5
492.527	86.5
492.745	92.5
492.963	89.5
493.18	105.5
493.398	103.5
493.615	93.5
493.833	92.5
494.05	104.5
494.268	79.5
494.485	78.5
494.703	106.5
494.92	80.5
495.138	88.5
495.355	101.5
495.573	99.5
495.79	94.5
496.008	94.5
496.225	87.5
496.442	103.5
496.66	89.5
496.877	84.5
497.094	84.5
497.312	88.5
497.529	89.5
497.746	86.5
497.963	86.5
498.181	99.5
498.398	94.5
498.615	107.5
498.832	106.5
499.049	83.5
499.267	103.5
499.484	97.5
499.701	81.5
499.918	95.5
500.135	94.5
500.352	78.5
500.569	88.5
500.786	98.5
501.003	88.5
501.22	112.5
501.437	88.5
501.654	89.5
501.871	99.5
502.088	88.5
502.305	89.5
502.522	86.5
502.739	86.5
502.956	86.5
503.172	99.5
503.389	85.5
503.606	92.5
503.823	81.5
504.04	89.5
504.256	87.5
504.473	96.5
504.69	84.5
504.907	86.5
505.123	78.5
505.34	77.5
505.557	74.5
505.773	87.5
505.99	82.5
506.207	80.5
506.423	85.5
506.64	93.5
506.856	87.5
507.073	92.5
507.289	79.5
507.506	87.5
507.722	103.5
507.939	126.5
508.155	109.5
508.372	84.5
508.588	101.5
508.805	87.5
509.021	77.5
509.238	102.5
509.454	100.5
509.67	109.5
509.887	103.5
510.103	115.5
510.319	191.5
510.536	620.5
510.752	1979.5
510.968	582.5
511.184	130.5
511.401	98.5
511.617	91.5
511.833	75.5
512.049	110.5
512.265	85.5
512.481	99.5
512.698	100.5
512.914	83.5
513.13	76.5
513.346	92.5
513.562	98.5
513.778	102.5
513.994	98.5
514.21	97.5
514.426	105.5
514.642	130.5
514.858	109.5
515.074	149.5
515.29	374.5
515.506	1190.5
515.721	465.5
515.937	147.5
516.153	101.5
516.369	89.5
516.585	88.5
516.801	102.5
517.016	101.5
517.232	89.5
517.448	76.5
517.664	95.5
517.879	79.5
518.095	101.5
518.311	82.5
518.527	75.5
518.742	91.5
518.958	104.5
519.173	94.5
519.389	98.5
519.605	72.5
519.82	99.5
520.036	109.5
520.251	105.5
520.467	88.5
520.682	94.5
520.898	105.5
521.113	93.5
521.329	114.5
521.544	185.5
521.76	449.5
521.975	1938.5
522.19	1231.5
522.406	279.5
522.621	120.5
522.836	115.5
523.052	109.5
523.267	94.5
523.482	95.5
523.698	112.5
523.913	109.5
524.128	97.5
524.343	85.5
524.559	97.5
524.774	82.5
524.989	94.5
525.204	99.5
525.419	99.5
525.634	82.5
525.849	89.5
526.064	100.5
526.28	88.5
526.495	95.5
526.71	81.5
526.925	87.5
527.14	90.5
527.355	97.5
527.57	93.5
527.785	89.5
527.999	94.5
528.214	85.5
528.429	91.5
528.644	93.5
528.859	87.5
529.074	82.5
529.289	114.5
529.503	167.5
529.718	96.5
529.933	96.5
530.148	71.5
530.363	89.5
530.577	100.5
530.792	68.5
531.007	96.5
531.221	94.5
531.436	82.5
531.651	93.5
531.865	96.5
532.08	107.5
532.295	99.5
532.509	95.5
532.724	96.5
532.938	78.5
533.153	89.5
533.367	79.5
533.582	89.5
533.796	90.5
534.011	94.5
534.225	102.5
534.44	98.5
534.654	86.5
534.868	90.5
535.083	93.5
535.297	91.5
535.511	105.5
535.726	104.5
