Data from Circ_2005_H10_HRD10591_00072.txt Node
Date: Wed Jan 03 10:30:05 EST 2024
User: Yrep
Spectrometer: HR+D1059
Trigger mode: 1
Integration Time (sec): 1.000000E-1
Scans to average: 1
Electric dark correction enabled: true
Nonlinearity correction enabled: false
Boxcar width: 0
XAxis mode: Wavelengths
Number of Pixels in Spectrum: 2048
>>>>>Begin Spectral Data<<<<<
223.165	-5.75
223.4	-5.75
223.635	-5.75
223.869	-18.75
224.104	-6.75
224.338	-5.75
224.573	-24.75
224.808	-11.75
225.042	-7.75
225.277	-12.75
225.511	-11.75
225.746	11.25
225.98	2.25
226.215	2.25
226.449	24.25
226.683	16.25
226.918	20.25
227.152	29.25
227.387	42.25
227.621	34.25
227.856	42.25
228.09	55.25
228.324	60.25
228.559	65.25
228.793	164.25
229.027	439.25
229.262	517.25
229.496	612.25
229.73	840.25
229.964	814.25
230.199	550.25
230.433	482.25
230.667	470.25
230.901	476.25
231.136	443.25
231.37	452.25
231.604	458.25
231.838	451.25
232.072	459.25
232.306	473.25
232.541	468.25
232.775	469.25
233.009	473.25
233.243	493.25
233.477	498.25
233.711	489.25
233.945	515.25
234.179	507.25
234.413	503.25
234.647	520.25
234.881	524.25
235.115	548.25
235.349	556.25
235.583	562.25
235.817	600.25
236.051	642.25
236.285	625.25
236.519	644.25
236.753	706.25
236.987	943.25
237.221	1424.25
237.455	1525.25
237.689	898.25
237.922	746.25
238.156	726.25
238.39	698.25
238.624	655.25
238.858	681.25
239.091	675.25
239.325	671.25
239.559	694.25
239.793	725.25
240.027	783.25
240.26	951.25
240.494	980.25
240.728	956.25
240.961	916.25
241.195	845.25
241.429	798.25
241.662	780.25
241.896	787.25
242.13	802.25
242.363	792.25
242.597	808.25
242.83	831.25
243.064	832.25
243.298	821.25
243.531	831.25
243.765	858.25
243.998	860.25
244.232	856.25
244.465	890.25
244.699	918.25
244.932	908.25
245.166	945.25
245.399	926.25
245.633	913.25
245.866	928.25
246.099	954.25
246.333	944.25
246.566	959.25
246.8	978.25
247.033	1018.25
247.266	1038.25
247.5	1117.25
247.733	1207.25
247.966	1166.25
248.2	1163.25
248.433	1169.25
248.666	1244.25
248.899	1376.25
249.133	1494.25
249.366	1498.25
249.599	1394.25
249.832	1297.25
250.066	1381.25
250.299	1560.25
250.532	1864.25
250.765	1917.25
250.998	1904.25
251.231	1726.25
251.465	1558.25
251.698	1496.25
251.931	1444.25
252.164	1461.25
252.397	1405.25
252.63	1492.25
252.863	1577.25
253.096	1704.25
253.329	1782.25
253.562	1647.25
253.795	1596.25
254.028	1600.25
254.261	1666.25
254.494	1899.25
254.727	2218.25
254.96	2289.25
255.193	2036.25
255.426	1915.25
255.659	2000.25
255.892	2412.25
256.124	2839.25
256.357	2562.25
256.59	2068.25
256.823	1824.25
257.056	1719.25
257.289	1664.25
257.521	1676.25
257.754	1647.25
257.987	1596.25
258.22	1610.25
258.452	1578.25
258.685	1602.25
258.918	1622.25
259.151	1706.25
259.383	1740.25
259.616	1766.25
259.849	1824.25
260.081	1988.25
260.314	2165.25
260.547	2026.25
260.779	1876.25
261.012	1790.25
261.244	1796.25
261.477	1741.25
261.71	1768.25
261.942	1800.25
262.175	1831.25
262.407	1750.25
262.64	1673.25
262.872	1703.25
263.105	1705.25
263.337	1694.25
263.57	1680.25
263.802	1708.25
264.035	1668.25
264.267	1713.25
264.499	1712.25
264.732	1740.25
264.964	1734.25
265.197	1739.25
265.429	1760.25
265.661	1733.25
265.894	1751.25
266.126	1805.25
266.358	1806.25
266.591	1878.25
266.823	1884.25
267.055	1894.25
267.287	1959.25
267.52	1904.25
267.752	1888.25
267.984	1871.25
268.216	1968.25
268.448	2008.25
268.681	2033.25
268.913	2171.25
269.145	2403.25
269.377	2410.25
269.609	2286.25
269.841	2293.25
270.073	2459.25
270.306	2730.25
270.538	2862.25
270.77	2699.25
271.002	2547.25
271.234	2564.25
271.466	2656.25
271.698	2783.25
271.93	2822.25
272.162	2789.25
272.394	2729.25
272.626	2545.25
272.858	2405.25
273.09	2331.25
273.322	2306.25
273.553	2290.25
273.785	2261.25
274.017	2255.25
274.249	2322.25
274.481	2312.25
274.713	2332.25
274.945	2327.25
275.176	2335.25
275.408	2373.25
275.64	2382.25
275.872	2335.25
276.104	2411.25
276.335	2410.25
276.567	2519.25
276.799	2700.25
277.031	2927.25
277.262	3040.25
277.494	2923.25
277.726	2694.25
277.957	2592.25
278.189	2547.25
278.421	2511.25
278.652	2484.25
278.884	2483.25
279.115	2487.25
279.347	2458.25
279.579	2477.25
279.81	2493.25
280.042	2547.25
280.273	2616.25
280.505	2589.25
280.736	2583.25
280.968	2503.25
281.199	2523.25
281.431	2571.25
281.662	2563.25
281.894	2532.25
282.125	2607.25
282.356	2731.25
282.588	2934.25
282.819	2780.25
283.051	2612.25
283.282	2610.25
283.513	2689.25
283.745	2647.25
283.976	2751.25
284.207	2683.25
284.439	2691.25
284.67	2662.25
284.901	2680.25
285.132	2725.25
285.364	2659.25
285.595	2723.25
285.826	2654.25
286.057	2690.25
286.288	2746.25
286.52	2738.25
286.751	2810.25
286.982	2775.25
287.213	2782.25
287.444	2821.25
287.675	2879.25
287.906	2915.25
288.138	2981.25
288.369	2974.25
288.6	2983.25
288.831	2922.25
289.062	2897.25
289.293	2912.25
289.524	2831.25
289.755	2886.25
289.986	2923.25
290.217	2823.25
290.448	2880.25
290.679	2860.25
290.91	2892.25
291.141	2851.25
291.371	2914.25
291.602	2906.25
291.833	2891.25
292.064	2918.25
292.295	2886.25
292.526	2886.25
292.757	2871.25
292.987	2794.25
293.218	2826.25
293.449	2923.25
293.68	2894.25
293.91	2929.25
294.141	2898.25
294.372	2877.25
294.603	2926.25
294.833	2998.25
295.064	2959.25
295.295	2926.25
295.525	2911.25
295.756	3066.25
295.987	3060.25
296.217	3240.25
296.448	3219.25
296.679	2974.25
296.909	3019.25
297.14	2999.25
297.37	3042.25
297.601	3135.25
297.831	3122.25
298.062	3122.25
298.292	3127.25
298.523	3231.25
298.753	3181.25
298.984	3178.25
299.214	3167.25
299.445	3113.25
299.675	3158.25
299.905	3209.25
300.136	3200.25
300.366	3213.25
300.597	3264.25
300.827	3298.25
301.057	3396.25
301.288	3396.25
301.518	3417.25
301.748	3406.25
301.979	3484.25
302.209	3462.25
302.439	3473.25
302.669	3416.25
302.9	3411.25
303.13	3344.25
303.36	3412.25
303.59	3452.25
303.82	3458.25
304.051	3456.25
304.281	3462.25
304.511	3313.25
304.741	3296.25
304.971	3362.25
305.201	3348.25
305.431	3308.25
305.661	3334.25
305.891	3314.25
306.121	3286.25
306.352	3408.25
306.582	3428.25
306.812	3321.25
307.042	3347.25
307.272	3394.25
307.502	3464.25
307.731	3429.25
307.961	3319.25
308.191	3382.25
308.421	3411.25
308.651	3383.25
308.881	3394.25
309.111	3407.25
309.341	3494.25
309.571	3570.25
309.8	3591.25
310.03	3688.25
310.26	3669.25
310.49	3710.25
310.72	3858.25
310.949	3980.25
311.179	3919.25
311.409	3740.25
311.639	3797.25
311.868	3799.25
312.098	3864.25
312.328	3876.25
312.557	4053.25
312.787	4126.25
313.017	4034.25
313.246	3919.25
313.476	3799.25
313.706	3866.25
313.935	3963.25
314.165	4154.25
314.394	4093.25
314.624	3982.25
314.853	3894.25
315.083	3873.25
315.312	3865.25
315.542	3845.25
315.771	3801.25
316.001	3723.25
316.23	3736.25
316.46	3804.25
316.689	3818.25
316.919	3861.25
317.148	3910.25
317.377	3870.25
317.607	3815.25
317.836	3834.25
318.065	3772.25
318.295	3820.25
318.524	3791.25
318.753	3761.25
318.983	3790.25
319.212	3759.25
319.441	3878.25
319.67	3896.25
319.9	3829.25
320.129	3836.25
320.358	3839.25
320.587	3890.25
320.816	3966.25
321.046	3945.25
321.275	3952.25
321.504	3974.25
321.733	4009.25
321.962	4081.25
322.191	4236.25
322.42	4343.25
322.649	4461.25
322.878	4451.25
323.108	4583.25
323.337	4829.25
323.566	5006.25
323.795	5470.25
324.024	6113.25
324.253	8272.25
324.482	12300.25
324.71	15608.25
324.939	15608.25
325.168	14057.25
325.397	7274.25
325.626	5714.25
325.855	5221.25
326.084	5130.25
326.313	5102.25
326.542	5356.25
326.77	6115.25
326.999	7926.25
327.228	11629.25
327.457	15368.25
327.686	14778.25
327.914	8472.25
328.143	7154.25
328.372	6892.25
328.6	6292.25
328.829	6033.25
329.058	6171.25
329.287	6162.25
329.515	5922.25
329.744	5974.25
329.972	6543.25
330.201	7531.25
330.43	8224.25
330.658	7332.25
330.887	6924.25
331.115	6106.25
331.344	5583.25
331.572	5400.25
331.801	5500.25
332.03	5510.25
332.258	5438.25
332.486	5389.25
332.715	5534.25
332.943	5653.25
333.172	5886.25
333.4	6116.25
333.629	6439.25
333.857	6918.25
334.085	7471.25
334.314	8514.25
334.542	9808.25
334.771	9279.25
334.999	6981.25
335.227	6172.25
335.455	5904.25
335.684	5561.25
335.912	5447.25
336.14	5346.25
336.369	5234.25
336.597	5339.25
336.825	5255.25
337.053	5131.25
337.281	5021.25
337.51	4945.25
337.738	4972.25
337.966	4884.25
338.194	4963.25
338.422	4765.25
338.65	4718.25
338.878	4677.25
339.106	4625.25
339.334	4582.25
339.562	4607.25
339.79	4498.25
340.018	4563.25
340.246	4503.25
340.474	4578.25
340.702	4565.25
340.93	4566.25
341.158	4575.25
341.386	4568.25
341.614	4570.25
341.842	4538.25
342.07	4488.25
342.298	4491.25
342.526	4373.25
342.754	4382.25
342.981	4393.25
343.209	4555.25
343.437	4736.25
343.665	4911.25
343.893	5238.25
344.12	5267.25
344.348	5080.25
344.576	4918.25
344.804	4842.25
345.031	4791.25
345.259	4684.25
345.487	4626.25
345.714	4448.25
345.942	4376.25
346.17	4358.25
346.397	4338.25
346.625	4333.25
346.853	4273.25
347.08	4337.25
347.308	4370.25
347.535	4459.25
347.763	4552.25
347.99	4431.25
348.218	4443.25
348.445	4535.25
348.673	4458.25
348.9	4301.25
349.128	4241.25
349.355	4186.25
349.583	4173.25
349.81	4175.25
350.037	4183.25
350.265	4150.25
350.492	4162.25
350.72	4185.25
350.947	4252.25
351.174	4349.25
351.402	4355.25
351.629	4299.25
351.856	4341.25
352.083	4422.25
352.311	4340.25
352.538	4392.25
352.765	4404.25
352.992	4292.25
353.22	4234.25
353.447	4234.25
353.674	4117.25
353.901	4097.25
354.128	4051.25
354.355	4047.25
354.583	4030.25
354.81	4088.25
355.037	4045.25
355.264	4023.25
355.491	3959.25
355.718	4003.25
355.945	4006.25
356.172	4090.25
356.399	4103.25
356.626	4034.25
356.853	3959.25
357.08	3980.25
357.307	4079.25
357.534	4085.25
357.761	4054.25
357.988	4107.25
358.215	4026.25
358.441	4109.25
358.668	4106.25
358.895	4157.25
359.122	4186.25
359.349	4219.25
359.576	4420.25
359.802	4685.25
360.029	4814.25
360.256	4832.25
360.483	4612.25
360.709	4441.25
360.936	4286.25
361.163	4347.25
361.39	4359.25
361.616	4332.25
361.843	4221.25
362.07	4292.25
362.296	4306.25
362.523	4262.25
362.749	4311.25
362.976	4265.25
363.203	4171.25
363.429	4159.25
363.656	4189.25
363.882	4121.25
364.109	4116.25
364.335	4079.25
364.562	4142.25
364.788	4132.25
365.015	4134.25
365.241	4149.25
365.468	4201.25
365.694	4270.25
365.92	4190.25
366.147	4222.25
366.373	4123.25
366.599	4086.25
366.826	4092.25
367.052	4045.25
367.278	4149.25
367.505	4164.25
367.731	4205.25
367.957	4157.25
368.184	4219.25
368.41	4305.25
368.636	4358.25
368.862	4367.25
369.089	4248.25
369.315	4205.25
369.541	4199.25
369.767	4220.25
369.993	4257.25
370.219	4277.25
370.445	4207.25
370.672	4335.25
370.898	4299.25
371.124	4333.25
371.35	4401.25
371.576	4391.25
371.802	4373.25
372.028	4371.25
372.254	4370.25
372.48	4437.25
372.706	4490.25
372.932	4475.25
373.158	4492.25
373.384	4444.25
373.61	4421.25
373.835	4378.25
374.061	4490.25
374.287	4499.25
374.513	4615.25
374.739	4672.25
374.965	4796.25
375.191	4797.25
375.416	4657.25
375.642	4635.25
375.868	4539.25
376.094	4452.25
376.319	4430.25
376.545	4420.25
376.771	4414.25
376.997	4386.25
377.222	4338.25
377.448	4383.25
377.674	4339.25
377.899	4308.25
378.125	4318.25
378.35	4295.25
378.576	4294.25
378.802	4281.25
379.027	4316.25
379.253	4303.25
379.478	4318.25
379.704	4277.25
379.929	4341.25
380.155	4386.25
380.38	4380.25
380.606	4429.25
380.831	4303.25
381.057	4402.25
381.282	4378.25
381.507	4340.25
381.733	4470.25
381.958	4440.25
382.184	4553.25
382.409	4481.25
382.634	4579.25
382.86	4574.25
383.085	4620.25
383.31	4736.25
383.535	4813.25
383.761	4839.25
383.986	4939.25
384.211	4986.25
384.436	4966.25
384.662	5119.25
384.887	5163.25
385.112	5212.25
385.337	5312.25
385.562	5248.25
385.787	5277.25
386.013	5329.25
386.238	5349.25
386.463	5306.25
386.688	5315.25
386.913	5175.25
387.138	5214.25
387.363	5118.25
387.588	5094.25
387.813	5129.25
388.038	5131.25
388.263	5208.25
388.488	5227.25
388.713	5176.25
388.938	5148.25
389.163	5190.25
389.387	5132.25
389.612	5066.25
389.837	5143.25
390.062	5146.25
390.287	5080.25
390.512	5107.25
390.736	5152.25
390.961	5301.25
391.186	5330.25
391.411	5555.25
391.636	5623.25
391.86	5779.25
392.085	5768.25
392.31	5665.25
392.534	5554.25
392.759	5585.25
392.984	5454.25
393.208	5380.25
393.433	5347.25
393.658	5361.25
393.882	5387.25
394.107	5476.25
394.331	5498.25
394.556	5467.25
394.78	5540.25
395.005	5541.25
395.229	5547.25
395.454	5702.25
395.678	5868.25
395.903	5855.25
396.127	5912.25
396.352	5722.25
396.576	5494.25
396.801	5527.25
397.025	5547.25
397.249	5735.25
397.474	5824.25
397.698	5861.25
397.922	5994.25
398.147	6161.25
398.371	6188.25
398.595	6350.25
398.82	6561.25
399.044	7122.25
399.268	7936.25
399.492	8906.25
399.717	9575.25
399.941	9324.25
400.165	8764.25
400.389	8117.25
400.613	7268.25
400.837	6818.25
401.062	6795.25
401.286	6539.25
401.51	6525.25
401.734	6595.25
401.958	6665.25
402.182	6798.25
402.406	6967.25
402.63	6914.25
402.854	7103.25
403.078	7071.25
403.302	7267.25
403.526	7399.25
403.75	7483.25
403.974	7413.25
404.198	7494.25
404.422	7604.25
404.645	7634.25
404.869	7703.25
405.093	8190.25
405.317	8600.25
405.541	8555.25
405.765	7741.25
405.988	7457.25
406.212	7683.25
406.436	7784.25
406.66	7884.25
406.883	7695.25
407.107	8456.25
407.331	8974.25
407.555	9386.25
407.778	9185.25
408.002	8360.25
408.226	7922.25
408.449	7888.25
408.673	7703.25
408.896	7898.25
409.12	7980.25
409.344	7581.25
409.567	7216.25
409.791	7261.25
410.014	7144.25
410.238	7066.25
410.461	7079.25
410.685	7068.25
410.908	7180.25
411.132	7446.25
411.355	7468.25
411.578	7133.25
411.802	6912.25
412.025	7059.25
412.249	7325.25
412.472	7846.25
412.695	8134.25
412.919	7542.25
413.142	7104.25
413.365	6958.25
413.589	6761.25
413.812	6571.25
414.035	6474.25
414.258	6577.25
414.482	6525.25
414.705	6578.25
414.928	6542.25
415.151	6453.25
415.374	6471.25
415.597	6395.25
415.821	6314.25
416.044	6342.25
416.267	6341.25
416.49	6260.25
416.713	6257.25
416.936	6332.25
417.159	6333.25
417.382	6493.25
417.605	6492.25
417.828	6738.25
418.051	6697.25
418.274	6543.25
418.497	6417.25
418.72	6556.25
418.943	6635.25
419.166	6975.25
419.389	7314.25
419.611	7296.25
419.834	7146.25
420.057	7186.25
420.28	7279.25
420.503	7082.25
420.726	6937.25
420.948	6961.25
421.171	7251.25
421.394	7149.25
421.617	6691.25
421.839	6615.25
422.062	6693.25
422.285	6888.25
422.507	7527.25
422.73	8051.25
422.953	7458.25
423.175	6970.25
423.398	7028.25
423.621	7077.25
423.843	7336.25
424.066	7282.25
424.288	7096.25
424.511	7389.25
424.733	7867.25
424.956	8370.25
425.178	7895.25
425.401	8015.25
425.623	7932.25
425.846	6804.25
426.068	6787.25
426.291	6635.25
426.513	6714.25
426.735	6775.25
426.958	7235.25
427.18	8064.25
427.402	9317.25
427.625	9587.25
427.847	8499.25
428.069	7962.25
428.292	6978.25
428.514	6347.25
428.736	6150.25
428.958	6091.25
429.181	5822.25
429.403	5863.25
429.625	6077.25
429.847	6429.25
430.069	7076.25
430.292	6492.25
430.514	5923.25
430.736	5830.25
430.958	5761.25
431.18	5739.25
431.402	5704.25
431.624	5681.25
431.846	5774.25
432.068	5770.25
432.29	5962.25
432.512	5717.25
432.734	5936.25
432.956	5743.25
433.178	5892.25
433.4	5866.25
433.622	5764.25
433.844	5794.25
434.066	5849.25
434.287	5912.25
434.509	6141.25
434.731	6327.25
434.953	6531.25
435.175	6648.25
435.397	6785.25
435.618	6625.25
435.84	7204.25
436.062	8018.25
436.284	7972.25
436.505	6590.25
436.727	6241.25
436.949	6111.25
437.17	5908.25
437.392	5853.25
437.614	6042.25
437.835	6522.25
438.057	7584.25
438.278	8200.25
438.5	8167.25
438.721	8971.25
438.943	7779.25
439.165	6478.25
439.386	6294.25
439.608	6321.25
439.829	6452.25
440.05	6880.25
440.272	7358.25
440.493	6596.25
440.715	6254.25
440.936	6212.25
441.158	6214.25
441.379	6347.25
441.6	6696.25
441.822	6917.25
442.043	7394.25
442.264	8280.25
442.486	7915.25
442.707	6962.25
442.928	6766.25
443.149	6995.25
443.371	7367.25
443.592	7850.25
443.813	8847.25
444.034	8855.25
444.255	7602.25
444.476	7365.25
444.698	7543.25
444.919	7567.25
445.14	7473.25
445.361	7328.25
445.582	7644.25
445.803	8358.25
446.024	9001.25
446.245	8651.25
446.466	7694.25
446.687	6516.25
446.908	6121.25
447.129	5916.25
447.35	5777.25
447.571	5722.25
447.792	5646.25
448.013	5692.25
448.234	5888.25
448.455	6688.25
448.675	8001.25
448.896	8480.25
449.117	6853.25
449.338	7128.25
449.559	8588.25
449.779	8756.25
450	6622.25
450.221	5808.25
450.442	5598.25
450.662	5542.25
450.883	5649.25
451.104	5756.25
451.324	5654.25
451.545	5404.25
451.766	5294.25
451.986	5145.25
452.207	5095.25
452.428	5135.25
452.648	5172.25
452.869	5184.25
453.089	5310.25
453.31	5363.25
453.53	5112.25
453.751	5111.25
453.971	5172.25
454.192	5371.25
454.412	5113.25
454.633	5085.25
454.853	4948.25
455.073	5016.25
455.294	5533.25
455.514	6027.25
455.734	5482.25
455.955	4930.25
456.175	4806.25
456.395	4708.25
456.616	4717.25
456.836	4760.25
457.056	4656.25
457.276	4652.25
457.497	4800.25
457.717	4782.25
457.937	4862.25
458.157	4924.25
458.377	5042.25
458.598	5513.25
458.818	6218.25
459.038	7081.25
459.258	6843.25
459.478	6085.25
459.698	5903.25
459.918	5962.25
460.138	6076.25
460.358	6356.25
460.578	6426.25
460.798	6485.25
461.018	6454.25
461.238	6317.25
461.458	6288.25
461.678	6195.25
461.898	6307.25
462.118	6409.25
462.338	6677.25
462.558	6886.25
462.777	7186.25
462.997	7751.25
463.217	8143.25
463.437	7866.25
463.657	7306.25
463.876	7179.25
464.096	7170.25
464.316	7161.25
464.536	7271.25
464.755	7017.25
464.975	6872.25
465.195	7347.25
465.414	7373.25
465.634	6351.25
465.854	6053.25
466.073	5801.25
466.293	5588.25
466.512	5440.25
466.732	5364.25
466.951	5314.25
467.171	5347.25
467.391	5413.25
467.61	5514.25
467.829	5559.25
468.049	5687.25
468.268	5914.25
468.488	5472.25
468.707	5211.25
468.927	5176.25
469.146	5134.25
469.365	5222.25
469.585	5200.25
469.804	5420.25
470.023	5613.25
470.243	5542.25
470.462	5648.25
470.681	5711.25
470.901	5708.25
471.12	5582.25
471.339	5444.25
471.558	5455.25
471.777	5417.25
471.997	5405.25
472.216	6115.25
472.435	7477.25
472.654	6580.25
472.873	5712.25
473.092	5484.25
473.311	5355.25
473.53	5312.25
473.749	5425.25
473.968	5988.25
474.187	7012.25
474.406	6534.25
474.625	5494.25
474.844	5216.25
475.063	5193.25
475.282	5108.25
475.501	5199.25
475.72	5299.25
475.939	5228.25
476.158	5299.25
476.377	5345.25
476.596	5366.25
476.814	5554.25
477.033	5509.25
477.252	5588.25
477.471	5683.25
477.69	5829.25
477.908	5902.25
478.127	6038.25
478.346	6132.25
478.564	6270.25
478.783	6386.25
479.002	6387.25
479.22	6438.25
479.439	6592.25
479.658	6691.25
479.876	6789.25
480.095	7032.25
480.313	7462.25
480.532	7374.25
480.751	7438.25
480.969	7988.25
481.188	10506.25
481.406	10643.25
481.624	8142.25
481.843	7294.25
482.061	6860.25
482.28	6622.25
482.498	6390.25
482.717	6306.25
482.935	6273.25
483.153	6244.25
483.372	6143.25
483.59	6203.25
483.808	6149.25
484.027	6147.25
484.245	6209.25
484.463	6286.25
484.681	6312.25
484.9	6296.25
485.118	6410.25
485.336	6472.25
485.554	6495.25
485.772	6538.25
485.99	6492.25
486.209	6478.25
486.427	6550.25
486.645	6685.25
486.863	6835.25
487.081	6671.25
487.299	6588.25
487.517	6520.25
487.735	6573.25
487.953	6585.25
