Data from Circ_2005_H10_HRD10591_00060.txt Node
Date: Wed Jan 03 10:30:03 EST 2024
User: Yrep
Spectrometer: HR+D1059
Trigger mode: 1
Integration Time (sec): 1.000000E-1
Scans to average: 1
Electric dark correction enabled: true
Nonlinearity correction enabled: false
Boxcar width: 0
XAxis mode: Wavelengths
Number of Pixels in Spectrum: 2048
>>>>>Begin Spectral Data<<<<<
223.165	-14.62
223.4	-14.62
223.635	-14.62
223.869	-26.62
224.104	-28.62
224.338	-20.62
224.573	-14.62
224.808	-7.62
225.042	-7.62
225.277	6.38
225.511	15.38
225.746	3.38
225.98	2.38
226.215	8.38
226.449	20.38
226.683	18.38
226.918	17.38
227.152	28.38
227.387	47.38
227.621	37.38
227.856	49.38
228.09	55.38
228.324	43.38
228.559	40.38
228.793	64.38
229.027	63.38
229.262	65.38
229.496	73.38
229.73	83.38
229.964	89.38
230.199	71.38
230.433	75.38
230.667	85.38
230.901	75.38
231.136	87.38
231.37	88.38
231.604	100.38
231.838	83.38
232.072	73.38
232.306	102.38
232.541	99.38
232.775	89.38
233.009	71.38
233.243	89.38
233.477	81.38
233.711	80.38
233.945	83.38
234.179	79.38
234.413	65.38
234.647	78.38
234.881	77.38
235.115	71.38
235.349	77.38
235.583	80.38
235.817	67.38
236.051	80.38
236.285	87.38
236.519	78.38
236.753	76.38
236.987	87.38
237.221	89.38
237.455	87.38
237.689	80.38
237.922	80.38
238.156	79.38
238.39	80.38
238.624	80.38
238.858	77.38
239.091	75.38
239.325	63.38
239.559	78.38
239.793	71.38
240.027	80.38
240.26	80.38
240.494	81.38
240.728	74.38
240.961	78.38
241.195	77.38
241.429	80.38
241.662	80.38
241.896	62.38
242.13	70.38
242.363	79.38
242.597	58.38
242.83	90.38
243.064	90.38
243.298	80.38
243.531	94.38
243.765	79.38
243.998	71.38
244.232	86.38
244.465	87.38
244.699	80.38
244.932	77.38
245.166	80.38
245.399	72.38
245.633	89.38
245.866	78.38
246.099	78.38
246.333	70.38
246.566	71.38
246.8	86.38
247.033	78.38
247.266	79.38
247.5	79.38
247.733	75.38
247.966	82.38
248.2	89.38
248.433	81.38
248.666	89.38
248.899	88.38
249.133	93.38
249.366	88.38
249.599	101.38
249.832	83.38
250.066	91.38
250.299	78.38
250.532	81.38
250.765	85.38
250.998	85.38
251.231	83.38
251.465	71.38
251.698	79.38
251.931	71.38
252.164	89.38
252.397	76.38
252.63	81.38
252.863	79.38
253.096	98.38
253.329	94.38
253.562	67.38
253.795	86.38
254.028	80.38
254.261	90.38
254.494	85.38
254.727	78.38
254.96	88.38
255.193	89.38
255.426	89.38
255.659	99.38
255.892	95.38
256.124	67.38
256.357	74.38
256.59	90.38
256.823	83.38
257.056	87.38
257.289	78.38
257.521	83.38
257.754	107.38
257.987	81.38
258.22	73.38
258.452	81.38
258.685	71.38
258.918	90.38
259.151	84.38
259.383	87.38
259.616	81.38
259.849	85.38
260.081	81.38
260.314	88.38
260.547	71.38
260.779	90.38
261.012	72.38
261.244	81.38
261.477	91.38
261.71	97.38
261.942	98.38
262.175	96.38
262.407	98.38
262.64	91.38
262.872	82.38
263.105	81.38
263.337	81.38
263.57	79.38
263.802	87.38
264.035	83.38
264.267	85.38
264.499	86.38
264.732	97.38
264.964	90.38
265.197	89.38
265.429	80.38
265.661	101.38
265.894	87.38
266.126	84.38
266.358	78.38
266.591	64.38
266.823	82.38
267.055	80.38
267.287	86.38
267.52	87.38
267.752	89.38
267.984	82.38
268.216	93.38
268.448	75.38
268.681	82.38
268.913	93.38
269.145	84.38
269.377	86.38
269.609	96.38
269.841	79.38
270.073	73.38
270.306	85.38
270.538	89.38
270.77	88.38
271.002	86.38
271.234	85.38
271.466	90.38
271.698	82.38
271.93	101.38
272.162	90.38
272.394	90.38
272.626	80.38
272.858	91.38
273.09	88.38
273.322	79.38
273.553	84.38
273.785	98.38
274.017	90.38
274.249	101.38
274.481	79.38
274.713	88.38
274.945	95.38
275.176	103.38
275.408	92.38
275.64	95.38
275.872	98.38
276.104	96.38
276.335	92.38
276.567	91.38
276.799	106.38
277.031	97.38
277.262	95.38
277.494	84.38
277.726	87.38
277.957	93.38
278.189	101.38
278.421	87.38
278.652	104.38
278.884	93.38
279.115	101.38
279.347	87.38
279.579	95.38
279.81	91.38
280.042	86.38
280.273	99.38
280.505	88.38
280.736	106.38
280.968	85.38
281.199	88.38
281.431	86.38
281.662	93.38
281.894	88.38
282.125	100.38
282.356	121.38
282.588	128.38
282.819	110.38
283.051	112.38
283.282	89.38
283.513	96.38
283.745	91.38
283.976	86.38
284.207	78.38
284.439	89.38
284.67	90.38
284.901	94.38
285.132	71.38
285.364	89.38
285.595	96.38
285.826	86.38
286.057	92.38
286.288	99.38
286.52	91.38
286.751	75.38
286.982	79.38
287.213	81.38
287.444	99.38
287.675	91.38
287.906	101.38
288.138	93.38
288.369	95.38
288.6	86.38
288.831	101.38
289.062	94.38
289.293	100.38
289.524	98.38
289.755	94.38
289.986	96.38
290.217	85.38
290.448	91.38
290.679	90.38
290.91	89.38
291.141	87.38
291.371	92.38
291.602	81.38
291.833	83.38
292.064	91.38
292.295	88.38
292.526	74.38
292.757	81.38
292.987	83.38
293.218	93.38
293.449	85.38
293.68	97.38
293.91	85.38
294.141	78.38
294.372	96.38
294.603	92.38
294.833	84.38
295.064	91.38
295.295	104.38
295.525	96.38
295.756	108.38
295.987	102.38
296.217	127.38
296.448	125.38
296.679	89.38
296.909	88.38
297.14	84.38
297.37	98.38
297.601	74.38
297.831	83.38
298.062	83.38
298.292	95.38
298.523	81.38
298.753	87.38
298.984	84.38
299.214	104.38
299.445	86.38
299.675	100.38
299.905	110.38
300.136	74.38
300.366	88.38
300.597	86.38
300.827	87.38
301.057	98.38
301.288	106.38
301.518	96.38
301.748	88.38
301.979	104.38
302.209	101.38
302.439	88.38
302.669	101.38
302.9	86.38
303.13	86.38
303.36	85.38
303.59	105.38
303.82	102.38
304.051	98.38
304.281	86.38
304.511	98.38
304.741	83.38
304.971	81.38
305.201	92.38
305.431	78.38
305.661	103.38
305.891	79.38
306.121	88.38
306.352	102.38
306.582	97.38
306.812	95.38
307.042	97.38
307.272	102.38
307.502	104.38
307.731	98.38
307.961	99.38
308.191	94.38
308.421	90.38
308.651	84.38
308.881	92.38
309.111	106.38
309.341	102.38
309.571	82.38
309.8	90.38
310.03	88.38
310.26	91.38
310.49	91.38
310.72	92.38
310.949	90.38
311.179	120.38
311.409	88.38
311.639	82.38
311.868	91.38
312.098	97.38
312.328	83.38
312.557	110.38
312.787	96.38
313.017	81.38
313.246	100.38
313.476	88.38
313.706	99.38
313.935	106.38
314.165	93.38
314.394	80.38
314.624	99.38
314.853	101.38
315.083	102.38
315.312	93.38
315.542	90.38
315.771	83.38
316.001	83.38
316.23	97.38
316.46	89.38
316.689	84.38
316.919	92.38
317.148	86.38
317.377	85.38
317.607	89.38
317.836	89.38
318.065	88.38
318.295	101.38
318.524	94.38
318.753	97.38
318.983	100.38
319.212	105.38
319.441	109.38
319.67	104.38
319.9	97.38
320.129	84.38
320.358	86.38
320.587	94.38
320.816	89.38
321.046	105.38
321.275	92.38
321.504	101.38
321.733	90.38
321.962	95.38
322.191	94.38
322.42	113.38
322.649	108.38
322.878	108.38
323.108	109.38
323.337	130.38
323.566	113.38
323.795	144.38
324.024	185.38
324.253	347.38
324.482	721.38
324.71	1445.38
324.939	1881.38
325.168	741.38
325.397	219.38
325.626	141.38
325.855	121.38
326.084	124.38
326.313	111.38
326.542	135.38
326.77	211.38
326.999	415.38
327.228	834.38
327.457	1484.38
327.686	1149.38
327.914	339.38
328.143	189.38
328.372	155.38
328.6	128.38
328.829	111.38
329.058	116.38
329.287	137.38
329.515	127.38
329.744	117.38
329.972	127.38
330.201	144.38
330.43	162.38
330.658	123.38
330.887	120.38
331.115	118.38
331.344	102.38
331.572	113.38
331.801	109.38
332.03	94.38
332.258	86.38
332.486	103.38
332.715	105.38
332.943	85.38
333.172	98.38
333.4	89.38
333.629	106.38
333.857	117.38
334.085	128.38
334.314	129.38
334.542	183.38
334.771	176.38
334.999	111.38
335.227	104.38
335.455	92.38
335.684	91.38
335.912	111.38
336.14	99.38
336.369	105.38
336.597	99.38
336.825	87.38
337.053	84.38
337.281	89.38
337.51	83.38
337.738	101.38
337.966	95.38
338.194	101.38
338.422	96.38
338.65	90.38
338.878	100.38
339.106	101.38
339.334	109.38
339.562	98.38
339.79	89.38
340.018	106.38
340.246	93.38
340.474	94.38
340.702	88.38
340.93	109.38
341.158	96.38
341.386	96.38
341.614	88.38
341.842	97.38
342.07	91.38
342.298	83.38
342.526	89.38
342.754	85.38
342.981	88.38
343.209	86.38
343.437	92.38
343.665	96.38
343.893	83.38
344.12	95.38
344.348	79.38
344.576	83.38
344.804	98.38
345.031	101.38
345.259	95.38
345.487	93.38
345.714	84.38
345.942	86.38
346.17	100.38
346.397	86.38
346.625	85.38
346.853	99.38
347.08	88.38
347.308	98.38
347.535	96.38
347.763	96.38
347.99	75.38
348.218	92.38
348.445	87.38
348.673	99.38
348.9	99.38
349.128	107.38
349.355	91.38
349.583	87.38
349.81	98.38
350.037	100.38
350.265	89.38
350.492	95.38
350.72	98.38
350.947	103.38
351.174	97.38
351.402	96.38
351.629	102.38
351.856	99.38
352.083	102.38
352.311	109.38
352.538	118.38
352.765	114.38
352.992	120.38
353.22	87.38
353.447	96.38
353.674	97.38
353.901	101.38
354.128	109.38
354.355	103.38
354.583	98.38
354.81	104.38
355.037	105.38
355.264	99.38
355.491	92.38
355.718	89.38
355.945	116.38
356.172	113.38
356.399	86.38
356.626	113.38
356.853	98.38
357.08	102.38
357.307	83.38
357.534	101.38
357.761	84.38
357.988	108.38
358.215	86.38
358.441	93.38
358.668	85.38
358.895	97.38
359.122	95.38
359.349	81.38
359.576	88.38
359.802	103.38
360.029	97.38
360.256	99.38
360.483	94.38
360.709	101.38
360.936	102.38
361.163	99.38
361.39	100.38
361.616	103.38
361.843	90.38
362.07	99.38
362.296	93.38
362.523	88.38
362.749	98.38
362.976	87.38
363.203	85.38
363.429	84.38
363.656	93.38
363.882	82.38
364.109	97.38
364.335	96.38
364.562	88.38
364.788	94.38
365.015	90.38
365.241	96.38
365.468	98.38
365.694	101.38
365.92	91.38
366.147	94.38
366.373	93.38
366.599	99.38
366.826	112.38
367.052	90.38
367.278	91.38
367.505	65.38
367.731	84.38
367.957	97.38
368.184	98.38
368.41	98.38
368.636	113.38
368.862	114.38
369.089	115.38
369.315	101.38
369.541	88.38
369.767	102.38
369.993	96.38
370.219	103.38
370.445	97.38
370.672	95.38
370.898	90.38
371.124	85.38
371.35	81.38
371.576	74.38
371.802	85.38
372.028	99.38
372.254	81.38
372.48	95.38
372.706	87.38
372.932	91.38
373.158	93.38
373.384	85.38
373.61	92.38
373.835	83.38
374.061	91.38
374.287	83.38
374.513	82.38
374.739	93.38
374.965	96.38
375.191	98.38
375.416	100.38
375.642	101.38
375.868	96.38
376.094	98.38
376.319	89.38
376.545	97.38
376.771	85.38
376.997	91.38
377.222	84.38
377.448	91.38
377.674	91.38
377.899	94.38
378.125	112.38
378.35	97.38
378.576	88.38
378.802	81.38
379.027	92.38
379.253	86.38
379.478	89.38
379.704	97.38
379.929	86.38
380.155	87.38
380.38	101.38
380.606	99.38
380.831	109.38
381.057	100.38
381.282	92.38
381.507	91.38
381.733	98.38
381.958	96.38
382.184	95.38
382.409	106.38
382.634	89.38
382.86	95.38
383.085	95.38
383.31	87.38
383.535	94.38
383.761	101.38
383.986	104.38
384.211	106.38
384.436	97.38
384.662	92.38
384.887	102.38
385.112	103.38
385.337	98.38
385.562	99.38
385.787	112.38
386.013	109.38
386.238	117.38
386.463	118.38
386.688	106.38
386.913	101.38
387.138	106.38
387.363	107.38
387.588	101.38
387.813	94.38
388.038	104.38
388.263	106.38
388.488	110.38
388.713	97.38
388.938	105.38
389.163	105.38
389.387	106.38
389.612	107.38
389.837	97.38
390.062	98.38
390.287	91.38
390.512	108.38
390.736	89.38
390.961	89.38
391.186	98.38
391.411	97.38
391.636	95.38
391.86	98.38
392.085	94.38
392.31	99.38
392.534	96.38
392.759	83.38
392.984	89.38
393.208	98.38
393.433	93.38
393.658	86.38
393.882	90.38
394.107	87.38
394.331	98.38
394.556	85.38
394.78	73.38
395.005	75.38
395.229	91.38
395.454	91.38
395.678	86.38
395.903	83.38
396.127	92.38
396.352	100.38
396.576	95.38
396.801	88.38
397.025	99.38
397.249	87.38
397.474	92.38
397.698	91.38
397.922	97.38
398.147	102.38
398.371	78.38
398.595	94.38
398.82	85.38
399.044	96.38
399.268	88.38
399.492	93.38
399.717	109.38
399.941	98.38
400.165	99.38
400.389	89.38
400.613	86.38
400.837	89.38
401.062	88.38
401.286	94.38
401.51	103.38
401.734	99.38
401.958	95.38
402.182	112.38
402.406	150.38
402.63	108.38
402.854	95.38
403.078	93.38
403.302	90.38
403.526	86.38
403.75	94.38
403.974	91.38
404.198	84.38
404.422	80.38
404.645	82.38
404.869	85.38
405.093	95.38
405.317	110.38
405.541	98.38
405.765	102.38
405.988	105.38
406.212	153.38
406.436	199.38
406.66	134.38
406.883	98.38
407.107	91.38
407.331	89.38
407.555	82.38
407.778	110.38
408.002	96.38
408.226	84.38
408.449	80.38
408.673	92.38
408.896	86.38
409.12	97.38
409.344	96.38
409.567	96.38
409.791	103.38
410.014	101.38
410.238	85.38
410.461	91.38
410.685	94.38
410.908	96.38
411.132	103.38
411.355	104.38
411.578	87.38
411.802	101.38
412.025	98.38
412.249	88.38
412.472	101.38
412.695	90.38
412.919	83.38
413.142	98.38
413.365	80.38
413.589	79.38
413.812	82.38
414.035	85.38
414.258	82.38
414.482	97.38
414.705	97.38
414.928	84.38
415.151	100.38
415.374	88.38
415.597	98.38
415.821	87.38
416.044	88.38
416.267	79.38
416.49	94.38
416.713	95.38
416.936	99.38
417.159	91.38
417.382	88.38
417.605	91.38
417.828	95.38
418.051	96.38
418.274	88.38
418.497	90.38
418.72	96.38
418.943	79.38
419.166	103.38
419.389	95.38
419.611	95.38
419.834	87.38
420.057	85.38
420.28	100.38
420.503	86.38
420.726	87.38
420.948	97.38
421.171	95.38
421.394	103.38
421.617	90.38
421.839	93.38
422.062	97.38
422.285	86.38
422.507	97.38
422.73	103.38
422.953	103.38
423.175	104.38
423.398	108.38
423.621	95.38
423.843	102.38
424.066	93.38
424.288	94.38
424.511	89.38
424.733	102.38
424.956	105.38
425.178	104.38
425.401	109.38
425.623	122.38
425.846	108.38
426.068	106.38
426.291	107.38
426.513	81.38
426.735	84.38
426.958	87.38
427.18	115.38
427.402	129.38
427.625	149.38
427.847	125.38
428.069	120.38
428.292	101.38
428.514	103.38
428.736	88.38
428.958	98.38
429.181	102.38
429.403	89.38
429.625	90.38
429.847	100.38
430.069	99.38
430.292	78.38
430.514	83.38
430.736	91.38
430.958	82.38
431.18	92.38
431.402	83.38
431.624	87.38
431.846	87.38
432.068	86.38
432.29	96.38
432.512	96.38
432.734	101.38
432.956	88.38
433.178	84.38
433.4	89.38
433.622	92.38
433.844	75.38
434.066	83.38
434.287	96.38
434.509	93.38
434.731	71.38
434.953	95.38
435.175	91.38
435.397	91.38
435.618	87.38
435.84	110.38
436.062	128.38
436.284	127.38
436.505	111.38
436.727	111.38
436.949	90.38
437.17	85.38
437.392	75.38
437.614	81.38
437.835	113.38
438.057	114.38
438.278	104.38
438.5	100.38
438.721	123.38
438.943	108.38
439.165	88.38
439.386	83.38
439.608	80.38
439.829	97.38
440.05	112.38
440.272	129.38
440.493	98.38
440.715	83.38
440.936	79.38
441.158	95.38
441.379	86.38
441.6	95.38
441.822	84.38
442.043	91.38
442.264	102.38
442.486	91.38
442.707	83.38
442.928	101.38
443.149	125.38
443.371	99.38
443.592	109.38
443.813	103.38
444.034	101.38
444.255	85.38
444.476	107.38
444.698	82.38
444.919	80.38
445.14	139.38
445.361	124.38
445.582	125.38
445.803	122.38
446.024	118.38
446.245	126.38
446.466	106.38
446.687	95.38
446.908	84.38
447.129	94.38
447.35	87.38
447.571	80.38
447.792	83.38
448.013	101.38
448.234	89.38
448.455	102.38
448.675	109.38
448.896	124.38
449.117	104.38
449.338	104.38
449.559	118.38
449.779	127.38
450	106.38
450.221	86.38
450.442	86.38
450.662	100.38
450.883	97.38
451.104	116.38
451.324	95.38
451.545	87.38
451.766	94.38
451.986	90.38
452.207	82.38
452.428	94.38
452.648	95.38
452.869	109.38
453.089	113.38
453.31	114.38
453.53	97.38
453.751	85.38
453.971	111.38
454.192	101.38
454.412	97.38
454.633	86.38
454.853	94.38
455.073	86.38
455.294	101.38
455.514	98.38
455.734	87.38
455.955	91.38
456.175	80.38
456.395	79.38
456.616	88.38
456.836	96.38
457.056	87.38
457.276	109.38
457.497	86.38
457.717	74.38
457.937	81.38
458.157	87.38
458.377	96.38
458.598	118.38
458.818	122.38
459.038	146.38
459.258	102.38
459.478	86.38
459.698	89.38
459.918	91.38
460.138	83.38
460.358	98.38
460.578	89.38
460.798	89.38
461.018	94.38
461.238	78.38
461.458	89.38
461.678	82.38
461.898	85.38
462.118	86.38
462.338	81.38
462.558	85.38
462.777	95.38
462.997	100.38
463.217	78.38
463.437	94.38
463.657	92.38
463.876	101.38
464.096	87.38
464.316	94.38
464.536	96.38
464.755	104.38
464.975	110.38
465.195	157.38
465.414	139.38
465.634	91.38
465.854	87.38
466.073	97.38
466.293	92.38
466.512	81.38
466.732	76.38
466.951	85.38
467.171	80.38
467.391	98.38
467.61	91.38
467.829	109.38
468.049	105.38
468.268	132.38
468.488	98.38
468.707	97.38
468.927	80.38
469.146	103.38
469.365	93.38
469.585	92.38
469.804	86.38
470.023	110.38
470.243	98.38
470.462	95.38
470.681	111.38
470.901	91.38
471.12	83.38
471.339	96.38
471.558	82.38
471.777	97.38
471.997	99.38
472.216	155.38
472.435	205.38
472.654	103.38
472.873	95.38
473.092	81.38
473.311	94.38
473.53	89.38
473.749	94.38
473.968	105.38
474.187	108.38
474.406	85.38
474.625	91.38
474.844	102.38
475.063	89.38
475.282	93.38
475.501	95.38
475.72	81.38
475.939	85.38
476.158	85.38
476.377	81.38
476.596	82.38
476.814	95.38
477.033	113.38
477.252	97.38
477.471	82.38
477.69	88.38
477.908	89.38
478.127	99.38
478.346	87.38
478.564	79.38
478.783	96.38
479.002	99.38
479.22	91.38
479.439	105.38
479.658	108.38
479.876	99.38
480.095	99.38
480.313	103.38
480.532	93.38
480.751	89.38
480.969	154.38
481.188	342.38
481.406	236.38
481.624	113.38
481.843	95.38
482.061	82.38
482.28	89.38
482.498	92.38
482.717	95.38
482.935	89.38
483.153	77.38
483.372	92.38
483.59	92.38
483.808	88.38
484.027	98.38
484.245	97.38
484.463	88.38
484.681	109.38
484.9	90.38
485.118	85.38
485.336	93.38
485.554	84.38
485.772	90.38
485.99	91.38
486.209	105.38
486.427	97.38
486.645	104.38
486.863	111.38
487.081	108.38
487.299	99.38
487.517	101.38
487.735	85.38
487.953	85.38
488.171	95.38
488.389	109.38
488.607	102.38
488.825	108.38
489.043	90.38
489.261	97.38
489.479	93.38
489.696	93.38
489.914	89.38
490.132	94.38
490.35	101.38
490.568	96.38
490.786	107.38
491.003	95.38
491.221	91.38
491.439	87.38
491.657	96.38
491.874	114.38
492.092	88.38
492.31	89.38
492.527	100.38
492.745	106.38
492.963	96.38
493.18	113.38
493.398	95.38
493.615	107.38
493.833	109.38
494.05	99.38
494.268	89.38
494.485	89.38
494.703	99.38
494.92	89.38
495.138	99.38
495.355	104.38
495.573	94.38
495.79	83.38
496.008	87.38
496.225	94.38
496.442	84.38
496.66	98.38
496.877	102.38
497.094	86.38
497.312	88.38
497.529	90.38
497.746	100.38
497.963	101.38
498.181	78.38
498.398	91.38
498.615	115.38
498.832	104.38
499.049	89.38
499.267	88.38
499.484	96.38
499.701	90.38
499.918	87.38
500.135	81.38
500.352	90.38
500.569	89.38
500.786	96.38
501.003	105.38
501.22	91.38
501.437	91.38
501.654	93.38
501.871	109.38
502.088	122.38
502.305	90.38
502.522	84.38
502.739	91.38
502.956	89.38
503.172	94.38
503.389	99.38
503.606	109.38
503.823	102.38
504.04	109.38
504.256	86.38
504.473	87.38
504.69	94.38
504.907	97.38
505.123	94.38
505.34	94.38
505.557	98.38
505.773	109.38
505.99	100.38
506.207	86.38
506.423	89.38
506.64	89.38
506.856	98.38
507.073	104.38
507.289	94.38
507.506	85.38
507.722	106.38
507.939	97.38
508.155	97.38
508.372	84.38
508.588	101.38
508.805	103.38
509.021	101.38
509.238	95.38
509.454	102.38
509.67	103.38
509.887	119.38
510.103	132.38
510.319	192.38
510.536	670.38
510.752	2074.38
510.968	609.38
511.184	145.38
511.401	116.38
511.617	107.38
511.833	97.38
512.049	109.38
512.265	105.38
512.481	90.38
512.698	91.38
512.914	88.38
513.13	99.38
513.346	102.38
513.562	87.38
513.778	104.38
513.994	109.38
514.21	106.38
514.426	115.38
514.642	125.38
514.858	120.38
515.074	149.38
