Data from Circ_2005_H10_HRD10591_00049.txt Node
Date: Wed Jan 03 10:30:00 EST 2024
User: Yrep
Spectrometer: HR+D1059
Trigger mode: 1
Integration Time (sec): 1.000000E-1
Scans to average: 1
Electric dark correction enabled: true
Nonlinearity correction enabled: false
Boxcar width: 0
XAxis mode: Wavelengths
Number of Pixels in Spectrum: 2048
>>>>>Begin Spectral Data<<<<<
223.165	-20.5
223.4	-20.5
223.635	-20.5
223.869	-22.5
224.104	-23.5
224.338	-18.5
224.573	-23.5
224.808	-4.5
225.042	-1.5
225.277	-15.5
225.511	-2.5
225.746	10.5
225.98	8.5
226.215	5.5
226.449	31.5
226.683	17.5
226.918	23.5
227.152	35.5
227.387	28.5
227.621	41.5
227.856	37.5
228.09	42.5
228.324	43.5
228.559	52.5
228.793	56.5
229.027	60.5
229.262	53.5
229.496	76.5
229.73	78.5
229.964	82.5
230.199	84.5
230.433	80.5
230.667	67.5
230.901	73.5
231.136	70.5
231.37	71.5
231.604	86.5
231.838	78.5
232.072	79.5
232.306	88.5
232.541	78.5
232.775	89.5
233.009	81.5
233.243	80.5
233.477	73.5
233.711	78.5
233.945	87.5
234.179	77.5
234.413	89.5
234.647	69.5
234.881	76.5
235.115	91.5
235.349	80.5
235.583	65.5
235.817	73.5
236.051	87.5
236.285	74.5
236.519	92.5
236.753	73.5
236.987	75.5
237.221	80.5
237.455	76.5
237.689	81.5
237.922	65.5
238.156	67.5
238.39	80.5
238.624	75.5
238.858	92.5
239.091	74.5
239.325	75.5
239.559	84.5
239.793	88.5
240.027	77.5
240.26	75.5
240.494	62.5
240.728	65.5
240.961	78.5
241.195	83.5
241.429	87.5
241.662	86.5
241.896	82.5
242.13	87.5
242.363	89.5
242.597	79.5
242.83	80.5
243.064	71.5
243.298	76.5
243.531	62.5
243.765	77.5
243.998	90.5
244.232	81.5
244.465	89.5
244.699	78.5
244.932	88.5
245.166	71.5
245.399	75.5
245.633	79.5
245.866	62.5
246.099	67.5
246.333	77.5
246.566	80.5
246.8	83.5
247.033	79.5
247.266	82.5
247.5	75.5
247.733	81.5
247.966	67.5
248.2	80.5
248.433	68.5
248.666	85.5
248.899	93.5
249.133	79.5
249.366	92.5
249.599	100.5
249.832	66.5
250.066	86.5
250.299	81.5
250.532	72.5
250.765	81.5
250.998	77.5
251.231	87.5
251.465	83.5
251.698	83.5
251.931	77.5
252.164	84.5
252.397	83.5
252.63	78.5
252.863	86.5
253.096	72.5
253.329	63.5
253.562	76.5
253.795	76.5
254.028	90.5
254.261	91.5
254.494	89.5
254.727	69.5
254.96	70.5
255.193	84.5
255.426	77.5
255.659	94.5
255.892	77.5
256.124	87.5
256.357	68.5
256.59	78.5
256.823	86.5
257.056	87.5
257.289	94.5
257.521	89.5
257.754	72.5
257.987	98.5
258.22	83.5
258.452	79.5
258.685	82.5
258.918	76.5
259.151	75.5
259.383	87.5
259.616	79.5
259.849	85.5
260.081	87.5
260.314	96.5
260.547	80.5
260.779	82.5
261.012	93.5
261.244	79.5
261.477	77.5
261.71	87.5
261.942	102.5
262.175	127.5
262.407	95.5
262.64	74.5
262.872	98.5
263.105	75.5
263.337	78.5
263.57	81.5
263.802	92.5
264.035	90.5
264.267	71.5
264.499	79.5
264.732	87.5
264.964	84.5
265.197	78.5
265.429	80.5
265.661	66.5
265.894	85.5
266.126	102.5
266.358	95.5
266.591	81.5
266.823	93.5
267.055	83.5
267.287	88.5
267.52	82.5
267.752	87.5
267.984	65.5
268.216	85.5
268.448	84.5
268.681	85.5
268.913	78.5
269.145	76.5
269.377	67.5
269.609	85.5
269.841	96.5
270.073	75.5
270.306	92.5
270.538	82.5
270.77	93.5
271.002	91.5
271.234	66.5
271.466	88.5
271.698	89.5
271.93	82.5
272.162	88.5
272.394	93.5
272.626	91.5
272.858	79.5
273.09	85.5
273.322	75.5
273.553	89.5
273.785	88.5
274.017	70.5
274.249	86.5
274.481	100.5
274.713	81.5
274.945	86.5
275.176	80.5
275.408	85.5
275.64	86.5
275.872	93.5
276.104	78.5
276.335	89.5
276.567	106.5
276.799	97.5
277.031	85.5
277.262	84.5
277.494	89.5
277.726	93.5
277.957	100.5
278.189	80.5
278.421	87.5
278.652	92.5
278.884	77.5
279.115	96.5
279.347	96.5
279.579	83.5
279.81	98.5
280.042	81.5
280.273	73.5
280.505	92.5
280.736	98.5
280.968	79.5
281.199	89.5
281.431	93.5
281.662	92.5
281.894	94.5
282.125	111.5
282.356	107.5
282.588	117.5
282.819	107.5
283.051	90.5
283.282	97.5
283.513	106.5
283.745	85.5
283.976	80.5
284.207	85.5
284.439	95.5
284.67	81.5
284.901	75.5
285.132	80.5
285.364	79.5
285.595	86.5
285.826	81.5
286.057	81.5
286.288	103.5
286.52	85.5
286.751	56.5
286.982	100.5
287.213	84.5
287.444	93.5
287.675	95.5
287.906	94.5
288.138	100.5
288.369	89.5
288.6	104.5
288.831	101.5
289.062	88.5
289.293	102.5
289.524	77.5
289.755	79.5
289.986	76.5
290.217	87.5
290.448	88.5
290.679	94.5
290.91	87.5
291.141	89.5
291.371	80.5
291.602	85.5
291.833	103.5
292.064	97.5
292.295	110.5
292.526	96.5
292.757	89.5
292.987	86.5
293.218	82.5
293.449	83.5
293.68	88.5
293.91	92.5
294.141	82.5
294.372	79.5
294.603	84.5
294.833	76.5
295.064	85.5
295.295	87.5
295.525	95.5
295.756	89.5
295.987	131.5
296.217	129.5
296.448	131.5
296.679	89.5
296.909	78.5
297.14	73.5
297.37	88.5
297.601	80.5
297.831	89.5
298.062	80.5
298.292	87.5
298.523	96.5
298.753	94.5
298.984	81.5
299.214	93.5
299.445	86.5
299.675	99.5
299.905	98.5
300.136	82.5
300.366	82.5
300.597	79.5
300.827	81.5
301.057	91.5
301.288	95.5
301.518	84.5
301.748	109.5
301.979	96.5
302.209	88.5
302.439	80.5
302.669	90.5
302.9	75.5
303.13	90.5
303.36	93.5
303.59	87.5
303.82	108.5
304.051	97.5
304.281	105.5
304.511	101.5
304.741	93.5
304.971	83.5
305.201	97.5
305.431	87.5
305.661	94.5
305.891	95.5
306.121	99.5
306.352	93.5
306.582	100.5
306.812	107.5
307.042	95.5
307.272	108.5
307.502	94.5
307.731	107.5
307.961	86.5
308.191	75.5
308.421	103.5
308.651	93.5
308.881	105.5
309.111	91.5
309.341	96.5
309.571	103.5
309.8	94.5
310.03	103.5
310.26	99.5
310.49	99.5
310.72	87.5
310.949	91.5
311.179	95.5
311.409	95.5
311.639	98.5
311.868	98.5
312.098	87.5
312.328	97.5
312.557	93.5
312.787	107.5
313.017	105.5
313.246	86.5
313.476	84.5
313.706	87.5
313.935	84.5
314.165	96.5
314.394	102.5
314.624	92.5
314.853	96.5
315.083	100.5
315.312	78.5
315.542	105.5
315.771	101.5
316.001	90.5
316.23	86.5
316.46	100.5
316.689	103.5
316.919	82.5
317.148	88.5
317.377	93.5
317.607	85.5
317.836	85.5
318.065	82.5
318.295	109.5
318.524	90.5
318.753	88.5
318.983	101.5
319.212	108.5
319.441	103.5
319.67	102.5
319.9	110.5
320.129	88.5
320.358	93.5
320.587	92.5
320.816	110.5
321.046	88.5
321.275	108.5
321.504	96.5
321.733	89.5
321.962	108.5
322.191	105.5
322.42	103.5
322.649	115.5
322.878	110.5
323.108	104.5
323.337	102.5
323.566	127.5
323.795	149.5
324.024	191.5
324.253	378.5
324.482	757.5
324.71	1567.5
324.939	2077.5
325.168	760.5
325.397	236.5
325.626	143.5
325.855	115.5
326.084	117.5
326.313	132.5
326.542	135.5
326.77	216.5
326.999	447.5
327.228	897.5
327.457	1636.5
327.686	1291.5
327.914	362.5
328.143	195.5
328.372	158.5
328.6	129.5
328.829	129.5
329.058	115.5
329.287	116.5
329.515	114.5
329.744	114.5
329.972	104.5
330.201	131.5
330.43	160.5
330.658	120.5
330.887	131.5
331.115	114.5
331.344	101.5
331.572	112.5
331.801	94.5
332.03	104.5
332.258	97.5
332.486	100.5
332.715	90.5
332.943	98.5
333.172	87.5
333.4	86.5
333.629	110.5
333.857	112.5
334.085	123.5
334.314	141.5
334.542	151.5
334.771	166.5
334.999	109.5
335.227	86.5
335.455	82.5
335.684	95.5
335.912	89.5
336.14	89.5
336.369	96.5
336.597	105.5
336.825	91.5
337.053	98.5
337.281	100.5
337.51	80.5
337.738	81.5
337.966	81.5
338.194	97.5
338.422	102.5
338.65	93.5
338.878	84.5
339.106	92.5
339.334	90.5
339.562	86.5
339.79	95.5
340.018	95.5
340.246	94.5
340.474	99.5
340.702	97.5
340.93	101.5
341.158	85.5
341.386	109.5
341.614	104.5
341.842	95.5
342.07	92.5
342.298	100.5
342.526	96.5
342.754	87.5
342.981	81.5
343.209	89.5
343.437	98.5
343.665	93.5
343.893	79.5
344.12	89.5
344.348	94.5
344.576	95.5
344.804	80.5
345.031	96.5
345.259	94.5
345.487	84.5
345.714	92.5
345.942	93.5
346.17	94.5
346.397	89.5
346.625	83.5
346.853	101.5
347.08	99.5
347.308	92.5
347.535	104.5
347.763	97.5
347.99	100.5
348.218	92.5
348.445	109.5
348.673	89.5
348.9	93.5
349.128	100.5
349.355	97.5
349.583	96.5
349.81	94.5
350.037	95.5
350.265	82.5
350.492	103.5
350.72	92.5
350.947	98.5
351.174	100.5
351.402	97.5
351.629	104.5
351.856	103.5
352.083	104.5
352.311	109.5
352.538	101.5
352.765	107.5
352.992	114.5
353.22	117.5
353.447	103.5
353.674	105.5
353.901	83.5
354.128	89.5
354.355	94.5
354.583	104.5
354.81	95.5
355.037	92.5
355.264	95.5
355.491	97.5
355.718	113.5
355.945	85.5
356.172	90.5
356.399	91.5
356.626	92.5
356.853	93.5
357.08	96.5
357.307	84.5
357.534	99.5
357.761	88.5
357.988	101.5
358.215	109.5
358.441	89.5
358.668	78.5
358.895	94.5
359.122	78.5
359.349	97.5
359.576	89.5
359.802	96.5
360.029	114.5
360.256	102.5
360.483	109.5
360.709	92.5
360.936	90.5
361.163	82.5
361.39	100.5
361.616	95.5
361.843	86.5
362.07	95.5
362.296	97.5
362.523	89.5
362.749	95.5
362.976	81.5
363.203	97.5
363.429	89.5
363.656	89.5
363.882	96.5
364.109	85.5
364.335	90.5
364.562	97.5
364.788	93.5
365.015	94.5
365.241	90.5
365.468	95.5
365.694	96.5
365.92	88.5
366.147	83.5
366.373	95.5
366.599	80.5
366.826	87.5
367.052	92.5
367.278	85.5
367.505	84.5
367.731	104.5
367.957	102.5
368.184	99.5
368.41	96.5
368.636	104.5
368.862	119.5
369.089	103.5
369.315	90.5
369.541	88.5
369.767	94.5
369.993	103.5
370.219	95.5
370.445	94.5
370.672	82.5
370.898	74.5
371.124	87.5
371.35	94.5
371.576	78.5
371.802	100.5
372.028	83.5
372.254	91.5
372.48	93.5
372.706	87.5
372.932	94.5
373.158	82.5
373.384	98.5
373.61	89.5
373.835	101.5
374.061	88.5
374.287	97.5
374.513	81.5
374.739	92.5
374.965	95.5
375.191	94.5
375.416	85.5
375.642	103.5
375.868	89.5
376.094	100.5
376.319	83.5
376.545	100.5
376.771	95.5
376.997	93.5
377.222	94.5
377.448	98.5
377.674	93.5
377.899	81.5
378.125	91.5
378.35	92.5
378.576	100.5
378.802	91.5
379.027	96.5
379.253	108.5
379.478	102.5
379.704	101.5
379.929	81.5
380.155	92.5
380.38	91.5
380.606	98.5
380.831	93.5
381.057	93.5
381.282	102.5
381.507	103.5
381.733	93.5
381.958	94.5
382.184	110.5
382.409	95.5
382.634	125.5
382.86	105.5
383.085	102.5
383.31	92.5
383.535	115.5
383.761	109.5
383.986	97.5
384.211	96.5
384.436	102.5
384.662	102.5
384.887	109.5
385.112	86.5
385.337	96.5
385.562	103.5
385.787	103.5
386.013	111.5
386.238	111.5
386.463	106.5
386.688	107.5
386.913	108.5
387.138	123.5
387.363	108.5
387.588	108.5
387.813	101.5
388.038	106.5
388.263	119.5
388.488	111.5
388.713	100.5
388.938	91.5
389.163	89.5
389.387	93.5
389.612	93.5
389.837	93.5
390.062	79.5
390.287	96.5
390.512	97.5
390.736	92.5
390.961	82.5
391.186	87.5
391.411	86.5
391.636	76.5
391.86	82.5
392.085	94.5
392.31	80.5
392.534	87.5
392.759	100.5
392.984	85.5
393.208	101.5
393.433	99.5
393.658	93.5
393.882	92.5
394.107	92.5
394.331	92.5
394.556	95.5
394.78	97.5
395.005	89.5
395.229	100.5
395.454	86.5
395.678	83.5
395.903	76.5
396.127	92.5
396.352	113.5
396.576	89.5
396.801	95.5
397.025	83.5
397.249	82.5
397.474	83.5
397.698	89.5
397.922	90.5
398.147	82.5
398.371	83.5
398.595	83.5
398.82	78.5
399.044	84.5
399.268	83.5
399.492	86.5
399.717	75.5
399.941	92.5
400.165	91.5
400.389	87.5
400.613	85.5
400.837	92.5
401.062	73.5
401.286	87.5
401.51	89.5
401.734	96.5
401.958	103.5
402.182	120.5
402.406	144.5
402.63	115.5
402.854	108.5
403.078	89.5
403.302	97.5
403.526	82.5
403.75	91.5
403.974	74.5
404.198	77.5
404.422	87.5
404.645	88.5
404.869	103.5
405.093	75.5
405.317	103.5
405.541	108.5
405.765	89.5
405.988	102.5
406.212	166.5
406.436	200.5
406.66	120.5
406.883	88.5
407.107	96.5
407.331	95.5
407.555	77.5
407.778	93.5
408.002	94.5
408.226	104.5
408.449	88.5
408.673	81.5
408.896	88.5
409.12	99.5
409.344	100.5
409.567	81.5
409.791	78.5
410.014	94.5
410.238	95.5
410.461	97.5
410.685	88.5
410.908	103.5
411.132	98.5
411.355	88.5
411.578	75.5
411.802	91.5
412.025	80.5
412.249	82.5
412.472	101.5
412.695	95.5
412.919	102.5
413.142	82.5
413.365	80.5
413.589	95.5
413.812	79.5
414.035	97.5
414.258	88.5
414.482	95.5
414.705	88.5
414.928	93.5
415.151	96.5
415.374	84.5
415.597	88.5
415.821	80.5
416.044	88.5
416.267	81.5
416.49	84.5
416.713	95.5
416.936	91.5
417.159	89.5
417.382	102.5
417.605	93.5
417.828	102.5
418.051	86.5
418.274	88.5
418.497	96.5
418.72	75.5
418.943	81.5
419.166	89.5
419.389	78.5
419.611	88.5
419.834	76.5
420.057	100.5
420.28	97.5
420.503	76.5
420.726	84.5
420.948	80.5
421.171	92.5
421.394	84.5
421.617	85.5
421.839	90.5
422.062	96.5
422.285	95.5
422.507	101.5
422.73	84.5
422.953	85.5
423.175	79.5
423.398	77.5
423.621	92.5
423.843	94.5
424.066	100.5
424.288	101.5
424.511	85.5
424.733	93.5
424.956	112.5
425.178	84.5
425.401	99.5
425.623	93.5
425.846	92.5
426.068	95.5
426.291	88.5
426.513	89.5
426.735	95.5
426.958	93.5
427.18	101.5
427.402	127.5
427.625	159.5
427.847	143.5
428.069	123.5
428.292	75.5
428.514	90.5
428.736	95.5
428.958	91.5
429.181	88.5
429.403	89.5
429.625	100.5
429.847	94.5
430.069	107.5
430.292	96.5
430.514	80.5
430.736	100.5
430.958	87.5
431.18	96.5
431.402	100.5
431.624	88.5
431.846	86.5
432.068	76.5
432.29	84.5
432.512	81.5
432.734	109.5
432.956	93.5
433.178	93.5
433.4	112.5
433.622	105.5
433.844	93.5
434.066	106.5
434.287	90.5
434.509	88.5
434.731	93.5
434.953	85.5
435.175	90.5
435.397	89.5
435.618	91.5
435.84	99.5
436.062	116.5
436.284	103.5
436.505	89.5
436.727	87.5
436.949	107.5
437.17	84.5
437.392	86.5
437.614	86.5
437.835	104.5
438.057	109.5
438.278	99.5
438.5	86.5
438.721	104.5
438.943	98.5
439.165	93.5
439.386	93.5
439.608	100.5
439.829	99.5
440.05	103.5
440.272	130.5
440.493	90.5
440.715	78.5
440.936	84.5
441.158	89.5
441.379	100.5
441.6	100.5
441.822	77.5
442.043	93.5
442.264	99.5
442.486	99.5
442.707	89.5
442.928	102.5
443.149	120.5
443.371	112.5
443.592	96.5
443.813	99.5
444.034	108.5
444.255	93.5
444.476	77.5
444.698	82.5
444.919	99.5
445.14	134.5
445.361	125.5
445.582	108.5
445.803	124.5
446.024	118.5
446.245	125.5
446.466	99.5
446.687	92.5
446.908	78.5
447.129	98.5
447.35	107.5
447.571	90.5
447.792	88.5
448.013	99.5
448.234	101.5
448.455	108.5
448.675	102.5
448.896	108.5
449.117	102.5
449.338	102.5
449.559	124.5
449.779	133.5
450	87.5
450.221	100.5
450.442	89.5
450.662	101.5
450.883	110.5
451.104	108.5
451.324	98.5
451.545	97.5
451.766	93.5
451.986	84.5
452.207	91.5
452.428	78.5
452.648	111.5
452.869	121.5
453.089	127.5
453.31	111.5
453.53	84.5
453.751	91.5
453.971	102.5
454.192	107.5
454.412	99.5
454.633	100.5
454.853	92.5
455.073	85.5
455.294	104.5
455.514	96.5
455.734	85.5
455.955	80.5
456.175	75.5
456.395	93.5
456.616	91.5
456.836	81.5
457.056	89.5
457.276	90.5
457.497	75.5
457.717	89.5
457.937	86.5
458.157	88.5
458.377	87.5
458.598	96.5
458.818	144.5
459.038	146.5
459.258	108.5
459.478	87.5
459.698	93.5
459.918	81.5
460.138	71.5
460.358	95.5
460.578	79.5
460.798	81.5
461.018	99.5
461.238	94.5
461.458	81.5
461.678	95.5
461.898	85.5
462.118	96.5
462.338	77.5
462.558	81.5
462.777	82.5
462.997	76.5
463.217	77.5
463.437	81.5
463.657	82.5
463.876	96.5
464.096	88.5
464.316	92.5
464.536	90.5
464.755	85.5
464.975	95.5
465.195	142.5
465.414	139.5
465.634	92.5
465.854	96.5
466.073	85.5
466.293	75.5
466.512	107.5
466.732	79.5
466.951	88.5
467.171	89.5
467.391	90.5
467.61	96.5
467.829	88.5
468.049	111.5
468.268	111.5
468.488	74.5
468.707	84.5
468.927	77.5
469.146	99.5
469.365	81.5
469.585	81.5
469.804	101.5
470.023	89.5
470.243	80.5
470.462	85.5
470.681	95.5
470.901	93.5
471.12	84.5
471.339	85.5
471.558	87.5
471.777	82.5
471.997	104.5
472.216	137.5
472.435	179.5
472.654	129.5
472.873	89.5
473.092	96.5
473.311	91.5
473.53	86.5
473.749	93.5
473.968	96.5
474.187	99.5
474.406	105.5
474.625	78.5
474.844	95.5
475.063	89.5
475.282	78.5
475.501	78.5
475.72	84.5
475.939	86.5
476.158	101.5
476.377	95.5
476.596	88.5
476.814	87.5
477.033	81.5
477.252	81.5
477.471	89.5
477.69	102.5
477.908	89.5
478.127	87.5
478.346	68.5
478.564	89.5
478.783	78.5
479.002	93.5
479.22	78.5
479.439	84.5
479.658	91.5
479.876	96.5
480.095	91.5
480.313	94.5
480.532	98.5
480.751	108.5
480.969	132.5
481.188	257.5
481.406	216.5
481.624	91.5
481.843	97.5
482.061	89.5
482.28	83.5
482.498	76.5
482.717	75.5
482.935	79.5
483.153	85.5
483.372	89.5
483.59	82.5
483.808	94.5
484.027	93.5
484.245	91.5
484.463	91.5
484.681	104.5
484.9	95.5
485.118	89.5
485.336	99.5
485.554	104.5
485.772	99.5
485.99	98.5
486.209	96.5
486.427	94.5
486.645	119.5
486.863	110.5
487.081	105.5
487.299	97.5
487.517	103.5
487.735	99.5
487.953	92.5
488.171	84.5
488.389	95.5
488.607	89.5
488.825	103.5
489.043	84.5
489.261	95.5
489.479	89.5
489.696	83.5
489.914	91.5
490.132	77.5
490.35	92.5
490.568	73.5
490.786	94.5
491.003	89.5
491.221	73.5
491.439	80.5
491.657	97.5
491.874	93.5
492.092	80.5
492.31	83.5
492.527	87.5
492.745	88.5
492.963	82.5
493.18	84.5
493.398	89.5
493.615	84.5
493.833	101.5
494.05	92.5
494.268	77.5
494.485	79.5
494.703	104.5
494.92	100.5
495.138	93.5
495.355	85.5
495.573	83.5
495.79	90.5
496.008	87.5
496.225	100.5
496.442	76.5
496.66	109.5
496.877	95.5
497.094	89.5
497.312	92.5
497.529	88.5
497.746	80.5
497.963	88.5
498.181	72.5
498.398	92.5
498.615	98.5
498.832	102.5
499.049	97.5
499.267	88.5
499.484	87.5
499.701	95.5
499.918	81.5
500.135	84.5
500.352	92.5
500.569	81.5
500.786	95.5
501.003	94.5
501.22	75.5
501.437	98.5
501.654	89.5
501.871	100.5
502.088	112.5
502.305	86.5
502.522	91.5
502.739	104.5
502.956	98.5
503.172	87.5
503.389	110.5
503.606	108.5
503.823	86.5
504.04	101.5
504.256	77.5
504.473	86.5
504.69	88.5
504.907	83.5
505.123	85.5
505.34	78.5
505.557	82.5
505.773	92.5
505.99	99.5
506.207	91.5
506.423	86.5
506.64	89.5
506.856	97.5
507.073	94.5
507.289	96.5
507.506	96.5
507.722	107.5
507.939	113.5
508.155	95.5
508.372	80.5
508.588	97.5
508.805	96.5
509.021	92.5
509.238	94.5
509.454	93.5
509.67	108.5
509.887	102.5
510.103	127.5
510.319	179.5
510.536	692.5
510.752	2185.5
510.968	628.5
511.184	139.5
511.401	109.5
511.617	107.5
511.833	94.5
512.049	97.5
512.265	104.5
512.481	88.5
512.698	74.5
512.914	84.5
513.13	87.5
513.346	97.5
513.562	93.5
513.778	98.5
513.994	104.5
514.21	87.5
514.426	112.5
514.642	141.5
514.858	112.5
515.074	164.5
515.29	402.5
515.506	1255.5
515.721	477.5
515.937	149.5
516.153	100.5
516.369	92.5
516.585	96.5
516.801	89.5
517.016	76.5
517.232	84.5
517.448	84.5
517.664	92.5
517.879	98.5
518.095	105.5
518.311	73.5
518.527	115.5
518.742	108.5
518.958	94.5
519.173	93.5
519.389	81.5
519.605	95.5
519.82	107.5
520.036	108.5
520.251	131.5
520.467	116.5
520.682	105.5
520.898	104.5
521.113	125.5
521.329	134.5
521.544	193.5
521.76	486.5
521.975	2095.5
522.19	1294.5
522.406	291.5
522.621	119.5
522.836	85.5
523.052	98.5
523.267	94.5
523.482	105.5
523.698	107.5
523.913	127.5
524.128	110.5
524.343	87.5
524.559	101.5
524.774	110.5
524.989	92.5
525.204	108.5
525.419	102.5
525.634	104.5
525.849	88.5
526.064	96.5
526.28	85.5
526.495	96.5
526.71	106.5
526.925	83.5
527.14	88.5
527.355	85.5
527.57	96.5
527.785	83.5
527.999	87.5
528.214	95.5
528.429	96.5
528.644	98.5
528.859	95.5
529.074	103.5
529.289	109.5
529.503	169.5
529.718	108.5
529.933	116.5
530.148	102.5
530.363	90.5
530.577	95.5
530.792	92.5
531.007	94.5
531.221	100.5
531.436	85.5
531.651	94.5
531.865	97.5
532.08	97.5
532.295	96.5
532.509	99.5
532.724	76.5
532.938	91.5
533.153	94.5
533.367	112.5
533.582	83.5
533.796	84.5
534.011	94.5
534.225	82.5
534.44	95.5
534.654	84.5
534.868	97.5
535.083	81.5
