Data from Circ_2005_H10_HRD10591_00024.txt Node
Date: Wed Jan 03 10:29:55 EST 2024
User: Yrep
Spectrometer: HR+D1059
Trigger mode: 1
Integration Time (sec): 1.000000E-1
Scans to average: 1
Electric dark correction enabled: true
Nonlinearity correction enabled: false
Boxcar width: 0
XAxis mode: Wavelengths
Number of Pixels in Spectrum: 2048
>>>>>Begin Spectral Data<<<<<
223.165	-7.38
223.4	-7.38
223.635	-7.38
223.869	-5.38
224.104	-20.38
224.338	-14.38
224.573	-29.38
224.808	-21.38
225.042	-15.38
225.277	-1.38
225.511	-0.38
225.746	2.62
225.98	17.62
226.215	-7.38
226.449	26.62
226.683	21.62
226.918	21.62
227.152	32.62
227.387	26.62
227.621	41.62
227.856	44.62
228.09	47.62
228.324	53.62
228.559	39.62
228.793	66.62
229.027	57.62
229.262	70.62
229.496	68.62
229.73	77.62
229.964	82.62
230.199	74.62
230.433	73.62
230.667	77.62
230.901	66.62
231.136	64.62
231.37	70.62
231.604	79.62
231.838	70.62
232.072	82.62
232.306	80.62
232.541	82.62
232.775	80.62
233.009	69.62
233.243	76.62
233.477	85.62
233.711	90.62
233.945	78.62
234.179	79.62
234.413	79.62
234.647	77.62
234.881	82.62
235.115	96.62
235.349	64.62
235.583	92.62
235.817	79.62
236.051	78.62
236.285	80.62
236.519	73.62
236.753	71.62
236.987	79.62
237.221	79.62
237.455	87.62
237.689	58.62
237.922	78.62
238.156	84.62
238.39	64.62
238.624	60.62
238.858	67.62
239.091	61.62
239.325	60.62
239.559	88.62
239.793	80.62
240.027	83.62
240.26	67.62
240.494	60.62
240.728	64.62
240.961	68.62
241.195	77.62
241.429	79.62
241.662	71.62
241.896	72.62
242.13	84.62
242.363	67.62
242.597	70.62
242.83	74.62
243.064	79.62
243.298	67.62
243.531	82.62
243.765	73.62
243.998	80.62
244.232	89.62
244.465	79.62
244.699	80.62
244.932	71.62
245.166	69.62
245.399	74.62
245.633	82.62
245.866	82.62
246.099	73.62
246.333	77.62
246.566	87.62
246.8	75.62
247.033	61.62
247.266	69.62
247.5	80.62
247.733	74.62
247.966	86.62
248.2	82.62
248.433	66.62
248.666	77.62
248.899	72.62
249.133	74.62
249.366	78.62
249.599	83.62
249.832	58.62
250.066	79.62
250.299	77.62
250.532	79.62
250.765	80.62
250.998	74.62
251.231	74.62
251.465	74.62
251.698	80.62
251.931	81.62
252.164	79.62
252.397	74.62
252.63	85.62
252.863	77.62
253.096	82.62
253.329	81.62
253.562	69.62
253.795	81.62
254.028	80.62
254.261	94.62
254.494	86.62
254.727	73.62
254.96	79.62
255.193	82.62
255.426	68.62
255.659	60.62
255.892	78.62
256.124	71.62
256.357	81.62
256.59	67.62
256.823	89.62
257.056	69.62
257.289	73.62
257.521	79.62
257.754	78.62
257.987	75.62
258.22	89.62
258.452	76.62
258.685	79.62
258.918	89.62
259.151	81.62
259.383	72.62
259.616	82.62
259.849	74.62
260.081	86.62
260.314	79.62
260.547	83.62
260.779	92.62
261.012	84.62
261.244	72.62
261.477	87.62
261.71	93.62
261.942	113.62
262.175	96.62
262.407	78.62
262.64	74.62
262.872	68.62
263.105	82.62
263.337	76.62
263.57	73.62
263.802	78.62
264.035	88.62
264.267	85.62
264.499	84.62
264.732	93.62
264.964	66.62
265.197	84.62
265.429	86.62
265.661	76.62
265.894	94.62
266.126	95.62
266.358	73.62
266.591	80.62
266.823	85.62
267.055	64.62
267.287	81.62
267.52	91.62
267.752	80.62
267.984	76.62
268.216	93.62
268.448	80.62
268.681	79.62
268.913	78.62
269.145	74.62
269.377	70.62
269.609	75.62
269.841	76.62
270.073	79.62
270.306	77.62
270.538	82.62
270.77	79.62
271.002	79.62
271.234	70.62
271.466	84.62
271.698	96.62
271.93	78.62
272.162	82.62
272.394	90.62
272.626	104.62
272.858	76.62
273.09	90.62
273.322	91.62
273.553	72.62
273.785	88.62
274.017	84.62
274.249	68.62
274.481	84.62
274.713	90.62
274.945	80.62
275.176	84.62
275.408	86.62
275.64	69.62
275.872	84.62
276.104	80.62
276.335	89.62
276.567	86.62
276.799	109.62
277.031	90.62
277.262	86.62
277.494	96.62
277.726	85.62
277.957	72.62
278.189	80.62
278.421	71.62
278.652	79.62
278.884	71.62
279.115	80.62
279.347	69.62
279.579	73.62
279.81	82.62
280.042	81.62
280.273	91.62
280.505	90.62
280.736	81.62
280.968	88.62
281.199	81.62
281.431	88.62
281.662	85.62
281.894	79.62
282.125	105.62
282.356	106.62
282.588	133.62
282.819	103.62
283.051	97.62
283.282	78.62
283.513	83.62
283.745	83.62
283.976	70.62
284.207	69.62
284.439	78.62
284.67	89.62
284.901	96.62
285.132	82.62
285.364	80.62
285.595	94.62
285.826	82.62
286.057	96.62
286.288	81.62
286.52	87.62
286.751	92.62
286.982	90.62
287.213	85.62
287.444	74.62
287.675	86.62
287.906	78.62
288.138	85.62
288.369	90.62
288.6	89.62
288.831	85.62
289.062	76.62
289.293	82.62
289.524	85.62
289.755	95.62
289.986	78.62
290.217	77.62
290.448	83.62
290.679	92.62
290.91	76.62
291.141	90.62
291.371	90.62
291.602	80.62
291.833	93.62
292.064	84.62
292.295	94.62
292.526	95.62
292.757	74.62
292.987	80.62
293.218	82.62
293.449	86.62
293.68	90.62
293.91	89.62
294.141	82.62
294.372	74.62
294.603	93.62
294.833	96.62
295.064	79.62
295.295	79.62
295.525	95.62
295.756	89.62
295.987	106.62
296.217	123.62
296.448	120.62
296.679	100.62
296.909	86.62
297.14	85.62
297.37	71.62
297.601	79.62
297.831	92.62
298.062	93.62
298.292	73.62
298.523	91.62
298.753	92.62
298.984	85.62
299.214	105.62
299.445	98.62
299.675	80.62
299.905	91.62
300.136	81.62
300.366	90.62
300.597	85.62
300.827	93.62
301.057	101.62
301.288	94.62
301.518	89.62
301.748	87.62
301.979	89.62
302.209	84.62
302.439	94.62
302.669	87.62
302.9	90.62
303.13	81.62
303.36	73.62
303.59	86.62
303.82	93.62
304.051	90.62
304.281	75.62
304.511	81.62
304.741	101.62
304.971	84.62
305.201	94.62
305.431	86.62
305.661	92.62
305.891	91.62
306.121	90.62
306.352	99.62
306.582	95.62
306.812	87.62
307.042	83.62
307.272	83.62
307.502	93.62
307.731	89.62
307.961	80.62
308.191	81.62
308.421	83.62
308.651	88.62
308.881	77.62
309.111	94.62
309.341	91.62
309.571	80.62
309.8	78.62
310.03	98.62
310.26	107.62
310.49	71.62
310.72	82.62
310.949	84.62
311.179	95.62
311.409	92.62
311.639	90.62
311.868	85.62
312.098	96.62
312.328	86.62
312.557	83.62
312.787	101.62
313.017	99.62
313.246	77.62
313.476	73.62
313.706	82.62
313.935	86.62
314.165	89.62
314.394	93.62
314.624	102.62
314.853	94.62
315.083	87.62
315.312	95.62
315.542	97.62
315.771	100.62
316.001	86.62
316.23	90.62
316.46	92.62
316.689	89.62
316.919	97.62
317.148	84.62
317.377	74.62
317.607	94.62
317.836	93.62
318.065	77.62
318.295	86.62
318.524	91.62
318.753	105.62
318.983	84.62
319.212	88.62
319.441	89.62
319.67	102.62
319.9	88.62
320.129	92.62
320.358	93.62
320.587	103.62
320.816	92.62
321.046	91.62
321.275	106.62
321.504	84.62
321.733	88.62
321.962	97.62
322.191	97.62
322.42	104.62
322.649	104.62
322.878	116.62
323.108	108.62
323.337	118.62
323.566	114.62
323.795	141.62
324.024	206.62
324.253	413.62
324.482	881.62
324.71	1818.62
324.939	2424.62
325.168	856.62
325.397	245.62
325.626	155.62
325.855	127.62
326.084	140.62
326.313	108.62
326.542	168.62
326.77	238.62
326.999	499.62
327.228	1011.62
327.457	1863.62
327.686	1470.62
327.914	378.62
328.143	201.62
328.372	134.62
328.6	123.62
328.829	122.62
329.058	114.62
329.287	140.62
329.515	106.62
329.744	108.62
329.972	97.62
330.201	106.62
330.43	100.62
330.658	105.62
330.887	153.62
331.115	103.62
331.344	97.62
331.572	113.62
331.801	99.62
332.03	101.62
332.258	90.62
332.486	96.62
332.715	103.62
332.943	80.62
333.172	96.62
333.4	84.62
333.629	113.62
333.857	100.62
334.085	105.62
334.314	114.62
334.542	110.62
334.771	116.62
334.999	95.62
335.227	91.62
335.455	80.62
335.684	69.62
335.912	109.62
336.14	102.62
336.369	95.62
336.597	92.62
336.825	88.62
337.053	91.62
337.281	90.62
337.51	101.62
337.738	80.62
337.966	102.62
338.194	96.62
338.422	96.62
338.65	105.62
338.878	90.62
339.106	91.62
339.334	73.62
339.562	88.62
339.79	86.62
340.018	101.62
340.246	77.62
340.474	80.62
340.702	93.62
340.93	88.62
341.158	89.62
341.386	92.62
341.614	101.62
341.842	83.62
342.07	90.62
342.298	100.62
342.526	85.62
342.754	90.62
342.981	96.62
343.209	77.62
343.437	94.62
343.665	84.62
343.893	83.62
344.12	92.62
344.348	66.62
344.576	74.62
344.804	92.62
345.031	85.62
345.259	77.62
345.487	90.62
345.714	96.62
345.942	89.62
346.17	91.62
346.397	90.62
346.625	93.62
346.853	97.62
347.08	91.62
347.308	88.62
347.535	100.62
347.763	88.62
347.99	97.62
348.218	97.62
348.445	105.62
348.673	92.62
348.9	104.62
349.128	98.62
349.355	105.62
349.583	83.62
349.81	94.62
350.037	85.62
350.265	100.62
350.492	90.62
350.72	91.62
350.947	99.62
351.174	116.62
351.402	110.62
351.629	101.62
351.856	84.62
352.083	86.62
352.311	97.62
352.538	101.62
352.765	94.62
352.992	105.62
353.22	92.62
353.447	95.62
353.674	91.62
353.901	97.62
354.128	89.62
354.355	94.62
354.583	100.62
354.81	100.62
355.037	102.62
355.264	85.62
355.491	85.62
355.718	104.62
355.945	100.62
356.172	98.62
356.399	83.62
356.626	102.62
356.853	87.62
357.08	68.62
357.307	98.62
357.534	82.62
357.761	89.62
357.988	96.62
358.215	94.62
358.441	97.62
358.668	90.62
358.895	99.62
359.122	91.62
359.349	80.62
359.576	94.62
359.802	92.62
360.029	108.62
360.256	100.62
360.483	88.62
360.709	89.62
360.936	84.62
361.163	85.62
361.39	82.62
361.616	84.62
361.843	96.62
362.07	85.62
362.296	78.62
362.523	94.62
362.749	84.62
362.976	80.62
363.203	79.62
363.429	83.62
363.656	92.62
363.882	69.62
364.109	91.62
364.335	106.62
364.562	90.62
364.788	80.62
365.015	97.62
365.241	99.62
365.468	105.62
365.694	113.62
365.92	89.62
366.147	98.62
366.373	68.62
366.599	84.62
366.826	73.62
367.052	81.62
367.278	97.62
367.505	88.62
367.731	82.62
367.957	83.62
368.184	83.62
368.41	101.62
368.636	107.62
368.862	101.62
369.089	86.62
369.315	92.62
369.541	90.62
369.767	90.62
369.993	97.62
370.219	101.62
370.445	84.62
370.672	90.62
370.898	76.62
371.124	90.62
371.35	102.62
371.576	85.62
371.802	86.62
372.028	89.62
372.254	83.62
372.48	73.62
372.706	90.62
372.932	74.62
373.158	91.62
373.384	86.62
373.61	82.62
373.835	80.62
374.061	97.62
374.287	88.62
374.513	79.62
374.739	80.62
374.965	93.62
375.191	93.62
375.416	82.62
375.642	85.62
375.868	90.62
376.094	86.62
376.319	89.62
376.545	93.62
376.771	87.62
376.997	101.62
377.222	83.62
377.448	86.62
377.674	100.62
377.899	93.62
378.125	77.62
378.35	100.62
378.576	93.62
378.802	89.62
379.027	91.62
379.253	92.62
379.478	90.62
379.704	86.62
379.929	93.62
380.155	87.62
380.38	85.62
380.606	84.62
380.831	100.62
381.057	101.62
381.282	106.62
381.507	85.62
381.733	111.62
381.958	95.62
382.184	98.62
382.409	104.62
382.634	94.62
382.86	97.62
383.085	101.62
383.31	98.62
383.535	95.62
383.761	105.62
383.986	103.62
384.211	90.62
384.436	95.62
384.662	102.62
384.887	109.62
385.112	110.62
385.337	104.62
385.562	120.62
385.787	100.62
386.013	111.62
386.238	108.62
386.463	107.62
386.688	91.62
386.913	110.62
387.138	97.62
387.363	108.62
387.588	96.62
387.813	99.62
388.038	112.62
388.263	109.62
388.488	117.62
388.713	100.62
388.938	89.62
389.163	88.62
389.387	89.62
389.612	91.62
389.837	94.62
390.062	103.62
390.287	80.62
390.512	96.62
390.736	102.62
390.961	89.62
391.186	80.62
391.411	97.62
391.636	98.62
391.86	89.62
392.085	90.62
392.31	85.62
392.534	85.62
392.759	83.62
392.984	80.62
393.208	91.62
393.433	98.62
393.658	87.62
393.882	75.62
394.107	83.62
394.331	73.62
394.556	81.62
394.78	94.62
395.005	75.62
395.229	94.62
395.454	97.62
395.678	77.62
395.903	88.62
396.127	84.62
396.352	94.62
396.576	89.62
396.801	80.62
397.025	89.62
397.249	92.62
397.474	91.62
397.698	92.62
397.922	76.62
398.147	81.62
398.371	83.62
398.595	93.62
398.82	83.62
399.044	69.62
399.268	77.62
399.492	83.62
399.717	87.62
399.941	71.62
400.165	95.62
400.389	92.62
400.613	74.62
400.837	81.62
401.062	92.62
401.286	86.62
401.51	89.62
401.734	94.62
401.958	95.62
402.182	123.62
402.406	138.62
402.63	102.62
402.854	84.62
403.078	83.62
403.302	90.62
403.526	82.62
403.75	89.62
403.974	83.62
404.198	82.62
404.422	88.62
404.645	96.62
404.869	96.62
405.093	94.62
405.317	89.62
405.541	103.62
405.765	109.62
405.988	91.62
406.212	158.62
406.436	207.62
406.66	128.62
406.883	122.62
407.107	92.62
407.331	99.62
407.555	88.62
407.778	99.62
408.002	79.62
408.226	90.62
408.449	84.62
408.673	76.62
408.896	96.62
409.12	87.62
409.344	81.62
409.567	74.62
409.791	88.62
410.014	85.62
410.238	92.62
410.461	77.62
410.685	90.62
410.908	101.62
411.132	100.62
411.355	88.62
411.578	92.62
411.802	97.62
412.025	93.62
412.249	84.62
412.472	92.62
412.695	92.62
412.919	81.62
413.142	95.62
413.365	83.62
413.589	84.62
413.812	84.62
414.035	90.62
414.258	78.62
414.482	83.62
414.705	83.62
414.928	77.62
415.151	89.62
415.374	97.62
415.597	92.62
415.821	81.62
416.044	90.62
416.267	102.62
416.49	74.62
416.713	98.62
416.936	84.62
417.159	86.62
417.382	95.62
417.605	66.62
417.828	79.62
418.051	91.62
418.274	81.62
418.497	84.62
418.72	79.62
418.943	103.62
419.166	94.62
419.389	99.62
419.611	84.62
419.834	86.62
420.057	94.62
420.28	78.62
420.503	86.62
420.726	92.62
420.948	77.62
421.171	78.62
421.394	91.62
421.617	90.62
421.839	85.62
422.062	88.62
422.285	101.62
422.507	88.62
422.73	96.62
422.953	86.62
423.175	90.62
423.398	76.62
423.621	88.62
423.843	84.62
424.066	83.62
424.288	84.62
424.511	97.62
424.733	99.62
424.956	99.62
425.178	102.62
425.401	94.62
425.623	108.62
425.846	80.62
426.068	109.62
426.291	89.62
426.513	81.62
426.735	83.62
426.958	97.62
427.18	97.62
427.402	143.62
427.625	145.62
427.847	125.62
428.069	104.62
428.292	86.62
428.514	90.62
428.736	105.62
428.958	94.62
429.181	86.62
429.403	77.62
429.625	95.62
429.847	85.62
430.069	99.62
430.292	98.62
430.514	96.62
430.736	86.62
430.958	87.62
431.18	71.62
431.402	80.62
431.624	70.62
431.846	91.62
432.068	85.62
432.29	86.62
432.512	86.62
432.734	84.62
432.956	81.62
433.178	74.62
433.4	100.62
433.622	80.62
433.844	88.62
434.066	95.62
434.287	88.62
434.509	97.62
434.731	106.62
434.953	81.62
435.175	93.62
435.397	79.62
435.618	86.62
435.84	90.62
436.062	118.62
436.284	97.62
436.505	108.62
436.727	83.62
436.949	89.62
437.17	77.62
437.392	94.62
437.614	79.62
437.835	89.62
438.057	106.62
438.278	100.62
438.5	100.62
438.721	100.62
438.943	85.62
439.165	86.62
439.386	87.62
439.608	86.62
439.829	96.62
440.05	118.62
440.272	138.62
440.493	99.62
440.715	90.62
440.936	90.62
441.158	90.62
441.379	84.62
441.6	92.62
441.822	91.62
442.043	88.62
442.264	106.62
442.486	93.62
442.707	93.62
442.928	103.62
443.149	121.62
443.371	111.62
443.592	102.62
443.813	110.62
444.034	100.62
444.255	86.62
444.476	100.62
444.698	91.62
444.919	78.62
445.14	127.62
445.361	112.62
445.582	100.62
445.803	133.62
446.024	132.62
446.245	133.62
446.466	99.62
446.687	85.62
446.908	75.62
447.129	93.62
447.35	84.62
447.571	78.62
447.792	95.62
448.013	92.62
448.234	100.62
448.455	100.62
448.675	106.62
448.896	116.62
449.117	83.62
449.338	97.62
449.559	132.62
449.779	142.62
450	100.62
450.221	75.62
450.442	97.62
450.662	88.62
450.883	83.62
451.104	93.62
451.324	93.62
451.545	76.62
451.766	79.62
451.986	84.62
452.207	93.62
452.428	94.62
452.648	98.62
452.869	101.62
453.089	107.62
453.31	123.62
453.53	91.62
453.751	87.62
453.971	85.62
454.192	112.62
454.412	90.62
454.633	94.62
454.853	95.62
455.073	85.62
455.294	98.62
455.514	100.62
455.734	85.62
455.955	76.62
456.175	83.62
456.395	77.62
456.616	85.62
456.836	96.62
457.056	89.62
457.276	88.62
457.497	76.62
457.717	83.62
457.937	76.62
458.157	81.62
458.377	85.62
458.598	108.62
458.818	136.62
459.038	151.62
459.258	121.62
459.478	86.62
459.698	79.62
459.918	91.62
460.138	97.62
460.358	85.62
460.578	91.62
460.798	82.62
461.018	83.62
461.238	92.62
461.458	90.62
461.678	92.62
461.898	106.62
462.118	96.62
462.338	74.62
462.558	85.62
462.777	92.62
462.997	93.62
463.217	77.62
463.437	98.62
463.657	105.62
463.876	97.62
464.096	96.62
464.316	80.62
464.536	89.62
464.755	76.62
464.975	88.62
465.195	141.62
465.414	160.62
465.634	92.62
465.854	85.62
466.073	70.62
466.293	78.62
466.512	75.62
466.732	91.62
466.951	98.62
467.171	85.62
467.391	92.62
467.61	101.62
467.829	86.62
468.049	98.62
468.268	82.62
468.488	89.62
468.707	84.62
468.927	93.62
469.146	90.62
469.365	78.62
469.585	90.62
469.804	84.62
470.023	104.62
470.243	89.62
470.462	102.62
470.681	108.62
470.901	80.62
471.12	87.62
471.339	89.62
471.558	90.62
471.777	85.62
471.997	88.62
472.216	86.62
472.435	105.62
472.654	83.62
472.873	85.62
473.092	75.62
473.311	88.62
473.53	76.62
473.749	86.62
473.968	97.62
474.187	85.62
474.406	85.62
474.625	88.62
474.844	81.62
475.063	93.62
475.282	69.62
475.501	90.62
475.72	85.62
475.939	80.62
476.158	80.62
476.377	84.62
476.596	70.62
476.814	90.62
477.033	89.62
477.252	93.62
477.471	93.62
477.69	95.62
477.908	90.62
478.127	105.62
478.346	78.62
478.564	92.62
478.783	105.62
479.002	101.62
479.22	80.62
479.439	96.62
479.658	83.62
479.876	94.62
480.095	85.62
480.313	83.62
480.532	108.62
480.751	64.62
480.969	100.62
481.188	129.62
481.406	109.62
481.624	103.62
481.843	94.62
482.061	96.62
482.28	85.62
482.498	83.62
482.717	97.62
482.935	97.62
483.153	81.62
483.372	94.62
483.59	82.62
483.808	92.62
484.027	106.62
484.245	101.62
484.463	82.62
484.681	100.62
484.9	87.62
485.118	85.62
485.336	85.62
485.554	92.62
485.772	90.62
485.99	99.62
486.209	91.62
486.427	87.62
486.645	111.62
486.863	107.62
487.081	112.62
487.299	99.62
487.517	99.62
487.735	95.62
487.953	90.62
488.171	91.62
488.389	101.62
488.607	101.62
488.825	86.62
489.043	88.62
489.261	90.62
489.479	92.62
489.696	77.62
489.914	80.62
490.132	93.62
490.35	102.62
490.568	93.62
490.786	82.62
491.003	92.62
491.221	85.62
491.439	83.62
491.657	90.62
491.874	94.62
492.092	97.62
492.31	88.62
492.527	91.62
492.745	95.62
492.963	90.62
493.18	82.62
493.398	85.62
493.615	95.62
493.833	98.62
494.05	92.62
494.268	97.62
494.485	88.62
494.703	80.62
494.92	92.62
495.138	88.62
495.355	84.62
495.573	86.62
495.79	89.62
496.008	67.62
496.225	81.62
496.442	85.62
496.66	88.62
496.877	91.62
497.094	94.62
497.312	86.62
497.529	89.62
497.746	88.62
497.963	82.62
498.181	86.62
498.398	84.62
498.615	99.62
498.832	108.62
499.049	74.62
499.267	93.62
499.484	100.62
499.701	72.62
499.918	93.62
500.135	92.62
500.352	86.62
500.569	102.62
500.786	85.62
501.003	95.62
501.22	89.62
501.437	74.62
501.654	88.62
501.871	104.62
502.088	91.62
502.305	94.62
502.522	85.62
502.739	82.62
502.956	104.62
503.172	96.62
503.389	94.62
503.606	110.62
503.823	92.62
504.04	89.62
504.256	84.62
504.473	100.62
504.69	85.62
504.907	94.62
505.123	86.62
505.34	85.62
505.557	90.62
505.773	93.62
505.99	82.62
506.207	85.62
506.423	85.62
506.64	72.62
506.856	97.62
507.073	86.62
507.289	90.62
507.506	89.62
507.722	104.62
507.939	104.62
508.155	93.62
508.372	108.62
508.588	90.62
508.805	90.62
509.021	97.62
509.238	107.62
509.454	101.62
509.67	88.62
509.887	98.62
510.103	130.62
510.319	191.62
510.536	658.62
510.752	2184.62
510.968	624.62
511.184	145.62
511.401	110.62
511.617	101.62
511.833	92.62
512.049	86.62
512.265	104.62
512.481	88.62
512.698	96.62
512.914	74.62
513.13	96.62
513.346	83.62
513.562	92.62
513.778	110.62
513.994	79.62
514.21	104.62
514.426	106.62
514.642	133.62
514.858	122.62
515.074	151.62
515.29	403.62
515.506	1296.62
515.721	495.62
515.937	145.62
516.153	104.62
516.369	98.62
516.585	96.62
