Data from Circ_2005_H10_HRD10591_00029.txt Node
Date: Wed Jan 03 10:29:56 EST 2024
User: Yrep
Spectrometer: HR+D1059
Trigger mode: 1
Integration Time (sec): 1.000000E-1
Scans to average: 1
Electric dark correction enabled: true
Nonlinearity correction enabled: false
Boxcar width: 0
XAxis mode: Wavelengths
Number of Pixels in Spectrum: 2048
>>>>>Begin Spectral Data<<<<<
223.165	-9.5
223.4	-9.5
223.635	-9.5
223.869	-10.5
224.104	-22.5
224.338	-10.5
224.573	-19.5
224.808	-17.5
225.042	-8.5
225.277	2.5
225.511	0.5
225.746	-3.5
225.98	11.5
226.215	15.5
226.449	0.5
226.683	15.5
226.918	19.5
227.152	36.5
227.387	38.5
227.621	18.5
227.856	39.5
228.09	44.5
228.324	51.5
228.559	53.5
228.793	53.5
229.027	55.5
229.262	58.5
229.496	60.5
229.73	72.5
229.964	94.5
230.199	75.5
230.433	61.5
230.667	67.5
230.901	70.5
231.136	71.5
231.37	76.5
231.604	81.5
231.838	72.5
232.072	86.5
232.306	82.5
232.541	80.5
232.775	93.5
233.009	83.5
233.243	72.5
233.477	80.5
233.711	80.5
233.945	53.5
234.179	63.5
234.413	82.5
234.647	84.5
234.881	77.5
235.115	85.5
235.349	79.5
235.583	69.5
235.817	69.5
236.051	71.5
236.285	69.5
236.519	68.5
236.753	72.5
236.987	85.5
237.221	85.5
237.455	92.5
237.689	68.5
237.922	70.5
238.156	62.5
238.39	78.5
238.624	79.5
238.858	84.5
239.091	70.5
239.325	83.5
239.559	81.5
239.793	78.5
240.027	68.5
240.26	85.5
240.494	71.5
240.728	87.5
240.961	75.5
241.195	74.5
241.429	74.5
241.662	68.5
241.896	83.5
242.13	77.5
242.363	75.5
242.597	76.5
242.83	79.5
243.064	76.5
243.298	78.5
243.531	82.5
243.765	78.5
243.998	82.5
244.232	72.5
244.465	87.5
244.699	77.5
244.932	76.5
245.166	75.5
245.399	76.5
245.633	82.5
245.866	89.5
246.099	77.5
246.333	76.5
246.566	74.5
246.8	80.5
247.033	85.5
247.266	74.5
247.5	75.5
247.733	88.5
247.966	81.5
248.2	70.5
248.433	70.5
248.666	83.5
248.899	79.5
249.133	91.5
249.366	102.5
249.599	106.5
249.832	85.5
250.066	90.5
250.299	78.5
250.532	82.5
250.765	80.5
250.998	87.5
251.231	79.5
251.465	83.5
251.698	72.5
251.931	73.5
252.164	71.5
252.397	89.5
252.63	76.5
252.863	81.5
253.096	80.5
253.329	66.5
253.562	84.5
253.795	75.5
254.028	70.5
254.261	76.5
254.494	82.5
254.727	74.5
254.96	67.5
255.193	68.5
255.426	71.5
255.659	81.5
255.892	89.5
256.124	86.5
256.357	76.5
256.59	80.5
256.823	75.5
257.056	86.5
257.289	96.5
257.521	88.5
257.754	83.5
257.987	80.5
258.22	78.5
258.452	69.5
258.685	77.5
258.918	82.5
259.151	79.5
259.383	74.5
259.616	66.5
259.849	67.5
260.081	91.5
260.314	72.5
260.547	71.5
260.779	84.5
261.012	83.5
261.244	73.5
261.477	89.5
261.71	106.5
261.942	104.5
262.175	116.5
262.407	86.5
262.64	81.5
262.872	86.5
263.105	87.5
263.337	76.5
263.57	92.5
263.802	79.5
264.035	76.5
264.267	83.5
264.499	97.5
264.732	77.5
264.964	81.5
265.197	79.5
265.429	87.5
265.661	93.5
265.894	89.5
266.126	81.5
266.358	92.5
266.591	91.5
266.823	91.5
267.055	87.5
267.287	88.5
267.52	86.5
267.752	84.5
267.984	80.5
268.216	82.5
268.448	78.5
268.681	68.5
268.913	75.5
269.145	84.5
269.377	93.5
269.609	84.5
269.841	91.5
270.073	75.5
270.306	82.5
270.538	101.5
270.77	97.5
271.002	82.5
271.234	90.5
271.466	91.5
271.698	93.5
271.93	70.5
272.162	86.5
272.394	87.5
272.626	82.5
272.858	83.5
273.09	79.5
273.322	91.5
273.553	88.5
273.785	85.5
274.017	83.5
274.249	81.5
274.481	74.5
274.713	99.5
274.945	90.5
275.176	81.5
275.408	98.5
275.64	86.5
275.872	79.5
276.104	84.5
276.335	91.5
276.567	87.5
276.799	101.5
277.031	101.5
277.262	101.5
277.494	84.5
277.726	99.5
277.957	93.5
278.189	78.5
278.421	88.5
278.652	84.5
278.884	87.5
279.115	85.5
279.347	86.5
279.579	80.5
279.81	81.5
280.042	96.5
280.273	91.5
280.505	87.5
280.736	89.5
280.968	76.5
281.199	86.5
281.431	96.5
281.662	90.5
281.894	88.5
282.125	101.5
282.356	97.5
282.588	147.5
282.819	108.5
283.051	105.5
283.282	91.5
283.513	96.5
283.745	87.5
283.976	84.5
284.207	80.5
284.439	78.5
284.67	89.5
284.901	83.5
285.132	85.5
285.364	60.5
285.595	92.5
285.826	98.5
286.057	89.5
286.288	77.5
286.52	79.5
286.751	89.5
286.982	88.5
287.213	64.5
287.444	85.5
287.675	88.5
287.906	81.5
288.138	85.5
288.369	101.5
288.6	91.5
288.831	85.5
289.062	91.5
289.293	79.5
289.524	96.5
289.755	93.5
289.986	97.5
290.217	78.5
290.448	98.5
290.679	89.5
290.91	87.5
291.141	65.5
291.371	95.5
291.602	89.5
291.833	91.5
292.064	103.5
292.295	83.5
292.526	98.5
292.757	85.5
292.987	92.5
293.218	83.5
293.449	96.5
293.68	86.5
293.91	89.5
294.141	84.5
294.372	88.5
294.603	98.5
294.833	102.5
295.064	96.5
295.295	80.5
295.525	95.5
295.756	94.5
295.987	114.5
296.217	150.5
296.448	128.5
296.679	92.5
296.909	81.5
297.14	87.5
297.37	94.5
297.601	90.5
297.831	92.5
298.062	102.5
298.292	93.5
298.523	79.5
298.753	71.5
298.984	86.5
299.214	82.5
299.445	94.5
299.675	84.5
299.905	86.5
300.136	98.5
300.366	82.5
300.597	85.5
300.827	101.5
301.057	110.5
301.288	96.5
301.518	98.5
301.748	94.5
301.979	103.5
302.209	88.5
302.439	81.5
302.669	90.5
302.9	88.5
303.13	88.5
303.36	95.5
303.59	91.5
303.82	102.5
304.051	95.5
304.281	87.5
304.511	93.5
304.741	88.5
304.971	86.5
305.201	102.5
305.431	100.5
305.661	85.5
305.891	85.5
306.121	88.5
306.352	85.5
306.582	97.5
306.812	99.5
307.042	102.5
307.272	104.5
307.502	95.5
307.731	102.5
307.961	90.5
308.191	78.5
308.421	77.5
308.651	83.5
308.881	90.5
309.111	74.5
309.341	91.5
309.571	95.5
309.8	98.5
310.03	83.5
310.26	88.5
310.49	108.5
310.72	110.5
310.949	96.5
311.179	97.5
311.409	97.5
311.639	86.5
311.868	89.5
312.098	104.5
312.328	104.5
312.557	104.5
312.787	116.5
313.017	119.5
313.246	104.5
313.476	85.5
313.706	92.5
313.935	99.5
314.165	100.5
314.394	111.5
314.624	93.5
314.853	83.5
315.083	94.5
315.312	111.5
315.542	103.5
315.771	95.5
316.001	84.5
316.23	80.5
316.46	95.5
316.689	73.5
316.919	78.5
317.148	95.5
317.377	95.5
317.607	87.5
317.836	98.5
318.065	90.5
318.295	92.5
318.524	99.5
318.753	93.5
318.983	94.5
319.212	100.5
319.441	103.5
319.67	111.5
319.9	92.5
320.129	85.5
320.358	88.5
320.587	87.5
320.816	105.5
321.046	102.5
321.275	91.5
321.504	101.5
321.733	105.5
321.962	113.5
322.191	91.5
322.42	116.5
322.649	123.5
322.878	113.5
323.108	118.5
323.337	135.5
323.566	149.5
323.795	165.5
324.024	248.5
324.253	469.5
324.482	1005.5
324.71	2112.5
324.939	2838.5
325.168	1029.5
325.397	293.5
325.626	154.5
325.855	140.5
326.084	152.5
326.313	140.5
326.542	166.5
326.77	265.5
326.999	553.5
327.228	1147.5
327.457	2151.5
327.686	1694.5
327.914	446.5
328.143	221.5
328.372	169.5
328.6	122.5
328.829	128.5
329.058	134.5
329.287	142.5
329.515	117.5
329.744	96.5
329.972	104.5
330.201	101.5
330.43	134.5
330.658	152.5
330.887	157.5
331.115	142.5
331.344	119.5
331.572	94.5
331.801	103.5
332.03	99.5
332.258	101.5
332.486	87.5
332.715	97.5
332.943	108.5
333.172	91.5
333.4	98.5
333.629	106.5
333.857	115.5
334.085	115.5
334.314	98.5
334.542	129.5
334.771	134.5
334.999	93.5
335.227	100.5
335.455	97.5
335.684	91.5
335.912	84.5
336.14	99.5
336.369	104.5
336.597	103.5
336.825	89.5
337.053	93.5
337.281	95.5
337.51	96.5
337.738	95.5
337.966	87.5
338.194	113.5
338.422	108.5
338.65	101.5
338.878	96.5
339.106	97.5
339.334	93.5
339.562	91.5
339.79	95.5
340.018	78.5
340.246	95.5
340.474	97.5
340.702	91.5
340.93	94.5
341.158	75.5
341.386	90.5
341.614	95.5
341.842	93.5
342.07	96.5
342.298	101.5
342.526	75.5
342.754	70.5
342.981	100.5
343.209	95.5
343.437	95.5
343.665	76.5
343.893	90.5
344.12	87.5
344.348	85.5
344.576	87.5
344.804	79.5
345.031	94.5
345.259	88.5
345.487	93.5
345.714	104.5
345.942	100.5
346.17	104.5
346.397	69.5
346.625	100.5
346.853	98.5
347.08	95.5
347.308	94.5
347.535	95.5
347.763	104.5
347.99	83.5
348.218	113.5
348.445	98.5
348.673	87.5
348.9	112.5
349.128	91.5
349.355	97.5
349.583	102.5
349.81	85.5
350.037	92.5
350.265	99.5
350.492	87.5
350.72	93.5
350.947	93.5
351.174	102.5
351.402	114.5
351.629	94.5
351.856	101.5
352.083	102.5
352.311	110.5
352.538	126.5
352.765	109.5
352.992	105.5
353.22	113.5
353.447	100.5
353.674	106.5
353.901	95.5
354.128	102.5
354.355	101.5
354.583	102.5
354.81	107.5
355.037	96.5
355.264	101.5
355.491	84.5
355.718	79.5
355.945	87.5
356.172	92.5
356.399	99.5
356.626	89.5
356.853	102.5
357.08	83.5
357.307	88.5
357.534	95.5
357.761	99.5
357.988	92.5
358.215	97.5
358.441	90.5
358.668	83.5
358.895	90.5
359.122	95.5
359.349	100.5
359.576	103.5
359.802	102.5
360.029	107.5
360.256	106.5
360.483	104.5
360.709	92.5
360.936	99.5
361.163	85.5
361.39	88.5
361.616	95.5
361.843	108.5
362.07	89.5
362.296	100.5
362.523	94.5
362.749	87.5
362.976	98.5
363.203	98.5
363.429	95.5
363.656	85.5
363.882	97.5
364.109	97.5
364.335	63.5
364.562	99.5
364.788	88.5
365.015	82.5
365.241	98.5
365.468	117.5
365.694	104.5
365.92	106.5
366.147	92.5
366.373	94.5
366.599	79.5
366.826	92.5
367.052	97.5
367.278	79.5
367.505	81.5
367.731	80.5
367.957	87.5
368.184	88.5
368.41	93.5
368.636	117.5
368.862	116.5
369.089	111.5
369.315	116.5
369.541	81.5
369.767	87.5
369.993	95.5
370.219	88.5
370.445	98.5
370.672	82.5
370.898	91.5
371.124	98.5
371.35	82.5
371.576	85.5
371.802	77.5
372.028	78.5
372.254	86.5
372.48	102.5
372.706	86.5
372.932	96.5
373.158	85.5
373.384	95.5
373.61	86.5
373.835	97.5
374.061	89.5
374.287	93.5
374.513	93.5
374.739	84.5
374.965	67.5
375.191	86.5
375.416	99.5
375.642	96.5
375.868	89.5
376.094	84.5
376.319	84.5
376.545	87.5
376.771	89.5
376.997	85.5
377.222	86.5
377.448	82.5
377.674	98.5
377.899	94.5
378.125	84.5
378.35	86.5
378.576	95.5
378.802	80.5
379.027	87.5
379.253	110.5
379.478	100.5
379.704	95.5
379.929	106.5
380.155	102.5
380.38	99.5
380.606	98.5
380.831	102.5
381.057	84.5
381.282	92.5
381.507	92.5
381.733	101.5
381.958	94.5
382.184	110.5
382.409	114.5
382.634	99.5
382.86	99.5
383.085	101.5
383.31	109.5
383.535	104.5
383.761	85.5
383.986	105.5
384.211	106.5
384.436	99.5
384.662	110.5
384.887	108.5
385.112	90.5
385.337	96.5
385.562	105.5
385.787	107.5
386.013	116.5
386.238	116.5
386.463	109.5
386.688	116.5
386.913	111.5
387.138	88.5
387.363	98.5
387.588	99.5
387.813	103.5
388.038	107.5
388.263	120.5
388.488	118.5
388.713	101.5
388.938	95.5
389.163	88.5
389.387	100.5
389.612	92.5
389.837	91.5
390.062	64.5
390.287	83.5
390.512	101.5
390.736	82.5
390.961	98.5
391.186	92.5
391.411	98.5
391.636	96.5
391.86	88.5
392.085	95.5
392.31	75.5
392.534	81.5
392.759	79.5
392.984	82.5
393.208	76.5
393.433	103.5
393.658	102.5
393.882	80.5
394.107	82.5
394.331	85.5
394.556	75.5
394.78	82.5
395.005	80.5
395.229	74.5
395.454	86.5
395.678	88.5
395.903	87.5
396.127	84.5
396.352	87.5
396.576	100.5
396.801	96.5
397.025	84.5
397.249	79.5
397.474	87.5
397.698	92.5
397.922	83.5
398.147	84.5
398.371	89.5
398.595	75.5
398.82	81.5
399.044	87.5
399.268	100.5
399.492	93.5
399.717	92.5
399.941	88.5
400.165	88.5
400.389	72.5
400.613	95.5
400.837	96.5
401.062	83.5
401.286	91.5
401.51	98.5
401.734	92.5
401.958	109.5
402.182	140.5
402.406	179.5
402.63	118.5
402.854	90.5
403.078	80.5
403.302	89.5
403.526	93.5
403.75	90.5
403.974	86.5
404.198	74.5
404.422	102.5
404.645	90.5
404.869	91.5
405.093	92.5
405.317	113.5
405.541	94.5
405.765	92.5
405.988	122.5
406.212	173.5
406.436	245.5
406.66	166.5
406.883	105.5
407.107	92.5
407.331	108.5
407.555	102.5
407.778	90.5
408.002	101.5
408.226	84.5
408.449	95.5
408.673	100.5
408.896	106.5
409.12	94.5
409.344	88.5
409.567	94.5
409.791	93.5
410.014	93.5
410.238	107.5
410.461	79.5
410.685	91.5
410.908	97.5
411.132	105.5
411.355	107.5
411.578	92.5
411.802	86.5
412.025	90.5
412.249	99.5
412.472	90.5
412.695	112.5
412.919	93.5
413.142	83.5
413.365	87.5
413.589	99.5
413.812	87.5
414.035	88.5
414.258	97.5
414.482	87.5
414.705	93.5
414.928	81.5
415.151	89.5
415.374	105.5
415.597	96.5
415.821	98.5
416.044	95.5
416.267	89.5
416.49	83.5
416.713	80.5
416.936	79.5
417.159	93.5
417.382	85.5
417.605	90.5
417.828	88.5
418.051	97.5
418.274	96.5
418.497	90.5
418.72	83.5
418.943	87.5
419.166	99.5
419.389	80.5
419.611	92.5
419.834	84.5
420.057	77.5
420.28	99.5
420.503	78.5
420.726	110.5
420.948	92.5
421.171	90.5
421.394	95.5
421.617	87.5
421.839	102.5
422.062	79.5
422.285	86.5
422.507	86.5
422.73	115.5
422.953	88.5
423.175	88.5
423.398	105.5
423.621	87.5
423.843	76.5
424.066	87.5
424.288	88.5
424.511	94.5
424.733	96.5
424.956	120.5
425.178	90.5
425.401	99.5
425.623	101.5
425.846	85.5
426.068	114.5
426.291	101.5
426.513	80.5
426.735	79.5
426.958	91.5
427.18	112.5
427.402	147.5
427.625	188.5
427.847	134.5
428.069	116.5
428.292	100.5
428.514	92.5
428.736	86.5
428.958	82.5
429.181	81.5
429.403	85.5
429.625	94.5
429.847	82.5
430.069	122.5
430.292	104.5
430.514	83.5
430.736	76.5
430.958	97.5
431.18	83.5
431.402	79.5
431.624	87.5
431.846	82.5
432.068	91.5
432.29	82.5
432.512	82.5
432.734	81.5
432.956	98.5
433.178	100.5
433.4	89.5
433.622	94.5
433.844	80.5
434.066	93.5
434.287	90.5
434.509	99.5
434.731	102.5
434.953	87.5
435.175	86.5
435.397	84.5
435.618	85.5
435.84	100.5
436.062	115.5
436.284	113.5
436.505	117.5
436.727	112.5
436.949	92.5
437.17	83.5
437.392	87.5
437.614	102.5
437.835	106.5
438.057	128.5
438.278	106.5
438.5	107.5
438.721	130.5
438.943	97.5
439.165	92.5
439.386	91.5
439.608	96.5
439.829	100.5
440.05	130.5
440.272	157.5
440.493	110.5
440.715	102.5
440.936	78.5
441.158	87.5
441.379	87.5
441.6	84.5
441.822	100.5
442.043	110.5
442.264	111.5
442.486	113.5
442.707	100.5
442.928	107.5
443.149	148.5
443.371	148.5
443.592	125.5
443.813	122.5
444.034	116.5
444.255	96.5
444.476	93.5
444.698	93.5
444.919	93.5
445.14	132.5
445.361	143.5
445.582	112.5
445.803	156.5
446.024	154.5
446.245	152.5
446.466	119.5
446.687	98.5
446.908	74.5
447.129	96.5
447.35	81.5
447.571	99.5
447.792	99.5
448.013	95.5
448.234	107.5
448.455	104.5
448.675	104.5
448.896	122.5
449.117	114.5
449.338	101.5
449.559	144.5
449.779	145.5
450	91.5
450.221	91.5
450.442	71.5
450.662	102.5
450.883	111.5
451.104	112.5
451.324	108.5
451.545	107.5
451.766	81.5
451.986	91.5
452.207	78.5
452.428	94.5
452.648	106.5
452.869	103.5
453.089	130.5
453.31	111.5
453.53	88.5
453.751	80.5
453.971	107.5
454.192	126.5
454.412	75.5
454.633	90.5
454.853	87.5
455.073	88.5
455.294	88.5
455.514	91.5
455.734	84.5
455.955	86.5
456.175	87.5
456.395	83.5
456.616	87.5
456.836	85.5
457.056	82.5
457.276	88.5
457.497	91.5
457.717	95.5
457.937	85.5
458.157	84.5
458.377	106.5
458.598	101.5
458.818	166.5
459.038	193.5
459.258	130.5
459.478	97.5
459.698	91.5
459.918	86.5
460.138	84.5
460.358	92.5
460.578	101.5
460.798	86.5
461.018	96.5
461.238	92.5
461.458	85.5
461.678	97.5
461.898	82.5
462.118	86.5
462.338	96.5
462.558	72.5
462.777	92.5
462.997	103.5
463.217	81.5
463.437	85.5
463.657	94.5
463.876	94.5
464.096	77.5
464.316	90.5
464.536	92.5
464.755	93.5
464.975	116.5
465.195	188.5
465.414	178.5
465.634	97.5
465.854	85.5
466.073	85.5
466.293	75.5
466.512	79.5
466.732	82.5
466.951	91.5
467.171	110.5
467.391	88.5
467.61	91.5
467.829	101.5
468.049	98.5
468.268	96.5
468.488	92.5
468.707	93.5
468.927	94.5
469.146	91.5
469.365	85.5
469.585	88.5
469.804	111.5
470.023	82.5
470.243	89.5
470.462	104.5
470.681	100.5
470.901	94.5
471.12	81.5
471.339	88.5
471.558	87.5
471.777	87.5
471.997	82.5
472.216	118.5
472.435	137.5
472.654	86.5
472.873	92.5
473.092	100.5
473.311	84.5
473.53	87.5
473.749	80.5
473.968	111.5
474.187	98.5
474.406	86.5
474.625	94.5
474.844	87.5
475.063	83.5
475.282	91.5
475.501	85.5
475.72	85.5
475.939	89.5
476.158	80.5
476.377	83.5
476.596	82.5
476.814	86.5
477.033	94.5
477.252	78.5
477.471	94.5
477.69	77.5
477.908	95.5
478.127	90.5
478.346	89.5
478.564	86.5
478.783	96.5
479.002	80.5
479.22	86.5
479.439	85.5
479.658	118.5
479.876	97.5
480.095	90.5
480.313	87.5
480.532	81.5
480.751	91.5
480.969	104.5
481.188	183.5
481.406	148.5
481.624	99.5
481.843	87.5
482.061	92.5
482.28	82.5
482.498	73.5
482.717	74.5
482.935	83.5
483.153	79.5
483.372	85.5
483.59	79.5
483.808	97.5
484.027	98.5
484.245	93.5
484.463	86.5
484.681	97.5
484.9	83.5
485.118	93.5
485.336	93.5
485.554	88.5
485.772	93.5
485.99	99.5
486.209	93.5
486.427	91.5
486.645	99.5
486.863	129.5
487.081	115.5
487.299	99.5
487.517	88.5
487.735	93.5
487.953	90.5
488.171	101.5
488.389	84.5
488.607	111.5
488.825	69.5
489.043	89.5
489.261	110.5
489.479	100.5
489.696	83.5
489.914	89.5
490.132	85.5
490.35	82.5
490.568	80.5
490.786	82.5
491.003	101.5
491.221	90.5
491.439	82.5
491.657	98.5
491.874	93.5
492.092	86.5
492.31	87.5
492.527	100.5
492.745	93.5
492.963	85.5
493.18	89.5
493.398	83.5
493.615	87.5
493.833	85.5
494.05	88.5
494.268	96.5
494.485	82.5
494.703	82.5
494.92	87.5
495.138	94.5
495.355	85.5
495.573	87.5
495.79	88.5
496.008	90.5
496.225	84.5
496.442	97.5
496.66	91.5
496.877	91.5
497.094	100.5
497.312	93.5
497.529	86.5
497.746	96.5
497.963	82.5
498.181	91.5
498.398	78.5
498.615	96.5
498.832	119.5
499.049	90.5
499.267	92.5
499.484	87.5
499.701	85.5
499.918	86.5
500.135	93.5
500.352	83.5
500.569	91.5
500.786	84.5
501.003	74.5
501.22	87.5
501.437	86.5
501.654	89.5
501.871	113.5
502.088	97.5
502.305	93.5
502.522	100.5
502.739	81.5
502.956	101.5
503.172	97.5
503.389	94.5
503.606	98.5
503.823	118.5
504.04	81.5
504.256	76.5
504.473	107.5
504.69	85.5
504.907	95.5
505.123	90.5
505.34	81.5
505.557	88.5
505.773	84.5
505.99	94.5
506.207	77.5
506.423	96.5
506.64	90.5
506.856	86.5
507.073	96.5
507.289	93.5
507.506	82.5
507.722	115.5
507.939	126.5
508.155	99.5
508.372	101.5
508.588	100.5
508.805	87.5
509.021	94.5
509.238	101.5
509.454	107.5
509.67	106.5
509.887	107.5
510.103	117.5
510.319	223.5
510.536	790.5
510.752	2627.5
510.968	752.5
511.184	176.5
511.401	114.5
511.617	95.5
511.833	92.5
512.049	87.5
512.265	82.5
512.481	89.5
512.698	90.5
512.914	102.5
513.13	100.5
513.346	91.5
513.562	98.5
513.778	97.5
513.994	116.5
514.21	100.5
514.426	112.5
514.642	139.5
514.858	132.5
515.074	194.5
515.29	492.5
515.506	1859.5
515.721	687.5
515.937	178.5
516.153	111.5
516.369	112.5
516.585	87.5
516.801	91.5
517.016	92.5
517.232	90.5
517.448	85.5
517.664	89.5
517.879	85.5
518.095	92.5
518.311	92.5
518.527	92.5
518.742	80.5
518.958	83.5
519.173	101.5
519.389	89.5
519.605	96.5
519.82	103.5
520.036	99.5
520.251	128.5
520.467	99.5
520.682	88.5
520.898	107.5
521.113	119.5
521.329	158.5
521.544	240.5
521.76	679.5
521.975	3045.5
522.19	1902.5
522.406	382.5
522.621	139.5
522.836	107.5
523.052	89.5
523.267	101.5
523.482	110.5
523.698	93.5
523.913	127.5
524.128	104.5
524.343	107.5
524.559	91.5
524.774	99.5
524.989	96.5
525.204	109.5
525.419	95.5
525.634	81.5
525.849	88.5
526.064	95.5
526.28	86.5
526.495	85.5
526.71	95.5
526.925	86.5
527.14	81.5
527.355	86.5
527.57	96.5
527.785	95.5
527.999	95.5
528.214	83.5
528.429	104.5
528.644	104.5
528.859	103.5
529.074	96.5
529.289	136.5
529.503	219.5
529.718	111.5
529.933	86.5
530.148	98.5
530.363	83.5
530.577	104.5
530.792	101.5
531.007	95.5
531.221	86.5
531.436	97.5
531.651	101.5
531.865	81.5
532.08	86.5
532.295	92.5
532.509	95.5
532.724	88.5
532.938	91.5
533.153	101.5
533.367	89.5
533.582	99.5
533.796	83.5
534.011	87.5
534.225	91.5
534.44	86.5
534.654	87.5
534.868	96.5
