Data from Circ_2005_H10_HRD10591_00015.txt Node
Date: Wed Jan 03 10:29:54 EST 2024
User: Yrep
Spectrometer: HR+D1059
Trigger mode: 1
Integration Time (sec): 1.000000E-1
Scans to average: 1
Electric dark correction enabled: true
Nonlinearity correction enabled: false
Boxcar width: 0
XAxis mode: Wavelengths
Number of Pixels in Spectrum: 2048
>>>>>Begin Spectral Data<<<<<
223.165	-15.31
223.4	-15.31
223.635	-15.31
223.869	-20.31
224.104	-12.31
224.338	-16.31
224.573	-12.31
224.808	-9.31
225.042	-22.31
225.277	11.69
225.511	9.69
225.746	8.69
225.98	3.69
226.215	-2.31
226.449	13.69
226.683	9.69
226.918	27.69
227.152	25.69
227.387	19.69
227.621	49.69
227.856	37.69
228.09	42.69
228.324	53.69
228.559	51.69
228.793	68.69
229.027	59.69
229.262	56.69
229.496	67.69
229.73	76.69
229.964	72.69
230.199	88.69
230.433	67.69
230.667	84.69
230.901	73.69
231.136	75.69
231.37	84.69
231.604	88.69
231.838	86.69
232.072	82.69
232.306	82.69
232.541	84.69
232.775	88.69
233.009	85.69
233.243	84.69
233.477	86.69
233.711	94.69
233.945	79.69
234.179	65.69
234.413	84.69
234.647	77.69
234.881	78.69
235.115	65.69
235.349	88.69
235.583	60.69
235.817	66.69
236.051	66.69
236.285	72.69
236.519	76.69
236.753	73.69
236.987	70.69
237.221	90.69
237.455	86.69
237.689	89.69
237.922	84.69
238.156	69.69
238.39	77.69
238.624	81.69
238.858	102.69
239.091	91.69
239.325	93.69
239.559	78.69
239.793	68.69
240.027	83.69
240.26	79.69
240.494	73.69
240.728	73.69
240.961	70.69
241.195	69.69
241.429	88.69
241.662	62.69
241.896	82.69
242.13	86.69
242.363	77.69
242.597	80.69
242.83	91.69
243.064	85.69
243.298	86.69
243.531	60.69
243.765	92.69
243.998	88.69
244.232	75.69
244.465	86.69
244.699	80.69
244.932	77.69
245.166	63.69
245.399	69.69
245.633	68.69
245.866	92.69
246.099	82.69
246.333	84.69
246.566	75.69
246.8	72.69
247.033	70.69
247.266	75.69
247.5	80.69
247.733	81.69
247.966	82.69
248.2	84.69
248.433	80.69
248.666	70.69
248.899	80.69
249.133	83.69
249.366	91.69
249.599	99.69
249.832	80.69
250.066	92.69
250.299	72.69
250.532	84.69
250.765	78.69
250.998	80.69
251.231	79.69
251.465	72.69
251.698	77.69
251.931	81.69
252.164	86.69
252.397	83.69
252.63	83.69
252.863	71.69
253.096	89.69
253.329	86.69
253.562	67.69
253.795	91.69
254.028	83.69
254.261	68.69
254.494	79.69
254.727	75.69
254.96	96.69
255.193	82.69
255.426	80.69
255.659	94.69
255.892	76.69
256.124	81.69
256.357	74.69
256.59	85.69
256.823	70.69
257.056	77.69
257.289	80.69
257.521	87.69
257.754	97.69
257.987	85.69
258.22	84.69
258.452	85.69
258.685	90.69
258.918	86.69
259.151	88.69
259.383	81.69
259.616	91.69
259.849	77.69
260.081	84.69
260.314	87.69
260.547	89.69
260.779	75.69
261.012	85.69
261.244	72.69
261.477	81.69
261.71	88.69
261.942	104.69
262.175	115.69
262.407	91.69
262.64	93.69
262.872	81.69
263.105	95.69
263.337	87.69
263.57	76.69
263.802	88.69
264.035	84.69
264.267	82.69
264.499	84.69
264.732	83.69
264.964	82.69
265.197	75.69
265.429	84.69
265.661	87.69
265.894	85.69
266.126	94.69
266.358	89.69
266.591	77.69
266.823	92.69
267.055	82.69
267.287	82.69
267.52	79.69
267.752	76.69
267.984	86.69
268.216	75.69
268.448	82.69
268.681	85.69
268.913	88.69
269.145	73.69
269.377	83.69
269.609	89.69
269.841	69.69
270.073	80.69
270.306	70.69
270.538	84.69
270.77	84.69
271.002	99.69
271.234	91.69
271.466	67.69
271.698	81.69
271.93	79.69
272.162	88.69
272.394	88.69
272.626	84.69
272.858	83.69
273.09	91.69
273.322	84.69
273.553	85.69
273.785	85.69
274.017	82.69
274.249	99.69
274.481	78.69
274.713	84.69
274.945	89.69
275.176	81.69
275.408	92.69
275.64	79.69
275.872	81.69
276.104	82.69
276.335	85.69
276.567	96.69
276.799	109.69
277.031	99.69
277.262	89.69
277.494	78.69
277.726	89.69
277.957	80.69
278.189	93.69
278.421	93.69
278.652	88.69
278.884	97.69
279.115	85.69
279.347	89.69
279.579	79.69
279.81	88.69
280.042	89.69
280.273	88.69
280.505	84.69
280.736	86.69
280.968	89.69
281.199	80.69
281.431	91.69
281.662	83.69
281.894	86.69
282.125	80.69
282.356	119.69
282.588	153.69
282.819	115.69
283.051	74.69
283.282	89.69
283.513	99.69
283.745	93.69
283.976	81.69
284.207	79.69
284.439	104.69
284.67	93.69
284.901	80.69
285.132	83.69
285.364	91.69
285.595	84.69
285.826	75.69
286.057	96.69
286.288	89.69
286.52	98.69
286.751	87.69
286.982	81.69
287.213	89.69
287.444	87.69
287.675	87.69
287.906	89.69
288.138	79.69
288.369	100.69
288.6	104.69
288.831	96.69
289.062	77.69
289.293	95.69
289.524	82.69
289.755	82.69
289.986	93.69
290.217	77.69
290.448	91.69
290.679	78.69
290.91	98.69
291.141	88.69
291.371	93.69
291.602	86.69
291.833	91.69
292.064	85.69
292.295	95.69
292.526	79.69
292.757	94.69
292.987	92.69
293.218	92.69
293.449	66.69
293.68	98.69
293.91	77.69
294.141	101.69
294.372	98.69
294.603	91.69
294.833	93.69
295.064	87.69
295.295	86.69
295.525	85.69
295.756	81.69
295.987	118.69
296.217	136.69
296.448	130.69
296.679	90.69
296.909	115.69
297.14	94.69
297.37	86.69
297.601	92.69
297.831	89.69
298.062	88.69
298.292	84.69
298.523	91.69
298.753	92.69
298.984	90.69
299.214	93.69
299.445	88.69
299.675	83.69
299.905	95.69
300.136	92.69
300.366	95.69
300.597	92.69
300.827	98.69
301.057	92.69
301.288	90.69
301.518	96.69
301.748	103.69
301.979	100.69
302.209	75.69
302.439	93.69
302.669	80.69
302.9	95.69
303.13	79.69
303.36	77.69
303.59	91.69
303.82	93.69
304.051	78.69
304.281	74.69
304.511	81.69
304.741	91.69
304.971	83.69
305.201	93.69
305.431	85.69
305.661	103.69
305.891	87.69
306.121	87.69
306.352	102.69
306.582	97.69
306.812	96.69
307.042	96.69
307.272	99.69
307.502	99.69
307.731	89.69
307.961	95.69
308.191	88.69
308.421	95.69
308.651	77.69
308.881	79.69
309.111	90.69
309.341	85.69
309.571	105.69
309.8	89.69
310.03	104.69
310.26	94.69
310.49	91.69
310.72	103.69
310.949	105.69
311.179	99.69
311.409	110.69
311.639	109.69
311.868	99.69
312.098	94.69
312.328	91.69
312.557	89.69
312.787	93.69
313.017	100.69
313.246	98.69
313.476	95.69
313.706	97.69
313.935	88.69
314.165	96.69
314.394	95.69
314.624	92.69
314.853	89.69
315.083	78.69
315.312	87.69
315.542	96.69
315.771	107.69
316.001	92.69
316.23	89.69
316.46	89.69
316.689	80.69
316.919	88.69
317.148	107.69
317.377	96.69
317.607	73.69
317.836	84.69
318.065	97.69
318.295	92.69
318.524	87.69
318.753	92.69
318.983	83.69
319.212	92.69
319.441	97.69
319.67	99.69
319.9	85.69
320.129	93.69
320.358	104.69
320.587	102.69
320.816	102.69
321.046	100.69
321.275	101.69
321.504	94.69
321.733	99.69
321.962	93.69
322.191	103.69
322.42	113.69
322.649	117.69
322.878	117.69
323.108	120.69
323.337	124.69
323.566	137.69
323.795	160.69
324.024	207.69
324.253	401.69
324.482	867.69
324.71	1823.69
324.939	2376.69
325.168	854.69
325.397	251.69
325.626	142.69
325.855	118.69
326.084	119.69
326.313	126.69
326.542	165.69
326.77	253.69
326.999	477.69
327.228	1000.69
327.457	1782.69
327.686	1413.69
327.914	361.69
328.143	199.69
328.372	145.69
328.6	127.69
328.829	126.69
329.058	119.69
329.287	122.69
329.515	106.69
329.744	110.69
329.972	109.69
330.201	111.69
330.43	122.69
330.658	125.69
330.887	137.69
331.115	119.69
331.344	92.69
331.572	105.69
331.801	113.69
332.03	104.69
332.258	94.69
332.486	99.69
332.715	83.69
332.943	94.69
333.172	96.69
333.4	96.69
333.629	91.69
333.857	103.69
334.085	103.69
334.314	93.69
334.542	102.69
334.771	93.69
334.999	103.69
335.227	97.69
335.455	79.69
335.684	87.69
335.912	114.69
336.14	91.69
336.369	116.69
336.597	108.69
336.825	96.69
337.053	95.69
337.281	87.69
337.51	79.69
337.738	83.69
337.966	99.69
338.194	84.69
338.422	93.69
338.65	87.69
338.878	76.69
339.106	92.69
339.334	88.69
339.562	80.69
339.79	95.69
340.018	79.69
340.246	93.69
340.474	108.69
340.702	94.69
340.93	102.69
341.158	78.69
341.386	105.69
341.614	80.69
341.842	90.69
342.07	82.69
342.298	83.69
342.526	81.69
342.754	84.69
342.981	92.69
343.209	94.69
343.437	89.69
343.665	82.69
343.893	80.69
344.12	95.69
344.348	99.69
344.576	80.69
344.804	93.69
345.031	89.69
345.259	97.69
345.487	88.69
345.714	90.69
345.942	79.69
346.17	94.69
346.397	95.69
346.625	81.69
346.853	98.69
347.08	91.69
347.308	95.69
347.535	91.69
347.763	107.69
347.99	106.69
348.218	84.69
348.445	95.69
348.673	106.69
348.9	106.69
349.128	103.69
349.355	88.69
349.583	98.69
349.81	93.69
350.037	91.69
350.265	81.69
350.492	82.69
350.72	89.69
350.947	96.69
351.174	106.69
351.402	100.69
351.629	89.69
351.856	93.69
352.083	99.69
352.311	101.69
352.538	101.69
352.765	103.69
352.992	115.69
353.22	103.69
353.447	88.69
353.674	94.69
353.901	102.69
354.128	96.69
354.355	93.69
354.583	100.69
354.81	97.69
355.037	93.69
355.264	84.69
355.491	99.69
355.718	91.69
355.945	87.69
356.172	104.69
356.399	84.69
356.626	92.69
356.853	104.69
357.08	98.69
357.307	105.69
357.534	85.69
357.761	84.69
357.988	93.69
358.215	104.69
358.441	107.69
358.668	85.69
358.895	103.69
359.122	95.69
359.349	94.69
359.576	100.69
359.802	96.69
360.029	114.69
360.256	113.69
360.483	88.69
360.709	92.69
360.936	95.69
361.163	75.69
361.39	82.69
361.616	97.69
361.843	77.69
362.07	98.69
362.296	94.69
362.523	83.69
362.749	92.69
362.976	85.69
363.203	101.69
363.429	89.69
363.656	93.69
363.882	88.69
364.109	87.69
364.335	100.69
364.562	72.69
364.788	99.69
365.015	86.69
365.241	82.69
365.468	108.69
365.694	103.69
365.92	91.69
366.147	77.69
366.373	86.69
366.599	92.69
366.826	101.69
367.052	84.69
367.278	83.69
367.505	74.69
367.731	95.69
367.957	107.69
368.184	97.69
368.41	96.69
368.636	116.69
368.862	115.69
369.089	104.69
369.315	91.69
369.541	84.69
369.767	99.69
369.993	88.69
370.219	93.69
370.445	88.69
370.672	84.69
370.898	86.69
371.124	82.69
371.35	87.69
371.576	93.69
371.802	81.69
372.028	76.69
372.254	90.69
372.48	79.69
372.706	80.69
372.932	81.69
373.158	89.69
373.384	90.69
373.61	92.69
373.835	87.69
374.061	88.69
374.287	86.69
374.513	89.69
374.739	92.69
374.965	93.69
375.191	92.69
375.416	89.69
375.642	110.69
375.868	85.69
376.094	90.69
376.319	87.69
376.545	100.69
376.771	74.69
376.997	77.69
377.222	82.69
377.448	95.69
377.674	82.69
377.899	101.69
378.125	92.69
378.35	102.69
378.576	79.69
378.802	86.69
379.027	98.69
379.253	101.69
379.478	103.69
379.704	103.69
379.929	104.69
380.155	95.69
380.38	102.69
380.606	108.69
380.831	95.69
381.057	120.69
381.282	94.69
381.507	93.69
381.733	97.69
381.958	106.69
382.184	102.69
382.409	95.69
382.634	95.69
382.86	115.69
383.085	100.69
383.31	107.69
383.535	108.69
383.761	98.69
383.986	103.69
384.211	96.69
384.436	101.69
384.662	111.69
384.887	110.69
385.112	109.69
385.337	123.69
385.562	127.69
385.787	123.69
386.013	109.69
386.238	121.69
386.463	112.69
386.688	116.69
386.913	118.69
387.138	121.69
387.363	115.69
387.588	98.69
387.813	118.69
388.038	128.69
388.263	117.69
388.488	108.69
388.713	95.69
388.938	99.69
389.163	100.69
389.387	99.69
389.612	92.69
389.837	99.69
390.062	97.69
390.287	96.69
390.512	100.69
390.736	95.69
390.961	99.69
391.186	96.69
391.411	95.69
391.636	103.69
391.86	85.69
392.085	77.69
392.31	96.69
392.534	80.69
392.759	77.69
392.984	83.69
393.208	101.69
393.433	107.69
393.658	87.69
393.882	88.69
394.107	79.69
394.331	97.69
394.556	82.69
394.78	78.69
395.005	93.69
395.229	87.69
395.454	86.69
395.678	84.69
395.903	83.69
396.127	86.69
396.352	86.69
396.576	82.69
396.801	95.69
397.025	88.69
397.249	65.69
397.474	95.69
397.698	94.69
397.922	92.69
398.147	84.69
398.371	79.69
398.595	83.69
398.82	73.69
399.044	82.69
399.268	97.69
399.492	92.69
399.717	71.69
399.941	94.69
400.165	89.69
400.389	86.69
400.613	88.69
400.837	97.69
401.062	84.69
401.286	102.69
401.51	89.69
401.734	86.69
401.958	81.69
402.182	127.69
402.406	157.69
402.63	114.69
402.854	91.69
403.078	100.69
403.302	80.69
403.526	82.69
403.75	92.69
403.974	77.69
404.198	72.69
404.422	85.69
404.645	94.69
404.869	87.69
405.093	97.69
405.317	84.69
405.541	85.69
405.765	95.69
405.988	103.69
406.212	175.69
406.436	221.69
406.66	150.69
406.883	112.69
407.107	79.69
407.331	89.69
407.555	92.69
407.778	95.69
408.002	77.69
408.226	83.69
408.449	88.69
408.673	78.69
408.896	99.69
409.12	102.69
409.344	96.69
409.567	100.69
409.791	93.69
410.014	97.69
410.238	81.69
410.461	94.69
410.685	102.69
410.908	93.69
411.132	91.69
411.355	93.69
411.578	97.69
411.802	80.69
412.025	85.69
412.249	88.69
412.472	85.69
412.695	91.69
412.919	79.69
413.142	105.69
413.365	89.69
413.589	80.69
413.812	86.69
414.035	94.69
414.258	85.69
414.482	88.69
414.705	89.69
414.928	95.69
415.151	91.69
415.374	95.69
415.597	94.69
415.821	91.69
416.044	93.69
416.267	85.69
416.49	94.69
416.713	85.69
416.936	72.69
417.159	85.69
417.382	79.69
417.605	94.69
417.828	93.69
418.051	94.69
418.274	83.69
418.497	93.69
418.72	91.69
418.943	80.69
419.166	93.69
419.389	86.69
419.611	96.69
419.834	76.69
420.057	87.69
420.28	92.69
420.503	93.69
420.726	77.69
420.948	84.69
421.171	100.69
421.394	96.69
421.617	85.69
421.839	98.69
422.062	87.69
422.285	95.69
422.507	101.69
422.73	112.69
422.953	103.69
423.175	95.69
423.398	74.69
423.621	91.69
423.843	83.69
424.066	68.69
424.288	87.69
424.511	101.69
424.733	94.69
424.956	98.69
425.178	98.69
425.401	99.69
425.623	104.69
425.846	92.69
426.068	97.69
426.291	91.69
426.513	97.69
426.735	84.69
426.958	97.69
427.18	96.69
427.402	153.69
427.625	155.69
427.847	122.69
428.069	116.69
428.292	93.69
428.514	88.69
428.736	83.69
428.958	88.69
429.181	88.69
429.403	68.69
429.625	83.69
429.847	118.69
430.069	99.69
430.292	81.69
430.514	85.69
430.736	82.69
430.958	72.69
431.18	87.69
431.402	86.69
431.624	79.69
431.846	76.69
432.068	100.69
432.29	87.69
432.512	95.69
432.734	77.69
432.956	88.69
433.178	83.69
433.4	104.69
433.622	80.69
433.844	83.69
434.066	89.69
434.287	105.69
434.509	83.69
434.731	71.69
434.953	84.69
435.175	91.69
435.397	93.69
435.618	78.69
435.84	99.69
436.062	120.69
436.284	107.69
436.505	99.69
436.727	101.69
436.949	100.69
437.17	67.69
437.392	79.69
437.614	96.69
437.835	102.69
438.057	113.69
438.278	112.69
438.5	103.69
438.721	100.69
438.943	108.69
439.165	90.69
439.386	88.69
439.608	91.69
439.829	91.69
440.05	114.69
440.272	131.69
440.493	105.69
440.715	86.69
440.936	83.69
441.158	82.69
441.379	97.69
441.6	86.69
441.822	89.69
442.043	111.69
442.264	111.69
442.486	93.69
442.707	78.69
442.928	108.69
443.149	131.69
443.371	131.69
443.592	114.69
443.813	104.69
444.034	110.69
444.255	85.69
444.476	75.69
444.698	78.69
444.919	88.69
445.14	142.69
445.361	119.69
445.582	114.69
445.803	121.69
446.024	140.69
446.245	139.69
446.466	108.69
446.687	85.69
446.908	93.69
447.129	92.69
447.35	86.69
447.571	96.69
447.792	100.69
448.013	83.69
448.234	100.69
448.455	92.69
448.675	107.69
448.896	114.69
449.117	103.69
449.338	99.69
449.559	135.69
449.779	122.69
450	101.69
450.221	80.69
450.442	99.69
450.662	83.69
450.883	97.69
451.104	103.69
451.324	88.69
451.545	92.69
451.766	76.69
451.986	102.69
452.207	89.69
452.428	101.69
452.648	90.69
452.869	101.69
453.089	101.69
453.31	120.69
453.53	112.69
453.751	88.69
453.971	114.69
454.192	114.69
454.412	103.69
454.633	88.69
454.853	84.69
455.073	84.69
455.294	89.69
455.514	99.69
455.734	83.69
455.955	81.69
456.175	80.69
456.395	87.69
456.616	79.69
456.836	84.69
457.056	82.69
457.276	87.69
457.497	73.69
457.717	81.69
457.937	92.69
458.157	70.69
458.377	90.69
458.598	102.69
458.818	137.69
459.038	159.69
459.258	105.69
459.478	87.69
459.698	83.69
459.918	87.69
460.138	72.69
460.358	81.69
460.578	87.69
460.798	90.69
461.018	84.69
461.238	79.69
461.458	91.69
461.678	78.69
461.898	85.69
462.118	87.69
462.338	84.69
462.558	78.69
462.777	79.69
462.997	95.69
463.217	77.69
463.437	91.69
463.657	92.69
463.876	72.69
464.096	87.69
464.316	78.69
464.536	93.69
464.755	107.69
464.975	106.69
465.195	146.69
465.414	152.69
465.634	106.69
465.854	81.69
466.073	89.69
466.293	78.69
466.512	75.69
466.732	83.69
466.951	96.69
467.171	83.69
467.391	99.69
467.61	109.69
467.829	88.69
468.049	83.69
468.268	81.69
468.488	76.69
468.707	83.69
468.927	78.69
469.146	69.69
469.365	90.69
469.585	87.69
469.804	94.69
470.023	101.69
470.243	98.69
470.462	90.69
470.681	113.69
470.901	83.69
471.12	93.69
471.339	95.69
471.558	92.69
471.777	88.69
471.997	86.69
472.216	89.69
472.435	92.69
472.654	90.69
472.873	92.69
473.092	86.69
473.311	91.69
473.53	75.69
473.749	85.69
473.968	91.69
474.187	107.69
474.406	99.69
474.625	76.69
474.844	91.69
475.063	87.69
475.282	88.69
475.501	75.69
475.72	93.69
475.939	81.69
476.158	72.69
476.377	87.69
476.596	94.69
476.814	95.69
477.033	86.69
477.252	73.69
477.471	88.69
477.69	83.69
477.908	93.69
478.127	88.69
478.346	88.69
478.564	80.69
478.783	91.69
479.002	104.69
479.22	95.69
479.439	105.69
479.658	122.69
479.876	88.69
480.095	77.69
480.313	84.69
480.532	91.69
480.751	84.69
480.969	109.69
481.188	126.69
481.406	116.69
481.624	86.69
481.843	81.69
482.061	83.69
482.28	83.69
482.498	88.69
482.717	102.69
482.935	83.69
483.153	90.69
483.372	87.69
483.59	99.69
483.808	88.69
484.027	85.69
484.245	73.69
484.463	99.69
484.681	100.69
484.9	105.69
485.118	89.69
485.336	101.69
485.554	87.69
485.772	101.69
485.99	99.69
486.209	94.69
486.427	104.69
486.645	89.69
486.863	114.69
487.081	96.69
487.299	107.69
487.517	97.69
487.735	87.69
487.953	98.69
488.171	92.69
488.389	108.69
488.607	100.69
488.825	108.69
489.043	94.69
489.261	89.69
489.479	75.69
489.696	92.69
489.914	80.69
490.132	92.69
490.35	81.69
490.568	80.69
490.786	92.69
491.003	96.69
491.221	88.69
491.439	75.69
491.657	112.69
491.874	104.69
492.092	97.69
492.31	88.69
492.527	83.69
492.745	82.69
492.963	93.69
493.18	89.69
493.398	100.69
493.615	91.69
493.833	92.69
494.05	94.69
494.268	84.69
494.485	79.69
494.703	101.69
494.92	78.69
495.138	93.69
495.355	97.69
495.573	114.69
495.79	79.69
496.008	92.69
496.225	93.69
496.442	78.69
496.66	83.69
496.877	100.69
497.094	95.69
497.312	87.69
497.529	83.69
497.746	92.69
497.963	95.69
498.181	97.69
498.398	116.69
498.615	111.69
498.832	103.69
499.049	92.69
499.267	91.69
499.484	80.69
499.701	86.69
499.918	84.69
500.135	97.69
500.352	83.69
500.569	77.69
500.786	85.69
501.003	80.69
501.22	90.69
501.437	85.69
501.654	87.69
501.871	116.69
502.088	97.69
502.305	87.69
502.522	80.69
502.739	91.69
502.956	100.69
503.172	85.69
503.389	92.69
503.606	114.69
503.823	98.69
504.04	97.69
504.256	81.69
504.473	80.69
504.69	78.69
504.907	99.69
505.123	93.69
505.34	89.69
505.557	95.69
505.773	96.69
505.99	80.69
506.207	93.69
506.423	83.69
506.64	98.69
506.856	102.69
507.073	95.69
507.289	95.69
507.506	102.69
507.722	100.69
507.939	119.69
508.155	107.69
508.372	91.69
508.588	90.69
508.805	96.69
509.021	92.69
509.238	89.69
509.454	105.69
509.67	106.69
509.887	101.69
510.103	126.69
510.319	197.69
510.536	687.69
510.752	2232.69
510.968	609.69
511.184	152.69
511.401	105.69
511.617	93.69
511.833	101.69
512.049	95.69
512.265	91.69
512.481	73.69
512.698	98.69
512.914	88.69
513.13	78.69
513.346	90.69
513.562	92.69
513.778	102.69
513.994	87.69
514.21	93.69
514.426	108.69
514.642	139.69
514.858	121.69
515.074	163.69
515.29	435.69
515.506	1448.69
515.721	525.69
