Data from Circ_2005_H10_HRD10591_00063.txt Node
Date: Wed Jan 03 10:30:03 EST 2024
User: Yrep
Spectrometer: HR+D1059
Trigger mode: 1
Integration Time (sec): 1.000000E-1
Scans to average: 1
Electric dark correction enabled: true
Nonlinearity correction enabled: false
Boxcar width: 0
XAxis mode: Wavelengths
Number of Pixels in Spectrum: 2048
>>>>>Begin Spectral Data<<<<<
223.165	-10.94
223.4	-10.94
223.635	-10.94
223.869	-24.94
224.104	-21.94
224.338	-4.94
224.573	-20.94
224.808	-18.94
225.042	-8.94
225.277	-0.94
225.511	5.06
225.746	10.06
225.98	9.06
226.215	5.06
226.449	20.06
226.683	8.06
226.918	27.06
227.152	28.06
227.387	38.06
227.621	40.06
227.856	36.06
228.09	44.06
228.324	56.06
228.559	80.06
228.793	68.06
229.027	53.06
229.262	71.06
229.496	84.06
229.73	74.06
229.964	88.06
230.199	74.06
230.433	58.06
230.667	82.06
230.901	87.06
231.136	74.06
231.37	86.06
231.604	91.06
231.838	78.06
232.072	83.06
232.306	87.06
232.541	79.06
232.775	73.06
233.009	91.06
233.243	73.06
233.477	93.06
233.711	81.06
233.945	84.06
234.179	82.06
234.413	72.06
234.647	79.06
234.881	101.06
235.115	82.06
235.349	75.06
235.583	85.06
235.817	76.06
236.051	83.06
236.285	80.06
236.519	84.06
236.753	81.06
236.987	85.06
237.221	85.06
237.455	91.06
237.689	80.06
237.922	83.06
238.156	84.06
238.39	84.06
238.624	78.06
238.858	74.06
239.091	94.06
239.325	80.06
239.559	87.06
239.793	62.06
240.027	88.06
240.26	59.06
240.494	79.06
240.728	83.06
240.961	79.06
241.195	76.06
241.429	77.06
241.662	73.06
241.896	80.06
242.13	81.06
242.363	77.06
242.597	77.06
242.83	74.06
243.064	75.06
243.298	63.06
243.531	72.06
243.765	80.06
243.998	89.06
244.232	94.06
244.465	90.06
244.699	93.06
244.932	90.06
245.166	69.06
245.399	87.06
245.633	82.06
245.866	83.06
246.099	73.06
246.333	70.06
246.566	79.06
246.8	72.06
247.033	87.06
247.266	85.06
247.5	87.06
247.733	96.06
247.966	85.06
248.2	101.06
248.433	81.06
248.666	87.06
248.899	85.06
249.133	103.06
249.366	90.06
249.599	92.06
249.832	99.06
250.066	76.06
250.299	93.06
250.532	88.06
250.765	90.06
250.998	85.06
251.231	81.06
251.465	90.06
251.698	89.06
251.931	91.06
252.164	76.06
252.397	85.06
252.63	96.06
252.863	86.06
253.096	79.06
253.329	77.06
253.562	83.06
253.795	77.06
254.028	79.06
254.261	88.06
254.494	89.06
254.727	98.06
254.96	83.06
255.193	69.06
255.426	91.06
255.659	87.06
255.892	91.06
256.124	81.06
256.357	99.06
256.59	82.06
256.823	89.06
257.056	93.06
257.289	102.06
257.521	86.06
257.754	81.06
257.987	87.06
258.22	89.06
258.452	86.06
258.685	81.06
258.918	88.06
259.151	72.06
259.383	84.06
259.616	95.06
259.849	86.06
260.081	72.06
260.314	93.06
260.547	83.06
260.779	70.06
261.012	103.06
261.244	87.06
261.477	90.06
261.71	97.06
261.942	122.06
262.175	105.06
262.407	86.06
262.64	83.06
262.872	84.06
263.105	93.06
263.337	77.06
263.57	72.06
263.802	101.06
264.035	87.06
264.267	79.06
264.499	88.06
264.732	83.06
264.964	101.06
265.197	81.06
265.429	83.06
265.661	87.06
265.894	92.06
266.126	88.06
266.358	88.06
266.591	98.06
266.823	85.06
267.055	87.06
267.287	91.06
267.52	89.06
267.752	83.06
267.984	86.06
268.216	80.06
268.448	102.06
268.681	89.06
268.913	104.06
269.145	87.06
269.377	85.06
269.609	77.06
269.841	93.06
270.073	61.06
270.306	86.06
270.538	89.06
270.77	82.06
271.002	88.06
271.234	86.06
271.466	90.06
271.698	69.06
271.93	93.06
272.162	87.06
272.394	96.06
272.626	93.06
272.858	87.06
273.09	78.06
273.322	82.06
273.553	83.06
273.785	90.06
274.017	99.06
274.249	86.06
274.481	80.06
274.713	79.06
274.945	86.06
275.176	106.06
275.408	83.06
275.64	89.06
275.872	99.06
276.104	96.06
276.335	84.06
276.567	102.06
276.799	107.06
277.031	118.06
277.262	104.06
277.494	90.06
277.726	96.06
277.957	92.06
278.189	104.06
278.421	67.06
278.652	69.06
278.884	84.06
279.115	79.06
279.347	93.06
279.579	87.06
279.81	97.06
280.042	86.06
280.273	89.06
280.505	101.06
280.736	81.06
280.968	85.06
281.199	88.06
281.431	94.06
281.662	88.06
281.894	97.06
282.125	95.06
282.356	119.06
282.588	144.06
282.819	120.06
283.051	104.06
283.282	116.06
283.513	111.06
283.745	88.06
283.976	98.06
284.207	91.06
284.439	93.06
284.67	102.06
284.901	93.06
285.132	81.06
285.364	86.06
285.595	89.06
285.826	84.06
286.057	89.06
286.288	92.06
286.52	77.06
286.751	88.06
286.982	99.06
287.213	92.06
287.444	91.06
287.675	99.06
287.906	83.06
288.138	97.06
288.369	91.06
288.6	83.06
288.831	93.06
289.062	98.06
289.293	103.06
289.524	87.06
289.755	104.06
289.986	90.06
290.217	88.06
290.448	88.06
290.679	72.06
290.91	80.06
291.141	92.06
291.371	84.06
291.602	86.06
291.833	93.06
292.064	86.06
292.295	93.06
292.526	89.06
292.757	107.06
292.987	95.06
293.218	93.06
293.449	97.06
293.68	93.06
293.91	98.06
294.141	89.06
294.372	96.06
294.603	100.06
294.833	82.06
295.064	94.06
295.295	93.06
295.525	93.06
295.756	111.06
295.987	109.06
296.217	122.06
296.448	118.06
296.679	104.06
296.909	99.06
297.14	98.06
297.37	99.06
297.601	82.06
297.831	77.06
298.062	105.06
298.292	100.06
298.523	98.06
298.753	103.06
298.984	81.06
299.214	91.06
299.445	91.06
299.675	102.06
299.905	100.06
300.136	101.06
300.366	92.06
300.597	94.06
300.827	93.06
301.057	123.06
301.288	100.06
301.518	102.06
301.748	100.06
301.979	95.06
302.209	96.06
302.439	97.06
302.669	88.06
302.9	87.06
303.13	84.06
303.36	91.06
303.59	105.06
303.82	106.06
304.051	105.06
304.281	84.06
304.511	95.06
304.741	98.06
304.971	93.06
305.201	100.06
305.431	86.06
305.661	108.06
305.891	94.06
306.121	108.06
306.352	95.06
306.582	94.06
306.812	110.06
307.042	106.06
307.272	98.06
307.502	99.06
307.731	96.06
307.961	89.06
308.191	88.06
308.421	99.06
308.651	81.06
308.881	105.06
309.111	95.06
309.341	99.06
309.571	103.06
309.8	104.06
310.03	91.06
310.26	105.06
310.49	110.06
310.72	100.06
310.949	112.06
311.179	100.06
311.409	96.06
311.639	96.06
311.868	93.06
312.098	83.06
312.328	97.06
312.557	86.06
312.787	102.06
313.017	102.06
313.246	92.06
313.476	105.06
313.706	101.06
313.935	106.06
314.165	84.06
314.394	92.06
314.624	92.06
314.853	93.06
315.083	100.06
315.312	81.06
315.542	116.06
315.771	96.06
316.001	99.06
316.23	101.06
316.46	79.06
316.689	107.06
316.919	99.06
317.148	102.06
317.377	92.06
317.607	101.06
317.836	93.06
318.065	93.06
318.295	88.06
318.524	84.06
318.753	93.06
318.983	85.06
319.212	101.06
319.441	114.06
319.67	103.06
319.9	112.06
320.129	105.06
320.358	92.06
320.587	90.06
320.816	115.06
321.046	100.06
321.275	99.06
321.504	101.06
321.733	113.06
321.962	96.06
322.191	103.06
322.42	100.06
322.649	107.06
322.878	119.06
323.108	121.06
323.337	129.06
323.566	135.06
323.795	131.06
324.024	201.06
324.253	383.06
324.482	795.06
324.71	1602.06
324.939	2128.06
325.168	804.06
325.397	241.06
325.626	147.06
325.855	112.06
326.084	135.06
326.313	139.06
326.542	145.06
326.77	225.06
326.999	452.06
327.228	869.06
327.457	1669.06
327.686	1336.06
327.914	377.06
328.143	209.06
328.372	174.06
328.6	135.06
328.829	113.06
329.058	117.06
329.287	143.06
329.515	102.06
329.744	114.06
329.972	140.06
330.201	165.06
330.43	173.06
330.658	149.06
330.887	140.06
331.115	127.06
331.344	104.06
331.572	106.06
331.801	108.06
332.03	108.06
332.258	86.06
332.486	88.06
332.715	109.06
332.943	99.06
333.172	96.06
333.4	94.06
333.629	97.06
333.857	99.06
334.085	144.06
334.314	157.06
334.542	225.06
334.771	205.06
334.999	111.06
335.227	100.06
335.455	98.06
335.684	99.06
335.912	99.06
336.14	103.06
336.369	97.06
336.597	108.06
336.825	91.06
337.053	88.06
337.281	96.06
337.51	95.06
337.738	107.06
337.966	93.06
338.194	100.06
338.422	95.06
338.65	98.06
338.878	93.06
339.106	107.06
339.334	93.06
339.562	96.06
339.79	90.06
340.018	88.06
340.246	91.06
340.474	103.06
340.702	93.06
340.93	99.06
341.158	99.06
341.386	101.06
341.614	108.06
341.842	89.06
342.07	101.06
342.298	94.06
342.526	112.06
342.754	94.06
342.981	94.06
343.209	102.06
343.437	97.06
343.665	100.06
343.893	92.06
344.12	89.06
344.348	85.06
344.576	92.06
344.804	81.06
345.031	99.06
345.259	100.06
345.487	112.06
345.714	80.06
345.942	101.06
346.17	95.06
346.397	103.06
346.625	98.06
346.853	98.06
347.08	101.06
347.308	103.06
347.535	106.06
347.763	93.06
347.99	111.06
348.218	96.06
348.445	103.06
348.673	113.06
348.9	107.06
349.128	116.06
349.355	94.06
349.583	97.06
349.81	90.06
350.037	91.06
350.265	98.06
350.492	112.06
350.72	102.06
350.947	106.06
351.174	120.06
351.402	92.06
351.629	103.06
351.856	101.06
352.083	111.06
352.311	113.06
352.538	102.06
352.765	112.06
352.992	117.06
353.22	113.06
353.447	102.06
353.674	104.06
353.901	115.06
354.128	99.06
354.355	96.06
354.583	100.06
354.81	110.06
355.037	105.06
355.264	102.06
355.491	92.06
355.718	99.06
355.945	113.06
356.172	105.06
356.399	102.06
356.626	109.06
356.853	89.06
357.08	100.06
357.307	84.06
357.534	77.06
357.761	89.06
357.988	117.06
358.215	102.06
358.441	103.06
358.668	100.06
358.895	92.06
359.122	91.06
359.349	88.06
359.576	90.06
359.802	101.06
360.029	115.06
360.256	119.06
360.483	101.06
360.709	91.06
360.936	105.06
361.163	96.06
361.39	103.06
361.616	86.06
361.843	83.06
362.07	99.06
362.296	111.06
362.523	103.06
362.749	81.06
362.976	92.06
363.203	101.06
363.429	102.06
363.656	84.06
363.882	87.06
364.109	95.06
364.335	99.06
364.562	99.06
364.788	93.06
365.015	101.06
365.241	89.06
365.468	109.06
365.694	94.06
365.92	89.06
366.147	94.06
366.373	94.06
366.599	80.06
366.826	82.06
367.052	84.06
367.278	85.06
367.505	92.06
367.731	101.06
367.957	87.06
368.184	103.06
368.41	87.06
368.636	105.06
368.862	122.06
369.089	107.06
369.315	88.06
369.541	96.06
369.767	86.06
369.993	93.06
370.219	87.06
370.445	95.06
370.672	85.06
370.898	93.06
371.124	86.06
371.35	92.06
371.576	77.06
371.802	98.06
372.028	96.06
372.254	102.06
372.48	89.06
372.706	95.06
372.932	92.06
373.158	84.06
373.384	92.06
373.61	80.06
373.835	105.06
374.061	97.06
374.287	96.06
374.513	89.06
374.739	99.06
374.965	97.06
375.191	95.06
375.416	76.06
375.642	97.06
375.868	89.06
376.094	91.06
376.319	96.06
376.545	104.06
376.771	94.06
376.997	93.06
377.222	91.06
377.448	107.06
377.674	96.06
377.899	92.06
378.125	98.06
378.35	103.06
378.576	105.06
378.802	97.06
379.027	92.06
379.253	105.06
379.478	86.06
379.704	99.06
379.929	88.06
380.155	97.06
380.38	98.06
380.606	113.06
380.831	104.06
381.057	101.06
381.282	118.06
381.507	91.06
381.733	102.06
381.958	89.06
382.184	111.06
382.409	115.06
382.634	105.06
382.86	113.06
383.085	100.06
383.31	109.06
383.535	101.06
383.761	98.06
383.986	107.06
384.211	99.06
384.436	113.06
384.662	108.06
384.887	105.06
385.112	106.06
385.337	115.06
385.562	102.06
385.787	100.06
386.013	119.06
386.238	115.06
386.463	118.06
386.688	116.06
386.913	98.06
387.138	112.06
387.363	99.06
387.588	94.06
387.813	107.06
388.038	122.06
388.263	123.06
388.488	112.06
388.713	90.06
388.938	85.06
389.163	73.06
389.387	95.06
389.612	97.06
389.837	100.06
390.062	112.06
390.287	106.06
390.512	88.06
390.736	106.06
390.961	96.06
391.186	98.06
391.411	90.06
391.636	101.06
391.86	85.06
392.085	83.06
392.31	87.06
392.534	93.06
392.759	76.06
392.984	83.06
393.208	82.06
393.433	98.06
393.658	85.06
393.882	96.06
394.107	100.06
394.331	81.06
394.556	80.06
394.78	96.06
395.005	90.06
395.229	94.06
395.454	87.06
395.678	93.06
395.903	91.06
396.127	77.06
396.352	89.06
396.576	107.06
396.801	94.06
397.025	74.06
397.249	90.06
397.474	91.06
397.698	97.06
397.922	92.06
398.147	88.06
398.371	96.06
398.595	104.06
398.82	92.06
399.044	89.06
399.268	99.06
399.492	96.06
399.717	90.06
399.941	86.06
400.165	84.06
400.389	88.06
400.613	93.06
400.837	88.06
401.062	81.06
401.286	86.06
401.51	100.06
401.734	99.06
401.958	89.06
402.182	116.06
402.406	141.06
402.63	130.06
402.854	97.06
403.078	77.06
403.302	85.06
403.526	83.06
403.75	90.06
403.974	92.06
404.198	85.06
404.422	80.06
404.645	106.06
404.869	92.06
405.093	96.06
405.317	96.06
405.541	99.06
405.765	113.06
405.988	120.06
406.212	169.06
406.436	222.06
406.66	148.06
406.883	114.06
407.107	94.06
407.331	105.06
407.555	104.06
407.778	94.06
408.002	100.06
408.226	109.06
408.449	87.06
408.673	95.06
408.896	100.06
409.12	92.06
409.344	100.06
409.567	88.06
409.791	85.06
410.014	99.06
410.238	89.06
410.461	89.06
410.685	94.06
410.908	112.06
411.132	107.06
411.355	97.06
411.578	95.06
411.802	89.06
412.025	93.06
412.249	87.06
412.472	87.06
412.695	101.06
412.919	102.06
413.142	110.06
413.365	89.06
413.589	94.06
413.812	98.06
414.035	97.06
414.258	93.06
414.482	88.06
414.705	76.06
414.928	83.06
415.151	82.06
415.374	74.06
415.597	82.06
415.821	87.06
416.044	82.06
416.267	116.06
416.49	94.06
416.713	96.06
416.936	103.06
417.159	101.06
417.382	91.06
417.605	89.06
417.828	105.06
418.051	89.06
418.274	99.06
418.497	86.06
418.72	92.06
418.943	103.06
419.166	88.06
419.389	92.06
419.611	88.06
419.834	92.06
420.057	96.06
420.28	86.06
420.503	89.06
420.726	92.06
420.948	89.06
421.171	88.06
421.394	99.06
421.617	100.06
421.839	105.06
422.062	73.06
422.285	96.06
422.507	96.06
422.73	100.06
422.953	96.06
423.175	86.06
423.398	88.06
423.621	99.06
423.843	98.06
424.066	88.06
424.288	92.06
424.511	102.06
424.733	99.06
424.956	105.06
425.178	98.06
425.401	101.06
425.623	105.06
425.846	89.06
426.068	91.06
426.291	97.06
426.513	101.06
426.735	103.06
426.958	104.06
427.18	120.06
427.402	123.06
427.625	164.06
427.847	147.06
428.069	131.06
428.292	93.06
428.514	88.06
428.736	100.06
428.958	94.06
429.181	99.06
429.403	86.06
429.625	93.06
429.847	105.06
430.069	104.06
430.292	90.06
430.514	88.06
430.736	90.06
430.958	91.06
431.18	81.06
431.402	90.06
431.624	86.06
431.846	100.06
432.068	75.06
432.29	91.06
432.512	94.06
432.734	90.06
432.956	94.06
433.178	96.06
433.4	100.06
433.622	85.06
433.844	100.06
434.066	94.06
434.287	100.06
434.509	97.06
434.731	96.06
434.953	104.06
435.175	79.06
435.397	92.06
435.618	94.06
435.84	108.06
436.062	130.06
436.284	121.06
436.505	106.06
436.727	112.06
436.949	96.06
437.17	80.06
437.392	90.06
437.614	84.06
437.835	99.06
438.057	125.06
438.278	109.06
438.5	103.06
438.721	124.06
438.943	97.06
439.165	99.06
439.386	104.06
439.608	75.06
439.829	104.06
440.05	122.06
440.272	133.06
440.493	97.06
440.715	111.06
440.936	96.06
441.158	80.06
441.379	89.06
441.6	95.06
441.822	96.06
442.043	103.06
442.264	100.06
442.486	90.06
442.707	110.06
442.928	109.06
443.149	132.06
443.371	125.06
443.592	98.06
443.813	108.06
444.034	107.06
444.255	98.06
444.476	84.06
444.698	103.06
444.919	83.06
445.14	135.06
445.361	119.06
445.582	123.06
445.803	140.06
446.024	124.06
446.245	134.06
446.466	111.06
446.687	97.06
446.908	97.06
447.129	89.06
447.35	89.06
447.571	94.06
447.792	99.06
448.013	91.06
448.234	102.06
448.455	86.06
448.675	114.06
448.896	116.06
449.117	112.06
449.338	108.06
449.559	127.06
449.779	127.06
450	89.06
450.221	83.06
450.442	97.06
450.662	97.06
450.883	100.06
451.104	99.06
451.324	98.06
451.545	91.06
451.766	96.06
451.986	88.06
452.207	118.06
452.428	92.06
452.648	102.06
452.869	113.06
453.089	122.06
453.31	110.06
453.53	104.06
453.751	100.06
453.971	100.06
454.192	111.06
454.412	92.06
454.633	97.06
454.853	94.06
455.073	105.06
455.294	92.06
455.514	101.06
455.734	89.06
455.955	91.06
456.175	90.06
456.395	97.06
456.616	95.06
456.836	80.06
457.056	88.06
457.276	86.06
457.497	100.06
457.717	92.06
457.937	81.06
458.157	84.06
458.377	98.06
458.598	95.06
458.818	140.06
459.038	150.06
459.258	116.06
459.478	93.06
459.698	95.06
459.918	93.06
460.138	80.06
460.358	90.06
460.578	92.06
460.798	97.06
461.018	96.06
461.238	100.06
461.458	88.06
461.678	86.06
461.898	98.06
462.118	83.06
462.338	97.06
462.558	91.06
462.777	85.06
462.997	94.06
463.217	86.06
463.437	84.06
463.657	100.06
463.876	101.06
464.096	93.06
464.316	92.06
464.536	73.06
464.755	103.06
464.975	113.06
465.195	169.06
465.414	151.06
465.634	94.06
465.854	99.06
466.073	75.06
466.293	96.06
466.512	92.06
466.732	85.06
466.951	101.06
467.171	100.06
467.391	101.06
467.61	99.06
467.829	105.06
468.049	105.06
468.268	141.06
468.488	85.06
468.707	86.06
468.927	93.06
469.146	78.06
469.365	84.06
469.585	100.06
469.804	104.06
470.023	90.06
470.243	99.06
470.462	98.06
470.681	104.06
470.901	88.06
471.12	93.06
471.339	95.06
471.558	90.06
471.777	99.06
471.997	111.06
472.216	170.06
472.435	253.06
472.654	117.06
472.873	87.06
473.092	96.06
473.311	101.06
473.53	91.06
473.749	93.06
473.968	102.06
474.187	99.06
474.406	107.06
474.625	100.06
474.844	90.06
475.063	96.06
475.282	93.06
475.501	87.06
475.72	100.06
475.939	96.06
476.158	100.06
476.377	88.06
476.596	92.06
476.814	96.06
477.033	91.06
477.252	80.06
477.471	92.06
477.69	82.06
477.908	76.06
478.127	90.06
478.346	96.06
478.564	101.06
478.783	101.06
479.002	107.06
479.22	83.06
479.439	113.06
479.658	111.06
479.876	99.06
480.095	97.06
480.313	99.06
480.532	116.06
480.751	107.06
480.969	175.06
481.188	420.06
481.406	256.06
481.624	113.06
481.843	86.06
482.061	108.06
482.28	97.06
482.498	87.06
482.717	105.06
482.935	87.06
483.153	85.06
483.372	90.06
483.59	90.06
483.808	98.06
484.027	96.06
484.245	88.06
484.463	109.06
484.681	112.06
484.9	99.06
485.118	98.06
485.336	111.06
485.554	82.06
485.772	106.06
485.99	98.06
486.209	105.06
486.427	104.06
486.645	112.06
486.863	104.06
487.081	108.06
487.299	111.06
487.517	100.06
487.735	102.06
487.953	112.06
488.171	92.06
488.389	107.06
488.607	98.06
488.825	99.06
489.043	85.06
489.261	106.06
489.479	106.06
489.696	94.06
489.914	103.06
490.132	99.06
490.35	109.06
490.568	94.06
490.786	92.06
491.003	90.06
491.221	94.06
491.439	90.06
491.657	98.06
491.874	92.06
492.092	103.06
492.31	90.06
492.527	90.06
492.745	89.06
492.963	91.06
493.18	97.06
493.398	92.06
493.615	95.06
493.833	99.06
494.05	95.06
494.268	97.06
494.485	102.06
494.703	80.06
494.92	95.06
495.138	88.06
495.355	89.06
495.573	103.06
495.79	93.06
496.008	112.06
496.225	91.06
496.442	102.06
496.66	93.06
496.877	105.06
497.094	93.06
497.312	91.06
497.529	93.06
497.746	100.06
497.963	94.06
498.181	102.06
498.398	108.06
498.615	98.06
498.832	97.06
499.049	99.06
499.267	97.06
499.484	101.06
499.701	93.06
499.918	93.06
500.135	96.06
500.352	92.06
500.569	90.06
500.786	97.06
501.003	90.06
501.22	87.06
501.437	99.06
501.654	90.06
501.871	108.06
502.088	105.06
502.305	103.06
502.522	97.06
502.739	106.06
502.956	94.06
503.172	102.06
503.389	102.06
503.606	101.06
503.823	88.06
504.04	84.06
504.256	93.06
504.473	107.06
504.69	107.06
504.907	108.06
505.123	91.06
505.34	90.06
505.557	84.06
505.773	114.06
505.99	99.06
506.207	90.06
506.423	93.06
506.64	98.06
506.856	103.06
507.073	90.06
507.289	89.06
507.506	97.06
507.722	124.06
507.939	111.06
508.155	103.06
508.372	97.06
508.588	98.06
508.805	89.06
509.021	96.06
509.238	114.06
509.454	101.06
509.67	89.06
509.887	106.06
510.103	137.06
510.319	206.06
510.536	714.06
510.752	2259.06
510.968	633.06
511.184	147.06
511.401	87.06
511.617	97.06
511.833	94.06
512.049	97.06
512.265	104.06
512.481	86.06
512.698	91.06
512.914	85.06
513.13	89.06
513.346	99.06
513.562	92.06
513.778	101.06
