Data from Circ_2005_H10_HRD10591_00098.txt Node
Date: Wed Jan 03 10:30:10 EST 2024
User: Yrep
Spectrometer: HR+D1059
Trigger mode: 1
Integration Time (sec): 1.000000E-1
Scans to average: 1
Electric dark correction enabled: true
Nonlinearity correction enabled: false
Boxcar width: 0
XAxis mode: Wavelengths
Number of Pixels in Spectrum: 2048
>>>>>Begin Spectral Data<<<<<
223.165	-20.69
223.4	-20.69
223.635	-20.69
223.869	-17.69
224.104	-26.69
224.338	6.31
224.573	-6.69
224.808	-17.69
225.042	-11.69
225.277	19.31
225.511	-12.69
225.746	-0.69
225.98	-0.69
226.215	22.31
226.449	5.31
226.683	25.31
226.918	19.31
227.152	17.31
227.387	56.31
227.621	53.31
227.856	37.31
228.09	32.31
228.324	51.31
228.559	48.31
228.793	65.31
229.027	73.31
229.262	64.31
229.496	54.31
229.73	73.31
229.964	70.31
230.199	87.31
230.433	85.31
230.667	81.31
230.901	73.31
231.136	93.31
231.37	72.31
231.604	83.31
231.838	96.31
232.072	89.31
232.306	89.31
232.541	78.31
232.775	78.31
233.009	83.31
233.243	78.31
233.477	72.31
233.711	91.31
233.945	81.31
234.179	80.31
234.413	67.31
234.647	67.31
234.881	77.31
235.115	77.31
235.349	68.31
235.583	71.31
235.817	87.31
236.051	81.31
236.285	79.31
236.519	63.31
236.753	79.31
236.987	82.31
237.221	76.31
237.455	89.31
237.689	74.31
237.922	80.31
238.156	76.31
238.39	79.31
238.624	68.31
238.858	79.31
239.091	82.31
239.325	80.31
239.559	90.31
239.793	85.31
240.027	87.31
240.26	87.31
240.494	78.31
240.728	76.31
240.961	88.31
241.195	69.31
241.429	73.31
241.662	73.31
241.896	79.31
242.13	72.31
242.363	84.31
242.597	86.31
242.83	88.31
243.064	79.31
243.298	77.31
243.531	78.31
243.765	63.31
243.998	74.31
244.232	87.31
244.465	88.31
244.699	87.31
244.932	84.31
245.166	93.31
245.399	79.31
245.633	83.31
245.866	74.31
246.099	77.31
246.333	89.31
246.566	87.31
246.8	75.31
247.033	88.31
247.266	93.31
247.5	86.31
247.733	77.31
247.966	89.31
248.2	66.31
248.433	94.31
248.666	80.31
248.899	71.31
249.133	90.31
249.366	83.31
249.599	106.31
249.832	92.31
250.066	78.31
250.299	74.31
250.532	74.31
250.765	75.31
250.998	95.31
251.231	81.31
251.465	78.31
251.698	74.31
251.931	80.31
252.164	77.31
252.397	84.31
252.63	76.31
252.863	78.31
253.096	72.31
253.329	87.31
253.562	72.31
253.795	94.31
254.028	80.31
254.261	76.31
254.494	80.31
254.727	79.31
254.96	67.31
255.193	81.31
255.426	84.31
255.659	81.31
255.892	66.31
256.124	84.31
256.357	84.31
256.59	74.31
256.823	92.31
257.056	99.31
257.289	90.31
257.521	69.31
257.754	75.31
257.987	91.31
258.22	77.31
258.452	79.31
258.685	90.31
258.918	86.31
259.151	87.31
259.383	83.31
259.616	85.31
259.849	93.31
260.081	81.31
260.314	82.31
260.547	81.31
260.779	98.31
261.012	94.31
261.244	80.31
261.477	86.31
261.71	83.31
261.942	102.31
262.175	122.31
262.407	93.31
262.64	80.31
262.872	85.31
263.105	93.31
263.337	80.31
263.57	70.31
263.802	76.31
264.035	85.31
264.267	88.31
264.499	78.31
264.732	82.31
264.964	82.31
265.197	84.31
265.429	77.31
265.661	90.31
265.894	80.31
266.126	90.31
266.358	111.31
266.591	95.31
266.823	83.31
267.055	75.31
267.287	98.31
267.52	88.31
267.752	87.31
267.984	88.31
268.216	79.31
268.448	91.31
268.681	89.31
268.913	84.31
269.145	81.31
269.377	88.31
269.609	94.31
269.841	89.31
270.073	86.31
270.306	88.31
270.538	86.31
270.77	81.31
271.002	100.31
271.234	78.31
271.466	83.31
271.698	81.31
271.93	106.31
272.162	83.31
272.394	101.31
272.626	93.31
272.858	77.31
273.09	94.31
273.322	94.31
273.553	96.31
273.785	82.31
274.017	85.31
274.249	88.31
274.481	84.31
274.713	94.31
274.945	84.31
275.176	82.31
275.408	101.31
275.64	85.31
275.872	89.31
276.104	92.31
276.335	85.31
276.567	94.31
276.799	112.31
277.031	91.31
277.262	88.31
277.494	86.31
277.726	87.31
277.957	96.31
278.189	73.31
278.421	76.31
278.652	93.31
278.884	97.31
279.115	82.31
279.347	95.31
279.579	81.31
279.81	66.31
280.042	92.31
280.273	109.31
280.505	97.31
280.736	82.31
280.968	84.31
281.199	82.31
281.431	88.31
281.662	98.31
281.894	99.31
282.125	94.31
282.356	119.31
282.588	118.31
282.819	113.31
283.051	98.31
283.282	83.31
283.513	78.31
283.745	75.31
283.976	85.31
284.207	95.31
284.439	94.31
284.67	99.31
284.901	84.31
285.132	72.31
285.364	108.31
285.595	90.31
285.826	87.31
286.057	77.31
286.288	93.31
286.52	86.31
286.751	91.31
286.982	84.31
287.213	89.31
287.444	91.31
287.675	76.31
287.906	94.31
288.138	83.31
288.369	94.31
288.6	95.31
288.831	106.31
289.062	77.31
289.293	86.31
289.524	80.31
289.755	81.31
289.986	94.31
290.217	95.31
290.448	91.31
290.679	88.31
290.91	92.31
291.141	91.31
291.371	93.31
291.602	90.31
291.833	81.31
292.064	102.31
292.295	89.31
292.526	87.31
292.757	80.31
292.987	101.31
293.218	87.31
293.449	88.31
293.68	87.31
293.91	89.31
294.141	82.31
294.372	100.31
294.603	79.31
294.833	81.31
295.064	97.31
295.295	87.31
295.525	91.31
295.756	103.31
295.987	113.31
296.217	117.31
296.448	118.31
296.679	91.31
296.909	93.31
297.14	89.31
297.37	86.31
297.601	74.31
297.831	98.31
298.062	82.31
298.292	88.31
298.523	98.31
298.753	87.31
298.984	81.31
299.214	85.31
299.445	104.31
299.675	100.31
299.905	102.31
300.136	98.31
300.366	97.31
300.597	102.31
300.827	86.31
301.057	97.31
301.288	96.31
301.518	86.31
301.748	93.31
301.979	104.31
302.209	89.31
302.439	89.31
302.669	86.31
302.9	87.31
303.13	94.31
303.36	90.31
303.59	106.31
303.82	97.31
304.051	104.31
304.281	87.31
304.511	96.31
304.741	89.31
304.971	94.31
305.201	88.31
305.431	96.31
305.661	107.31
305.891	105.31
306.121	98.31
306.352	90.31
306.582	106.31
306.812	98.31
307.042	105.31
307.272	90.31
307.502	95.31
307.731	100.31
307.961	90.31
308.191	92.31
308.421	95.31
308.651	95.31
308.881	89.31
309.111	101.31
309.341	107.31
309.571	91.31
309.8	87.31
310.03	99.31
310.26	97.31
310.49	101.31
310.72	96.31
310.949	102.31
311.179	100.31
311.409	91.31
311.639	85.31
311.868	79.31
312.098	84.31
312.328	89.31
312.557	110.31
312.787	113.31
313.017	101.31
313.246	85.31
313.476	89.31
313.706	91.31
313.935	114.31
314.165	93.31
314.394	103.31
314.624	101.31
314.853	102.31
315.083	113.31
315.312	102.31
315.542	94.31
315.771	89.31
316.001	82.31
316.23	74.31
316.46	103.31
316.689	89.31
316.919	97.31
317.148	99.31
317.377	102.31
317.607	96.31
317.836	97.31
318.065	85.31
318.295	90.31
318.524	96.31
318.753	90.31
318.983	90.31
319.212	102.31
319.441	107.31
319.67	101.31
319.9	104.31
320.129	81.31
320.358	90.31
320.587	103.31
320.816	95.31
321.046	102.31
321.275	97.31
321.504	91.31
321.733	97.31
321.962	101.31
322.191	98.31
322.42	105.31
322.649	111.31
322.878	99.31
323.108	106.31
323.337	123.31
323.566	114.31
323.795	136.31
324.024	193.31
324.253	344.31
324.482	705.31
324.71	1469.31
324.939	1935.31
325.168	709.31
325.397	215.31
325.626	145.31
325.855	130.31
326.084	127.31
326.313	104.31
326.542	139.31
326.77	219.31
326.999	417.31
327.228	848.31
327.457	1520.31
327.686	1232.31
327.914	333.31
328.143	200.31
328.372	175.31
328.6	120.31
328.829	127.31
329.058	113.31
329.287	100.31
329.515	117.31
329.744	125.31
329.972	155.31
330.201	203.31
330.43	247.31
330.658	171.31
330.887	154.31
331.115	129.31
331.344	110.31
331.572	115.31
331.801	101.31
332.03	99.31
332.258	95.31
332.486	87.31
332.715	89.31
332.943	105.31
333.172	88.31
333.4	98.31
333.629	111.31
333.857	121.31
334.085	149.31
334.314	209.31
334.542	298.31
334.771	281.31
334.999	141.31
335.227	110.31
335.455	97.31
335.684	97.31
335.912	97.31
336.14	95.31
336.369	104.31
336.597	90.31
336.825	93.31
337.053	86.31
337.281	90.31
337.51	81.31
337.738	85.31
337.966	105.31
338.194	106.31
338.422	89.31
338.65	90.31
338.878	90.31
339.106	102.31
339.334	96.31
339.562	85.31
339.79	85.31
340.018	79.31
340.246	105.31
340.474	90.31
340.702	84.31
340.93	87.31
341.158	86.31
341.386	91.31
341.614	99.31
341.842	79.31
342.07	83.31
342.298	91.31
342.526	82.31
342.754	85.31
342.981	85.31
343.209	88.31
343.437	106.31
343.665	89.31
343.893	83.31
344.12	98.31
344.348	96.31
344.576	98.31
344.804	96.31
345.031	104.31
345.259	88.31
345.487	102.31
345.714	80.31
345.942	100.31
346.17	97.31
346.397	85.31
346.625	95.31
346.853	87.31
347.08	88.31
347.308	105.31
347.535	87.31
347.763	107.31
347.99	99.31
348.218	100.31
348.445	95.31
348.673	94.31
348.9	114.31
349.128	99.31
349.355	100.31
349.583	90.31
349.81	89.31
350.037	99.31
350.265	88.31
350.492	86.31
350.72	100.31
350.947	97.31
351.174	116.31
351.402	106.31
351.629	104.31
351.856	110.31
352.083	101.31
352.311	102.31
352.538	116.31
352.765	98.31
352.992	112.31
353.22	106.31
353.447	114.31
353.674	97.31
353.901	111.31
354.128	103.31
354.355	97.31
354.583	114.31
354.81	102.31
355.037	78.31
355.264	85.31
355.491	90.31
355.718	103.31
355.945	114.31
356.172	106.31
356.399	101.31
356.626	100.31
356.853	109.31
357.08	81.31
357.307	97.31
357.534	79.31
357.761	83.31
357.988	95.31
358.215	105.31
358.441	98.31
358.668	88.31
358.895	102.31
359.122	100.31
359.349	82.31
359.576	81.31
359.802	89.31
360.029	111.31
360.256	102.31
360.483	100.31
360.709	86.31
360.936	93.31
361.163	89.31
361.39	87.31
361.616	101.31
361.843	91.31
362.07	89.31
362.296	101.31
362.523	101.31
362.749	79.31
362.976	99.31
363.203	102.31
363.429	91.31
363.656	94.31
363.882	81.31
364.109	99.31
364.335	79.31
364.562	95.31
364.788	95.31
365.015	88.31
365.241	94.31
365.468	99.31
365.694	111.31
365.92	95.31
366.147	95.31
366.373	92.31
366.599	92.31
366.826	89.31
367.052	86.31
367.278	97.31
367.505	88.31
367.731	102.31
367.957	100.31
368.184	88.31
368.41	107.31
368.636	112.31
368.862	111.31
369.089	109.31
369.315	87.31
369.541	81.31
369.767	98.31
369.993	91.31
370.219	98.31
370.445	72.31
370.672	85.31
370.898	94.31
371.124	79.31
371.35	94.31
371.576	89.31
371.802	95.31
372.028	94.31
372.254	93.31
372.48	69.31
372.706	88.31
372.932	101.31
373.158	87.31
373.384	99.31
373.61	99.31
373.835	84.31
374.061	101.31
374.287	97.31
374.513	86.31
374.739	88.31
374.965	77.31
375.191	88.31
375.416	99.31
375.642	109.31
375.868	98.31
376.094	100.31
376.319	98.31
376.545	100.31
376.771	94.31
376.997	103.31
377.222	90.31
377.448	93.31
377.674	98.31
377.899	74.31
378.125	85.31
378.35	77.31
378.576	83.31
378.802	97.31
379.027	88.31
379.253	92.31
379.478	92.31
379.704	110.31
379.929	90.31
380.155	93.31
380.38	110.31
380.606	97.31
380.831	87.31
381.057	103.31
381.282	90.31
381.507	89.31
381.733	100.31
381.958	107.31
382.184	97.31
382.409	102.31
382.634	104.31
382.86	104.31
383.085	101.31
383.31	91.31
383.535	97.31
383.761	96.31
383.986	84.31
384.211	96.31
384.436	85.31
384.662	104.31
384.887	94.31
385.112	91.31
385.337	106.31
385.562	95.31
385.787	102.31
386.013	93.31
386.238	103.31
386.463	92.31
386.688	99.31
386.913	103.31
387.138	108.31
387.363	96.31
387.588	105.31
387.813	98.31
388.038	97.31
388.263	114.31
388.488	110.31
388.713	79.31
388.938	83.31
389.163	94.31
389.387	102.31
389.612	96.31
389.837	102.31
390.062	96.31
390.287	101.31
390.512	99.31
390.736	95.31
390.961	88.31
391.186	89.31
391.411	90.31
391.636	103.31
391.86	95.31
392.085	89.31
392.31	80.31
392.534	101.31
392.759	90.31
392.984	95.31
393.208	89.31
393.433	91.31
393.658	85.31
393.882	109.31
394.107	90.31
394.331	90.31
394.556	90.31
394.78	81.31
395.005	91.31
395.229	87.31
395.454	94.31
395.678	98.31
395.903	96.31
396.127	86.31
396.352	89.31
396.576	104.31
396.801	81.31
397.025	87.31
397.249	81.31
397.474	98.31
397.698	89.31
397.922	81.31
398.147	91.31
398.371	89.31
398.595	92.31
398.82	87.31
399.044	77.31
399.268	84.31
399.492	101.31
399.717	81.31
399.941	84.31
400.165	85.31
400.389	86.31
400.613	82.31
400.837	86.31
401.062	104.31
401.286	73.31
401.51	85.31
401.734	91.31
401.958	81.31
402.182	128.31
402.406	129.31
402.63	100.31
402.854	92.31
403.078	89.31
403.302	84.31
403.526	100.31
403.75	85.31
403.974	90.31
404.198	81.31
404.422	91.31
404.645	93.31
404.869	80.31
405.093	94.31
405.317	96.31
405.541	112.31
405.765	109.31
405.988	120.31
406.212	129.31
406.436	199.31
406.66	128.31
406.883	97.31
407.107	95.31
407.331	107.31
407.555	87.31
407.778	98.31
408.002	96.31
408.226	77.31
408.449	103.31
408.673	89.31
408.896	83.31
409.12	99.31
409.344	99.31
409.567	100.31
409.791	88.31
410.014	77.31
410.238	104.31
410.461	93.31
410.685	99.31
410.908	94.31
411.132	114.31
411.355	100.31
411.578	80.31
411.802	92.31
412.025	83.31
412.249	97.31
412.472	95.31
412.695	97.31
412.919	84.31
413.142	81.31
413.365	84.31
413.589	85.31
413.812	86.31
414.035	87.31
414.258	94.31
414.482	106.31
414.705	85.31
414.928	86.31
415.151	96.31
415.374	97.31
415.597	95.31
415.821	82.31
416.044	91.31
416.267	90.31
416.49	93.31
416.713	84.31
416.936	83.31
417.159	58.31
417.382	89.31
417.605	78.31
417.828	92.31
418.051	97.31
418.274	86.31
418.497	77.31
418.72	81.31
418.943	93.31
419.166	85.31
419.389	81.31
419.611	85.31
419.834	70.31
420.057	96.31
420.28	96.31
420.503	81.31
420.726	80.31
420.948	82.31
421.171	87.31
421.394	90.31
421.617	73.31
421.839	77.31
422.062	97.31
422.285	81.31
422.507	77.31
422.73	100.31
422.953	94.31
423.175	87.31
423.398	82.31
423.621	95.31
423.843	100.31
424.066	90.31
424.288	92.31
424.511	101.31
424.733	95.31
424.956	105.31
425.178	95.31
425.401	100.31
425.623	101.31
425.846	85.31
426.068	97.31
426.291	100.31
426.513	94.31
426.735	94.31
426.958	91.31
427.18	104.31
427.402	142.31
427.625	149.31
427.847	132.31
428.069	132.31
428.292	101.31
428.514	91.31
428.736	81.31
428.958	91.31
429.181	98.31
429.403	90.31
429.625	85.31
429.847	92.31
430.069	106.31
430.292	90.31
430.514	99.31
430.736	87.31
430.958	86.31
431.18	93.31
431.402	89.31
431.624	88.31
431.846	84.31
432.068	91.31
432.29	85.31
432.512	87.31
432.734	98.31
432.956	101.31
433.178	98.31
433.4	102.31
433.622	105.31
433.844	101.31
434.066	103.31
434.287	94.31
434.509	91.31
434.731	94.31
434.953	99.31
435.175	74.31
435.397	86.31
435.618	97.31
435.84	95.31
436.062	129.31
436.284	102.31
436.505	93.31
436.727	103.31
436.949	98.31
437.17	97.31
437.392	96.31
437.614	80.31
437.835	104.31
438.057	115.31
438.278	105.31
438.5	109.31
438.721	115.31
438.943	115.31
439.165	94.31
439.386	83.31
439.608	94.31
439.829	100.31
440.05	114.31
440.272	135.31
440.493	85.31
440.715	87.31
440.936	88.31
441.158	88.31
441.379	85.31
441.6	91.31
441.822	87.31
442.043	95.31
442.264	101.31
442.486	85.31
442.707	77.31
442.928	98.31
443.149	135.31
443.371	125.31
443.592	93.31
443.813	108.31
444.034	105.31
444.255	95.31
444.476	96.31
444.698	84.31
444.919	82.31
445.14	138.31
445.361	133.31
445.582	105.31
445.803	141.31
446.024	119.31
446.245	129.31
446.466	105.31
446.687	97.31
446.908	85.31
447.129	83.31
447.35	103.31
447.571	78.31
447.792	89.31
448.013	110.31
448.234	106.31
448.455	97.31
448.675	98.31
448.896	113.31
449.117	107.31
449.338	111.31
449.559	120.31
449.779	121.31
450	97.31
450.221	101.31
450.442	92.31
450.662	85.31
450.883	88.31
451.104	100.31
451.324	98.31
451.545	106.31
451.766	85.31
451.986	98.31
452.207	95.31
452.428	90.31
452.648	104.31
452.869	103.31
453.089	121.31
453.31	101.31
453.53	82.31
453.751	95.31
453.971	97.31
454.192	96.31
454.412	93.31
454.633	100.31
454.853	97.31
455.073	92.31
455.294	89.31
455.514	94.31
455.734	74.31
455.955	103.31
456.175	98.31
456.395	79.31
456.616	98.31
456.836	85.31
457.056	87.31
457.276	83.31
457.497	83.31
457.717	80.31
457.937	81.31
458.157	92.31
458.377	102.31
458.598	114.31
458.818	149.31
459.038	138.31
459.258	103.31
459.478	95.31
459.698	98.31
459.918	90.31
460.138	91.31
460.358	99.31
460.578	86.31
460.798	95.31
461.018	96.31
461.238	89.31
461.458	96.31
461.678	106.31
461.898	85.31
462.118	91.31
462.338	80.31
462.558	85.31
462.777	89.31
462.997	83.31
463.217	78.31
463.437	75.31
463.657	85.31
463.876	94.31
464.096	86.31
464.316	84.31
464.536	94.31
464.755	96.31
464.975	111.31
465.195	137.31
465.414	132.31
465.634	78.31
465.854	85.31
466.073	99.31
466.293	92.31
466.512	87.31
466.732	85.31
466.951	92.31
467.171	97.31
467.391	97.31
467.61	119.31
467.829	97.31
468.049	158.31
468.268	193.31
468.488	109.31
468.707	90.31
468.927	86.31
469.146	87.31
469.365	95.31
469.585	96.31
469.804	105.31
470.023	79.31
470.243	96.31
470.462	88.31
470.681	99.31
470.901	95.31
471.12	83.31
471.339	87.31
471.558	91.31
471.777	96.31
471.997	110.31
472.216	225.31
472.435	378.31
472.654	156.31
472.873	108.31
473.092	72.31
473.311	95.31
473.53	101.31
473.749	87.31
473.968	88.31
474.187	102.31
474.406	104.31
474.625	98.31
474.844	87.31
475.063	89.31
475.282	81.31
475.501	103.31
475.72	95.31
475.939	89.31
476.158	84.31
476.377	87.31
476.596	98.31
476.814	85.31
477.033	87.31
477.252	101.31
477.471	80.31
477.69	88.31
477.908	97.31
478.127	95.31
478.346	89.31
478.564	91.31
478.783	99.31
479.002	104.31
479.22	90.31
479.439	89.31
479.658	100.31
479.876	98.31
480.095	98.31
480.313	103.31
480.532	110.31
480.751	113.31
480.969	226.31
481.188	608.31
481.406	405.31
481.624	119.31
481.843	93.31
482.061	88.31
482.28	84.31
482.498	85.31
482.717	82.31
482.935	81.31
483.153	91.31
483.372	110.31
483.59	95.31
483.808	95.31
484.027	94.31
484.245	99.31
484.463	90.31
484.681	93.31
484.9	93.31
485.118	102.31
485.336	105.31
485.554	95.31
485.772	98.31
485.99	112.31
486.209	100.31
486.427	89.31
486.645	101.31
486.863	112.31
487.081	103.31
487.299	87.31
487.517	98.31
487.735	95.31
487.953	102.31
488.171	99.31
488.389	103.31
488.607	96.31
488.825	91.31
489.043	100.31
489.261	87.31
489.479	105.31
489.696	87.31
489.914	88.31
490.132	100.31
490.35	83.31
490.568	106.31
490.786	117.31
491.003	111.31
491.221	99.31
491.439	99.31
491.657	113.31
491.874	90.31
492.092	102.31
492.31	102.31
492.527	94.31
492.745	86.31
492.963	82.31
493.18	100.31
493.398	84.31
493.615	86.31
493.833	97.31
494.05	89.31
494.268	109.31
494.485	89.31
494.703	98.31
494.92	111.31
495.138	81.31
495.355	78.31
495.573	87.31
495.79	84.31
496.008	80.31
496.225	80.31
496.442	95.31
496.66	86.31
496.877	104.31
497.094	96.31
497.312	97.31
497.529	102.31
497.746	91.31
497.963	94.31
498.181	103.31
498.398	94.31
498.615	105.31
498.832	111.31
499.049	92.31
499.267	81.31
499.484	94.31
499.701	84.31
499.918	80.31
500.135	95.31
500.352	107.31
500.569	73.31
500.786	82.31
501.003	95.31
501.22	99.31
501.437	93.31
501.654	87.31
501.871	104.31
502.088	89.31
502.305	89.31
502.522	95.31
502.739	83.31
502.956	83.31
503.172	91.31
503.389	86.31
503.606	100.31
503.823	110.31
504.04	82.31
504.256	78.31
504.473	78.31
504.69	97.31
504.907	96.31
505.123	84.31
505.34	90.31
505.557	96.31
505.773	77.31
505.99	97.31
506.207	89.31
506.423	98.31
506.64	90.31
506.856	89.31
507.073	85.31
507.289	87.31
507.506	104.31
507.722	109.31
507.939	104.31
508.155	106.31
508.372	83.31
508.588	94.31
508.805	94.31
509.021	95.31
509.238	94.31
509.454	106.31
509.67	97.31
509.887	107.31
510.103	123.31
510.319	202.31
510.536	632.31
510.752	1971.31
510.968	568.31
511.184	144.31
511.401	114.31
511.617	105.31
511.833	94.31
512.049	85.31
512.265	91.31
512.481	87.31
512.698	83.31
512.914	99.31
513.13	105.31
513.346	95.31
513.562	95.31
513.778	106.31
513.994	97.31
514.21	101.31
514.426	110.31
514.642	138.31
514.858	115.31
515.074	138.31
