Data from Circ_2005_H10_HRD10591_00009.txt Node
Date: Wed Jan 03 10:29:52 EST 2024
User: Yrep
Spectrometer: HR+D1059
Trigger mode: 1
Integration Time (sec): 1.000000E-1
Scans to average: 1
Electric dark correction enabled: true
Nonlinearity correction enabled: false
Boxcar width: 0
XAxis mode: Wavelengths
Number of Pixels in Spectrum: 2048
>>>>>Begin Spectral Data<<<<<
223.165	-16.06
223.4	-16.06
223.635	-16.06
223.869	-20.06
224.104	-22.06
224.338	-8.06
224.573	-21.06
224.808	-11.06
225.042	-10.06
225.277	-6.06
225.511	-2.06
225.746	5.94
225.98	8.94
226.215	19.94
226.449	16.94
226.683	15.94
226.918	26.94
227.152	21.94
227.387	34.94
227.621	47.94
227.856	45.94
228.09	54.94
228.324	57.94
228.559	53.94
228.793	68.94
229.027	71.94
229.262	66.94
229.496	56.94
229.73	80.94
229.964	84.94
230.199	78.94
230.433	95.94
230.667	80.94
230.901	93.94
231.136	85.94
231.37	66.94
231.604	72.94
231.838	84.94
232.072	77.94
232.306	80.94
232.541	75.94
232.775	79.94
233.009	82.94
233.243	83.94
233.477	64.94
233.711	78.94
233.945	89.94
234.179	94.94
234.413	77.94
234.647	78.94
234.881	84.94
235.115	81.94
235.349	73.94
235.583	74.94
235.817	85.94
236.051	88.94
236.285	77.94
236.519	72.94
236.753	83.94
236.987	94.94
237.221	89.94
237.455	90.94
237.689	85.94
237.922	74.94
238.156	81.94
238.39	79.94
238.624	92.94
238.858	81.94
239.091	79.94
239.325	84.94
239.559	80.94
239.793	76.94
240.027	69.94
240.26	99.94
240.494	79.94
240.728	77.94
240.961	77.94
241.195	93.94
241.429	69.94
241.662	81.94
241.896	65.94
242.13	86.94
242.363	79.94
242.597	72.94
242.83	86.94
243.064	72.94
243.298	67.94
243.531	83.94
243.765	85.94
243.998	88.94
244.232	84.94
244.465	85.94
244.699	82.94
244.932	86.94
245.166	82.94
245.399	61.94
245.633	72.94
245.866	79.94
246.099	77.94
246.333	66.94
246.566	86.94
246.8	74.94
247.033	74.94
247.266	83.94
247.5	77.94
247.733	73.94
247.966	82.94
248.2	85.94
248.433	82.94
248.666	84.94
248.899	84.94
249.133	84.94
249.366	94.94
249.599	115.94
249.832	87.94
250.066	78.94
250.299	80.94
250.532	73.94
250.765	75.94
250.998	85.94
251.231	81.94
251.465	77.94
251.698	73.94
251.931	71.94
252.164	65.94
252.397	81.94
252.63	98.94
252.863	82.94
253.096	80.94
253.329	85.94
253.562	82.94
253.795	87.94
254.028	81.94
254.261	72.94
254.494	78.94
254.727	88.94
254.96	83.94
255.193	91.94
255.426	77.94
255.659	90.94
255.892	95.94
256.124	83.94
256.357	89.94
256.59	75.94
256.823	78.94
257.056	95.94
257.289	80.94
257.521	73.94
257.754	80.94
257.987	87.94
258.22	85.94
258.452	84.94
258.685	81.94
258.918	80.94
259.151	89.94
259.383	91.94
259.616	82.94
259.849	86.94
260.081	76.94
260.314	79.94
260.547	76.94
260.779	77.94
261.012	82.94
261.244	85.94
261.477	95.94
261.71	90.94
261.942	108.94
262.175	106.94
262.407	89.94
262.64	92.94
262.872	80.94
263.105	81.94
263.337	96.94
263.57	81.94
263.802	72.94
264.035	81.94
264.267	88.94
264.499	76.94
264.732	73.94
264.964	106.94
265.197	68.94
265.429	99.94
265.661	99.94
265.894	81.94
266.126	82.94
266.358	90.94
266.591	85.94
266.823	86.94
267.055	74.94
267.287	76.94
267.52	82.94
267.752	70.94
267.984	82.94
268.216	92.94
268.448	88.94
268.681	81.94
268.913	94.94
269.145	82.94
269.377	86.94
269.609	90.94
269.841	89.94
270.073	98.94
270.306	81.94
270.538	81.94
270.77	79.94
271.002	90.94
271.234	102.94
271.466	80.94
271.698	86.94
271.93	77.94
272.162	77.94
272.394	75.94
272.626	78.94
272.858	89.94
273.09	89.94
273.322	79.94
273.553	101.94
273.785	84.94
274.017	92.94
274.249	100.94
274.481	97.94
274.713	84.94
274.945	85.94
275.176	87.94
275.408	97.94
275.64	83.94
275.872	100.94
276.104	77.94
276.335	95.94
276.567	99.94
276.799	125.94
277.031	103.94
277.262	105.94
277.494	82.94
277.726	84.94
277.957	88.94
278.189	89.94
278.421	86.94
278.652	99.94
278.884	79.94
279.115	100.94
279.347	94.94
279.579	104.94
279.81	78.94
280.042	83.94
280.273	78.94
280.505	80.94
280.736	91.94
280.968	89.94
281.199	89.94
281.431	94.94
281.662	76.94
281.894	79.94
282.125	101.94
282.356	116.94
282.588	129.94
282.819	128.94
283.051	90.94
283.282	89.94
283.513	92.94
283.745	90.94
283.976	88.94
284.207	94.94
284.439	77.94
284.67	87.94
284.901	103.94
285.132	101.94
285.364	82.94
285.595	90.94
285.826	90.94
286.057	96.94
286.288	99.94
286.52	99.94
286.751	90.94
286.982	84.94
287.213	90.94
287.444	90.94
287.675	90.94
287.906	89.94
288.138	86.94
288.369	97.94
288.6	95.94
288.831	87.94
289.062	89.94
289.293	91.94
289.524	88.94
289.755	86.94
289.986	88.94
290.217	83.94
290.448	93.94
290.679	89.94
290.91	89.94
291.141	95.94
291.371	87.94
291.602	86.94
291.833	75.94
292.064	93.94
292.295	89.94
292.526	102.94
292.757	90.94
292.987	89.94
293.218	85.94
293.449	83.94
293.68	97.94
293.91	89.94
294.141	94.94
294.372	94.94
294.603	86.94
294.833	107.94
295.064	95.94
295.295	92.94
295.525	84.94
295.756	110.94
295.987	132.94
296.217	145.94
296.448	129.94
296.679	109.94
296.909	88.94
297.14	102.94
297.37	85.94
297.601	95.94
297.831	96.94
298.062	96.94
298.292	80.94
298.523	81.94
298.753	106.94
298.984	92.94
299.214	91.94
299.445	84.94
299.675	97.94
299.905	99.94
300.136	86.94
300.366	82.94
300.597	102.94
300.827	99.94
301.057	112.94
301.288	102.94
301.518	95.94
301.748	77.94
301.979	89.94
302.209	94.94
302.439	91.94
302.669	105.94
302.9	79.94
303.13	81.94
303.36	100.94
303.59	111.94
303.82	111.94
304.051	87.94
304.281	106.94
304.511	90.94
304.741	91.94
304.971	87.94
305.201	89.94
305.431	83.94
305.661	89.94
305.891	86.94
306.121	100.94
306.352	104.94
306.582	98.94
306.812	93.94
307.042	97.94
307.272	91.94
307.502	94.94
307.731	93.94
307.961	90.94
308.191	100.94
308.421	95.94
308.651	95.94
308.881	97.94
309.111	88.94
309.341	91.94
309.571	97.94
309.8	111.94
310.03	90.94
310.26	97.94
310.49	91.94
310.72	80.94
310.949	109.94
311.179	95.94
311.409	106.94
311.639	88.94
311.868	103.94
312.098	91.94
312.328	118.94
312.557	105.94
312.787	106.94
313.017	94.94
313.246	93.94
313.476	92.94
313.706	90.94
313.935	84.94
314.165	109.94
314.394	101.94
314.624	81.94
314.853	91.94
315.083	103.94
315.312	103.94
315.542	99.94
315.771	102.94
316.001	86.94
316.23	91.94
316.46	95.94
316.689	82.94
316.919	96.94
317.148	95.94
317.377	97.94
317.607	100.94
317.836	89.94
318.065	90.94
318.295	90.94
318.524	87.94
318.753	97.94
318.983	103.94
319.212	93.94
319.441	98.94
319.67	104.94
319.9	82.94
320.129	105.94
320.358	98.94
320.587	84.94
320.816	100.94
321.046	98.94
321.275	99.94
321.504	106.94
321.733	103.94
321.962	99.94
322.191	105.94
322.42	105.94
322.649	121.94
322.878	116.94
323.108	126.94
323.337	129.94
323.566	142.94
323.795	147.94
324.024	216.94
324.253	422.94
324.482	869.94
324.71	1850.94
324.939	2498.94
325.168	895.94
325.397	282.94
325.626	153.94
325.855	132.94
326.084	128.94
326.313	130.94
326.542	160.94
326.77	244.94
326.999	492.94
327.228	1055.94
327.457	1951.94
327.686	1504.94
327.914	400.94
328.143	203.94
328.372	164.94
328.6	121.94
328.829	140.94
329.058	136.94
329.287	143.94
329.515	107.94
329.744	92.94
329.972	99.94
330.201	120.94
330.43	117.94
330.658	124.94
330.887	149.94
331.115	123.94
331.344	104.94
331.572	90.94
331.801	88.94
332.03	96.94
332.258	85.94
332.486	109.94
332.715	82.94
332.943	99.94
333.172	98.94
333.4	92.94
333.629	106.94
333.857	122.94
334.085	112.94
334.314	104.94
334.542	112.94
334.771	120.94
334.999	99.94
335.227	102.94
335.455	88.94
335.684	98.94
335.912	87.94
336.14	115.94
336.369	107.94
336.597	121.94
336.825	98.94
337.053	91.94
337.281	94.94
337.51	90.94
337.738	103.94
337.966	84.94
338.194	107.94
338.422	86.94
338.65	94.94
338.878	89.94
339.106	91.94
339.334	91.94
339.562	100.94
339.79	90.94
340.018	102.94
340.246	100.94
340.474	102.94
340.702	100.94
340.93	88.94
341.158	84.94
341.386	97.94
341.614	98.94
341.842	88.94
342.07	93.94
342.298	107.94
342.526	99.94
342.754	104.94
342.981	87.94
343.209	91.94
343.437	97.94
343.665	93.94
343.893	81.94
344.12	87.94
344.348	99.94
344.576	90.94
344.804	82.94
345.031	101.94
345.259	111.94
345.487	107.94
345.714	95.94
345.942	101.94
346.17	86.94
346.397	106.94
346.625	100.94
346.853	103.94
347.08	102.94
347.308	97.94
347.535	98.94
347.763	100.94
347.99	112.94
348.218	100.94
348.445	104.94
348.673	98.94
348.9	89.94
349.128	94.94
349.355	82.94
349.583	90.94
349.81	96.94
350.037	89.94
350.265	120.94
350.492	103.94
350.72	96.94
350.947	106.94
351.174	106.94
351.402	108.94
351.629	102.94
351.856	108.94
352.083	105.94
352.311	115.94
352.538	104.94
352.765	123.94
352.992	118.94
353.22	109.94
353.447	104.94
353.674	101.94
353.901	118.94
354.128	102.94
354.355	98.94
354.583	95.94
354.81	104.94
355.037	97.94
355.264	102.94
355.491	85.94
355.718	102.94
355.945	103.94
356.172	87.94
356.399	103.94
356.626	99.94
356.853	104.94
357.08	97.94
357.307	103.94
357.534	98.94
357.761	85.94
357.988	110.94
358.215	107.94
358.441	104.94
358.668	98.94
358.895	92.94
359.122	94.94
359.349	90.94
359.576	90.94
359.802	100.94
360.029	109.94
360.256	106.94
360.483	100.94
360.709	87.94
360.936	97.94
361.163	97.94
361.39	111.94
361.616	103.94
361.843	98.94
362.07	98.94
362.296	88.94
362.523	91.94
362.749	98.94
362.976	104.94
363.203	91.94
363.429	105.94
363.656	102.94
363.882	95.94
364.109	106.94
364.335	104.94
364.562	102.94
364.788	83.94
365.015	101.94
365.241	102.94
365.468	111.94
365.694	106.94
365.92	92.94
366.147	102.94
366.373	93.94
366.599	93.94
366.826	84.94
367.052	79.94
367.278	90.94
367.505	90.94
367.731	112.94
367.957	97.94
368.184	89.94
368.41	110.94
368.636	111.94
368.862	111.94
369.089	98.94
369.315	101.94
369.541	90.94
369.767	94.94
369.993	84.94
370.219	89.94
370.445	87.94
370.672	98.94
370.898	75.94
371.124	91.94
371.35	94.94
371.576	97.94
371.802	90.94
372.028	101.94
372.254	80.94
372.48	91.94
372.706	94.94
372.932	81.94
373.158	88.94
373.384	81.94
373.61	81.94
373.835	100.94
374.061	105.94
374.287	90.94
374.513	90.94
374.739	88.94
374.965	76.94
375.191	88.94
375.416	92.94
375.642	84.94
375.868	95.94
376.094	101.94
376.319	94.94
376.545	100.94
376.771	90.94
376.997	96.94
377.222	96.94
377.448	91.94
377.674	91.94
377.899	98.94
378.125	95.94
378.35	80.94
378.576	95.94
378.802	88.94
379.027	83.94
379.253	90.94
379.478	96.94
379.704	98.94
379.929	99.94
380.155	99.94
380.38	109.94
380.606	100.94
380.831	95.94
381.057	112.94
381.282	107.94
381.507	96.94
381.733	102.94
381.958	102.94
382.184	107.94
382.409	107.94
382.634	91.94
382.86	112.94
383.085	113.94
383.31	111.94
383.535	109.94
383.761	110.94
383.986	106.94
384.211	110.94
384.436	105.94
384.662	116.94
384.887	120.94
385.112	119.94
385.337	116.94
385.562	120.94
385.787	120.94
386.013	127.94
386.238	127.94
386.463	109.94
386.688	130.94
386.913	123.94
387.138	128.94
387.363	121.94
387.588	114.94
387.813	125.94
388.038	125.94
388.263	116.94
388.488	139.94
388.713	112.94
388.938	100.94
389.163	98.94
389.387	92.94
389.612	97.94
389.837	102.94
390.062	92.94
390.287	98.94
390.512	94.94
390.736	98.94
390.961	89.94
391.186	98.94
391.411	99.94
391.636	82.94
391.86	94.94
392.085	80.94
392.31	95.94
392.534	97.94
392.759	90.94
392.984	94.94
393.208	89.94
393.433	111.94
393.658	91.94
393.882	84.94
394.107	81.94
394.331	75.94
394.556	99.94
394.78	91.94
395.005	90.94
395.229	95.94
395.454	84.94
395.678	82.94
395.903	91.94
396.127	96.94
396.352	78.94
396.576	95.94
396.801	100.94
397.025	102.94
397.249	104.94
397.474	96.94
397.698	95.94
397.922	79.94
398.147	92.94
398.371	109.94
398.595	87.94
398.82	75.94
399.044	70.94
399.268	87.94
399.492	104.94
399.717	93.94
399.941	103.94
400.165	93.94
400.389	90.94
400.613	93.94
400.837	109.94
401.062	104.94
401.286	102.94
401.51	97.94
401.734	94.94
401.958	108.94
402.182	130.94
402.406	153.94
402.63	121.94
402.854	100.94
403.078	94.94
403.302	101.94
403.526	86.94
403.75	83.94
403.974	91.94
404.198	89.94
404.422	89.94
404.645	101.94
404.869	89.94
405.093	97.94
405.317	97.94
405.541	100.94
405.765	105.94
405.988	126.94
406.212	187.94
406.436	217.94
406.66	137.94
406.883	89.94
407.107	101.94
407.331	90.94
407.555	99.94
407.778	103.94
408.002	82.94
408.226	99.94
408.449	92.94
408.673	94.94
408.896	109.94
409.12	104.94
409.344	108.94
409.567	90.94
409.791	102.94
410.014	112.94
410.238	83.94
410.461	85.94
410.685	111.94
410.908	82.94
411.132	114.94
411.355	103.94
411.578	94.94
411.802	90.94
412.025	81.94
412.249	95.94
412.472	107.94
412.695	94.94
412.919	91.94
413.142	96.94
413.365	96.94
413.589	102.94
413.812	96.94
414.035	91.94
414.258	87.94
414.482	109.94
414.705	85.94
414.928	115.94
415.151	96.94
415.374	103.94
415.597	83.94
415.821	81.94
416.044	87.94
416.267	104.94
416.49	94.94
416.713	114.94
416.936	97.94
417.159	102.94
417.382	91.94
417.605	102.94
417.828	100.94
418.051	100.94
418.274	92.94
418.497	100.94
418.72	99.94
418.943	94.94
419.166	99.94
419.389	107.94
419.611	98.94
419.834	98.94
420.057	97.94
420.28	98.94
420.503	90.94
420.726	79.94
420.948	104.94
421.171	94.94
421.394	97.94
421.617	101.94
421.839	83.94
422.062	101.94
422.285	102.94
422.507	109.94
422.73	114.94
422.953	107.94
423.175	104.94
423.398	79.94
423.621	96.94
423.843	88.94
424.066	99.94
424.288	86.94
424.511	93.94
424.733	104.94
424.956	115.94
425.178	97.94
425.401	105.94
425.623	109.94
425.846	113.94
426.068	98.94
426.291	111.94
426.513	90.94
426.735	90.94
426.958	98.94
427.18	108.94
427.402	156.94
427.625	166.94
427.847	128.94
428.069	122.94
428.292	93.94
428.514	97.94
428.736	102.94
428.958	85.94
429.181	94.94
429.403	89.94
429.625	84.94
429.847	95.94
430.069	109.94
430.292	104.94
430.514	77.94
430.736	75.94
430.958	95.94
431.18	90.94
431.402	94.94
431.624	97.94
431.846	81.94
432.068	84.94
432.29	79.94
432.512	87.94
432.734	103.94
432.956	102.94
433.178	116.94
433.4	112.94
433.622	102.94
433.844	95.94
434.066	101.94
434.287	104.94
434.509	89.94
434.731	94.94
434.953	86.94
435.175	77.94
435.397	94.94
435.618	106.94
435.84	115.94
436.062	119.94
436.284	108.94
436.505	105.94
436.727	100.94
436.949	103.94
437.17	89.94
437.392	91.94
437.614	105.94
437.835	110.94
438.057	131.94
438.278	110.94
438.5	118.94
438.721	135.94
438.943	102.94
439.165	94.94
439.386	89.94
439.608	84.94
439.829	101.94
440.05	118.94
440.272	149.94
440.493	104.94
440.715	97.94
440.936	79.94
441.158	99.94
441.379	96.94
441.6	104.94
441.822	96.94
442.043	97.94
442.264	97.94
442.486	107.94
442.707	114.94
442.928	111.94
443.149	127.94
443.371	119.94
443.592	112.94
443.813	130.94
444.034	119.94
444.255	102.94
444.476	101.94
444.698	102.94
444.919	98.94
445.14	125.94
445.361	127.94
445.582	136.94
445.803	155.94
446.024	153.94
446.245	139.94
446.466	126.94
446.687	97.94
446.908	90.94
447.129	83.94
447.35	101.94
447.571	106.94
447.792	94.94
448.013	92.94
448.234	101.94
448.455	105.94
448.675	109.94
448.896	113.94
449.117	113.94
449.338	120.94
449.559	146.94
449.779	154.94
450	91.94
450.221	88.94
450.442	99.94
450.662	93.94
450.883	104.94
451.104	93.94
451.324	102.94
451.545	86.94
451.766	81.94
451.986	71.94
452.207	90.94
452.428	94.94
452.648	114.94
452.869	106.94
453.089	105.94
453.31	117.94
453.53	113.94
453.751	102.94
453.971	109.94
454.192	93.94
454.412	90.94
454.633	98.94
454.853	91.94
455.073	93.94
455.294	90.94
455.514	107.94
455.734	93.94
455.955	99.94
456.175	84.94
456.395	98.94
456.616	92.94
456.836	94.94
457.056	85.94
457.276	91.94
457.497	84.94
457.717	73.94
457.937	84.94
458.157	84.94
458.377	88.94
458.598	114.94
458.818	140.94
459.038	162.94
459.258	113.94
459.478	91.94
459.698	94.94
459.918	79.94
460.138	97.94
460.358	86.94
460.578	84.94
460.798	90.94
461.018	89.94
461.238	84.94
461.458	90.94
461.678	85.94
461.898	101.94
462.118	99.94
462.338	95.94
462.558	99.94
462.777	93.94
462.997	91.94
463.217	97.94
463.437	94.94
463.657	89.94
463.876	88.94
464.096	85.94
464.316	95.94
464.536	82.94
464.755	112.94
464.975	109.94
465.195	162.94
465.414	160.94
465.634	106.94
465.854	77.94
466.073	88.94
466.293	100.94
466.512	87.94
466.732	71.94
466.951	83.94
467.171	80.94
467.391	83.94
467.61	105.94
467.829	107.94
468.049	95.94
468.268	87.94
468.488	87.94
468.707	99.94
468.927	79.94
469.146	81.94
469.365	96.94
469.585	106.94
469.804	114.94
470.023	107.94
470.243	106.94
470.462	91.94
470.681	116.94
470.901	98.94
471.12	96.94
471.339	83.94
471.558	88.94
471.777	89.94
471.997	91.94
472.216	88.94
472.435	85.94
472.654	94.94
472.873	84.94
473.092	96.94
473.311	81.94
473.53	105.94
473.749	91.94
473.968	89.94
474.187	104.94
474.406	115.94
474.625	97.94
474.844	98.94
475.063	90.94
475.282	90.94
475.501	88.94
475.72	97.94
475.939	70.94
476.158	100.94
476.377	91.94
476.596	83.94
476.814	86.94
477.033	84.94
477.252	95.94
477.471	88.94
477.69	96.94
477.908	86.94
478.127	85.94
478.346	83.94
478.564	96.94
478.783	113.94
479.002	104.94
479.22	98.94
479.439	97.94
479.658	112.94
479.876	98.94
480.095	92.94
480.313	75.94
480.532	74.94
480.751	94.94
480.969	95.94
481.188	118.94
481.406	109.94
481.624	95.94
481.843	91.94
482.061	92.94
482.28	93.94
482.498	87.94
482.717	83.94
482.935	83.94
483.153	88.94
483.372	94.94
483.59	88.94
483.808	97.94
484.027	89.94
484.245	81.94
484.463	82.94
484.681	86.94
484.9	101.94
485.118	104.94
485.336	107.94
485.554	115.94
485.772	114.94
485.99	105.94
486.209	102.94
486.427	110.94
486.645	118.94
486.863	114.94
487.081	112.94
487.299	104.94
487.517	106.94
487.735	93.94
487.953	84.94
488.171	106.94
488.389	93.94
488.607	99.94
488.825	97.94
489.043	83.94
489.261	89.94
489.479	93.94
489.696	81.94
489.914	80.94
490.132	81.94
490.35	82.94
490.568	86.94
490.786	94.94
491.003	101.94
491.221	90.94
491.439	96.94
491.657	88.94
491.874	107.94
492.092	87.94
492.31	91.94
492.527	103.94
492.745	97.94
492.963	87.94
493.18	102.94
493.398	93.94
493.615	112.94
493.833	99.94
494.05	93.94
494.268	83.94
494.485	95.94
494.703	91.94
494.92	96.94
495.138	90.94
495.355	89.94
495.573	90.94
495.79	96.94
496.008	85.94
496.225	98.94
496.442	81.94
496.66	100.94
496.877	89.94
497.094	89.94
497.312	105.94
497.529	90.94
497.746	98.94
497.963	88.94
498.181	104.94
498.398	97.94
498.615	100.94
498.832	111.94
499.049	96.94
499.267	87.94
499.484	88.94
499.701	94.94
499.918	93.94
500.135	70.94
500.352	99.94
500.569	89.94
500.786	89.94
501.003	83.94
501.22	98.94
501.437	96.94
501.654	90.94
501.871	116.94
502.088	93.94
502.305	108.94
502.522	85.94
502.739	94.94
502.956	94.94
503.172	86.94
503.389	94.94
503.606	103.94
503.823	100.94
504.04	90.94
504.256	89.94
504.473	97.94
504.69	80.94
504.907	83.94
505.123	78.94
505.34	79.94
505.557	90.94
505.773	84.94
505.99	87.94
506.207	97.94
506.423	78.94
506.64	88.94
506.856	96.94
507.073	95.94
507.289	95.94
507.506	96.94
507.722	116.94
507.939	110.94
508.155	82.94
508.372	85.94
508.588	75.94
508.805	98.94
509.021	81.94
509.238	93.94
509.454	102.94
509.67	109.94
509.887	103.94
510.103	149.94
510.319	195.94
510.536	688.94
510.752	2229.94
510.968	627.94
511.184	161.94
511.401	109.94
511.617	104.94
511.833	94.94
512.049	100.94
512.265	97.94
512.481	80.94
512.698	112.94
512.914	104.94
513.13	102.94
513.346	104.94
513.562	102.94
513.778	82.94
513.994	96.94
