Data from Circ_2005_H10_HRD10591_00032.txt Node
Date: Wed Jan 03 10:29:57 EST 2024
User: Yrep
Spectrometer: HR+D1059
Trigger mode: 1
Integration Time (sec): 1.000000E-1
Scans to average: 1
Electric dark correction enabled: true
Nonlinearity correction enabled: false
Boxcar width: 0
XAxis mode: Wavelengths
Number of Pixels in Spectrum: 2048
>>>>>Begin Spectral Data<<<<<
223.165	-24.25
223.4	-24.25
223.635	-24.25
223.869	-21.25
224.104	-16.25
224.338	-22.25
224.573	-1.25
224.808	-15.25
225.042	1.75
225.277	5.75
225.511	-6.25
225.746	3.75
225.98	-1.25
226.215	-1.25
226.449	21.75
226.683	15.75
226.918	37.75
227.152	22.75
227.387	26.75
227.621	32.75
227.856	48.75
228.09	51.75
228.324	56.75
228.559	56.75
228.793	66.75
229.027	74.75
229.262	75.75
229.496	74.75
229.73	86.75
229.964	75.75
230.199	80.75
230.433	71.75
230.667	81.75
230.901	78.75
231.136	73.75
231.37	82.75
231.604	86.75
231.838	86.75
232.072	91.75
232.306	88.75
232.541	85.75
232.775	89.75
233.009	97.75
233.243	76.75
233.477	84.75
233.711	93.75
233.945	97.75
234.179	86.75
234.413	80.75
234.647	81.75
234.881	85.75
235.115	80.75
235.349	76.75
235.583	79.75
235.817	82.75
236.051	77.75
236.285	78.75
236.519	71.75
236.753	91.75
236.987	91.75
237.221	102.75
237.455	81.75
237.689	77.75
237.922	81.75
238.156	86.75
238.39	67.75
238.624	86.75
238.858	84.75
239.091	74.75
239.325	77.75
239.559	76.75
239.793	92.75
240.027	80.75
240.26	75.75
240.494	89.75
240.728	72.75
240.961	84.75
241.195	67.75
241.429	91.75
241.662	77.75
241.896	76.75
242.13	73.75
242.363	85.75
242.597	97.75
242.83	76.75
243.064	82.75
243.298	75.75
243.531	80.75
243.765	91.75
243.998	77.75
244.232	81.75
244.465	85.75
244.699	89.75
244.932	75.75
245.166	81.75
245.399	97.75
245.633	83.75
245.866	89.75
246.099	79.75
246.333	81.75
246.566	78.75
246.8	74.75
247.033	81.75
247.266	84.75
247.5	91.75
247.733	75.75
247.966	77.75
248.2	90.75
248.433	81.75
248.666	85.75
248.899	87.75
249.133	96.75
249.366	87.75
249.599	86.75
249.832	77.75
250.066	98.75
250.299	90.75
250.532	93.75
250.765	82.75
250.998	81.75
251.231	80.75
251.465	85.75
251.698	81.75
251.931	82.75
252.164	85.75
252.397	90.75
252.63	77.75
252.863	76.75
253.096	78.75
253.329	83.75
253.562	85.75
253.795	87.75
254.028	87.75
254.261	94.75
254.494	66.75
254.727	86.75
254.96	78.75
255.193	75.75
255.426	96.75
255.659	85.75
255.892	88.75
256.124	80.75
256.357	89.75
256.59	84.75
256.823	79.75
257.056	95.75
257.289	98.75
257.521	89.75
257.754	71.75
257.987	72.75
258.22	94.75
258.452	82.75
258.685	79.75
258.918	82.75
259.151	80.75
259.383	80.75
259.616	90.75
259.849	88.75
260.081	78.75
260.314	84.75
260.547	85.75
260.779	90.75
261.012	88.75
261.244	80.75
261.477	104.75
261.71	81.75
261.942	105.75
262.175	114.75
262.407	98.75
262.64	88.75
262.872	93.75
263.105	91.75
263.337	89.75
263.57	91.75
263.802	108.75
264.035	94.75
264.267	79.75
264.499	72.75
264.732	87.75
264.964	93.75
265.197	85.75
265.429	86.75
265.661	92.75
265.894	76.75
266.126	79.75
266.358	75.75
266.591	90.75
266.823	87.75
267.055	82.75
267.287	101.75
267.52	94.75
267.752	92.75
267.984	91.75
268.216	73.75
268.448	89.75
268.681	97.75
268.913	103.75
269.145	90.75
269.377	89.75
269.609	96.75
269.841	90.75
270.073	95.75
270.306	84.75
270.538	88.75
270.77	97.75
271.002	88.75
271.234	89.75
271.466	78.75
271.698	84.75
271.93	82.75
272.162	108.75
272.394	89.75
272.626	88.75
272.858	108.75
273.09	83.75
273.322	80.75
273.553	100.75
273.785	94.75
274.017	91.75
274.249	79.75
274.481	78.75
274.713	83.75
274.945	89.75
275.176	87.75
275.408	98.75
275.64	90.75
275.872	95.75
276.104	83.75
276.335	88.75
276.567	103.75
276.799	96.75
277.031	112.75
277.262	96.75
277.494	85.75
277.726	90.75
277.957	85.75
278.189	102.75
278.421	100.75
278.652	91.75
278.884	87.75
279.115	100.75
279.347	91.75
279.579	91.75
279.81	76.75
280.042	77.75
280.273	79.75
280.505	86.75
280.736	77.75
280.968	89.75
281.199	89.75
281.431	77.75
281.662	86.75
281.894	86.75
282.125	98.75
282.356	132.75
282.588	155.75
282.819	127.75
283.051	97.75
283.282	90.75
283.513	86.75
283.745	78.75
283.976	91.75
284.207	89.75
284.439	90.75
284.67	70.75
284.901	81.75
285.132	80.75
285.364	88.75
285.595	97.75
285.826	93.75
286.057	84.75
286.288	86.75
286.52	80.75
286.751	87.75
286.982	101.75
287.213	92.75
287.444	87.75
287.675	91.75
287.906	102.75
288.138	111.75
288.369	105.75
288.6	85.75
288.831	87.75
289.062	82.75
289.293	99.75
289.524	82.75
289.755	99.75
289.986	92.75
290.217	79.75
290.448	80.75
290.679	93.75
290.91	96.75
291.141	89.75
291.371	82.75
291.602	94.75
291.833	85.75
292.064	94.75
292.295	81.75
292.526	84.75
292.757	93.75
292.987	90.75
293.218	94.75
293.449	87.75
293.68	80.75
293.91	100.75
294.141	93.75
294.372	90.75
294.603	93.75
294.833	81.75
295.064	78.75
295.295	78.75
295.525	80.75
295.756	99.75
295.987	109.75
296.217	147.75
296.448	123.75
296.679	89.75
296.909	97.75
297.14	83.75
297.37	80.75
297.601	100.75
297.831	86.75
298.062	93.75
298.292	102.75
298.523	89.75
298.753	80.75
298.984	93.75
299.214	89.75
299.445	86.75
299.675	98.75
299.905	110.75
300.136	78.75
300.366	91.75
300.597	88.75
300.827	99.75
301.057	100.75
301.288	111.75
301.518	94.75
301.748	102.75
301.979	102.75
302.209	76.75
302.439	91.75
302.669	89.75
302.9	98.75
303.13	94.75
303.36	90.75
303.59	99.75
303.82	105.75
304.051	91.75
304.281	93.75
304.511	93.75
304.741	76.75
304.971	90.75
305.201	99.75
305.431	96.75
305.661	81.75
305.891	98.75
306.121	96.75
306.352	103.75
306.582	109.75
306.812	101.75
307.042	91.75
307.272	100.75
307.502	114.75
307.731	102.75
307.961	103.75
308.191	94.75
308.421	86.75
308.651	96.75
308.881	99.75
309.111	94.75
309.341	106.75
309.571	99.75
309.8	105.75
310.03	114.75
310.26	100.75
310.49	91.75
310.72	99.75
310.949	116.75
311.179	101.75
311.409	94.75
311.639	82.75
311.868	104.75
312.098	88.75
312.328	95.75
312.557	115.75
312.787	111.75
313.017	104.75
313.246	100.75
313.476	99.75
313.706	92.75
313.935	82.75
314.165	90.75
314.394	98.75
314.624	97.75
314.853	97.75
315.083	90.75
315.312	99.75
315.542	81.75
315.771	94.75
316.001	109.75
316.23	109.75
316.46	98.75
316.689	86.75
316.919	103.75
317.148	102.75
317.377	104.75
317.607	99.75
317.836	94.75
318.065	86.75
318.295	89.75
318.524	103.75
318.753	87.75
318.983	80.75
319.212	104.75
319.441	115.75
319.67	114.75
319.9	93.75
320.129	90.75
320.358	98.75
320.587	91.75
320.816	103.75
321.046	102.75
321.275	109.75
321.504	101.75
321.733	99.75
321.962	106.75
322.191	101.75
322.42	116.75
322.649	130.75
322.878	121.75
323.108	122.75
323.337	141.75
323.566	151.75
323.795	170.75
324.024	228.75
324.253	471.75
324.482	970.75
324.71	2095.75
324.939	2755.75
325.168	979.75
325.397	276.75
325.626	160.75
325.855	148.75
326.084	141.75
326.313	143.75
326.542	162.75
326.77	260.75
326.999	565.75
327.228	1175.75
327.457	2125.75
327.686	1645.75
327.914	433.75
328.143	203.75
328.372	159.75
328.6	139.75
328.829	115.75
329.058	126.75
329.287	115.75
329.515	101.75
329.744	103.75
329.972	108.75
330.201	118.75
330.43	143.75
330.658	147.75
330.887	148.75
331.115	117.75
331.344	101.75
331.572	90.75
331.801	109.75
332.03	109.75
332.258	102.75
332.486	87.75
332.715	98.75
332.943	92.75
333.172	102.75
333.4	102.75
333.629	104.75
333.857	125.75
334.085	103.75
334.314	115.75
334.542	137.75
334.771	134.75
334.999	109.75
335.227	98.75
335.455	103.75
335.684	115.75
335.912	91.75
336.14	100.75
336.369	97.75
336.597	109.75
336.825	101.75
337.053	114.75
337.281	94.75
337.51	83.75
337.738	96.75
337.966	111.75
338.194	90.75
338.422	100.75
338.65	100.75
338.878	102.75
339.106	98.75
339.334	88.75
339.562	91.75
339.79	83.75
340.018	102.75
340.246	100.75
340.474	97.75
340.702	91.75
340.93	86.75
341.158	106.75
341.386	92.75
341.614	104.75
341.842	89.75
342.07	90.75
342.298	90.75
342.526	96.75
342.754	95.75
342.981	97.75
343.209	90.75
343.437	113.75
343.665	104.75
343.893	96.75
344.12	89.75
344.348	97.75
344.576	91.75
344.804	97.75
345.031	114.75
345.259	107.75
345.487	91.75
345.714	102.75
345.942	97.75
346.17	96.75
346.397	86.75
346.625	94.75
346.853	93.75
347.08	89.75
347.308	86.75
347.535	87.75
347.763	87.75
347.99	105.75
348.218	96.75
348.445	104.75
348.673	98.75
348.9	94.75
349.128	91.75
349.355	100.75
349.583	97.75
349.81	80.75
350.037	89.75
350.265	102.75
350.492	108.75
350.72	102.75
350.947	115.75
351.174	118.75
351.402	106.75
351.629	102.75
351.856	107.75
352.083	101.75
352.311	94.75
352.538	101.75
352.765	131.75
352.992	118.75
353.22	114.75
353.447	112.75
353.674	86.75
353.901	92.75
354.128	99.75
354.355	103.75
354.583	91.75
354.81	112.75
355.037	103.75
355.264	84.75
355.491	89.75
355.718	99.75
355.945	95.75
356.172	93.75
356.399	100.75
356.626	86.75
356.853	101.75
357.08	89.75
357.307	94.75
357.534	90.75
357.761	103.75
357.988	101.75
358.215	101.75
358.441	103.75
358.668	87.75
358.895	99.75
359.122	102.75
359.349	98.75
359.576	99.75
359.802	94.75
360.029	120.75
360.256	116.75
360.483	101.75
360.709	92.75
360.936	105.75
361.163	99.75
361.39	109.75
361.616	97.75
361.843	95.75
362.07	102.75
362.296	106.75
362.523	100.75
362.749	103.75
362.976	95.75
363.203	94.75
363.429	91.75
363.656	96.75
363.882	96.75
364.109	89.75
364.335	88.75
364.562	89.75
364.788	99.75
365.015	93.75
365.241	95.75
365.468	113.75
365.694	96.75
365.92	100.75
366.147	93.75
366.373	97.75
366.599	97.75
366.826	86.75
367.052	97.75
367.278	90.75
367.505	80.75
367.731	83.75
367.957	104.75
368.184	97.75
368.41	90.75
368.636	101.75
368.862	130.75
369.089	100.75
369.315	90.75
369.541	102.75
369.767	99.75
369.993	92.75
370.219	101.75
370.445	95.75
370.672	92.75
370.898	84.75
371.124	89.75
371.35	89.75
371.576	73.75
371.802	88.75
372.028	92.75
372.254	83.75
372.48	98.75
372.706	88.75
372.932	90.75
373.158	94.75
373.384	90.75
373.61	110.75
373.835	78.75
374.061	81.75
374.287	95.75
374.513	89.75
374.739	95.75
374.965	99.75
375.191	94.75
375.416	96.75
375.642	93.75
375.868	98.75
376.094	107.75
376.319	96.75
376.545	87.75
376.771	84.75
376.997	97.75
377.222	87.75
377.448	100.75
377.674	105.75
377.899	96.75
378.125	104.75
378.35	84.75
378.576	83.75
378.802	89.75
379.027	92.75
379.253	86.75
379.478	88.75
379.704	101.75
379.929	97.75
380.155	105.75
380.38	98.75
380.606	102.75
380.831	105.75
381.057	95.75
381.282	106.75
381.507	104.75
381.733	94.75
381.958	104.75
382.184	110.75
382.409	102.75
382.634	105.75
382.86	106.75
383.085	106.75
383.31	111.75
383.535	122.75
383.761	95.75
383.986	105.75
384.211	102.75
384.436	106.75
384.662	98.75
384.887	91.75
385.112	113.75
385.337	106.75
385.562	100.75
385.787	118.75
386.013	125.75
386.238	117.75
386.463	101.75
386.688	93.75
386.913	100.75
387.138	122.75
387.363	103.75
387.588	103.75
387.813	109.75
388.038	118.75
388.263	116.75
388.488	126.75
388.713	100.75
388.938	106.75
389.163	113.75
389.387	94.75
389.612	105.75
389.837	92.75
390.062	113.75
390.287	102.75
390.512	90.75
390.736	87.75
390.961	91.75
391.186	89.75
391.411	92.75
391.636	95.75
391.86	85.75
392.085	98.75
392.31	96.75
392.534	88.75
392.759	94.75
392.984	94.75
393.208	89.75
393.433	87.75
393.658	95.75
393.882	90.75
394.107	95.75
394.331	92.75
394.556	94.75
394.78	94.75
395.005	98.75
395.229	86.75
395.454	99.75
395.678	92.75
395.903	96.75
396.127	102.75
396.352	93.75
396.576	84.75
396.801	97.75
397.025	89.75
397.249	86.75
397.474	86.75
397.698	88.75
397.922	102.75
398.147	108.75
398.371	88.75
398.595	114.75
398.82	86.75
399.044	81.75
399.268	81.75
399.492	92.75
399.717	96.75
399.941	88.75
400.165	91.75
400.389	78.75
400.613	97.75
400.837	104.75
401.062	104.75
401.286	88.75
401.51	88.75
401.734	82.75
401.958	112.75
402.182	130.75
402.406	162.75
402.63	131.75
402.854	96.75
403.078	95.75
403.302	86.75
403.526	90.75
403.75	96.75
403.974	91.75
404.198	81.75
404.422	82.75
404.645	91.75
404.869	84.75
405.093	95.75
405.317	97.75
405.541	100.75
405.765	90.75
405.988	114.75
406.212	170.75
406.436	241.75
406.66	165.75
406.883	110.75
407.107	119.75
407.331	101.75
407.555	115.75
407.778	93.75
408.002	86.75
408.226	83.75
408.449	87.75
408.673	93.75
408.896	89.75
409.12	109.75
409.344	97.75
409.567	89.75
409.791	95.75
410.014	99.75
410.238	90.75
410.461	86.75
410.685	78.75
410.908	99.75
411.132	98.75
411.355	102.75
411.578	100.75
411.802	106.75
412.025	96.75
412.249	85.75
412.472	97.75
412.695	103.75
412.919	116.75
413.142	95.75
413.365	87.75
413.589	85.75
413.812	86.75
414.035	89.75
414.258	95.75
414.482	84.75
414.705	81.75
414.928	90.75
415.151	110.75
415.374	82.75
415.597	82.75
415.821	96.75
416.044	89.75
416.267	98.75
416.49	99.75
416.713	91.75
416.936	87.75
417.159	101.75
417.382	88.75
417.605	86.75
417.828	99.75
418.051	87.75
418.274	91.75
418.497	97.75
418.72	91.75
418.943	79.75
419.166	104.75
419.389	82.75
419.611	98.75
419.834	101.75
420.057	82.75
420.28	83.75
420.503	79.75
420.726	100.75
420.948	91.75
421.171	93.75
421.394	96.75
421.617	82.75
421.839	88.75
422.062	87.75
422.285	100.75
422.507	104.75
422.73	109.75
422.953	92.75
423.175	90.75
423.398	84.75
423.621	81.75
423.843	95.75
424.066	73.75
424.288	92.75
424.511	90.75
424.733	107.75
424.956	113.75
425.178	96.75
425.401	89.75
425.623	110.75
425.846	93.75
426.068	99.75
426.291	112.75
426.513	83.75
426.735	99.75
426.958	110.75
427.18	98.75
427.402	146.75
427.625	158.75
427.847	122.75
428.069	116.75
428.292	94.75
428.514	105.75
428.736	78.75
428.958	73.75
429.181	88.75
429.403	82.75
429.625	81.75
429.847	99.75
430.069	104.75
430.292	101.75
430.514	88.75
430.736	101.75
430.958	84.75
431.18	84.75
431.402	75.75
431.624	88.75
431.846	79.75
432.068	85.75
432.29	80.75
432.512	96.75
432.734	106.75
432.956	88.75
433.178	87.75
433.4	102.75
433.622	88.75
433.844	80.75
434.066	98.75
434.287	106.75
434.509	109.75
434.731	94.75
434.953	77.75
435.175	89.75
435.397	86.75
435.618	98.75
435.84	97.75
436.062	136.75
436.284	117.75
436.505	104.75
436.727	103.75
436.949	86.75
437.17	86.75
437.392	101.75
437.614	99.75
437.835	118.75
438.057	125.75
438.278	123.75
438.5	113.75
438.721	127.75
438.943	118.75
439.165	85.75
439.386	81.75
439.608	96.75
439.829	113.75
440.05	122.75
440.272	139.75
440.493	106.75
440.715	93.75
440.936	96.75
441.158	102.75
441.379	78.75
441.6	96.75
441.822	103.75
442.043	99.75
442.264	96.75
442.486	104.75
442.707	103.75
442.928	113.75
443.149	142.75
443.371	147.75
443.592	111.75
443.813	115.75
444.034	109.75
444.255	99.75
444.476	79.75
444.698	89.75
444.919	105.75
445.14	131.75
445.361	128.75
445.582	111.75
445.803	150.75
446.024	143.75
446.245	135.75
446.466	117.75
446.687	93.75
446.908	83.75
447.129	94.75
447.35	78.75
447.571	87.75
447.792	88.75
448.013	100.75
448.234	107.75
448.455	96.75
448.675	113.75
448.896	125.75
449.117	114.75
449.338	98.75
449.559	141.75
449.779	135.75
450	114.75
450.221	95.75
450.442	84.75
450.662	95.75
450.883	110.75
451.104	111.75
451.324	92.75
451.545	84.75
451.766	87.75
451.986	87.75
452.207	94.75
452.428	88.75
452.648	99.75
452.869	115.75
453.089	116.75
453.31	140.75
453.53	98.75
453.751	92.75
453.971	100.75
454.192	118.75
454.412	106.75
454.633	85.75
454.853	97.75
455.073	90.75
455.294	91.75
455.514	100.75
455.734	97.75
455.955	87.75
456.175	89.75
456.395	89.75
456.616	81.75
456.836	95.75
457.056	103.75
457.276	85.75
457.497	88.75
457.717	83.75
457.937	97.75
458.157	93.75
458.377	97.75
458.598	119.75
458.818	162.75
459.038	178.75
459.258	113.75
459.478	99.75
459.698	89.75
459.918	75.75
460.138	91.75
460.358	83.75
460.578	101.75
460.798	90.75
461.018	86.75
461.238	70.75
461.458	80.75
461.678	89.75
461.898	83.75
462.118	82.75
462.338	95.75
462.558	82.75
462.777	75.75
462.997	73.75
463.217	82.75
463.437	90.75
463.657	89.75
463.876	95.75
464.096	81.75
464.316	98.75
464.536	99.75
464.755	96.75
464.975	118.75
465.195	182.75
465.414	159.75
465.634	91.75
465.854	103.75
466.073	94.75
466.293	98.75
466.512	87.75
466.732	91.75
466.951	86.75
467.171	95.75
467.391	94.75
467.61	95.75
467.829	109.75
468.049	97.75
468.268	118.75
468.488	95.75
468.707	76.75
468.927	87.75
469.146	91.75
469.365	85.75
469.585	95.75
469.804	94.75
470.023	89.75
470.243	94.75
470.462	107.75
470.681	110.75
470.901	90.75
471.12	87.75
471.339	84.75
471.558	85.75
471.777	80.75
471.997	97.75
472.216	106.75
472.435	139.75
472.654	104.75
472.873	80.75
473.092	81.75
473.311	77.75
473.53	84.75
473.749	105.75
473.968	98.75
474.187	105.75
474.406	94.75
474.625	93.75
474.844	95.75
475.063	98.75
475.282	78.75
475.501	81.75
475.72	86.75
475.939	85.75
476.158	81.75
476.377	91.75
476.596	106.75
476.814	97.75
477.033	87.75
477.252	74.75
477.471	88.75
477.69	91.75
477.908	102.75
478.127	97.75
478.346	86.75
478.564	89.75
478.783	97.75
479.002	94.75
479.22	94.75
479.439	106.75
479.658	105.75
479.876	109.75
480.095	89.75
480.313	97.75
480.532	112.75
480.751	96.75
480.969	102.75
481.188	178.75
481.406	154.75
481.624	94.75
481.843	87.75
482.061	83.75
482.28	88.75
482.498	78.75
482.717	94.75
482.935	89.75
483.153	91.75
483.372	99.75
483.59	87.75
483.808	95.75
484.027	96.75
484.245	93.75
484.463	94.75
484.681	102.75
484.9	98.75
485.118	91.75
485.336	98.75
485.554	101.75
485.772	98.75
485.99	107.75
486.209	101.75
486.427	104.75
486.645	117.75
486.863	114.75
487.081	109.75
487.299	99.75
487.517	98.75
487.735	96.75
487.953	98.75
488.171	94.75
488.389	91.75
488.607	98.75
488.825	93.75
489.043	88.75
489.261	86.75
489.479	92.75
489.696	87.75
489.914	88.75
490.132	90.75
490.35	82.75
490.568	82.75
490.786	90.75
491.003	91.75
491.221	86.75
491.439	79.75
491.657	102.75
491.874	107.75
492.092	83.75
492.31	79.75
492.527	85.75
492.745	80.75
492.963	83.75
493.18	95.75
493.398	90.75
493.615	95.75
493.833	83.75
494.05	82.75
494.268	90.75
494.485	101.75
494.703	90.75
494.92	101.75
495.138	94.75
495.355	100.75
495.573	85.75
495.79	103.75
496.008	90.75
496.225	91.75
496.442	84.75
496.66	82.75
496.877	86.75
497.094	90.75
497.312	83.75
497.529	95.75
497.746	89.75
497.963	73.75
498.181	94.75
498.398	95.75
498.615	110.75
498.832	109.75
499.049	94.75
499.267	91.75
499.484	93.75
499.701	102.75
499.918	91.75
500.135	94.75
500.352	87.75
500.569	91.75
500.786	97.75
501.003	106.75
501.22	96.75
501.437	89.75
501.654	96.75
501.871	108.75
502.088	106.75
502.305	94.75
502.522	88.75
502.739	91.75
502.956	87.75
503.172	97.75
503.389	99.75
503.606	105.75
503.823	109.75
504.04	93.75
504.256	96.75
504.473	90.75
504.69	100.75
504.907	98.75
505.123	77.75
505.34	83.75
505.557	90.75
505.773	92.75
505.99	85.75
506.207	91.75
506.423	95.75
506.64	94.75
506.856	86.75
507.073	80.75
507.289	91.75
507.506	99.75
507.722	114.75
507.939	107.75
508.155	111.75
508.372	99.75
508.588	99.75
508.805	105.75
509.021	99.75
509.238	98.75
509.454	100.75
509.67	105.75
509.887	106.75
510.103	145.75
510.319	226.75
510.536	785.75
510.752	2629.75
510.968	721.75
511.184	157.75
511.401	131.75
511.617	106.75
511.833	98.75
512.049	87.75
512.265	94.75
512.481	88.75
512.698	101.75
512.914	95.75
513.13	86.75
513.346	89.75
513.562	91.75
513.778	91.75
513.994	101.75
514.21	107.75
514.426	127.75
