Data from Circ_2005_H10_HRD10591_00022.txt Node
Date: Wed Jan 03 10:29:55 EST 2024
User: Yrep
Spectrometer: HR+D1059
Trigger mode: 1
Integration Time (sec): 1.000000E-1
Scans to average: 1
Electric dark correction enabled: true
Nonlinearity correction enabled: false
Boxcar width: 0
XAxis mode: Wavelengths
Number of Pixels in Spectrum: 2048
>>>>>Begin Spectral Data<<<<<
223.165	-26.12
223.4	-26.12
223.635	-26.12
223.869	-9.12
224.104	-27.12
224.338	-11.12
224.573	-11.12
224.808	-14.12
225.042	-19.12
225.277	-7.12
225.511	-6.12
225.746	1.88
225.98	7.88
226.215	0.88
226.449	19.88
226.683	28.88
226.918	35.88
227.152	35.88
227.387	25.88
227.621	37.88
227.856	49.88
228.09	37.88
228.324	40.88
228.559	52.88
228.793	55.88
229.027	51.88
229.262	55.88
229.496	68.88
229.73	84.88
229.964	91.88
230.199	61.88
230.433	73.88
230.667	62.88
230.901	75.88
231.136	69.88
231.37	84.88
231.604	81.88
231.838	64.88
232.072	71.88
232.306	71.88
232.541	80.88
232.775	80.88
233.009	67.88
233.243	68.88
233.477	80.88
233.711	67.88
233.945	68.88
234.179	92.88
234.413	75.88
234.647	82.88
234.881	69.88
235.115	66.88
235.349	78.88
235.583	84.88
235.817	70.88
236.051	65.88
236.285	67.88
236.519	74.88
236.753	75.88
236.987	75.88
237.221	84.88
237.455	73.88
237.689	61.88
237.922	83.88
238.156	68.88
238.39	66.88
238.624	65.88
238.858	82.88
239.091	66.88
239.325	73.88
239.559	67.88
239.793	84.88
240.027	78.88
240.26	80.88
240.494	83.88
240.728	61.88
240.961	67.88
241.195	75.88
241.429	70.88
241.662	74.88
241.896	76.88
242.13	75.88
242.363	64.88
242.597	79.88
242.83	82.88
243.064	80.88
243.298	73.88
243.531	84.88
243.765	61.88
243.998	68.88
244.232	64.88
244.465	73.88
244.699	67.88
244.932	67.88
245.166	74.88
245.399	77.88
245.633	83.88
245.866	72.88
246.099	75.88
246.333	71.88
246.566	77.88
246.8	74.88
247.033	67.88
247.266	85.88
247.5	77.88
247.733	76.88
247.966	82.88
248.2	94.88
248.433	68.88
248.666	50.88
248.899	74.88
249.133	77.88
249.366	98.88
249.599	99.88
249.832	83.88
250.066	77.88
250.299	69.88
250.532	69.88
250.765	79.88
250.998	84.88
251.231	66.88
251.465	72.88
251.698	82.88
251.931	68.88
252.164	66.88
252.397	80.88
252.63	73.88
252.863	79.88
253.096	71.88
253.329	75.88
253.562	65.88
253.795	84.88
254.028	81.88
254.261	63.88
254.494	65.88
254.727	83.88
254.96	69.88
255.193	64.88
255.426	64.88
255.659	64.88
255.892	76.88
256.124	70.88
256.357	62.88
256.59	82.88
256.823	83.88
257.056	76.88
257.289	75.88
257.521	67.88
257.754	67.88
257.987	84.88
258.22	68.88
258.452	75.88
258.685	65.88
258.918	74.88
259.151	76.88
259.383	75.88
259.616	84.88
259.849	91.88
260.081	70.88
260.314	67.88
260.547	89.88
260.779	79.88
261.012	94.88
261.244	89.88
261.477	84.88
261.71	89.88
261.942	107.88
262.175	102.88
262.407	83.88
262.64	83.88
262.872	73.88
263.105	69.88
263.337	88.88
263.57	76.88
263.802	84.88
264.035	68.88
264.267	90.88
264.499	75.88
264.732	64.88
264.964	71.88
265.197	73.88
265.429	97.88
265.661	70.88
265.894	66.88
266.126	80.88
266.358	97.88
266.591	76.88
266.823	95.88
267.055	88.88
267.287	72.88
267.52	73.88
267.752	82.88
267.984	82.88
268.216	87.88
268.448	65.88
268.681	80.88
268.913	90.88
269.145	88.88
269.377	76.88
269.609	85.88
269.841	78.88
270.073	63.88
270.306	87.88
270.538	83.88
270.77	82.88
271.002	74.88
271.234	84.88
271.466	68.88
271.698	82.88
271.93	87.88
272.162	96.88
272.394	77.88
272.626	85.88
272.858	70.88
273.09	73.88
273.322	76.88
273.553	68.88
273.785	74.88
274.017	74.88
274.249	73.88
274.481	85.88
274.713	70.88
274.945	77.88
275.176	85.88
275.408	87.88
275.64	68.88
275.872	82.88
276.104	66.88
276.335	88.88
276.567	93.88
276.799	96.88
277.031	101.88
277.262	85.88
277.494	87.88
277.726	83.88
277.957	79.88
278.189	82.88
278.421	78.88
278.652	83.88
278.884	86.88
279.115	71.88
279.347	78.88
279.579	90.88
279.81	78.88
280.042	78.88
280.273	89.88
280.505	89.88
280.736	75.88
280.968	84.88
281.199	81.88
281.431	80.88
281.662	84.88
281.894	88.88
282.125	102.88
282.356	114.88
282.588	123.88
282.819	96.88
283.051	88.88
283.282	88.88
283.513	90.88
283.745	99.88
283.976	85.88
284.207	79.88
284.439	84.88
284.67	97.88
284.901	81.88
285.132	80.88
285.364	75.88
285.595	79.88
285.826	82.88
286.057	86.88
286.288	72.88
286.52	76.88
286.751	74.88
286.982	85.88
287.213	72.88
287.444	83.88
287.675	80.88
287.906	91.88
288.138	87.88
288.369	89.88
288.6	76.88
288.831	71.88
289.062	82.88
289.293	89.88
289.524	97.88
289.755	82.88
289.986	73.88
290.217	82.88
290.448	88.88
290.679	83.88
290.91	94.88
291.141	71.88
291.371	84.88
291.602	92.88
291.833	85.88
292.064	86.88
292.295	83.88
292.526	69.88
292.757	77.88
292.987	84.88
293.218	89.88
293.449	82.88
293.68	90.88
293.91	90.88
294.141	86.88
294.372	68.88
294.603	75.88
294.833	84.88
295.064	74.88
295.295	82.88
295.525	85.88
295.756	88.88
295.987	111.88
296.217	115.88
296.448	128.88
296.679	84.88
296.909	77.88
297.14	78.88
297.37	79.88
297.601	78.88
297.831	84.88
298.062	85.88
298.292	99.88
298.523	87.88
298.753	89.88
298.984	85.88
299.214	88.88
299.445	85.88
299.675	96.88
299.905	93.88
300.136	81.88
300.366	85.88
300.597	72.88
300.827	66.88
301.057	80.88
301.288	106.88
301.518	82.88
301.748	66.88
301.979	99.88
302.209	94.88
302.439	85.88
302.669	85.88
302.9	78.88
303.13	82.88
303.36	79.88
303.59	93.88
303.82	98.88
304.051	78.88
304.281	83.88
304.511	84.88
304.741	78.88
304.971	68.88
305.201	81.88
305.431	90.88
305.661	88.88
305.891	75.88
306.121	97.88
306.352	92.88
306.582	97.88
306.812	83.88
307.042	92.88
307.272	73.88
307.502	79.88
307.731	97.88
307.961	92.88
308.191	87.88
308.421	93.88
308.651	83.88
308.881	77.88
309.111	92.88
309.341	99.88
309.571	86.88
309.8	83.88
310.03	97.88
310.26	89.88
310.49	89.88
310.72	92.88
310.949	95.88
311.179	100.88
311.409	74.88
311.639	83.88
311.868	102.88
312.098	87.88
312.328	88.88
312.557	87.88
312.787	85.88
313.017	85.88
313.246	99.88
313.476	86.88
313.706	80.88
313.935	97.88
314.165	112.88
314.394	106.88
314.624	83.88
314.853	89.88
315.083	82.88
315.312	87.88
315.542	88.88
315.771	80.88
316.001	88.88
316.23	94.88
316.46	85.88
316.689	78.88
316.919	98.88
317.148	73.88
317.377	83.88
317.607	91.88
317.836	82.88
318.065	80.88
318.295	87.88
318.524	76.88
318.753	82.88
318.983	66.88
319.212	84.88
319.441	96.88
319.67	99.88
319.9	99.88
320.129	94.88
320.358	86.88
320.587	84.88
320.816	90.88
321.046	97.88
321.275	82.88
321.504	99.88
321.733	97.88
321.962	105.88
322.191	105.88
322.42	95.88
322.649	111.88
322.878	105.88
323.108	111.88
323.337	109.88
323.566	117.88
323.795	149.88
324.024	206.88
324.253	436.88
324.482	870.88
324.71	1884.88
324.939	2467.88
325.168	899.88
325.397	251.88
325.626	149.88
325.855	133.88
326.084	116.88
326.313	139.88
326.542	149.88
326.77	241.88
326.999	482.88
327.228	1029.88
327.457	1897.88
327.686	1490.88
327.914	379.88
328.143	193.88
328.372	133.88
328.6	130.88
328.829	108.88
329.058	113.88
329.287	128.88
329.515	112.88
329.744	100.88
329.972	97.88
330.201	105.88
330.43	116.88
330.658	108.88
330.887	128.88
331.115	110.88
331.344	89.88
331.572	96.88
331.801	95.88
332.03	92.88
332.258	90.88
332.486	84.88
332.715	93.88
332.943	83.88
333.172	97.88
333.4	91.88
333.629	85.88
333.857	100.88
334.085	99.88
334.314	96.88
334.542	114.88
334.771	100.88
334.999	90.88
335.227	88.88
335.455	91.88
335.684	96.88
335.912	75.88
336.14	91.88
336.369	94.88
336.597	79.88
336.825	98.88
337.053	95.88
337.281	92.88
337.51	86.88
337.738	84.88
337.966	95.88
338.194	96.88
338.422	88.88
338.65	103.88
338.878	98.88
339.106	73.88
339.334	96.88
339.562	89.88
339.79	96.88
340.018	95.88
340.246	77.88
340.474	75.88
340.702	85.88
340.93	90.88
341.158	82.88
341.386	113.88
341.614	90.88
341.842	90.88
342.07	89.88
342.298	80.88
342.526	84.88
342.754	93.88
342.981	77.88
343.209	89.88
343.437	100.88
343.665	95.88
343.893	80.88
344.12	86.88
344.348	81.88
344.576	80.88
344.804	90.88
345.031	93.88
345.259	109.88
345.487	93.88
345.714	97.88
345.942	88.88
346.17	87.88
346.397	104.88
346.625	92.88
346.853	95.88
347.08	79.88
347.308	72.88
347.535	85.88
347.763	101.88
347.99	92.88
348.218	89.88
348.445	100.88
348.673	92.88
348.9	86.88
349.128	97.88
349.355	91.88
349.583	90.88
349.81	85.88
350.037	84.88
350.265	73.88
350.492	91.88
350.72	97.88
350.947	93.88
351.174	98.88
351.402	108.88
351.629	90.88
351.856	94.88
352.083	99.88
352.311	90.88
352.538	106.88
352.765	103.88
352.992	110.88
353.22	122.88
353.447	112.88
353.674	95.88
353.901	110.88
354.128	93.88
354.355	81.88
354.583	79.88
354.81	85.88
355.037	103.88
355.264	90.88
355.491	95.88
355.718	88.88
355.945	96.88
356.172	106.88
356.399	95.88
356.626	93.88
356.853	97.88
357.08	88.88
357.307	88.88
357.534	100.88
357.761	94.88
357.988	98.88
358.215	106.88
358.441	88.88
358.668	94.88
358.895	92.88
359.122	88.88
359.349	99.88
359.576	91.88
359.802	97.88
360.029	96.88
360.256	95.88
360.483	89.88
360.709	90.88
360.936	75.88
361.163	89.88
361.39	90.88
361.616	99.88
361.843	91.88
362.07	97.88
362.296	100.88
362.523	77.88
362.749	78.88
362.976	77.88
363.203	85.88
363.429	77.88
363.656	82.88
363.882	88.88
364.109	67.88
364.335	73.88
364.562	76.88
364.788	99.88
365.015	98.88
365.241	95.88
365.468	105.88
365.694	86.88
365.92	92.88
366.147	87.88
366.373	91.88
366.599	90.88
366.826	85.88
367.052	71.88
367.278	87.88
367.505	81.88
367.731	92.88
367.957	104.88
368.184	91.88
368.41	97.88
368.636	97.88
368.862	112.88
369.089	89.88
369.315	90.88
369.541	103.88
369.767	87.88
369.993	95.88
370.219	78.88
370.445	83.88
370.672	84.88
370.898	84.88
371.124	88.88
371.35	85.88
371.576	71.88
371.802	78.88
372.028	83.88
372.254	80.88
372.48	80.88
372.706	73.88
372.932	89.88
373.158	92.88
373.384	93.88
373.61	90.88
373.835	89.88
374.061	85.88
374.287	89.88
374.513	84.88
374.739	85.88
374.965	69.88
375.191	81.88
375.416	79.88
375.642	93.88
375.868	84.88
376.094	97.88
376.319	96.88
376.545	82.88
376.771	80.88
376.997	91.88
377.222	92.88
377.448	93.88
377.674	96.88
377.899	77.88
378.125	94.88
378.35	104.88
378.576	92.88
378.802	93.88
379.027	104.88
379.253	97.88
379.478	93.88
379.704	99.88
379.929	84.88
380.155	89.88
380.38	92.88
380.606	115.88
380.831	95.88
381.057	98.88
381.282	77.88
381.507	94.88
381.733	79.88
381.958	86.88
382.184	95.88
382.409	109.88
382.634	96.88
382.86	99.88
383.085	92.88
383.31	112.88
383.535	102.88
383.761	108.88
383.986	98.88
384.211	99.88
384.436	106.88
384.662	96.88
384.887	103.88
385.112	109.88
385.337	110.88
385.562	113.88
385.787	102.88
386.013	107.88
386.238	114.88
386.463	111.88
386.688	103.88
386.913	100.88
387.138	109.88
387.363	103.88
387.588	89.88
387.813	101.88
388.038	107.88
388.263	124.88
388.488	109.88
388.713	97.88
388.938	96.88
389.163	97.88
389.387	90.88
389.612	96.88
389.837	84.88
390.062	83.88
390.287	86.88
390.512	92.88
390.736	85.88
390.961	95.88
391.186	97.88
391.411	90.88
391.636	90.88
391.86	78.88
392.085	87.88
392.31	68.88
392.534	88.88
392.759	92.88
392.984	86.88
393.208	90.88
393.433	84.88
393.658	81.88
393.882	82.88
394.107	86.88
394.331	80.88
394.556	84.88
394.78	89.88
395.005	81.88
395.229	88.88
395.454	88.88
395.678	85.88
395.903	95.88
396.127	79.88
396.352	87.88
396.576	99.88
396.801	76.88
397.025	94.88
397.249	81.88
397.474	93.88
397.698	76.88
397.922	96.88
398.147	96.88
398.371	94.88
398.595	80.88
398.82	77.88
399.044	98.88
399.268	71.88
399.492	88.88
399.717	81.88
399.941	75.88
400.165	70.88
400.389	102.88
400.613	96.88
400.837	84.88
401.062	77.88
401.286	78.88
401.51	93.88
401.734	86.88
401.958	93.88
402.182	122.88
402.406	151.88
402.63	103.88
402.854	84.88
403.078	87.88
403.302	73.88
403.526	78.88
403.75	88.88
403.974	82.88
404.198	89.88
404.422	79.88
404.645	77.88
404.869	75.88
405.093	87.88
405.317	95.88
405.541	98.88
405.765	95.88
405.988	96.88
406.212	160.88
406.436	202.88
406.66	124.88
406.883	91.88
407.107	85.88
407.331	91.88
407.555	87.88
407.778	81.88
408.002	82.88
408.226	96.88
408.449	97.88
408.673	88.88
408.896	101.88
409.12	86.88
409.344	85.88
409.567	82.88
409.791	84.88
410.014	86.88
410.238	94.88
410.461	84.88
410.685	87.88
410.908	82.88
411.132	103.88
411.355	91.88
411.578	88.88
411.802	81.88
412.025	63.88
412.249	91.88
412.472	99.88
412.695	90.88
412.919	104.88
413.142	66.88
413.365	82.88
413.589	76.88
413.812	85.88
414.035	85.88
414.258	90.88
414.482	89.88
414.705	82.88
414.928	76.88
415.151	109.88
415.374	96.88
415.597	80.88
415.821	96.88
416.044	81.88
416.267	101.88
416.49	82.88
416.713	74.88
416.936	90.88
417.159	89.88
417.382	88.88
417.605	80.88
417.828	97.88
418.051	98.88
418.274	71.88
418.497	78.88
418.72	92.88
418.943	96.88
419.166	93.88
419.389	96.88
419.611	84.88
419.834	74.88
420.057	88.88
420.28	90.88
420.503	83.88
420.726	74.88
420.948	73.88
421.171	81.88
421.394	80.88
421.617	85.88
421.839	78.88
422.062	92.88
422.285	84.88
422.507	81.88
422.73	88.88
422.953	104.88
423.175	91.88
423.398	76.88
423.621	91.88
423.843	77.88
424.066	84.88
424.288	95.88
424.511	78.88
424.733	97.88
424.956	101.88
425.178	97.88
425.401	97.88
425.623	100.88
425.846	80.88
426.068	86.88
426.291	95.88
426.513	85.88
426.735	94.88
426.958	88.88
427.18	104.88
427.402	125.88
427.625	156.88
427.847	123.88
428.069	98.88
428.292	85.88
428.514	100.88
428.736	94.88
428.958	80.88
429.181	99.88
429.403	97.88
429.625	111.88
429.847	86.88
430.069	87.88
430.292	94.88
430.514	73.88
430.736	83.88
430.958	74.88
431.18	84.88
431.402	78.88
431.624	85.88
431.846	99.88
432.068	69.88
432.29	78.88
432.512	80.88
432.734	76.88
432.956	97.88
433.178	100.88
433.4	106.88
433.622	95.88
433.844	88.88
434.066	78.88
434.287	75.88
434.509	90.88
434.731	95.88
434.953	89.88
435.175	97.88
435.397	81.88
435.618	87.88
435.84	99.88
436.062	113.88
436.284	115.88
436.505	99.88
436.727	100.88
436.949	85.88
437.17	98.88
437.392	82.88
437.614	84.88
437.835	92.88
438.057	99.88
438.278	102.88
438.5	105.88
438.721	113.88
438.943	85.88
439.165	88.88
439.386	77.88
439.608	80.88
439.829	100.88
440.05	130.88
440.272	151.88
440.493	88.88
440.715	79.88
440.936	94.88
441.158	86.88
441.379	88.88
441.6	75.88
441.822	84.88
442.043	97.88
442.264	84.88
442.486	89.88
442.707	90.88
442.928	103.88
443.149	114.88
443.371	114.88
443.592	104.88
443.813	103.88
444.034	109.88
444.255	78.88
444.476	77.88
444.698	84.88
444.919	81.88
445.14	121.88
445.361	127.88
445.582	115.88
445.803	135.88
446.024	131.88
446.245	129.88
446.466	108.88
446.687	81.88
446.908	68.88
447.129	81.88
447.35	96.88
447.571	82.88
447.792	88.88
448.013	87.88
448.234	103.88
448.455	101.88
448.675	121.88
448.896	105.88
449.117	111.88
449.338	88.88
449.559	139.88
449.779	136.88
450	88.88
450.221	95.88
450.442	80.88
450.662	102.88
450.883	95.88
451.104	109.88
451.324	105.88
451.545	73.88
451.766	73.88
451.986	84.88
452.207	72.88
452.428	76.88
452.648	97.88
452.869	115.88
453.089	94.88
453.31	109.88
453.53	72.88
453.751	81.88
453.971	103.88
454.192	100.88
454.412	80.88
454.633	92.88
454.853	94.88
455.073	83.88
455.294	101.88
455.514	98.88
455.734	80.88
455.955	84.88
456.175	84.88
456.395	87.88
456.616	69.88
456.836	93.88
457.056	79.88
457.276	91.88
457.497	72.88
457.717	78.88
457.937	65.88
458.157	83.88
458.377	81.88
458.598	104.88
458.818	139.88
459.038	143.88
459.258	108.88
459.478	93.88
459.698	89.88
459.918	72.88
460.138	85.88
460.358	79.88
460.578	82.88
460.798	83.88
461.018	79.88
461.238	68.88
461.458	95.88
461.678	76.88
461.898	76.88
462.118	92.88
462.338	75.88
462.558	59.88
462.777	66.88
462.997	96.88
463.217	73.88
463.437	92.88
463.657	80.88
463.876	84.88
464.096	80.88
464.316	85.88
464.536	89.88
464.755	97.88
464.975	87.88
465.195	163.88
465.414	156.88
465.634	86.88
465.854	97.88
466.073	83.88
466.293	74.88
466.512	85.88
466.732	95.88
466.951	84.88
467.171	86.88
467.391	92.88
467.61	102.88
467.829	94.88
468.049	79.88
468.268	92.88
468.488	76.88
468.707	78.88
468.927	90.88
469.146	82.88
469.365	89.88
469.585	94.88
469.804	82.88
470.023	92.88
470.243	84.88
470.462	80.88
470.681	102.88
470.901	84.88
471.12	72.88
471.339	78.88
471.558	84.88
471.777	86.88
471.997	86.88
472.216	98.88
472.435	112.88
472.654	88.88
472.873	88.88
473.092	91.88
473.311	88.88
473.53	73.88
473.749	88.88
473.968	74.88
474.187	84.88
474.406	83.88
474.625	89.88
474.844	80.88
475.063	79.88
475.282	74.88
475.501	79.88
475.72	87.88
475.939	77.88
476.158	72.88
476.377	81.88
476.596	80.88
476.814	82.88
477.033	85.88
477.252	89.88
477.471	71.88
477.69	93.88
477.908	94.88
478.127	81.88
478.346	87.88
478.564	91.88
478.783	96.88
479.002	93.88
479.22	89.88
479.439	100.88
479.658	96.88
479.876	87.88
480.095	95.88
480.313	96.88
480.532	89.88
480.751	91.88
480.969	88.88
481.188	135.88
481.406	105.88
481.624	81.88
481.843	85.88
482.061	91.88
482.28	85.88
482.498	79.88
482.717	90.88
482.935	90.88
483.153	101.88
483.372	98.88
483.59	82.88
483.808	88.88
484.027	72.88
484.245	93.88
484.463	107.88
484.681	91.88
484.9	99.88
485.118	88.88
485.336	79.88
485.554	82.88
485.772	99.88
485.99	90.88
486.209	100.88
486.427	116.88
486.645	98.88
486.863	107.88
487.081	90.88
487.299	84.88
487.517	95.88
487.735	85.88
487.953	100.88
488.171	92.88
488.389	99.88
488.607	122.88
488.825	89.88
489.043	88.88
489.261	96.88
489.479	89.88
489.696	90.88
489.914	79.88
490.132	76.88
490.35	94.88
490.568	98.88
490.786	95.88
491.003	80.88
491.221	101.88
491.439	81.88
491.657	75.88
491.874	77.88
492.092	93.88
492.31	85.88
492.527	84.88
492.745	93.88
492.963	101.88
493.18	73.88
493.398	84.88
493.615	88.88
493.833	93.88
494.05	88.88
494.268	78.88
494.485	71.88
494.703	87.88
494.92	95.88
495.138	84.88
495.355	96.88
495.573	85.88
495.79	87.88
496.008	81.88
496.225	85.88
496.442	85.88
496.66	86.88
496.877	87.88
497.094	76.88
497.312	77.88
497.529	91.88
497.746	93.88
497.963	90.88
498.181	89.88
498.398	89.88
498.615	86.88
498.832	101.88
499.049	87.88
499.267	82.88
499.484	77.88
499.701	88.88
499.918	85.88
500.135	87.88
500.352	88.88
500.569	83.88
500.786	87.88
501.003	87.88
501.22	76.88
501.437	91.88
501.654	104.88
501.871	109.88
502.088	83.88
502.305	74.88
502.522	88.88
502.739	78.88
502.956	78.88
503.172	94.88
503.389	90.88
503.606	103.88
503.823	76.88
504.04	81.88
504.256	92.88
504.473	95.88
504.69	90.88
504.907	78.88
505.123	100.88
505.34	88.88
505.557	90.88
505.773	84.88
505.99	76.88
506.207	77.88
506.423	91.88
506.64	82.88
506.856	90.88
507.073	92.88
507.289	82.88
507.506	90.88
507.722	100.88
507.939	89.88
508.155	90.88
508.372	88.88
508.588	82.88
508.805	75.88
509.021	93.88
509.238	99.88
509.454	86.88
509.67	91.88
509.887	101.88
510.103	100.88
510.319	202.88
510.536	676.88
510.752	2213.88
510.968	632.88
511.184	147.88
511.401	115.88
511.617	85.88
511.833	96.88
512.049	92.88
512.265	95.88
512.481	99.88
512.698	99.88
512.914	89.88
513.13	79.88
513.346	82.88
513.562	91.88
513.778	84.88
513.994	94.88
514.21	102.88
514.426	112.88
514.642	124.88
514.858	110.88
515.074	149.88
515.29	417.88
515.506	1339.88
515.721	511.88
515.937	136.88
516.153	95.88
516.369	91.88
516.585	83.88
516.801	81.88
517.016	94.88
517.232	75.88
