Data from Circ_2005_H10_HRD10591_00014.txt Node
Date: Wed Jan 03 10:29:53 EST 2024
User: Yrep
Spectrometer: HR+D1059
Trigger mode: 1
Integration Time (sec): 1.000000E-1
Scans to average: 1
Electric dark correction enabled: true
Nonlinearity correction enabled: false
Boxcar width: 0
XAxis mode: Wavelengths
Number of Pixels in Spectrum: 2048
>>>>>Begin Spectral Data<<<<<
223.165	-13.5
223.4	-13.5
223.635	-13.5
223.869	-14.5
224.104	-8.5
224.338	-18.5
224.573	-17.5
224.808	-3.5
225.042	-18.5
225.277	-4.5
225.511	1.5
225.746	1.5
225.98	13.5
226.215	-4.5
226.449	18.5
226.683	19.5
226.918	15.5
227.152	33.5
227.387	23.5
227.621	49.5
227.856	34.5
228.09	49.5
228.324	57.5
228.559	67.5
228.793	52.5
229.027	59.5
229.262	73.5
229.496	76.5
229.73	81.5
229.964	77.5
230.199	69.5
230.433	73.5
230.667	75.5
230.901	83.5
231.136	82.5
231.37	76.5
231.604	82.5
231.838	77.5
232.072	79.5
232.306	77.5
232.541	76.5
232.775	86.5
233.009	79.5
233.243	72.5
233.477	83.5
233.711	76.5
233.945	81.5
234.179	77.5
234.413	77.5
234.647	78.5
234.881	77.5
235.115	79.5
235.349	76.5
235.583	81.5
235.817	79.5
236.051	64.5
236.285	71.5
236.519	75.5
236.753	72.5
236.987	82.5
237.221	87.5
237.455	82.5
237.689	66.5
237.922	65.5
238.156	75.5
238.39	68.5
238.624	79.5
238.858	78.5
239.091	79.5
239.325	79.5
239.559	90.5
239.793	66.5
240.027	72.5
240.26	69.5
240.494	72.5
240.728	81.5
240.961	86.5
241.195	76.5
241.429	63.5
241.662	73.5
241.896	82.5
242.13	74.5
242.363	68.5
242.597	101.5
242.83	81.5
243.064	73.5
243.298	82.5
243.531	85.5
243.765	77.5
243.998	77.5
244.232	89.5
244.465	64.5
244.699	74.5
244.932	68.5
245.166	71.5
245.399	66.5
245.633	73.5
245.866	71.5
246.099	73.5
246.333	83.5
246.566	78.5
246.8	83.5
247.033	75.5
247.266	76.5
247.5	79.5
247.733	92.5
247.966	82.5
248.2	74.5
248.433	68.5
248.666	78.5
248.899	79.5
249.133	91.5
249.366	104.5
249.599	95.5
249.832	81.5
250.066	82.5
250.299	73.5
250.532	89.5
250.765	78.5
250.998	84.5
251.231	76.5
251.465	74.5
251.698	76.5
251.931	67.5
252.164	63.5
252.397	78.5
252.63	74.5
252.863	89.5
253.096	76.5
253.329	85.5
253.562	79.5
253.795	91.5
254.028	92.5
254.261	68.5
254.494	78.5
254.727	70.5
254.96	70.5
255.193	75.5
255.426	71.5
255.659	84.5
255.892	90.5
256.124	79.5
256.357	86.5
256.59	63.5
256.823	71.5
257.056	79.5
257.289	59.5
257.521	70.5
257.754	72.5
257.987	75.5
258.22	90.5
258.452	87.5
258.685	79.5
258.918	87.5
259.151	83.5
259.383	77.5
259.616	75.5
259.849	97.5
260.081	98.5
260.314	70.5
260.547	82.5
260.779	77.5
261.012	90.5
261.244	91.5
261.477	98.5
261.71	86.5
261.942	96.5
262.175	105.5
262.407	85.5
262.64	77.5
262.872	70.5
263.105	84.5
263.337	84.5
263.57	76.5
263.802	78.5
264.035	63.5
264.267	83.5
264.499	82.5
264.732	89.5
264.964	77.5
265.197	78.5
265.429	97.5
265.661	87.5
265.894	75.5
266.126	80.5
266.358	92.5
266.591	91.5
266.823	84.5
267.055	87.5
267.287	73.5
267.52	79.5
267.752	81.5
267.984	83.5
268.216	70.5
268.448	96.5
268.681	89.5
268.913	70.5
269.145	87.5
269.377	92.5
269.609	93.5
269.841	90.5
270.073	83.5
270.306	68.5
270.538	76.5
270.77	85.5
271.002	80.5
271.234	77.5
271.466	75.5
271.698	79.5
271.93	92.5
272.162	79.5
272.394	85.5
272.626	84.5
272.858	78.5
273.09	75.5
273.322	75.5
273.553	78.5
273.785	86.5
274.017	68.5
274.249	85.5
274.481	87.5
274.713	78.5
274.945	86.5
275.176	92.5
275.408	87.5
275.64	63.5
275.872	71.5
276.104	84.5
276.335	80.5
276.567	90.5
276.799	95.5
277.031	90.5
277.262	85.5
277.494	82.5
277.726	91.5
277.957	88.5
278.189	80.5
278.421	94.5
278.652	84.5
278.884	83.5
279.115	84.5
279.347	86.5
279.579	89.5
279.81	94.5
280.042	86.5
280.273	71.5
280.505	73.5
280.736	87.5
280.968	93.5
281.199	88.5
281.431	92.5
281.662	91.5
281.894	84.5
282.125	93.5
282.356	91.5
282.588	151.5
282.819	102.5
283.051	87.5
283.282	79.5
283.513	70.5
283.745	81.5
283.976	72.5
284.207	97.5
284.439	65.5
284.67	84.5
284.901	87.5
285.132	85.5
285.364	86.5
285.595	84.5
285.826	98.5
286.057	84.5
286.288	92.5
286.52	83.5
286.751	77.5
286.982	95.5
287.213	81.5
287.444	92.5
287.675	87.5
287.906	90.5
288.138	80.5
288.369	99.5
288.6	83.5
288.831	77.5
289.062	77.5
289.293	85.5
289.524	84.5
289.755	93.5
289.986	86.5
290.217	91.5
290.448	91.5
290.679	90.5
290.91	69.5
291.141	82.5
291.371	93.5
291.602	86.5
291.833	91.5
292.064	90.5
292.295	92.5
292.526	81.5
292.757	88.5
292.987	76.5
293.218	94.5
293.449	79.5
293.68	98.5
293.91	86.5
294.141	85.5
294.372	71.5
294.603	96.5
294.833	87.5
295.064	88.5
295.295	94.5
295.525	86.5
295.756	101.5
295.987	115.5
296.217	128.5
296.448	113.5
296.679	101.5
296.909	80.5
297.14	77.5
297.37	92.5
297.601	80.5
297.831	95.5
298.062	91.5
298.292	103.5
298.523	91.5
298.753	102.5
298.984	84.5
299.214	68.5
299.445	90.5
299.675	73.5
299.905	95.5
300.136	98.5
300.366	89.5
300.597	88.5
300.827	102.5
301.057	99.5
301.288	114.5
301.518	91.5
301.748	77.5
301.979	100.5
302.209	95.5
302.439	92.5
302.669	99.5
302.9	101.5
303.13	102.5
303.36	94.5
303.59	103.5
303.82	93.5
304.051	102.5
304.281	89.5
304.511	83.5
304.741	75.5
304.971	81.5
305.201	72.5
305.431	93.5
305.661	82.5
305.891	77.5
306.121	103.5
306.352	111.5
306.582	104.5
306.812	88.5
307.042	98.5
307.272	81.5
307.502	93.5
307.731	87.5
307.961	82.5
308.191	78.5
308.421	78.5
308.651	93.5
308.881	95.5
309.111	89.5
309.341	93.5
309.571	87.5
309.8	98.5
310.03	89.5
310.26	95.5
310.49	94.5
310.72	100.5
310.949	105.5
311.179	89.5
311.409	91.5
311.639	102.5
311.868	103.5
312.098	87.5
312.328	93.5
312.557	92.5
312.787	106.5
313.017	101.5
313.246	98.5
313.476	80.5
313.706	81.5
313.935	99.5
314.165	96.5
314.394	111.5
314.624	103.5
314.853	102.5
315.083	90.5
315.312	96.5
315.542	85.5
315.771	81.5
316.001	82.5
316.23	79.5
316.46	86.5
316.689	97.5
316.919	84.5
317.148	79.5
317.377	96.5
317.607	102.5
317.836	95.5
318.065	85.5
318.295	81.5
318.524	88.5
318.753	84.5
318.983	97.5
319.212	89.5
319.441	111.5
319.67	106.5
319.9	95.5
320.129	80.5
320.358	69.5
320.587	107.5
320.816	103.5
321.046	98.5
321.275	103.5
321.504	87.5
321.733	98.5
321.962	99.5
322.191	96.5
322.42	93.5
322.649	104.5
322.878	96.5
323.108	117.5
323.337	115.5
323.566	123.5
323.795	140.5
324.024	196.5
324.253	388.5
324.482	862.5
324.71	1838.5
324.939	2426.5
325.168	892.5
325.397	267.5
325.626	150.5
325.855	124.5
326.084	121.5
326.313	130.5
326.542	170.5
326.77	231.5
326.999	508.5
327.228	1017.5
327.457	1864.5
327.686	1437.5
327.914	405.5
328.143	187.5
328.372	148.5
328.6	118.5
328.829	130.5
329.058	113.5
329.287	116.5
329.515	97.5
329.744	108.5
329.972	108.5
330.201	91.5
330.43	99.5
330.658	113.5
330.887	137.5
331.115	126.5
331.344	107.5
331.572	94.5
331.801	103.5
332.03	83.5
332.258	90.5
332.486	85.5
332.715	78.5
332.943	82.5
333.172	88.5
333.4	98.5
333.629	97.5
333.857	115.5
334.085	104.5
334.314	80.5
334.542	93.5
334.771	104.5
334.999	97.5
335.227	98.5
335.455	102.5
335.684	95.5
335.912	82.5
336.14	87.5
336.369	103.5
336.597	113.5
336.825	85.5
337.053	87.5
337.281	94.5
337.51	93.5
337.738	107.5
337.966	96.5
338.194	90.5
338.422	84.5
338.65	103.5
338.878	96.5
339.106	89.5
339.334	86.5
339.562	94.5
339.79	83.5
340.018	95.5
340.246	102.5
340.474	78.5
340.702	83.5
340.93	82.5
341.158	93.5
341.386	98.5
341.614	91.5
341.842	98.5
342.07	87.5
342.298	87.5
342.526	106.5
342.754	90.5
342.981	83.5
343.209	96.5
343.437	98.5
343.665	81.5
343.893	86.5
344.12	86.5
344.348	93.5
344.576	75.5
344.804	83.5
345.031	92.5
345.259	89.5
345.487	85.5
345.714	87.5
345.942	84.5
346.17	91.5
346.397	94.5
346.625	96.5
346.853	82.5
347.08	89.5
347.308	92.5
347.535	96.5
347.763	111.5
347.99	103.5
348.218	92.5
348.445	103.5
348.673	89.5
348.9	99.5
349.128	91.5
349.355	108.5
349.583	89.5
349.81	94.5
350.037	84.5
350.265	100.5
350.492	101.5
350.72	103.5
350.947	116.5
351.174	114.5
351.402	107.5
351.629	106.5
351.856	74.5
352.083	99.5
352.311	101.5
352.538	109.5
352.765	98.5
352.992	112.5
353.22	111.5
353.447	100.5
353.674	93.5
353.901	104.5
354.128	82.5
354.355	99.5
354.583	101.5
354.81	109.5
355.037	100.5
355.264	98.5
355.491	94.5
355.718	95.5
355.945	88.5
356.172	84.5
356.399	87.5
356.626	83.5
356.853	72.5
357.08	72.5
357.307	90.5
357.534	82.5
357.761	93.5
357.988	80.5
358.215	88.5
358.441	100.5
358.668	94.5
358.895	107.5
359.122	81.5
359.349	83.5
359.576	78.5
359.802	102.5
360.029	97.5
360.256	99.5
360.483	93.5
360.709	79.5
360.936	94.5
361.163	84.5
361.39	88.5
361.616	71.5
361.843	84.5
362.07	88.5
362.296	96.5
362.523	98.5
362.749	68.5
362.976	91.5
363.203	83.5
363.429	90.5
363.656	83.5
363.882	96.5
364.109	85.5
364.335	104.5
364.562	79.5
364.788	93.5
365.015	95.5
365.241	91.5
365.468	103.5
365.694	94.5
365.92	99.5
366.147	85.5
366.373	78.5
366.599	86.5
366.826	86.5
367.052	65.5
367.278	84.5
367.505	91.5
367.731	83.5
367.957	96.5
368.184	98.5
368.41	92.5
368.636	103.5
368.862	121.5
369.089	108.5
369.315	70.5
369.541	93.5
369.767	97.5
369.993	84.5
370.219	93.5
370.445	85.5
370.672	95.5
370.898	98.5
371.124	79.5
371.35	68.5
371.576	96.5
371.802	75.5
372.028	98.5
372.254	81.5
372.48	104.5
372.706	82.5
372.932	105.5
373.158	93.5
373.384	81.5
373.61	81.5
373.835	83.5
374.061	91.5
374.287	84.5
374.513	98.5
374.739	95.5
374.965	95.5
375.191	90.5
375.416	93.5
375.642	90.5
375.868	106.5
376.094	90.5
376.319	78.5
376.545	83.5
376.771	90.5
376.997	99.5
377.222	94.5
377.448	90.5
377.674	90.5
377.899	94.5
378.125	87.5
378.35	106.5
378.576	93.5
378.802	83.5
379.027	94.5
379.253	88.5
379.478	72.5
379.704	97.5
379.929	106.5
380.155	97.5
380.38	90.5
380.606	98.5
380.831	102.5
381.057	98.5
381.282	109.5
381.507	97.5
381.733	99.5
381.958	96.5
382.184	90.5
382.409	77.5
382.634	112.5
382.86	101.5
383.085	92.5
383.31	108.5
383.535	109.5
383.761	100.5
383.986	111.5
384.211	116.5
384.436	89.5
384.662	102.5
384.887	110.5
385.112	102.5
385.337	111.5
385.562	112.5
385.787	103.5
386.013	118.5
386.238	106.5
386.463	123.5
386.688	104.5
386.913	101.5
387.138	98.5
387.363	114.5
387.588	102.5
387.813	122.5
388.038	121.5
388.263	125.5
388.488	122.5
388.713	106.5
388.938	79.5
389.163	82.5
389.387	89.5
389.612	94.5
389.837	108.5
390.062	102.5
390.287	93.5
390.512	94.5
390.736	82.5
390.961	87.5
391.186	91.5
391.411	93.5
391.636	96.5
391.86	86.5
392.085	91.5
392.31	97.5
392.534	92.5
392.759	84.5
392.984	98.5
393.208	99.5
393.433	97.5
393.658	95.5
393.882	98.5
394.107	84.5
394.331	70.5
394.556	78.5
394.78	88.5
395.005	92.5
395.229	86.5
395.454	85.5
395.678	84.5
395.903	83.5
396.127	102.5
396.352	93.5
396.576	94.5
396.801	96.5
397.025	90.5
397.249	85.5
397.474	73.5
397.698	81.5
397.922	85.5
398.147	84.5
398.371	80.5
398.595	82.5
398.82	82.5
399.044	82.5
399.268	87.5
399.492	95.5
399.717	92.5
399.941	87.5
400.165	83.5
400.389	99.5
400.613	94.5
400.837	77.5
401.062	85.5
401.286	89.5
401.51	69.5
401.734	85.5
401.958	98.5
402.182	122.5
402.406	130.5
402.63	122.5
402.854	90.5
403.078	79.5
403.302	98.5
403.526	98.5
403.75	86.5
403.974	93.5
404.198	68.5
404.422	83.5
404.645	79.5
404.869	81.5
405.093	93.5
405.317	89.5
405.541	102.5
405.765	101.5
405.988	104.5
406.212	150.5
406.436	222.5
406.66	157.5
406.883	101.5
407.107	86.5
407.331	98.5
407.555	82.5
407.778	82.5
408.002	86.5
408.226	85.5
408.449	77.5
408.673	80.5
408.896	78.5
409.12	92.5
409.344	81.5
409.567	108.5
409.791	79.5
410.014	98.5
410.238	93.5
410.461	110.5
410.685	95.5
410.908	86.5
411.132	104.5
411.355	98.5
411.578	94.5
411.802	78.5
412.025	86.5
412.249	84.5
412.472	90.5
412.695	96.5
412.919	86.5
413.142	88.5
413.365	84.5
413.589	94.5
413.812	81.5
414.035	86.5
414.258	103.5
414.482	85.5
414.705	97.5
414.928	77.5
415.151	90.5
415.374	95.5
415.597	78.5
415.821	80.5
416.044	80.5
416.267	91.5
416.49	88.5
416.713	86.5
416.936	97.5
417.159	97.5
417.382	96.5
417.605	80.5
417.828	77.5
418.051	78.5
418.274	98.5
418.497	86.5
418.72	87.5
418.943	81.5
419.166	85.5
419.389	79.5
419.611	95.5
419.834	95.5
420.057	81.5
420.28	83.5
420.503	95.5
420.726	89.5
420.948	98.5
421.171	92.5
421.394	86.5
421.617	102.5
421.839	85.5
422.062	90.5
422.285	89.5
422.507	90.5
422.73	103.5
422.953	101.5
423.175	97.5
423.398	80.5
423.621	77.5
423.843	94.5
424.066	86.5
424.288	87.5
424.511	83.5
424.733	90.5
424.956	97.5
425.178	102.5
425.401	91.5
425.623	98.5
425.846	84.5
426.068	87.5
426.291	83.5
426.513	93.5
426.735	88.5
426.958	84.5
427.18	103.5
427.402	134.5
427.625	157.5
427.847	130.5
428.069	98.5
428.292	75.5
428.514	84.5
428.736	84.5
428.958	82.5
429.181	77.5
429.403	78.5
429.625	88.5
429.847	87.5
430.069	72.5
430.292	93.5
430.514	91.5
430.736	83.5
430.958	92.5
431.18	82.5
431.402	91.5
431.624	78.5
431.846	92.5
432.068	87.5
432.29	86.5
432.512	78.5
432.734	84.5
432.956	91.5
433.178	89.5
433.4	98.5
433.622	89.5
433.844	93.5
434.066	108.5
434.287	87.5
434.509	91.5
434.731	81.5
434.953	86.5
435.175	92.5
435.397	94.5
435.618	98.5
435.84	97.5
436.062	126.5
436.284	111.5
436.505	103.5
436.727	107.5
436.949	87.5
437.17	75.5
437.392	83.5
437.614	84.5
437.835	109.5
438.057	113.5
438.278	116.5
438.5	103.5
438.721	123.5
438.943	96.5
439.165	73.5
439.386	94.5
439.608	83.5
439.829	90.5
440.05	135.5
440.272	148.5
440.493	101.5
440.715	88.5
440.936	100.5
441.158	74.5
441.379	88.5
441.6	81.5
441.822	95.5
442.043	83.5
442.264	106.5
442.486	102.5
442.707	92.5
442.928	118.5
443.149	122.5
443.371	122.5
443.592	121.5
443.813	126.5
444.034	99.5
444.255	95.5
444.476	82.5
444.698	84.5
444.919	97.5
445.14	149.5
445.361	117.5
445.582	131.5
445.803	137.5
446.024	149.5
446.245	156.5
446.466	122.5
446.687	102.5
446.908	82.5
447.129	83.5
447.35	96.5
447.571	85.5
447.792	104.5
448.013	71.5
448.234	109.5
448.455	110.5
448.675	99.5
448.896	130.5
449.117	96.5
449.338	101.5
449.559	146.5
449.779	135.5
450	92.5
450.221	76.5
450.442	79.5
450.662	78.5
450.883	101.5
451.104	110.5
451.324	99.5
451.545	86.5
451.766	87.5
451.986	94.5
452.207	100.5
452.428	89.5
452.648	101.5
452.869	109.5
453.089	112.5
453.31	116.5
453.53	93.5
453.751	98.5
453.971	102.5
454.192	110.5
454.412	88.5
454.633	81.5
454.853	82.5
455.073	71.5
455.294	84.5
455.514	104.5
455.734	111.5
455.955	78.5
456.175	79.5
456.395	83.5
456.616	73.5
456.836	94.5
457.056	97.5
457.276	85.5
457.497	92.5
457.717	75.5
457.937	88.5
458.157	93.5
458.377	86.5
458.598	95.5
458.818	146.5
459.038	159.5
459.258	112.5
459.478	87.5
459.698	82.5
459.918	87.5
460.138	65.5
460.358	89.5
460.578	89.5
460.798	91.5
461.018	86.5
461.238	84.5
461.458	85.5
461.678	87.5
461.898	87.5
462.118	93.5
462.338	103.5
462.558	82.5
462.777	69.5
462.997	85.5
463.217	85.5
463.437	85.5
463.657	102.5
463.876	98.5
464.096	76.5
464.316	87.5
464.536	101.5
464.755	90.5
464.975	96.5
465.195	161.5
465.414	143.5
465.634	102.5
465.854	98.5
466.073	90.5
466.293	97.5
466.512	80.5
466.732	73.5
466.951	92.5
467.171	89.5
467.391	85.5
467.61	106.5
467.829	94.5
468.049	84.5
468.268	91.5
468.488	92.5
468.707	88.5
468.927	87.5
469.146	87.5
469.365	80.5
469.585	83.5
469.804	103.5
470.023	91.5
470.243	90.5
470.462	93.5
470.681	104.5
470.901	92.5
471.12	92.5
471.339	77.5
471.558	76.5
471.777	82.5
471.997	79.5
472.216	84.5
472.435	100.5
472.654	78.5
472.873	84.5
473.092	85.5
473.311	90.5
473.53	78.5
473.749	90.5
473.968	103.5
474.187	100.5
474.406	97.5
474.625	75.5
474.844	87.5
475.063	78.5
475.282	87.5
475.501	79.5
475.72	89.5
475.939	90.5
476.158	85.5
476.377	76.5
476.596	83.5
476.814	102.5
477.033	93.5
477.252	83.5
477.471	82.5
477.69	99.5
477.908	85.5
478.127	72.5
478.346	92.5
478.564	87.5
478.783	90.5
479.002	88.5
479.22	96.5
479.439	104.5
479.658	91.5
479.876	84.5
480.095	94.5
480.313	95.5
480.532	95.5
480.751	78.5
480.969	101.5
481.188	116.5
481.406	111.5
481.624	87.5
481.843	91.5
482.061	85.5
482.28	68.5
482.498	89.5
482.717	86.5
482.935	86.5
483.153	83.5
483.372	94.5
483.59	86.5
483.808	90.5
484.027	87.5
484.245	92.5
484.463	100.5
484.681	94.5
484.9	85.5
485.118	103.5
485.336	106.5
485.554	89.5
485.772	100.5
485.99	94.5
486.209	108.5
486.427	106.5
486.645	116.5
486.863	98.5
487.081	94.5
487.299	96.5
487.517	109.5
487.735	94.5
487.953	101.5
488.171	93.5
488.389	105.5
488.607	94.5
488.825	92.5
489.043	90.5
489.261	92.5
489.479	103.5
489.696	96.5
489.914	80.5
490.132	81.5
490.35	78.5
490.568	90.5
490.786	100.5
491.003	85.5
491.221	97.5
491.439	90.5
491.657	95.5
491.874	90.5
492.092	75.5
492.31	94.5
492.527	78.5
492.745	83.5
492.963	80.5
493.18	89.5
493.398	98.5
493.615	100.5
493.833	89.5
494.05	89.5
494.268	85.5
494.485	88.5
494.703	87.5
494.92	97.5
495.138	99.5
495.355	97.5
495.573	84.5
495.79	79.5
496.008	93.5
496.225	102.5
496.442	92.5
496.66	104.5
496.877	88.5
497.094	87.5
497.312	87.5
497.529	99.5
497.746	95.5
497.963	94.5
498.181	101.5
498.398	94.5
498.615	99.5
498.832	105.5
499.049	83.5
499.267	87.5
499.484	86.5
499.701	77.5
499.918	82.5
500.135	89.5
500.352	92.5
500.569	94.5
500.786	92.5
501.003	90.5
501.22	79.5
501.437	87.5
501.654	93.5
501.871	101.5
502.088	104.5
502.305	92.5
502.522	85.5
502.739	83.5
502.956	93.5
503.172	88.5
503.389	89.5
503.606	101.5
503.823	106.5
504.04	96.5
504.256	96.5
504.473	97.5
504.69	99.5
504.907	95.5
505.123	93.5
505.34	99.5
505.557	86.5
505.773	101.5
505.99	83.5
506.207	78.5
506.423	101.5
506.64	97.5
506.856	81.5
507.073	78.5
507.289	100.5
507.506	95.5
507.722	106.5
507.939	112.5
508.155	95.5
508.372	99.5
508.588	93.5
508.805	86.5
509.021	86.5
509.238	103.5
509.454	79.5
509.67	81.5
509.887	98.5
510.103	119.5
510.319	189.5
510.536	692.5
510.752	2225.5
510.968	629.5
511.184	151.5
511.401	107.5
511.617	102.5
511.833	89.5
512.049	100.5
512.265	94.5
512.481	99.5
512.698	100.5
512.914	98.5
513.13	101.5
513.346	94.5
513.562	78.5
513.778	98.5
513.994	92.5
514.21	99.5
514.426	120.5
514.642	133.5
514.858	108.5
515.074	137.5
515.29	430.5
515.506	1381.5
515.721	508.5
515.937	143.5
516.153	106.5
516.369	97.5
516.585	97.5
516.801	87.5
517.016	87.5
517.232	96.5
517.448	94.5
517.664	95.5
517.879	83.5
518.095	91.5
518.311	95.5
518.527	83.5
518.742	86.5
518.958	79.5
519.173	102.5
519.389	84.5
519.605	84.5
519.82	91.5
520.036	108.5
520.251	104.5
520.467	110.5
520.682	115.5
520.898	103.5
521.113	110.5
521.329	126.5
521.544	193.5
521.76	512.5
521.975	2277.5
522.19	1420.5
522.406	311.5
522.621	122.5
522.836	115.5
523.052	88.5
523.267	82.5
523.482	99.5
523.698	103.5
523.913	115.5
524.128	90.5
524.343	91.5
524.559	86.5
524.774	99.5
524.989	101.5
525.204	92.5
525.419	97.5
525.634	99.5
525.849	83.5
526.064	92.5
526.28	101.5
526.495	81.5
526.71	78.5
526.925	87.5
527.14	95.5
527.355	76.5
527.57	98.5
527.785	105.5
527.999	80.5
528.214	97.5
528.429	95.5
528.644	96.5
528.859	94.5
529.074	97.5
529.289	126.5
529.503	189.5
529.718	103.5
529.933	85.5
530.148	85.5
530.363	82.5
530.577	90.5
530.792	84.5
531.007	90.5
531.221	85.5
531.436	91.5
531.651	97.5
531.865	77.5
532.08	89.5
532.295	92.5
532.509	88.5
532.724	78.5
532.938	74.5
533.153	81.5
533.367	84.5
533.582	90.5
533.796	91.5
534.011	96.5
534.225	98.5
534.44	97.5
534.654	103.5
534.868	105.5
535.083	87.5
535.297	93.5
535.511	99.5
535.726	94.5
