Data from Circ_2005_H10_HRD10591_00035.txt Node
Date: Wed Jan 03 10:29:58 EST 2024
User: Yrep
Spectrometer: HR+D1059
Trigger mode: 1
Integration Time (sec): 1.000000E-1
Scans to average: 1
Electric dark correction enabled: true
Nonlinearity correction enabled: false
Boxcar width: 0
XAxis mode: Wavelengths
Number of Pixels in Spectrum: 2048
>>>>>Begin Spectral Data<<<<<
223.165	-13.38
223.4	-13.38
223.635	-13.38
223.869	-20.38
224.104	-33.38
224.338	-3.38
224.573	-16.38
224.808	-8.38
225.042	-5.38
225.277	-10.38
225.511	1.62
225.746	6.62
225.98	4.62
226.215	11.62
226.449	18.62
226.683	29.62
226.918	21.62
227.152	16.62
227.387	15.62
227.621	22.62
227.856	46.62
228.09	28.62
228.324	47.62
228.559	48.62
228.793	60.62
229.027	46.62
229.262	42.62
229.496	60.62
229.73	81.62
229.964	89.62
230.199	75.62
230.433	73.62
230.667	73.62
230.901	81.62
231.136	91.62
231.37	68.62
231.604	57.62
231.838	67.62
232.072	74.62
232.306	90.62
232.541	79.62
232.775	64.62
233.009	69.62
233.243	74.62
233.477	88.62
233.711	80.62
233.945	96.62
234.179	69.62
234.413	91.62
234.647	82.62
234.881	67.62
235.115	78.62
235.349	77.62
235.583	73.62
235.817	74.62
236.051	75.62
236.285	67.62
236.519	85.62
236.753	75.62
236.987	73.62
237.221	93.62
237.455	103.62
237.689	67.62
237.922	61.62
238.156	75.62
238.39	85.62
238.624	74.62
238.858	77.62
239.091	77.62
239.325	71.62
239.559	74.62
239.793	78.62
240.027	79.62
240.26	79.62
240.494	84.62
240.728	82.62
240.961	81.62
241.195	81.62
241.429	45.62
241.662	68.62
241.896	77.62
242.13	76.62
242.363	70.62
242.597	85.62
242.83	73.62
243.064	79.62
243.298	74.62
243.531	73.62
243.765	74.62
243.998	84.62
244.232	83.62
244.465	79.62
244.699	86.62
244.932	73.62
245.166	74.62
245.399	79.62
245.633	78.62
245.866	97.62
246.099	69.62
246.333	76.62
246.566	64.62
246.8	71.62
247.033	80.62
247.266	73.62
247.5	58.62
247.733	74.62
247.966	78.62
248.2	81.62
248.433	78.62
248.666	66.62
248.899	74.62
249.133	81.62
249.366	87.62
249.599	99.62
249.832	67.62
250.066	88.62
250.299	73.62
250.532	85.62
250.765	83.62
250.998	80.62
251.231	88.62
251.465	66.62
251.698	79.62
251.931	84.62
252.164	76.62
252.397	69.62
252.63	65.62
252.863	87.62
253.096	89.62
253.329	89.62
253.562	77.62
253.795	96.62
254.028	85.62
254.261	74.62
254.494	73.62
254.727	93.62
254.96	85.62
255.193	98.62
255.426	62.62
255.659	72.62
255.892	73.62
256.124	87.62
256.357	90.62
256.59	82.62
256.823	74.62
257.056	73.62
257.289	77.62
257.521	77.62
257.754	75.62
257.987	88.62
258.22	83.62
258.452	81.62
258.685	77.62
258.918	84.62
259.151	74.62
259.383	93.62
259.616	83.62
259.849	71.62
260.081	86.62
260.314	85.62
260.547	89.62
260.779	59.62
261.012	86.62
261.244	78.62
261.477	99.62
261.71	90.62
261.942	95.62
262.175	114.62
262.407	96.62
262.64	76.62
262.872	76.62
263.105	89.62
263.337	89.62
263.57	71.62
263.802	84.62
264.035	84.62
264.267	91.62
264.499	97.62
264.732	90.62
264.964	75.62
265.197	73.62
265.429	71.62
265.661	64.62
265.894	80.62
266.126	77.62
266.358	86.62
266.591	73.62
266.823	80.62
267.055	75.62
267.287	87.62
267.52	87.62
267.752	89.62
267.984	84.62
268.216	88.62
268.448	83.62
268.681	91.62
268.913	88.62
269.145	84.62
269.377	69.62
269.609	81.62
269.841	73.62
270.073	78.62
270.306	94.62
270.538	86.62
270.77	84.62
271.002	85.62
271.234	79.62
271.466	85.62
271.698	85.62
271.93	80.62
272.162	82.62
272.394	85.62
272.626	76.62
272.858	85.62
273.09	88.62
273.322	91.62
273.553	85.62
273.785	77.62
274.017	77.62
274.249	83.62
274.481	77.62
274.713	75.62
274.945	95.62
275.176	87.62
275.408	92.62
275.64	67.62
275.872	107.62
276.104	96.62
276.335	89.62
276.567	92.62
276.799	98.62
277.031	87.62
277.262	88.62
277.494	71.62
277.726	84.62
277.957	77.62
278.189	93.62
278.421	88.62
278.652	73.62
278.884	71.62
279.115	86.62
279.347	87.62
279.579	97.62
279.81	84.62
280.042	84.62
280.273	71.62
280.505	91.62
280.736	89.62
280.968	94.62
281.199	91.62
281.431	77.62
281.662	76.62
281.894	86.62
282.125	85.62
282.356	127.62
282.588	117.62
282.819	113.62
283.051	105.62
283.282	93.62
283.513	82.62
283.745	85.62
283.976	83.62
284.207	83.62
284.439	116.62
284.67	87.62
284.901	96.62
285.132	78.62
285.364	85.62
285.595	83.62
285.826	96.62
286.057	90.62
286.288	83.62
286.52	91.62
286.751	79.62
286.982	81.62
287.213	72.62
287.444	78.62
287.675	89.62
287.906	77.62
288.138	84.62
288.369	86.62
288.6	86.62
288.831	99.62
289.062	87.62
289.293	89.62
289.524	87.62
289.755	78.62
289.986	99.62
290.217	89.62
290.448	100.62
290.679	86.62
290.91	87.62
291.141	82.62
291.371	82.62
291.602	85.62
291.833	87.62
292.064	77.62
292.295	79.62
292.526	85.62
292.757	89.62
292.987	83.62
293.218	83.62
293.449	86.62
293.68	76.62
293.91	88.62
294.141	93.62
294.372	95.62
294.603	84.62
294.833	88.62
295.064	82.62
295.295	97.62
295.525	85.62
295.756	112.62
295.987	116.62
296.217	134.62
296.448	131.62
296.679	101.62
296.909	90.62
297.14	83.62
297.37	83.62
297.601	83.62
297.831	87.62
298.062	100.62
298.292	81.62
298.523	84.62
298.753	73.62
298.984	85.62
299.214	77.62
299.445	84.62
299.675	76.62
299.905	100.62
300.136	79.62
300.366	87.62
300.597	91.62
300.827	90.62
301.057	92.62
301.288	103.62
301.518	96.62
301.748	79.62
301.979	98.62
302.209	95.62
302.439	93.62
302.669	76.62
302.9	78.62
303.13	91.62
303.36	88.62
303.59	91.62
303.82	94.62
304.051	93.62
304.281	93.62
304.511	86.62
304.741	87.62
304.971	86.62
305.201	114.62
305.431	81.62
305.661	79.62
305.891	88.62
306.121	92.62
306.352	109.62
306.582	105.62
306.812	95.62
307.042	84.62
307.272	80.62
307.502	97.62
307.731	98.62
307.961	87.62
308.191	78.62
308.421	96.62
308.651	89.62
308.881	87.62
309.111	97.62
309.341	93.62
309.571	100.62
309.8	87.62
310.03	89.62
310.26	94.62
310.49	86.62
310.72	75.62
310.949	83.62
311.179	99.62
311.409	91.62
311.639	87.62
311.868	91.62
312.098	87.62
312.328	86.62
312.557	103.62
312.787	100.62
313.017	102.62
313.246	87.62
313.476	99.62
313.706	91.62
313.935	94.62
314.165	86.62
314.394	97.62
314.624	96.62
314.853	113.62
315.083	102.62
315.312	94.62
315.542	79.62
315.771	72.62
316.001	95.62
316.23	102.62
316.46	93.62
316.689	102.62
316.919	79.62
317.148	95.62
317.377	93.62
317.607	89.62
317.836	89.62
318.065	74.62
318.295	91.62
318.524	91.62
318.753	90.62
318.983	92.62
319.212	88.62
319.441	94.62
319.67	112.62
319.9	85.62
320.129	101.62
320.358	102.62
320.587	96.62
320.816	106.62
321.046	106.62
321.275	104.62
321.504	101.62
321.733	98.62
321.962	95.62
322.191	85.62
322.42	96.62
322.649	100.62
322.878	112.62
323.108	113.62
323.337	111.62
323.566	129.62
323.795	144.62
324.024	215.62
324.253	375.62
324.482	813.62
324.71	1688.62
324.939	2169.62
325.168	785.62
325.397	246.62
325.626	140.62
325.855	131.62
326.084	107.62
326.313	123.62
326.542	148.62
326.77	235.62
326.999	446.62
327.228	930.62
327.457	1695.62
327.686	1330.62
327.914	378.62
328.143	177.62
328.372	132.62
328.6	110.62
328.829	123.62
329.058	109.62
329.287	123.62
329.515	113.62
329.744	99.62
329.972	105.62
330.201	104.62
330.43	112.62
330.658	121.62
330.887	131.62
331.115	125.62
331.344	96.62
331.572	101.62
331.801	98.62
332.03	109.62
332.258	98.62
332.486	90.62
332.715	88.62
332.943	102.62
333.172	95.62
333.4	91.62
333.629	105.62
333.857	107.62
334.085	94.62
334.314	106.62
334.542	143.62
334.771	125.62
334.999	101.62
335.227	104.62
335.455	91.62
335.684	102.62
335.912	102.62
336.14	88.62
336.369	92.62
336.597	98.62
336.825	86.62
337.053	93.62
337.281	95.62
337.51	85.62
337.738	84.62
337.966	95.62
338.194	106.62
338.422	117.62
338.65	101.62
338.878	93.62
339.106	81.62
339.334	82.62
339.562	96.62
339.79	97.62
340.018	106.62
340.246	87.62
340.474	97.62
340.702	92.62
340.93	78.62
341.158	73.62
341.386	101.62
341.614	96.62
341.842	84.62
342.07	106.62
342.298	105.62
342.526	90.62
342.754	97.62
342.981	88.62
343.209	78.62
343.437	92.62
343.665	97.62
343.893	86.62
344.12	93.62
344.348	105.62
344.576	82.62
344.804	95.62
345.031	90.62
345.259	94.62
345.487	82.62
345.714	93.62
345.942	85.62
346.17	92.62
346.397	91.62
346.625	87.62
346.853	94.62
347.08	74.62
347.308	101.62
347.535	92.62
347.763	93.62
347.99	78.62
348.218	104.62
348.445	105.62
348.673	86.62
348.9	87.62
349.128	101.62
349.355	89.62
349.583	98.62
349.81	86.62
350.037	99.62
350.265	88.62
350.492	89.62
350.72	90.62
350.947	101.62
351.174	109.62
351.402	102.62
351.629	101.62
351.856	112.62
352.083	95.62
352.311	86.62
352.538	108.62
352.765	106.62
352.992	101.62
353.22	105.62
353.447	98.62
353.674	94.62
353.901	87.62
354.128	92.62
354.355	85.62
354.583	98.62
354.81	93.62
355.037	94.62
355.264	98.62
355.491	100.62
355.718	99.62
355.945	102.62
356.172	97.62
356.399	94.62
356.626	78.62
356.853	77.62
357.08	83.62
357.307	92.62
357.534	81.62
357.761	96.62
357.988	91.62
358.215	83.62
358.441	97.62
358.668	93.62
358.895	96.62
359.122	91.62
359.349	91.62
359.576	94.62
359.802	80.62
360.029	97.62
360.256	90.62
360.483	103.62
360.709	82.62
360.936	105.62
361.163	82.62
361.39	99.62
361.616	99.62
361.843	88.62
362.07	89.62
362.296	87.62
362.523	102.62
362.749	92.62
362.976	97.62
363.203	90.62
363.429	81.62
363.656	96.62
363.882	92.62
364.109	82.62
364.335	110.62
364.562	91.62
364.788	90.62
365.015	106.62
365.241	107.62
365.468	104.62
365.694	96.62
365.92	98.62
366.147	84.62
366.373	79.62
366.599	87.62
366.826	79.62
367.052	92.62
367.278	86.62
367.505	93.62
367.731	84.62
367.957	74.62
368.184	95.62
368.41	92.62
368.636	101.62
368.862	113.62
369.089	114.62
369.315	79.62
369.541	95.62
369.767	94.62
369.993	87.62
370.219	108.62
370.445	81.62
370.672	82.62
370.898	77.62
371.124	81.62
371.35	83.62
371.576	84.62
371.802	93.62
372.028	98.62
372.254	98.62
372.48	87.62
372.706	81.62
372.932	95.62
373.158	90.62
373.384	101.62
373.61	92.62
373.835	73.62
374.061	86.62
374.287	98.62
374.513	77.62
374.739	88.62
374.965	82.62
375.191	83.62
375.416	94.62
375.642	100.62
375.868	75.62
376.094	95.62
376.319	95.62
376.545	90.62
376.771	81.62
376.997	100.62
377.222	87.62
377.448	86.62
377.674	84.62
377.899	99.62
378.125	81.62
378.35	86.62
378.576	92.62
378.802	87.62
379.027	82.62
379.253	80.62
379.478	98.62
379.704	98.62
379.929	97.62
380.155	81.62
380.38	104.62
380.606	89.62
380.831	97.62
381.057	102.62
381.282	84.62
381.507	88.62
381.733	100.62
381.958	106.62
382.184	101.62
382.409	86.62
382.634	105.62
382.86	101.62
383.085	104.62
383.31	96.62
383.535	96.62
383.761	110.62
383.986	99.62
384.211	101.62
384.436	98.62
384.662	97.62
384.887	86.62
385.112	121.62
385.337	113.62
385.562	89.62
385.787	114.62
386.013	107.62
386.238	114.62
386.463	107.62
386.688	112.62
386.913	113.62
387.138	99.62
387.363	113.62
387.588	103.62
387.813	104.62
388.038	105.62
388.263	105.62
388.488	102.62
388.713	101.62
388.938	89.62
389.163	96.62
389.387	106.62
389.612	97.62
389.837	90.62
390.062	98.62
390.287	89.62
390.512	86.62
390.736	85.62
390.961	91.62
391.186	86.62
391.411	92.62
391.636	90.62
391.86	72.62
392.085	74.62
392.31	79.62
392.534	80.62
392.759	78.62
392.984	86.62
393.208	92.62
393.433	99.62
393.658	100.62
393.882	86.62
394.107	84.62
394.331	87.62
394.556	86.62
394.78	84.62
395.005	100.62
395.229	82.62
395.454	94.62
395.678	81.62
395.903	83.62
396.127	90.62
396.352	82.62
396.576	84.62
396.801	78.62
397.025	91.62
397.249	69.62
397.474	87.62
397.698	90.62
397.922	78.62
398.147	78.62
398.371	81.62
398.595	83.62
398.82	88.62
399.044	89.62
399.268	87.62
399.492	85.62
399.717	86.62
399.941	67.62
400.165	78.62
400.389	79.62
400.613	78.62
400.837	87.62
401.062	95.62
401.286	96.62
401.51	87.62
401.734	107.62
401.958	97.62
402.182	127.62
402.406	157.62
402.63	125.62
402.854	90.62
403.078	83.62
403.302	87.62
403.526	78.62
403.75	85.62
403.974	73.62
404.198	82.62
404.422	77.62
404.645	84.62
404.869	93.62
405.093	87.62
405.317	92.62
405.541	109.62
405.765	94.62
405.988	134.62
406.212	165.62
406.436	214.62
406.66	126.62
406.883	103.62
407.107	75.62
407.331	101.62
407.555	101.62
407.778	94.62
408.002	94.62
408.226	77.62
408.449	97.62
408.673	79.62
408.896	90.62
409.12	89.62
409.344	84.62
409.567	67.62
409.791	82.62
410.014	88.62
410.238	107.62
410.461	89.62
410.685	90.62
410.908	94.62
411.132	111.62
411.355	96.62
411.578	99.62
411.802	82.62
412.025	90.62
412.249	87.62
412.472	92.62
412.695	98.62
412.919	90.62
413.142	81.62
413.365	99.62
413.589	85.62
413.812	80.62
414.035	89.62
414.258	84.62
414.482	95.62
414.705	73.62
414.928	108.62
415.151	88.62
415.374	94.62
415.597	102.62
415.821	96.62
416.044	83.62
416.267	87.62
416.49	87.62
416.713	90.62
416.936	95.62
417.159	92.62
417.382	92.62
417.605	71.62
417.828	88.62
418.051	97.62
418.274	89.62
418.497	95.62
418.72	89.62
418.943	87.62
419.166	85.62
419.389	106.62
419.611	82.62
419.834	90.62
420.057	83.62
420.28	83.62
420.503	83.62
420.726	76.62
420.948	75.62
421.171	85.62
421.394	94.62
421.617	85.62
421.839	92.62
422.062	82.62
422.285	90.62
422.507	102.62
422.73	94.62
422.953	105.62
423.175	79.62
423.398	107.62
423.621	84.62
423.843	84.62
424.066	77.62
424.288	89.62
424.511	91.62
424.733	86.62
424.956	97.62
425.178	74.62
425.401	86.62
425.623	91.62
425.846	94.62
426.068	85.62
426.291	99.62
426.513	95.62
426.735	94.62
426.958	96.62
427.18	111.62
427.402	133.62
427.625	155.62
427.847	122.62
428.069	106.62
428.292	83.62
428.514	76.62
428.736	79.62
428.958	75.62
429.181	83.62
429.403	80.62
429.625	91.62
429.847	85.62
430.069	82.62
430.292	101.62
430.514	88.62
430.736	94.62
430.958	86.62
431.18	81.62
431.402	66.62
431.624	83.62
431.846	71.62
432.068	87.62
432.29	95.62
432.512	85.62
432.734	66.62
432.956	83.62
433.178	104.62
433.4	98.62
433.622	91.62
433.844	86.62
434.066	83.62
434.287	91.62
434.509	85.62
434.731	87.62
434.953	79.62
435.175	82.62
435.397	82.62
435.618	98.62
435.84	106.62
436.062	108.62
436.284	96.62
436.505	85.62
436.727	91.62
436.949	91.62
437.17	91.62
437.392	99.62
437.614	100.62
437.835	98.62
438.057	109.62
438.278	110.62
438.5	105.62
438.721	117.62
438.943	83.62
439.165	99.62
439.386	100.62
439.608	99.62
439.829	88.62
440.05	116.62
440.272	135.62
440.493	100.62
440.715	76.62
440.936	84.62
441.158	101.62
441.379	84.62
441.6	88.62
441.822	83.62
442.043	83.62
442.264	72.62
442.486	89.62
442.707	82.62
442.928	95.62
443.149	116.62
443.371	117.62
443.592	100.62
443.813	95.62
444.034	104.62
444.255	92.62
444.476	91.62
444.698	87.62
444.919	83.62
445.14	125.62
445.361	120.62
445.582	107.62
445.803	133.62
446.024	121.62
446.245	116.62
446.466	109.62
446.687	86.62
446.908	81.62
447.129	93.62
447.35	81.62
447.571	90.62
447.792	86.62
448.013	98.62
448.234	107.62
448.455	92.62
448.675	102.62
448.896	99.62
449.117	109.62
449.338	92.62
449.559	111.62
449.779	126.62
450	95.62
450.221	88.62
450.442	84.62
450.662	93.62
450.883	104.62
451.104	107.62
451.324	102.62
451.545	92.62
451.766	91.62
451.986	72.62
452.207	94.62
452.428	93.62
452.648	85.62
452.869	104.62
453.089	99.62
453.31	112.62
453.53	84.62
453.751	84.62
453.971	94.62
454.192	108.62
454.412	86.62
454.633	91.62
454.853	82.62
455.073	91.62
455.294	87.62
455.514	103.62
455.734	96.62
455.955	84.62
456.175	83.62
456.395	92.62
456.616	86.62
456.836	97.62
457.056	89.62
457.276	97.62
457.497	83.62
457.717	86.62
457.937	81.62
458.157	79.62
458.377	94.62
458.598	102.62
458.818	135.62
459.038	148.62
459.258	101.62
459.478	93.62
459.698	83.62
459.918	79.62
460.138	73.62
460.358	87.62
460.578	85.62
460.798	92.62
461.018	85.62
461.238	77.62
461.458	73.62
461.678	69.62
461.898	85.62
462.118	89.62
462.338	79.62
462.558	95.62
462.777	74.62
462.997	85.62
463.217	77.62
463.437	76.62
463.657	80.62
463.876	93.62
464.096	87.62
464.316	83.62
464.536	83.62
464.755	90.62
464.975	99.62
465.195	140.62
465.414	134.62
465.634	94.62
465.854	96.62
466.073	93.62
466.293	100.62
466.512	85.62
466.732	88.62
466.951	84.62
467.171	96.62
467.391	93.62
467.61	102.62
467.829	95.62
468.049	86.62
468.268	102.62
468.488	86.62
468.707	82.62
468.927	87.62
469.146	82.62
469.365	73.62
469.585	96.62
469.804	91.62
470.023	77.62
470.243	94.62
470.462	77.62
470.681	97.62
470.901	93.62
471.12	76.62
471.339	83.62
471.558	83.62
471.777	87.62
471.997	93.62
472.216	112.62
472.435	136.62
472.654	102.62
472.873	87.62
473.092	82.62
473.311	86.62
473.53	96.62
473.749	71.62
473.968	78.62
474.187	110.62
474.406	102.62
474.625	82.62
474.844	90.62
475.063	82.62
475.282	97.62
475.501	66.62
475.72	83.62
475.939	73.62
476.158	76.62
476.377	81.62
476.596	89.62
476.814	97.62
477.033	83.62
477.252	92.62
477.471	78.62
477.69	83.62
477.908	89.62
478.127	86.62
478.346	82.62
478.564	75.62
478.783	81.62
479.002	87.62
479.22	95.62
479.439	93.62
479.658	96.62
479.876	93.62
480.095	86.62
480.313	91.62
480.532	78.62
480.751	89.62
480.969	108.62
481.188	197.62
481.406	145.62
481.624	92.62
481.843	87.62
482.061	83.62
482.28	93.62
482.498	85.62
482.717	79.62
482.935	86.62
483.153	85.62
483.372	74.62
483.59	101.62
483.808	92.62
484.027	87.62
484.245	90.62
484.463	81.62
484.681	100.62
484.9	87.62
485.118	91.62
485.336	84.62
485.554	104.62
485.772	103.62
485.99	93.62
486.209	113.62
486.427	108.62
486.645	106.62
486.863	100.62
487.081	105.62
487.299	83.62
487.517	92.62
487.735	86.62
487.953	98.62
488.171	88.62
488.389	94.62
488.607	94.62
488.825	98.62
489.043	92.62
489.261	93.62
489.479	79.62
489.696	88.62
489.914	79.62
490.132	84.62
490.35	81.62
490.568	86.62
490.786	86.62
491.003	83.62
491.221	85.62
491.439	99.62
491.657	87.62
491.874	93.62
492.092	99.62
492.31	78.62
492.527	85.62
492.745	93.62
492.963	91.62
493.18	84.62
493.398	95.62
493.615	93.62
493.833	83.62
494.05	89.62
494.268	98.62
494.485	84.62
494.703	81.62
494.92	99.62
495.138	77.62
495.355	84.62
495.573	94.62
495.79	84.62
496.008	78.62
496.225	89.62
496.442	87.62
496.66	93.62
496.877	82.62
497.094	93.62
497.312	67.62
497.529	94.62
497.746	87.62
497.963	94.62
498.181	83.62
498.398	93.62
498.615	97.62
498.832	114.62
499.049	92.62
499.267	86.62
499.484	77.62
499.701	93.62
499.918	88.62
500.135	82.62
500.352	94.62
500.569	90.62
500.786	96.62
501.003	81.62
501.22	79.62
501.437	92.62
501.654	85.62
501.871	111.62
502.088	87.62
502.305	95.62
502.522	102.62
502.739	75.62
502.956	94.62
503.172	81.62
503.389	87.62
503.606	99.62
503.823	94.62
504.04	91.62
504.256	90.62
504.473	88.62
504.69	81.62
504.907	95.62
505.123	91.62
505.34	93.62
505.557	101.62
505.773	101.62
505.99	83.62
506.207	94.62
506.423	85.62
506.64	86.62
506.856	86.62
507.073	96.62
507.289	98.62
507.506	109.62
507.722	113.62
507.939	102.62
508.155	88.62
508.372	104.62
508.588	86.62
508.805	102.62
509.021	88.62
509.238	98.62
509.454	102.62
509.67	95.62
509.887	100.62
510.103	135.62
510.319	205.62
510.536	731.62
510.752	2281.62
510.968	642.62
511.184	149.62
511.401	105.62
511.617	102.62
511.833	82.62
512.049	84.62
512.265	87.62
512.481	70.62
512.698	94.62
512.914	86.62
513.13	84.62
513.346	87.62
513.562	100.62
513.778	88.62
513.994	94.62
514.21	96.62
514.426	96.62
514.642	127.62
514.858	123.62
515.074	148.62
515.29	423.62
515.506	1409.62
515.721	504.62
515.937	146.62
516.153	100.62
516.369	80.62
