Data from Circ_2005_H10_HRD10591_00068.txt Node
Date: Wed Jan 03 10:30:04 EST 2024
User: Yrep
Spectrometer: HR+D1059
Trigger mode: 1
Integration Time (sec): 1.000000E-1
Scans to average: 1
Electric dark correction enabled: true
Nonlinearity correction enabled: false
Boxcar width: 0
XAxis mode: Wavelengths
Number of Pixels in Spectrum: 2048
>>>>>Begin Spectral Data<<<<<
223.165	-27.06
223.4	-27.06
223.635	-27.06
223.869	-8.06
224.104	-12.06
224.338	-17.06
224.573	-3.06
224.808	-12.06
225.042	-1.06
225.277	-7.06
225.511	-3.06
225.746	-5.06
225.98	4.94
226.215	15.94
226.449	6.94
226.683	14.94
226.918	32.94
227.152	19.94
227.387	28.94
227.621	34.94
227.856	47.94
228.09	47.94
228.324	46.94
228.559	55.94
228.793	47.94
229.027	68.94
229.262	71.94
229.496	47.94
229.73	82.94
229.964	86.94
230.199	73.94
230.433	75.94
230.667	75.94
230.901	78.94
231.136	85.94
231.37	87.94
231.604	80.94
231.838	58.94
232.072	85.94
232.306	80.94
232.541	87.94
232.775	80.94
233.009	74.94
233.243	77.94
233.477	78.94
233.711	77.94
233.945	84.94
234.179	73.94
234.413	97.94
234.647	83.94
234.881	92.94
235.115	82.94
235.349	67.94
235.583	74.94
235.817	68.94
236.051	80.94
236.285	83.94
236.519	86.94
236.753	76.94
236.987	68.94
237.221	72.94
237.455	86.94
237.689	71.94
237.922	65.94
238.156	64.94
238.39	76.94
238.624	72.94
238.858	70.94
239.091	94.94
239.325	77.94
239.559	75.94
239.793	78.94
240.027	83.94
240.26	82.94
240.494	86.94
240.728	78.94
240.961	62.94
241.195	83.94
241.429	66.94
241.662	73.94
241.896	90.94
242.13	76.94
242.363	79.94
242.597	79.94
242.83	65.94
243.064	76.94
243.298	95.94
243.531	74.94
243.765	71.94
243.998	87.94
244.232	77.94
244.465	78.94
244.699	88.94
244.932	91.94
245.166	69.94
245.399	74.94
245.633	78.94
245.866	66.94
246.099	75.94
246.333	79.94
246.566	71.94
246.8	84.94
247.033	82.94
247.266	71.94
247.5	83.94
247.733	79.94
247.966	81.94
248.2	96.94
248.433	71.94
248.666	81.94
248.899	83.94
249.133	79.94
249.366	91.94
249.599	91.94
249.832	93.94
250.066	90.94
250.299	84.94
250.532	82.94
250.765	74.94
250.998	69.94
251.231	89.94
251.465	81.94
251.698	76.94
251.931	81.94
252.164	84.94
252.397	86.94
252.63	83.94
252.863	64.94
253.096	74.94
253.329	82.94
253.562	83.94
253.795	80.94
254.028	92.94
254.261	85.94
254.494	86.94
254.727	77.94
254.96	83.94
255.193	76.94
255.426	85.94
255.659	81.94
255.892	68.94
256.124	91.94
256.357	80.94
256.59	71.94
256.823	84.94
257.056	76.94
257.289	68.94
257.521	66.94
257.754	72.94
257.987	57.94
258.22	77.94
258.452	92.94
258.685	86.94
258.918	86.94
259.151	80.94
259.383	86.94
259.616	96.94
259.849	82.94
260.081	84.94
260.314	82.94
260.547	90.94
260.779	74.94
261.012	76.94
261.244	86.94
261.477	82.94
261.71	109.94
261.942	115.94
262.175	95.94
262.407	85.94
262.64	86.94
262.872	99.94
263.105	90.94
263.337	87.94
263.57	98.94
263.802	82.94
264.035	88.94
264.267	90.94
264.499	92.94
264.732	96.94
264.964	81.94
265.197	81.94
265.429	76.94
265.661	84.94
265.894	79.94
266.126	88.94
266.358	78.94
266.591	68.94
266.823	82.94
267.055	77.94
267.287	90.94
267.52	103.94
267.752	92.94
267.984	83.94
268.216	79.94
268.448	100.94
268.681	84.94
268.913	89.94
269.145	82.94
269.377	79.94
269.609	80.94
269.841	82.94
270.073	90.94
270.306	78.94
270.538	93.94
270.77	78.94
271.002	95.94
271.234	80.94
271.466	86.94
271.698	80.94
271.93	90.94
272.162	90.94
272.394	92.94
272.626	89.94
272.858	75.94
273.09	92.94
273.322	87.94
273.553	74.94
273.785	98.94
274.017	90.94
274.249	81.94
274.481	78.94
274.713	80.94
274.945	94.94
275.176	75.94
275.408	90.94
275.64	86.94
275.872	83.94
276.104	84.94
276.335	94.94
276.567	85.94
276.799	103.94
277.031	104.94
277.262	87.94
277.494	89.94
277.726	92.94
277.957	85.94
278.189	75.94
278.421	88.94
278.652	95.94
278.884	96.94
279.115	89.94
279.347	89.94
279.579	79.94
279.81	97.94
280.042	91.94
280.273	89.94
280.505	103.94
280.736	84.94
280.968	87.94
281.199	101.94
281.431	92.94
281.662	87.94
281.894	95.94
282.125	96.94
282.356	103.94
282.588	134.94
282.819	116.94
283.051	90.94
283.282	93.94
283.513	88.94
283.745	85.94
283.976	72.94
284.207	77.94
284.439	91.94
284.67	80.94
284.901	86.94
285.132	83.94
285.364	91.94
285.595	84.94
285.826	88.94
286.057	84.94
286.288	83.94
286.52	87.94
286.751	84.94
286.982	93.94
287.213	82.94
287.444	88.94
287.675	95.94
287.906	84.94
288.138	84.94
288.369	86.94
288.6	83.94
288.831	80.94
289.062	87.94
289.293	83.94
289.524	80.94
289.755	74.94
289.986	77.94
290.217	85.94
290.448	88.94
290.679	85.94
290.91	94.94
291.141	84.94
291.371	103.94
291.602	89.94
291.833	92.94
292.064	83.94
292.295	80.94
292.526	91.94
292.757	80.94
292.987	104.94
293.218	91.94
293.449	84.94
293.68	75.94
293.91	84.94
294.141	93.94
294.372	88.94
294.603	90.94
294.833	80.94
295.064	74.94
295.295	85.94
295.525	88.94
295.756	108.94
295.987	106.94
296.217	139.94
296.448	117.94
296.679	102.94
296.909	83.94
297.14	88.94
297.37	79.94
297.601	77.94
297.831	89.94
298.062	86.94
298.292	87.94
298.523	91.94
298.753	66.94
298.984	87.94
299.214	86.94
299.445	96.94
299.675	99.94
299.905	81.94
300.136	84.94
300.366	83.94
300.597	85.94
300.827	96.94
301.057	98.94
301.288	96.94
301.518	101.94
301.748	65.94
301.979	87.94
302.209	78.94
302.439	101.94
302.669	80.94
302.9	100.94
303.13	94.94
303.36	102.94
303.59	109.94
303.82	97.94
304.051	78.94
304.281	95.94
304.511	83.94
304.741	86.94
304.971	87.94
305.201	79.94
305.431	79.94
305.661	99.94
305.891	101.94
306.121	99.94
306.352	104.94
306.582	97.94
306.812	94.94
307.042	89.94
307.272	101.94
307.502	110.94
307.731	102.94
307.961	95.94
308.191	76.94
308.421	84.94
308.651	95.94
308.881	92.94
309.111	73.94
309.341	96.94
309.571	96.94
309.8	96.94
310.03	108.94
310.26	110.94
310.49	91.94
310.72	87.94
310.949	102.94
311.179	90.94
311.409	94.94
311.639	94.94
311.868	87.94
312.098	80.94
312.328	91.94
312.557	96.94
312.787	99.94
313.017	84.94
313.246	87.94
313.476	87.94
313.706	91.94
313.935	100.94
314.165	101.94
314.394	100.94
314.624	106.94
314.853	105.94
315.083	87.94
315.312	101.94
315.542	83.94
315.771	102.94
316.001	95.94
316.23	82.94
316.46	101.94
316.689	95.94
316.919	99.94
317.148	94.94
317.377	90.94
317.607	85.94
317.836	90.94
318.065	88.94
318.295	83.94
318.524	82.94
318.753	94.94
318.983	76.94
319.212	93.94
319.441	106.94
319.67	93.94
319.9	103.94
320.129	96.94
320.358	95.94
320.587	101.94
320.816	97.94
321.046	107.94
321.275	92.94
321.504	98.94
321.733	105.94
321.962	93.94
322.191	106.94
322.42	119.94
322.649	112.94
322.878	92.94
323.108	117.94
323.337	103.94
323.566	126.94
323.795	130.94
324.024	186.94
324.253	373.94
324.482	783.94
324.71	1588.94
324.939	2067.94
325.168	784.94
325.397	252.94
325.626	149.94
325.855	129.94
326.084	116.94
326.313	131.94
326.542	154.94
326.77	228.94
326.999	428.94
327.228	877.94
327.457	1602.94
327.686	1269.94
327.914	362.94
328.143	188.94
328.372	162.94
328.6	124.94
328.829	121.94
329.058	121.94
329.287	127.94
329.515	99.94
329.744	106.94
329.972	119.94
330.201	148.94
330.43	176.94
330.658	143.94
330.887	131.94
331.115	122.94
331.344	95.94
331.572	95.94
331.801	102.94
332.03	95.94
332.258	98.94
332.486	98.94
332.715	83.94
332.943	93.94
333.172	96.94
333.4	101.94
333.629	113.94
333.857	130.94
334.085	127.94
334.314	151.94
334.542	231.94
334.771	221.94
334.999	126.94
335.227	107.94
335.455	97.94
335.684	86.94
335.912	103.94
336.14	102.94
336.369	103.94
336.597	100.94
336.825	96.94
337.053	92.94
337.281	90.94
337.51	90.94
337.738	105.94
337.966	96.94
338.194	103.94
338.422	90.94
338.65	84.94
338.878	88.94
339.106	77.94
339.334	106.94
339.562	101.94
339.79	88.94
340.018	86.94
340.246	81.94
340.474	97.94
340.702	91.94
340.93	98.94
341.158	94.94
341.386	83.94
341.614	98.94
341.842	87.94
342.07	95.94
342.298	105.94
342.526	71.94
342.754	91.94
342.981	93.94
343.209	80.94
343.437	99.94
343.665	82.94
343.893	82.94
344.12	71.94
344.348	94.94
344.576	98.94
344.804	97.94
345.031	92.94
345.259	90.94
345.487	76.94
345.714	87.94
345.942	82.94
346.17	101.94
346.397	96.94
346.625	99.94
346.853	95.94
347.08	102.94
347.308	90.94
347.535	87.94
347.763	96.94
347.99	82.94
348.218	102.94
348.445	94.94
348.673	102.94
348.9	98.94
349.128	89.94
349.355	96.94
349.583	85.94
349.81	96.94
350.037	94.94
350.265	84.94
350.492	106.94
350.72	99.94
350.947	97.94
351.174	105.94
351.402	102.94
351.629	100.94
351.856	83.94
352.083	98.94
352.311	100.94
352.538	87.94
352.765	99.94
352.992	112.94
353.22	100.94
353.447	98.94
353.674	99.94
353.901	102.94
354.128	97.94
354.355	103.94
354.583	97.94
354.81	101.94
355.037	100.94
355.264	99.94
355.491	92.94
355.718	83.94
355.945	89.94
356.172	100.94
356.399	87.94
356.626	89.94
356.853	102.94
357.08	76.94
357.307	91.94
357.534	76.94
357.761	94.94
357.988	95.94
358.215	83.94
358.441	95.94
358.668	83.94
358.895	105.94
359.122	81.94
359.349	87.94
359.576	86.94
359.802	79.94
360.029	103.94
360.256	99.94
360.483	82.94
360.709	80.94
360.936	93.94
361.163	77.94
361.39	93.94
361.616	87.94
361.843	90.94
362.07	95.94
362.296	83.94
362.523	103.94
362.749	84.94
362.976	86.94
363.203	85.94
363.429	87.94
363.656	76.94
363.882	90.94
364.109	93.94
364.335	98.94
364.562	93.94
364.788	98.94
365.015	91.94
365.241	96.94
365.468	112.94
365.694	98.94
365.92	91.94
366.147	77.94
366.373	86.94
366.599	87.94
366.826	92.94
367.052	88.94
367.278	85.94
367.505	86.94
367.731	107.94
367.957	85.94
368.184	73.94
368.41	108.94
368.636	101.94
368.862	130.94
369.089	107.94
369.315	88.94
369.541	90.94
369.767	78.94
369.993	78.94
370.219	101.94
370.445	89.94
370.672	92.94
370.898	81.94
371.124	86.94
371.35	82.94
371.576	89.94
371.802	77.94
372.028	93.94
372.254	94.94
372.48	80.94
372.706	90.94
372.932	97.94
373.158	75.94
373.384	89.94
373.61	79.94
373.835	92.94
374.061	89.94
374.287	104.94
374.513	104.94
374.739	82.94
374.965	99.94
375.191	83.94
375.416	95.94
375.642	95.94
375.868	99.94
376.094	71.94
376.319	90.94
376.545	85.94
376.771	91.94
376.997	93.94
377.222	84.94
377.448	107.94
377.674	94.94
377.899	103.94
378.125	77.94
378.35	84.94
378.576	83.94
378.802	89.94
379.027	89.94
379.253	89.94
379.478	87.94
379.704	105.94
379.929	87.94
380.155	87.94
380.38	89.94
380.606	92.94
380.831	101.94
381.057	101.94
381.282	95.94
381.507	84.94
381.733	77.94
381.958	98.94
382.184	86.94
382.409	92.94
382.634	93.94
382.86	108.94
383.085	94.94
383.31	86.94
383.535	84.94
383.761	108.94
383.986	105.94
384.211	99.94
384.436	88.94
384.662	86.94
384.887	103.94
385.112	94.94
385.337	98.94
385.562	111.94
385.787	115.94
386.013	106.94
386.238	123.94
386.463	96.94
386.688	114.94
386.913	99.94
387.138	106.94
387.363	99.94
387.588	107.94
387.813	98.94
388.038	106.94
388.263	97.94
388.488	101.94
388.713	96.94
388.938	114.94
389.163	92.94
389.387	106.94
389.612	88.94
389.837	84.94
390.062	102.94
390.287	89.94
390.512	86.94
390.736	91.94
390.961	87.94
391.186	79.94
391.411	101.94
391.636	99.94
391.86	96.94
392.085	79.94
392.31	84.94
392.534	77.94
392.759	99.94
392.984	91.94
393.208	79.94
393.433	90.94
393.658	80.94
393.882	88.94
394.107	95.94
394.331	92.94
394.556	95.94
394.78	78.94
395.005	104.94
395.229	86.94
395.454	96.94
395.678	100.94
395.903	84.94
396.127	85.94
396.352	96.94
396.576	80.94
396.801	89.94
397.025	83.94
397.249	87.94
397.474	94.94
397.698	83.94
397.922	90.94
398.147	94.94
398.371	84.94
398.595	78.94
398.82	88.94
399.044	86.94
399.268	76.94
399.492	69.94
399.717	86.94
399.941	84.94
400.165	94.94
400.389	92.94
400.613	80.94
400.837	83.94
401.062	89.94
401.286	89.94
401.51	76.94
401.734	81.94
401.958	93.94
402.182	114.94
402.406	140.94
402.63	124.94
402.854	98.94
403.078	77.94
403.302	91.94
403.526	82.94
403.75	90.94
403.974	83.94
404.198	93.94
404.422	85.94
404.645	85.94
404.869	87.94
405.093	96.94
405.317	94.94
405.541	98.94
405.765	100.94
405.988	116.94
406.212	157.94
406.436	209.94
406.66	119.94
406.883	109.94
407.107	89.94
407.331	94.94
407.555	94.94
407.778	93.94
408.002	87.94
408.226	88.94
408.449	88.94
408.673	99.94
408.896	95.94
409.12	100.94
409.344	84.94
409.567	99.94
409.791	96.94
410.014	91.94
410.238	88.94
410.461	94.94
410.685	94.94
410.908	100.94
411.132	100.94
411.355	94.94
411.578	87.94
411.802	73.94
412.025	75.94
412.249	100.94
412.472	87.94
412.695	102.94
412.919	93.94
413.142	91.94
413.365	93.94
413.589	95.94
413.812	87.94
414.035	87.94
414.258	91.94
414.482	78.94
414.705	89.94
414.928	94.94
415.151	92.94
415.374	82.94
415.597	85.94
415.821	77.94
416.044	85.94
416.267	87.94
416.49	83.94
416.713	85.94
416.936	90.94
417.159	79.94
417.382	86.94
417.605	95.94
417.828	92.94
418.051	92.94
418.274	89.94
418.497	83.94
418.72	94.94
418.943	72.94
419.166	96.94
419.389	88.94
419.611	88.94
419.834	89.94
420.057	79.94
420.28	85.94
420.503	82.94
420.726	97.94
420.948	85.94
421.171	87.94
421.394	79.94
421.617	78.94
421.839	99.94
422.062	87.94
422.285	90.94
422.507	104.94
422.73	87.94
422.953	97.94
423.175	87.94
423.398	90.94
423.621	77.94
423.843	85.94
424.066	80.94
424.288	96.94
424.511	80.94
424.733	99.94
424.956	108.94
425.178	98.94
425.401	84.94
425.623	98.94
425.846	74.94
426.068	89.94
426.291	88.94
426.513	87.94
426.735	103.94
426.958	83.94
427.18	99.94
427.402	128.94
427.625	162.94
427.847	129.94
428.069	105.94
428.292	94.94
428.514	75.94
428.736	95.94
428.958	104.94
429.181	83.94
429.403	80.94
429.625	81.94
429.847	78.94
430.069	73.94
430.292	91.94
430.514	99.94
430.736	86.94
430.958	94.94
431.18	89.94
431.402	84.94
431.624	99.94
431.846	94.94
432.068	88.94
432.29	77.94
432.512	93.94
432.734	97.94
432.956	87.94
433.178	94.94
433.4	82.94
433.622	92.94
433.844	98.94
434.066	94.94
434.287	81.94
434.509	92.94
434.731	85.94
434.953	87.94
435.175	83.94
435.397	84.94
435.618	85.94
435.84	91.94
436.062	122.94
436.284	113.94
436.505	82.94
436.727	96.94
436.949	82.94
437.17	95.94
437.392	77.94
437.614	91.94
437.835	115.94
438.057	118.94
438.278	106.94
438.5	98.94
438.721	100.94
438.943	81.94
439.165	92.94
439.386	95.94
439.608	95.94
439.829	91.94
440.05	115.94
440.272	128.94
440.493	96.94
440.715	94.94
440.936	92.94
441.158	92.94
441.379	97.94
441.6	92.94
441.822	88.94
442.043	95.94
442.264	99.94
442.486	100.94
442.707	92.94
442.928	93.94
443.149	127.94
443.371	126.94
443.592	96.94
443.813	94.94
444.034	107.94
444.255	86.94
444.476	89.94
444.698	78.94
444.919	72.94
445.14	118.94
445.361	104.94
445.582	106.94
445.803	120.94
446.024	108.94
446.245	115.94
446.466	113.94
446.687	98.94
446.908	93.94
447.129	93.94
447.35	92.94
447.571	83.94
447.792	96.94
448.013	102.94
448.234	87.94
448.455	99.94
448.675	106.94
448.896	101.94
449.117	97.94
449.338	103.94
449.559	129.94
449.779	125.94
450	98.94
450.221	80.94
450.442	88.94
450.662	98.94
450.883	99.94
451.104	100.94
451.324	82.94
451.545	86.94
451.766	99.94
451.986	84.94
452.207	87.94
452.428	78.94
452.648	110.94
452.869	106.94
453.089	122.94
453.31	111.94
453.53	91.94
453.751	89.94
453.971	89.94
454.192	99.94
454.412	97.94
454.633	91.94
454.853	83.94
455.073	93.94
455.294	90.94
455.514	95.94
455.734	100.94
455.955	89.94
456.175	79.94
456.395	102.94
456.616	81.94
456.836	86.94
457.056	79.94
457.276	88.94
457.497	78.94
457.717	88.94
457.937	91.94
458.157	98.94
458.377	89.94
458.598	92.94
458.818	134.94
459.038	158.94
459.258	103.94
459.478	80.94
459.698	75.94
459.918	86.94
460.138	86.94
460.358	78.94
460.578	89.94
460.798	86.94
461.018	75.94
461.238	94.94
461.458	86.94
461.678	83.94
461.898	85.94
462.118	80.94
462.338	68.94
462.558	76.94
462.777	91.94
462.997	72.94
463.217	80.94
463.437	78.94
463.657	95.94
463.876	84.94
464.096	91.94
464.316	86.94
464.536	96.94
464.755	92.94
464.975	94.94
465.195	139.94
465.414	146.94
465.634	88.94
465.854	88.94
466.073	80.94
466.293	88.94
466.512	92.94
466.732	74.94
466.951	80.94
467.171	97.94
467.391	85.94
467.61	100.94
467.829	94.94
468.049	108.94
468.268	137.94
468.488	100.94
468.707	86.94
468.927	96.94
469.146	90.94
469.365	86.94
469.585	92.94
469.804	113.94
470.023	99.94
470.243	94.94
470.462	99.94
470.681	102.94
470.901	78.94
471.12	94.94
471.339	70.94
471.558	82.94
471.777	86.94
471.997	106.94
472.216	173.94
472.435	258.94
472.654	123.94
472.873	82.94
473.092	86.94
473.311	86.94
473.53	83.94
473.749	92.94
473.968	85.94
474.187	99.94
474.406	92.94
474.625	103.94
474.844	91.94
475.063	95.94
475.282	75.94
475.501	93.94
475.72	93.94
475.939	78.94
476.158	87.94
476.377	83.94
476.596	71.94
476.814	93.94
477.033	92.94
477.252	83.94
477.471	99.94
477.69	94.94
477.908	94.94
478.127	86.94
478.346	89.94
478.564	79.94
478.783	76.94
479.002	96.94
479.22	94.94
479.439	90.94
479.658	119.94
479.876	108.94
480.095	95.94
480.313	83.94
480.532	88.94
480.751	107.94
480.969	162.94
481.188	414.94
481.406	266.94
481.624	102.94
481.843	79.94
482.061	83.94
482.28	92.94
482.498	98.94
482.717	78.94
482.935	96.94
483.153	85.94
483.372	77.94
483.59	88.94
483.808	99.94
484.027	92.94
484.245	81.94
484.463	74.94
484.681	98.94
484.9	109.94
485.118	96.94
485.336	88.94
485.554	95.94
485.772	100.94
485.99	113.94
486.209	92.94
486.427	108.94
486.645	99.94
486.863	101.94
487.081	104.94
487.299	112.94
487.517	93.94
487.735	86.94
487.953	90.94
488.171	97.94
488.389	104.94
488.607	94.94
488.825	90.94
489.043	90.94
489.261	92.94
489.479	87.94
489.696	100.94
489.914	86.94
490.132	80.94
490.35	92.94
490.568	90.94
490.786	87.94
491.003	104.94
491.221	96.94
491.439	87.94
491.657	96.94
491.874	90.94
492.092	95.94
492.31	99.94
492.527	88.94
492.745	101.94
492.963	82.94
493.18	90.94
493.398	96.94
493.615	95.94
493.833	90.94
494.05	84.94
494.268	80.94
494.485	103.94
494.703	93.94
494.92	82.94
495.138	104.94
495.355	89.94
495.573	88.94
495.79	83.94
496.008	78.94
496.225	94.94
496.442	100.94
496.66	112.94
496.877	98.94
497.094	101.94
497.312	88.94
497.529	86.94
497.746	92.94
497.963	101.94
498.181	94.94
498.398	89.94
498.615	107.94
498.832	101.94
499.049	91.94
499.267	89.94
499.484	73.94
499.701	98.94
499.918	84.94
500.135	94.94
500.352	92.94
500.569	74.94
500.786	82.94
501.003	75.94
501.22	87.94
501.437	84.94
501.654	93.94
501.871	98.94
502.088	87.94
502.305	98.94
502.522	90.94
502.739	93.94
502.956	94.94
503.172	80.94
503.389	86.94
503.606	100.94
503.823	91.94
504.04	93.94
504.256	110.94
504.473	108.94
504.69	89.94
504.907	98.94
505.123	100.94
505.34	92.94
505.557	89.94
505.773	86.94
505.99	92.94
506.207	94.94
506.423	93.94
506.64	89.94
506.856	86.94
507.073	95.94
507.289	89.94
507.506	99.94
507.722	108.94
507.939	109.94
508.155	101.94
508.372	89.94
508.588	88.94
508.805	89.94
509.021	98.94
509.238	94.94
509.454	91.94
509.67	90.94
509.887	109.94
510.103	130.94
510.319	219.94
510.536	731.94
510.752	2295.94
510.968	671.94
511.184	150.94
511.401	122.94
511.617	102.94
511.833	90.94
512.049	87.94
512.265	65.94
512.481	82.94
512.698	99.94
512.914	93.94
513.13	81.94
513.346	93.94
513.562	109.94
513.778	105.94
513.994	104.94
514.21	102.94
514.426	106.94
514.642	124.94
514.858	118.94
515.074	169.94
515.29	428.94
515.506	1434.94
515.721	501.94
515.937	158.94
516.153	128.94
