Data from Circ_2005_H10_HRD10591_00071.txt Node
Date: Wed Jan 03 10:30:05 EST 2024
User: Yrep
Spectrometer: HR+D1059
Trigger mode: 1
Integration Time (sec): 1.000000E-1
Scans to average: 1
Electric dark correction enabled: true
Nonlinearity correction enabled: false
Boxcar width: 0
XAxis mode: Wavelengths
Number of Pixels in Spectrum: 2048
>>>>>Begin Spectral Data<<<<<
223.165	-16
223.4	-16
223.635	-16
223.869	-18
224.104	-12
224.338	-15
224.573	-6
224.808	-21
225.042	-13
225.277	-7
225.511	-4
225.746	-1
225.98	2
226.215	9
226.449	24
226.683	11
226.918	31
227.152	36
227.387	24
227.621	29
227.856	43
228.09	46
228.324	44
228.559	42
228.793	60
229.027	65
229.262	78
229.496	69
229.73	79
229.964	87
230.199	84
230.433	71
230.667	77
230.901	81
231.136	73
231.37	74
231.604	69
231.838	80
232.072	75
232.306	78
232.541	88
232.775	78
233.009	85
233.243	96
233.477	67
233.711	82
233.945	73
234.179	80
234.413	77
234.647	81
234.881	85
235.115	69
235.349	93
235.583	84
235.817	63
236.051	85
236.285	72
236.519	88
236.753	79
236.987	79
237.221	81
237.455	89
237.689	81
237.922	71
238.156	69
238.39	85
238.624	73
238.858	86
239.091	82
239.325	77
239.559	97
239.793	89
240.027	72
240.26	83
240.494	83
240.728	79
240.961	79
241.195	75
241.429	88
241.662	88
241.896	82
242.13	84
242.363	66
242.597	69
242.83	95
243.064	70
243.298	89
243.531	76
243.765	78
243.998	74
244.232	75
244.465	91
244.699	70
244.932	78
245.166	79
245.399	67
245.633	77
245.866	70
246.099	76
246.333	85
246.566	89
246.8	62
247.033	83
247.266	84
247.5	68
247.733	88
247.966	77
248.2	87
248.433	78
248.666	71
248.899	92
249.133	86
249.366	83
249.599	86
249.832	75
250.066	86
250.299	79
250.532	92
250.765	87
250.998	86
251.231	82
251.465	90
251.698	74
251.931	85
252.164	68
252.397	71
252.63	84
252.863	83
253.096	83
253.329	82
253.562	89
253.795	75
254.028	82
254.261	63
254.494	87
254.727	84
254.96	93
255.193	77
255.426	87
255.659	75
255.892	70
256.124	71
256.357	68
256.59	76
256.823	72
257.056	76
257.289	63
257.521	76
257.754	71
257.987	71
258.22	95
258.452	72
258.685	84
258.918	85
259.151	84
259.383	90
259.616	85
259.849	92
260.081	85
260.314	83
260.547	84
260.779	86
261.012	87
261.244	82
261.477	94
261.71	79
261.942	114
262.175	104
262.407	87
262.64	68
262.872	85
263.105	77
263.337	89
263.57	71
263.802	79
264.035	71
264.267	81
264.499	75
264.732	83
264.964	92
265.197	94
265.429	85
265.661	83
265.894	80
266.126	88
266.358	88
266.591	84
266.823	80
267.055	85
267.287	87
267.52	79
267.752	86
267.984	86
268.216	79
268.448	94
268.681	79
268.913	82
269.145	92
269.377	76
269.609	84
269.841	88
270.073	80
270.306	90
270.538	87
270.77	85
271.002	92
271.234	78
271.466	91
271.698	65
271.93	72
272.162	84
272.394	86
272.626	83
272.858	95
273.09	87
273.322	67
273.553	90
273.785	77
274.017	60
274.249	80
274.481	87
274.713	79
274.945	85
275.176	89
275.408	94
275.64	94
275.872	95
276.104	84
276.335	88
276.567	101
276.799	89
277.031	93
277.262	92
277.494	93
277.726	84
277.957	110
278.189	81
278.421	83
278.652	87
278.884	86
279.115	89
279.347	108
279.579	92
279.81	79
280.042	93
280.273	99
280.505	94
280.736	99
280.968	78
281.199	84
281.431	75
281.662	85
281.894	85
282.125	97
282.356	102
282.588	133
282.819	112
283.051	87
283.282	86
283.513	103
283.745	75
283.976	94
284.207	72
284.439	71
284.67	68
284.901	83
285.132	82
285.364	79
285.595	84
285.826	76
286.057	89
286.288	95
286.52	88
286.751	88
286.982	85
287.213	76
287.444	84
287.675	100
287.906	86
288.138	99
288.369	92
288.6	98
288.831	90
289.062	86
289.293	84
289.524	94
289.755	81
289.986	82
290.217	86
290.448	88
290.679	79
290.91	80
291.141	99
291.371	90
291.602	85
291.833	76
292.064	69
292.295	94
292.526	89
292.757	86
292.987	95
293.218	91
293.449	91
293.68	81
293.91	78
294.141	81
294.372	85
294.603	82
294.833	95
295.064	83
295.295	101
295.525	84
295.756	89
295.987	105
296.217	137
296.448	120
296.679	99
296.909	77
297.14	87
297.37	84
297.601	91
297.831	88
298.062	107
298.292	81
298.523	79
298.753	90
298.984	98
299.214	94
299.445	97
299.675	112
299.905	88
300.136	89
300.366	92
300.597	84
300.827	91
301.057	113
301.288	102
301.518	85
301.748	89
301.979	87
302.209	88
302.439	85
302.669	96
302.9	90
303.13	88
303.36	85
303.59	91
303.82	92
304.051	84
304.281	100
304.511	86
304.741	83
304.971	99
305.201	86
305.431	99
305.661	86
305.891	100
306.121	91
306.352	117
306.582	112
306.812	73
307.042	79
307.272	106
307.502	108
307.731	100
307.961	82
308.191	86
308.421	98
308.651	83
308.881	93
309.111	87
309.341	84
309.571	98
309.8	97
310.03	93
310.26	97
310.49	95
310.72	92
310.949	99
311.179	90
311.409	88
311.639	101
311.868	99
312.098	100
312.328	91
312.557	88
312.787	104
313.017	105
313.246	100
313.476	91
313.706	95
313.935	80
314.165	104
314.394	96
314.624	99
314.853	98
315.083	95
315.312	84
315.542	93
315.771	97
316.001	91
316.23	81
316.46	76
316.689	99
316.919	82
317.148	89
317.377	102
317.607	99
317.836	92
318.065	79
318.295	96
318.524	87
318.753	84
318.983	86
319.212	90
319.441	88
319.67	111
319.9	86
320.129	98
320.358	86
320.587	84
320.816	96
321.046	100
321.275	95
321.504	96
321.733	88
321.962	104
322.191	98
322.42	96
322.649	120
322.878	104
323.108	123
323.337	113
323.566	114
323.795	160
324.024	199
324.253	399
324.482	783
324.71	1603
324.939	2188
325.168	776
325.397	221
325.626	152
325.855	126
326.084	116
326.313	121
326.542	127
326.77	223
326.999	438
327.228	937
327.457	1668
327.686	1332
327.914	359
328.143	211
328.372	187
328.6	142
328.829	123
329.058	113
329.287	115
329.515	113
329.744	132
329.972	139
330.201	190
330.43	214
330.658	159
330.887	138
331.115	123
331.344	93
331.572	102
331.801	98
332.03	98
332.258	100
332.486	86
332.715	83
332.943	92
333.172	95
333.4	111
333.629	113
333.857	112
334.085	131
334.314	174
334.542	266
334.771	245
334.999	123
335.227	99
335.455	84
335.684	102
335.912	97
336.14	91
336.369	103
336.597	105
336.825	96
337.053	92
337.281	97
337.51	87
337.738	89
337.966	100
338.194	93
338.422	87
338.65	101
338.878	103
339.106	88
339.334	108
339.562	84
339.79	98
340.018	80
340.246	87
340.474	78
340.702	81
340.93	79
341.158	86
341.386	105
341.614	91
341.842	103
342.07	93
342.298	94
342.526	92
342.754	96
342.981	82
343.209	94
343.437	82
343.665	100
343.893	84
344.12	99
344.348	78
344.576	97
344.804	94
345.031	89
345.259	89
345.487	92
345.714	87
345.942	90
346.17	87
346.397	96
346.625	99
346.853	89
347.08	90
347.308	99
347.535	104
347.763	100
347.99	96
348.218	82
348.445	105
348.673	90
348.9	99
349.128	96
349.355	94
349.583	104
349.81	93
350.037	89
350.265	83
350.492	88
350.72	94
350.947	111
351.174	104
351.402	103
351.629	89
351.856	98
352.083	112
352.311	93
352.538	103
352.765	107
352.992	101
353.22	96
353.447	105
353.674	99
353.901	82
354.128	97
354.355	89
354.583	103
354.81	100
355.037	95
355.264	104
355.491	100
355.718	95
355.945	102
356.172	96
356.399	91
356.626	88
356.853	92
357.08	78
357.307	102
357.534	98
357.761	97
357.988	103
358.215	108
358.441	98
358.668	98
358.895	96
359.122	88
359.349	99
359.576	91
359.802	106
360.029	112
360.256	113
360.483	111
360.709	91
360.936	77
361.163	89
361.39	89
361.616	105
361.843	90
362.07	103
362.296	112
362.523	92
362.749	97
362.976	87
363.203	91
363.429	88
363.656	82
363.882	86
364.109	87
364.335	85
364.562	96
364.788	97
365.015	103
365.241	99
365.468	111
365.694	103
365.92	101
366.147	79
366.373	103
366.599	89
366.826	97
367.052	90
367.278	91
367.505	81
367.731	85
367.957	86
368.184	86
368.41	111
368.636	116
368.862	115
369.089	118
369.315	96
369.541	100
369.767	97
369.993	102
370.219	88
370.445	73
370.672	103
370.898	83
371.124	99
371.35	88
371.576	100
371.802	92
372.028	90
372.254	79
372.48	77
372.706	100
372.932	86
373.158	86
373.384	85
373.61	91
373.835	74
374.061	77
374.287	108
374.513	100
374.739	80
374.965	97
375.191	92
375.416	87
375.642	89
375.868	92
376.094	103
376.319	87
376.545	94
376.771	89
376.997	99
377.222	87
377.448	89
377.674	92
377.899	94
378.125	88
378.35	80
378.576	85
378.802	80
379.027	89
379.253	90
379.478	96
379.704	98
379.929	91
380.155	98
380.38	93
380.606	102
380.831	92
381.057	84
381.282	82
381.507	94
381.733	111
381.958	98
382.184	84
382.409	83
382.634	99
382.86	104
383.085	103
383.31	104
383.535	88
383.761	104
383.986	111
384.211	104
384.436	96
384.662	96
384.887	94
385.112	90
385.337	89
385.562	110
385.787	101
386.013	103
386.238	104
386.463	102
386.688	103
386.913	109
387.138	112
387.363	100
387.588	103
387.813	94
388.038	100
388.263	97
388.488	102
388.713	105
388.938	95
389.163	93
389.387	96
389.612	98
389.837	106
390.062	112
390.287	81
390.512	96
390.736	88
390.961	86
391.186	102
391.411	105
391.636	84
391.86	91
392.085	102
392.31	75
392.534	87
392.759	89
392.984	87
393.208	101
393.433	107
393.658	84
393.882	77
394.107	102
394.331	92
394.556	81
394.78	95
395.005	95
395.229	81
395.454	93
395.678	90
395.903	97
396.127	89
396.352	91
396.576	83
396.801	97
397.025	95
397.249	82
397.474	77
397.698	81
397.922	96
398.147	96
398.371	87
398.595	87
398.82	90
399.044	95
399.268	89
399.492	95
399.717	85
399.941	91
400.165	87
400.389	101
400.613	93
400.837	76
401.062	84
401.286	84
401.51	86
401.734	88
401.958	80
402.182	132
402.406	148
402.63	104
402.854	85
403.078	81
403.302	81
403.526	95
403.75	103
403.974	84
404.198	72
404.422	87
404.645	95
404.869	91
405.093	95
405.317	116
405.541	101
405.765	92
405.988	115
406.212	159
406.436	231
406.66	147
406.883	87
407.107	83
407.331	85
407.555	97
407.778	89
408.002	94
408.226	73
408.449	95
408.673	89
408.896	87
409.12	81
409.344	93
409.567	98
409.791	98
410.014	99
410.238	87
410.461	96
410.685	97
410.908	89
411.132	107
411.355	88
411.578	82
411.802	91
412.025	73
412.249	97
412.472	92
412.695	88
412.919	104
413.142	94
413.365	108
413.589	72
413.812	91
414.035	100
414.258	88
414.482	99
414.705	100
414.928	83
415.151	88
415.374	97
415.597	97
415.821	88
416.044	97
416.267	84
416.49	100
416.713	93
416.936	90
417.159	97
417.382	85
417.605	88
417.828	89
418.051	95
418.274	71
418.497	96
418.72	88
418.943	97
419.166	97
419.389	100
419.611	107
419.834	95
420.057	93
420.28	77
420.503	73
420.726	103
420.948	89
421.171	94
421.394	97
421.617	103
421.839	102
422.062	89
422.285	92
422.507	100
422.73	101
422.953	88
423.175	85
423.398	82
423.621	90
423.843	85
424.066	89
424.288	92
424.511	95
424.733	85
424.956	96
425.178	102
425.401	89
425.623	104
425.846	98
426.068	99
426.291	100
426.513	100
426.735	95
426.958	99
427.18	118
427.402	147
427.625	169
427.847	131
428.069	130
428.292	105
428.514	97
428.736	80
428.958	88
429.181	107
429.403	97
429.625	77
429.847	94
430.069	112
430.292	108
430.514	88
430.736	74
430.958	80
431.18	80
431.402	59
431.624	93
431.846	82
432.068	78
432.29	75
432.512	100
432.734	83
432.956	89
433.178	107
433.4	112
433.622	101
433.844	99
434.066	80
434.287	82
434.509	93
434.731	99
434.953	78
435.175	86
435.397	85
435.618	81
435.84	99
436.062	120
436.284	111
436.505	106
436.727	105
436.949	70
437.17	89
437.392	103
437.614	101
437.835	102
438.057	123
438.278	99
438.5	107
438.721	125
438.943	110
439.165	99
439.386	93
439.608	100
439.829	110
440.05	140
440.272	145
440.493	103
440.715	84
440.936	90
441.158	101
441.379	92
441.6	89
441.822	96
442.043	94
442.264	86
442.486	100
442.707	86
442.928	105
443.149	132
443.371	127
443.592	109
443.813	106
444.034	111
444.255	96
444.476	92
444.698	96
444.919	89
445.14	141
445.361	129
445.582	117
445.803	143
446.024	132
446.245	135
446.466	102
446.687	84
446.908	88
447.129	80
447.35	77
447.571	90
447.792	100
448.013	92
448.234	107
448.455	89
448.675	117
448.896	120
449.117	108
449.338	108
449.559	135
449.779	119
450	93
450.221	93
450.442	99
450.662	91
450.883	104
451.104	100
451.324	93
451.545	91
451.766	96
451.986	84
452.207	95
452.428	91
452.648	107
452.869	115
453.089	109
453.31	111
453.53	95
453.751	76
453.971	100
454.192	116
454.412	96
454.633	96
454.853	88
455.073	87
455.294	80
455.514	100
455.734	87
455.955	87
456.175	85
456.395	101
456.616	95
456.836	82
457.056	81
457.276	89
457.497	88
457.717	93
457.937	83
458.157	86
458.377	83
458.598	100
458.818	139
459.038	149
459.258	116
459.478	93
459.698	83
459.918	84
460.138	98
460.358	75
460.578	85
460.798	81
461.018	96
461.238	75
461.458	81
461.678	84
461.898	95
462.118	75
462.338	88
462.558	85
462.777	83
462.997	94
463.217	88
463.437	86
463.657	82
463.876	81
464.096	93
464.316	80
464.536	87
464.755	90
464.975	103
465.195	139
465.414	164
465.634	99
465.854	81
466.073	101
466.293	94
466.512	98
466.732	94
466.951	86
467.171	95
467.391	103
467.61	112
467.829	95
468.049	129
468.268	162
468.488	106
468.707	96
468.927	82
469.146	88
469.365	77
469.585	91
469.804	99
470.023	91
470.243	94
470.462	94
470.681	108
470.901	94
471.12	85
471.339	83
471.558	92
471.777	96
471.997	99
472.216	203
472.435	314
472.654	139
472.873	109
473.092	89
473.311	78
473.53	89
473.749	87
473.968	99
474.187	109
474.406	103
474.625	94
474.844	98
475.063	90
475.282	72
475.501	86
475.72	87
475.939	86
476.158	89
476.377	97
476.596	109
476.814	76
477.033	100
477.252	89
477.471	83
477.69	97
477.908	93
478.127	95
478.346	90
478.564	71
478.783	100
479.002	97
479.22	95
479.439	110
479.658	119
479.876	102
480.095	84
480.313	109
480.532	101
480.751	101
480.969	182
481.188	525
481.406	349
481.624	117
481.843	82
482.061	88
482.28	79
482.498	86
482.717	67
482.935	94
483.153	76
483.372	94
483.59	98
483.808	85
484.027	97
484.245	84
484.463	89
484.681	96
484.9	95
485.118	83
485.336	88
485.554	105
485.772	96
485.99	106
486.209	104
486.427	105
486.645	102
486.863	120
487.081	96
487.299	110
487.517	96
487.735	115
487.953	99
488.171	97
488.389	91
488.607	105
488.825	90
489.043	88
489.261	79
489.479	109
489.696	95
489.914	99
490.132	86
490.35	98
490.568	89
490.786	89
491.003	98
491.221	97
491.439	94
491.657	103
491.874	84
492.092	88
492.31	76
492.527	92
492.745	91
492.963	82
493.18	92
493.398	88
493.615	100
493.833	99
494.05	79
494.268	97
494.485	83
494.703	89
494.92	91
495.138	80
495.355	98
495.573	91
495.79	84
496.008	81
496.225	99
496.442	87
496.66	93
496.877	93
497.094	89
497.312	92
497.529	86
497.746	100
497.963	90
498.181	91
498.398	99
498.615	105
498.832	110
499.049	95
499.267	86
499.484	84
499.701	85
499.918	80
500.135	90
500.352	84
500.569	93
500.786	88
501.003	83
501.22	97
501.437	93
501.654	86
501.871	106
502.088	89
502.305	75
502.522	92
502.739	82
502.956	91
503.172	88
503.389	93
503.606	93
503.823	88
504.04	91
504.256	84
504.473	78
504.69	82
504.907	85
505.123	83
505.34	78
505.557	76
505.773	94
505.99	82
506.207	89
506.423	82
506.64	91
506.856	86
507.073	91
507.289	91
507.506	92
507.722	95
507.939	95
508.155	89
508.372	94
508.588	81
508.805	87
509.021	97
509.238	100
509.454	99
509.67	102
509.887	96
510.103	135
510.319	201
510.536	700
510.752	2287
510.968	620
511.184	151
511.401	104
511.617	90
511.833	93
512.049	98
512.265	111
512.481	86
512.698	84
512.914	97
513.13	94
513.346	101
513.562	87
513.778	92
513.994	96
514.21	93
514.426	130
514.642	118
514.858	120
515.074	144
515.29	422
515.506	1398
515.721	533
515.937	151
516.153	97
516.369	109
516.585	82
516.801	96
517.016	103
517.232	98
517.448	95
517.664	79
517.879	83
518.095	92
518.311	99
518.527	81
518.742	83
518.958	91
519.173	106
519.389	97
519.605	99
519.82	75
520.036	110
520.251	119
520.467	105
520.682	99
520.898	107
521.113	118
521.329	125
521.544	187
521.76	537
521.975	2282
522.19	1409
522.406	297
522.621	120
522.836	110
523.052	85
523.267	95
523.482	98
523.698	92
523.913	113
524.128	103
524.343	83
524.559	79
524.774	91
524.989	97
525.204	94
525.419	95
525.634	106
525.849	84
526.064	89
526.28	93
526.495	88
526.71	81
526.925	94
527.14	95
527.355	88
527.57	86
527.785	86
527.999	94
528.214	97
528.429	98
528.644	94
528.859	93
529.074	74
529.289	107
529.503	156
529.718	103
529.933	99
530.148	84
530.363	73
530.577	81
530.792	83
531.007	76
531.221	107
531.436	92
531.651	91
531.865	92
532.08	79
532.295	82
532.509	95
532.724	89
532.938	91
533.153	94
533.367	97
533.582	78
533.796	104
534.011	103
534.225	73
534.44	87
534.654	85
534.868	86
535.083	96
535.297	82
535.511	101
535.726	111
535.94	95
536.154	91
536.369	104
536.583	90
536.797	85
537.011	81
537.225	98
537.44	87
537.654	84
537.868	99
538.082	95
538.296	90
538.51	98
538.724	106
538.938	87
539.153	74
539.367	120
539.581	79
539.795	88
540.009	89
540.222	94
540.436	89
540.65	91
540.864	86
541.078	87
541.292	84
541.506	97
541.72	89
541.934	88
542.147	97
542.361	94
542.575	95
542.789	81
543.002	78
543.216	88
543.43	103
543.644	96
543.857	95
544.071	77
544.285	91
544.498	91
544.712	80
544.925	71
545.139	89
545.352	87
545.566	86
545.779	95
545.993	91
546.206	71
546.42	90
546.633	76
546.847	93
547.06	91
547.274	90
547.487	79
547.7	92
547.914	87
548.127	76
548.34	86
548.554	84
548.767	91
548.98	80
549.193	80
549.407	88
549.62	90
549.833	81
550.046	86
550.259	96
550.473	93
550.686	93
550.899	85
551.112	102
551.325	73
551.538	73
551.751	101
551.964	84
552.177	80
552.39	85
552.603	92
552.816	95
553.029	97
553.242	87
553.455	90
553.667	90
553.88	97
554.093	75
554.306	93
554.519	110
554.732	85
554.944	83
555.157	82
555.37	93
555.583	89
555.795	88
556.008	87
556.221	81
556.433	94
556.646	84
556.859	98
557.071	89
557.284	85
557.496	98
557.709	88
557.921	85
558.134	95
558.346	88
558.559	87
558.771	87
558.984	88
559.196	81
559.409	85
559.621	82
559.833	88
560.046	87
560.258	89
560.47	87
560.683	95
560.895	105
561.107	91
561.32	95
561.532	94
561.744	94
561.956	95
562.168	81
562.381	98
562.593	99
562.805	89
563.017	90
563.229	94
563.441	82
563.653	77
563.865	97
564.077	89
564.289	83
564.501	86
564.713	95
564.925	96
565.137	86
565.349	102
565.561	78
565.773	76
565.985	94
566.197	88
566.408	93
566.62	88
566.832	88
567.044	112
567.255	95
567.467	98
567.679	93
567.891	88
568.102	96
568.314	88
568.526	87
568.737	85
568.949	85
569.161	77
569.372	94
569.584	91
569.795	95
570.007	108
570.218	228
570.43	126
570.641	100
570.853	84
571.064	80
571.276	79
571.487	93
571.698	90
571.91	89
572.121	79
572.333	75
572.544	79
572.755	84
572.966	104
573.178	87
573.389	91
573.6	92
573.811	83
574.023	81
574.234	80
574.445	101
574.656	85
574.867	85
575.078	88
575.289	69
575.501	92
575.712	92
575.923	88
576.134	94
576.345	103
576.556	98
576.767	93
576.978	98
577.188	92
577.399	93
577.61	90
577.821	99
578.032	108
578.243	252
578.454	729
578.665	208
578.875	105
579.086	88
579.297	94
579.508	82
579.718	83
579.929	86
580.14	100
580.35	85
580.561	96
580.772	75
580.982	93
581.193	75
581.403	82
581.614	91
581.825	86
582.035	100
582.246	108
582.456	83
582.667	89
582.877	94
583.087	88
583.298	85
583.508	82
583.719	95
583.929	104
584.139	84
