Data from Circ_2005_H10_HRD10591_00086.txt Node
Date: Wed Jan 03 10:30:08 EST 2024
User: Yrep
Spectrometer: HR+D1059
Trigger mode: 1
Integration Time (sec): 1.000000E-1
Scans to average: 1
Electric dark correction enabled: true
Nonlinearity correction enabled: false
Boxcar width: 0
XAxis mode: Wavelengths
Number of Pixels in Spectrum: 2048
>>>>>Begin Spectral Data<<<<<
223.165	-12.12
223.4	-12.12
223.635	-12.12
223.869	-13.12
224.104	-31.12
224.338	-31.12
224.573	-4.12
224.808	-15.12
225.042	-0.12
225.277	-12.12
225.511	8.88
225.746	-15.12
225.98	6.88
226.215	10.88
226.449	13.88
226.683	23.88
226.918	42.88
227.152	26.88
227.387	47.88
227.621	34.88
227.856	42.88
228.09	52.88
228.324	49.88
228.559	52.88
228.793	60.88
229.027	70.88
229.262	59.88
229.496	67.88
229.73	82.88
229.964	76.88
230.199	77.88
230.433	74.88
230.667	88.88
230.901	77.88
231.136	77.88
231.37	87.88
231.604	85.88
231.838	84.88
232.072	70.88
232.306	81.88
232.541	72.88
232.775	74.88
233.009	78.88
233.243	72.88
233.477	72.88
233.711	86.88
233.945	76.88
234.179	89.88
234.413	88.88
234.647	90.88
234.881	72.88
235.115	84.88
235.349	82.88
235.583	69.88
235.817	72.88
236.051	76.88
236.285	70.88
236.519	80.88
236.753	86.88
236.987	88.88
237.221	88.88
237.455	82.88
237.689	91.88
237.922	70.88
238.156	90.88
238.39	80.88
238.624	81.88
238.858	70.88
239.091	88.88
239.325	73.88
239.559	93.88
239.793	82.88
240.027	78.88
240.26	72.88
240.494	91.88
240.728	63.88
240.961	74.88
241.195	90.88
241.429	71.88
241.662	84.88
241.896	85.88
242.13	77.88
242.363	73.88
242.597	77.88
242.83	83.88
243.064	73.88
243.298	73.88
243.531	70.88
243.765	88.88
243.998	93.88
244.232	79.88
244.465	89.88
244.699	76.88
244.932	64.88
245.166	80.88
245.399	90.88
245.633	69.88
245.866	78.88
246.099	72.88
246.333	67.88
246.566	66.88
246.8	86.88
247.033	77.88
247.266	77.88
247.5	80.88
247.733	79.88
247.966	80.88
248.2	92.88
248.433	78.88
248.666	70.88
248.899	70.88
249.133	84.88
249.366	94.88
249.599	83.88
249.832	74.88
250.066	84.88
250.299	87.88
250.532	89.88
250.765	69.88
250.998	74.88
251.231	77.88
251.465	84.88
251.698	65.88
251.931	69.88
252.164	77.88
252.397	71.88
252.63	84.88
252.863	72.88
253.096	89.88
253.329	83.88
253.562	83.88
253.795	78.88
254.028	83.88
254.261	91.88
254.494	82.88
254.727	70.88
254.96	86.88
255.193	88.88
255.426	86.88
255.659	71.88
255.892	78.88
256.124	78.88
256.357	89.88
256.59	81.88
256.823	79.88
257.056	84.88
257.289	70.88
257.521	85.88
257.754	77.88
257.987	81.88
258.22	82.88
258.452	76.88
258.685	86.88
258.918	84.88
259.151	68.88
259.383	87.88
259.616	77.88
259.849	86.88
260.081	88.88
260.314	77.88
260.547	79.88
260.779	75.88
261.012	85.88
261.244	78.88
261.477	79.88
261.71	99.88
261.942	101.88
262.175	97.88
262.407	83.88
262.64	81.88
262.872	84.88
263.105	96.88
263.337	88.88
263.57	74.88
263.802	94.88
264.035	95.88
264.267	67.88
264.499	80.88
264.732	87.88
264.964	93.88
265.197	73.88
265.429	80.88
265.661	65.88
265.894	78.88
266.126	81.88
266.358	97.88
266.591	79.88
266.823	94.88
267.055	81.88
267.287	84.88
267.52	79.88
267.752	94.88
267.984	93.88
268.216	88.88
268.448	89.88
268.681	84.88
268.913	91.88
269.145	81.88
269.377	84.88
269.609	71.88
269.841	89.88
270.073	80.88
270.306	96.88
270.538	87.88
270.77	88.88
271.002	80.88
271.234	84.88
271.466	92.88
271.698	80.88
271.93	92.88
272.162	90.88
272.394	88.88
272.626	81.88
272.858	82.88
273.09	87.88
273.322	89.88
273.553	69.88
273.785	89.88
274.017	82.88
274.249	80.88
274.481	74.88
274.713	88.88
274.945	93.88
275.176	83.88
275.408	83.88
275.64	94.88
275.872	80.88
276.104	86.88
276.335	84.88
276.567	100.88
276.799	110.88
277.031	102.88
277.262	87.88
277.494	87.88
277.726	74.88
277.957	90.88
278.189	86.88
278.421	81.88
278.652	92.88
278.884	90.88
279.115	71.88
279.347	78.88
279.579	93.88
279.81	96.88
280.042	101.88
280.273	103.88
280.505	89.88
280.736	91.88
280.968	88.88
281.199	88.88
281.431	84.88
281.662	87.88
281.894	96.88
282.125	98.88
282.356	107.88
282.588	129.88
282.819	119.88
283.051	89.88
283.282	99.88
283.513	88.88
283.745	92.88
283.976	86.88
284.207	94.88
284.439	96.88
284.67	98.88
284.901	90.88
285.132	85.88
285.364	87.88
285.595	91.88
285.826	88.88
286.057	95.88
286.288	86.88
286.52	88.88
286.751	98.88
286.982	64.88
287.213	100.88
287.444	100.88
287.675	85.88
287.906	80.88
288.138	85.88
288.369	85.88
288.6	98.88
288.831	85.88
289.062	78.88
289.293	109.88
289.524	101.88
289.755	93.88
289.986	82.88
290.217	82.88
290.448	86.88
290.679	76.88
290.91	87.88
291.141	88.88
291.371	87.88
291.602	76.88
291.833	76.88
292.064	95.88
292.295	100.88
292.526	83.88
292.757	91.88
292.987	79.88
293.218	90.88
293.449	88.88
293.68	94.88
293.91	85.88
294.141	79.88
294.372	86.88
294.603	96.88
294.833	88.88
295.064	83.88
295.295	93.88
295.525	83.88
295.756	98.88
295.987	111.88
296.217	135.88
296.448	121.88
296.679	92.88
296.909	85.88
297.14	92.88
297.37	88.88
297.601	81.88
297.831	87.88
298.062	86.88
298.292	89.88
298.523	72.88
298.753	99.88
298.984	95.88
299.214	97.88
299.445	87.88
299.675	93.88
299.905	95.88
300.136	85.88
300.366	92.88
300.597	95.88
300.827	93.88
301.057	95.88
301.288	100.88
301.518	98.88
301.748	90.88
301.979	87.88
302.209	104.88
302.439	84.88
302.669	95.88
302.9	98.88
303.13	94.88
303.36	101.88
303.59	95.88
303.82	96.88
304.051	91.88
304.281	90.88
304.511	90.88
304.741	95.88
304.971	85.88
305.201	88.88
305.431	94.88
305.661	108.88
305.891	89.88
306.121	95.88
306.352	103.88
306.582	103.88
306.812	88.88
307.042	80.88
307.272	95.88
307.502	112.88
307.731	112.88
307.961	104.88
308.191	99.88
308.421	101.88
308.651	84.88
308.881	83.88
309.111	88.88
309.341	106.88
309.571	96.88
309.8	88.88
310.03	102.88
310.26	83.88
310.49	103.88
310.72	96.88
310.949	95.88
311.179	91.88
311.409	96.88
311.639	94.88
311.868	102.88
312.098	90.88
312.328	95.88
312.557	98.88
312.787	92.88
313.017	93.88
313.246	89.88
313.476	85.88
313.706	82.88
313.935	83.88
314.165	96.88
314.394	109.88
314.624	108.88
314.853	96.88
315.083	94.88
315.312	101.88
315.542	90.88
315.771	100.88
316.001	91.88
316.23	91.88
316.46	88.88
316.689	78.88
316.919	95.88
317.148	88.88
317.377	90.88
317.607	99.88
317.836	91.88
318.065	71.88
318.295	94.88
318.524	83.88
318.753	82.88
318.983	79.88
319.212	86.88
319.441	104.88
319.67	100.88
319.9	94.88
320.129	89.88
320.358	88.88
320.587	104.88
320.816	89.88
321.046	102.88
321.275	82.88
321.504	106.88
321.733	97.88
321.962	100.88
322.191	105.88
322.42	96.88
322.649	103.88
322.878	103.88
323.108	103.88
323.337	106.88
323.566	124.88
323.795	156.88
324.024	203.88
324.253	362.88
324.482	747.88
324.71	1553.88
324.939	2046.88
325.168	776.88
325.397	239.88
325.626	153.88
325.855	123.88
326.084	136.88
326.313	140.88
326.542	155.88
326.77	219.88
326.999	437.88
327.228	877.88
327.457	1585.88
327.686	1290.88
327.914	372.88
328.143	207.88
328.372	183.88
328.6	138.88
328.829	118.88
329.058	110.88
329.287	125.88
329.515	125.88
329.744	104.88
329.972	134.88
330.201	186.88
330.43	231.88
330.658	160.88
330.887	140.88
331.115	111.88
331.344	92.88
331.572	106.88
331.801	100.88
332.03	103.88
332.258	109.88
332.486	83.88
332.715	75.88
332.943	97.88
333.172	96.88
333.4	91.88
333.629	109.88
333.857	109.88
334.085	145.88
334.314	184.88
334.542	251.88
334.771	252.88
334.999	108.88
335.227	109.88
335.455	91.88
335.684	97.88
335.912	99.88
336.14	95.88
336.369	99.88
336.597	89.88
336.825	87.88
337.053	92.88
337.281	92.88
337.51	86.88
337.738	95.88
337.966	87.88
338.194	99.88
338.422	86.88
338.65	80.88
338.878	100.88
339.106	95.88
339.334	99.88
339.562	99.88
339.79	94.88
340.018	95.88
340.246	75.88
340.474	101.88
340.702	94.88
340.93	83.88
341.158	77.88
341.386	106.88
341.614	88.88
341.842	95.88
342.07	96.88
342.298	98.88
342.526	94.88
342.754	98.88
342.981	87.88
343.209	84.88
343.437	92.88
343.665	81.88
343.893	82.88
344.12	98.88
344.348	87.88
344.576	77.88
344.804	86.88
345.031	91.88
345.259	88.88
345.487	94.88
345.714	99.88
345.942	94.88
346.17	92.88
346.397	99.88
346.625	84.88
346.853	93.88
347.08	100.88
347.308	99.88
347.535	92.88
347.763	90.88
347.99	87.88
348.218	100.88
348.445	107.88
348.673	90.88
348.9	108.88
349.128	98.88
349.355	89.88
349.583	105.88
349.81	85.88
350.037	87.88
350.265	84.88
350.492	91.88
350.72	84.88
350.947	83.88
351.174	108.88
351.402	113.88
351.629	104.88
351.856	103.88
352.083	108.88
352.311	104.88
352.538	103.88
352.765	107.88
352.992	110.88
353.22	116.88
353.447	87.88
353.674	97.88
353.901	101.88
354.128	91.88
354.355	88.88
354.583	87.88
354.81	86.88
355.037	88.88
355.264	93.88
355.491	101.88
355.718	99.88
355.945	77.88
356.172	94.88
356.399	100.88
356.626	97.88
356.853	84.88
357.08	86.88
357.307	100.88
357.534	76.88
357.761	113.88
357.988	91.88
358.215	103.88
358.441	86.88
358.668	80.88
358.895	92.88
359.122	84.88
359.349	92.88
359.576	103.88
359.802	92.88
360.029	87.88
360.256	109.88
360.483	92.88
360.709	91.88
360.936	98.88
361.163	97.88
361.39	95.88
361.616	101.88
361.843	86.88
362.07	86.88
362.296	94.88
362.523	88.88
362.749	88.88
362.976	88.88
363.203	84.88
363.429	95.88
363.656	100.88
363.882	91.88
364.109	91.88
364.335	89.88
364.562	87.88
364.788	89.88
365.015	95.88
365.241	97.88
365.468	88.88
365.694	96.88
365.92	92.88
366.147	90.88
366.373	94.88
366.599	90.88
366.826	92.88
367.052	93.88
367.278	78.88
367.505	83.88
367.731	90.88
367.957	91.88
368.184	86.88
368.41	98.88
368.636	103.88
368.862	121.88
369.089	109.88
369.315	94.88
369.541	81.88
369.767	78.88
369.993	85.88
370.219	86.88
370.445	80.88
370.672	100.88
370.898	87.88
371.124	85.88
371.35	97.88
371.576	92.88
371.802	88.88
372.028	68.88
372.254	90.88
372.48	81.88
372.706	83.88
372.932	89.88
373.158	93.88
373.384	87.88
373.61	88.88
373.835	76.88
374.061	92.88
374.287	92.88
374.513	96.88
374.739	83.88
374.965	82.88
375.191	88.88
375.416	94.88
375.642	98.88
375.868	96.88
376.094	80.88
376.319	94.88
376.545	94.88
376.771	108.88
376.997	91.88
377.222	90.88
377.448	87.88
377.674	83.88
377.899	73.88
378.125	84.88
378.35	88.88
378.576	98.88
378.802	90.88
379.027	94.88
379.253	77.88
379.478	92.88
379.704	80.88
379.929	95.88
380.155	86.88
380.38	99.88
380.606	76.88
380.831	87.88
381.057	106.88
381.282	95.88
381.507	90.88
381.733	95.88
381.958	95.88
382.184	104.88
382.409	107.88
382.634	96.88
382.86	94.88
383.085	92.88
383.31	87.88
383.535	88.88
383.761	99.88
383.986	86.88
384.211	92.88
384.436	102.88
384.662	88.88
384.887	109.88
385.112	108.88
385.337	102.88
385.562	95.88
385.787	103.88
386.013	99.88
386.238	109.88
386.463	116.88
386.688	99.88
386.913	101.88
387.138	102.88
387.363	101.88
387.588	96.88
387.813	99.88
388.038	90.88
388.263	95.88
388.488	99.88
388.713	96.88
388.938	91.88
389.163	90.88
389.387	100.88
389.612	103.88
389.837	103.88
390.062	100.88
390.287	102.88
390.512	82.88
390.736	89.88
390.961	90.88
391.186	81.88
391.411	93.88
391.636	83.88
391.86	80.88
392.085	83.88
392.31	85.88
392.534	92.88
392.759	84.88
392.984	83.88
393.208	81.88
393.433	86.88
393.658	86.88
393.882	88.88
394.107	97.88
394.331	83.88
394.556	74.88
394.78	91.88
395.005	78.88
395.229	102.88
395.454	85.88
395.678	98.88
395.903	94.88
396.127	84.88
396.352	82.88
396.576	86.88
396.801	79.88
397.025	83.88
397.249	84.88
397.474	88.88
397.698	73.88
397.922	87.88
398.147	83.88
398.371	71.88
398.595	86.88
398.82	70.88
399.044	80.88
399.268	77.88
399.492	99.88
399.717	77.88
399.941	64.88
400.165	94.88
400.389	79.88
400.613	82.88
400.837	94.88
401.062	66.88
401.286	80.88
401.51	85.88
401.734	84.88
401.958	98.88
402.182	130.88
402.406	138.88
402.63	115.88
402.854	84.88
403.078	87.88
403.302	86.88
403.526	74.88
403.75	75.88
403.974	75.88
404.198	82.88
404.422	92.88
404.645	82.88
404.869	90.88
405.093	66.88
405.317	98.88
405.541	106.88
405.765	87.88
405.988	107.88
406.212	163.88
406.436	215.88
406.66	142.88
406.883	85.88
407.107	96.88
407.331	92.88
407.555	100.88
407.778	93.88
408.002	73.88
408.226	82.88
408.449	77.88
408.673	94.88
408.896	80.88
409.12	99.88
409.344	78.88
409.567	82.88
409.791	100.88
410.014	107.88
410.238	88.88
410.461	84.88
410.685	85.88
410.908	81.88
411.132	103.88
411.355	93.88
411.578	94.88
411.802	87.88
412.025	86.88
412.249	87.88
412.472	95.88
412.695	92.88
412.919	83.88
413.142	87.88
413.365	82.88
413.589	88.88
413.812	87.88
414.035	85.88
414.258	84.88
414.482	94.88
414.705	76.88
414.928	79.88
415.151	90.88
415.374	85.88
415.597	93.88
415.821	81.88
416.044	66.88
416.267	93.88
416.49	87.88
416.713	88.88
416.936	78.88
417.159	85.88
417.382	83.88
417.605	83.88
417.828	103.88
418.051	77.88
418.274	92.88
418.497	97.88
418.72	97.88
418.943	76.88
419.166	96.88
419.389	90.88
419.611	84.88
419.834	89.88
420.057	92.88
420.28	80.88
420.503	84.88
420.726	84.88
420.948	85.88
421.171	102.88
421.394	91.88
421.617	88.88
421.839	79.88
422.062	97.88
422.285	95.88
422.507	90.88
422.73	101.88
422.953	86.88
423.175	66.88
423.398	90.88
423.621	90.88
423.843	89.88
424.066	94.88
424.288	83.88
424.511	93.88
424.733	94.88
424.956	89.88
425.178	89.88
425.401	106.88
425.623	101.88
425.846	98.88
426.068	88.88
426.291	90.88
426.513	94.88
426.735	90.88
426.958	95.88
427.18	95.88
427.402	122.88
427.625	154.88
427.847	143.88
428.069	125.88
428.292	94.88
428.514	89.88
428.736	76.88
428.958	82.88
429.181	84.88
429.403	98.88
429.625	82.88
429.847	94.88
430.069	86.88
430.292	86.88
430.514	91.88
430.736	78.88
430.958	85.88
431.18	77.88
431.402	86.88
431.624	88.88
431.846	81.88
432.068	80.88
432.29	81.88
432.512	90.88
432.734	84.88
432.956	79.88
433.178	92.88
433.4	107.88
433.622	88.88
433.844	85.88
434.066	97.88
434.287	92.88
434.509	74.88
434.731	86.88
434.953	95.88
435.175	86.88
435.397	76.88
435.618	88.88
435.84	92.88
436.062	106.88
436.284	107.88
436.505	100.88
436.727	86.88
436.949	86.88
437.17	78.88
437.392	80.88
437.614	84.88
437.835	111.88
438.057	99.88
438.278	101.88
438.5	91.88
438.721	113.88
438.943	92.88
439.165	78.88
439.386	76.88
439.608	86.88
439.829	110.88
440.05	110.88
440.272	115.88
440.493	81.88
440.715	73.88
440.936	78.88
441.158	94.88
441.379	92.88
441.6	94.88
441.822	89.88
442.043	89.88
442.264	114.88
442.486	107.88
442.707	92.88
442.928	90.88
443.149	116.88
443.371	126.88
443.592	93.88
443.813	115.88
444.034	100.88
444.255	92.88
444.476	91.88
444.698	79.88
444.919	94.88
445.14	127.88
445.361	108.88
445.582	104.88
445.803	126.88
446.024	120.88
446.245	106.88
446.466	114.88
446.687	85.88
446.908	96.88
447.129	78.88
447.35	92.88
447.571	108.88
447.792	100.88
448.013	93.88
448.234	108.88
448.455	102.88
448.675	107.88
448.896	111.88
449.117	99.88
449.338	104.88
449.559	94.88
449.779	109.88
450	108.88
450.221	91.88
450.442	82.88
450.662	76.88
450.883	106.88
451.104	92.88
451.324	88.88
451.545	72.88
451.766	92.88
451.986	85.88
452.207	88.88
452.428	89.88
452.648	119.88
452.869	103.88
453.089	95.88
453.31	100.88
453.53	74.88
453.751	87.88
453.971	90.88
454.192	103.88
454.412	104.88
454.633	89.88
454.853	85.88
455.073	68.88
455.294	84.88
455.514	101.88
455.734	86.88
455.955	94.88
456.175	87.88
456.395	85.88
456.616	87.88
456.836	95.88
457.056	78.88
457.276	80.88
457.497	84.88
457.717	75.88
457.937	82.88
458.157	88.88
458.377	74.88
458.598	99.88
458.818	149.88
459.038	141.88
459.258	109.88
459.478	84.88
459.698	94.88
459.918	78.88
460.138	94.88
460.358	79.88
460.578	82.88
460.798	87.88
461.018	88.88
461.238	85.88
461.458	93.88
461.678	92.88
461.898	90.88
462.118	92.88
462.338	81.88
462.558	82.88
462.777	70.88
462.997	82.88
463.217	86.88
463.437	74.88
463.657	89.88
463.876	68.88
464.096	84.88
464.316	78.88
464.536	85.88
464.755	113.88
464.975	100.88
465.195	141.88
465.414	154.88
465.634	97.88
465.854	88.88
466.073	99.88
466.293	89.88
466.512	74.88
466.732	81.88
466.951	90.88
467.171	78.88
467.391	96.88
467.61	87.88
467.829	107.88
468.049	142.88
468.268	166.88
468.488	100.88
468.707	87.88
468.927	87.88
469.146	99.88
469.365	95.88
469.585	100.88
469.804	101.88
470.023	92.88
470.243	92.88
470.462	100.88
470.681	91.88
470.901	82.88
471.12	71.88
471.339	95.88
471.558	87.88
471.777	103.88
471.997	97.88
472.216	193.88
472.435	341.88
472.654	139.88
472.873	85.88
473.092	97.88
473.311	89.88
473.53	79.88
473.749	95.88
473.968	84.88
474.187	90.88
474.406	91.88
474.625	88.88
474.844	92.88
475.063	80.88
475.282	86.88
475.501	92.88
475.72	83.88
475.939	85.88
476.158	79.88
476.377	83.88
476.596	102.88
476.814	99.88
477.033	90.88
477.252	70.88
477.471	77.88
477.69	94.88
477.908	92.88
478.127	101.88
478.346	87.88
478.564	94.88
478.783	94.88
479.002	95.88
479.22	93.88
479.439	89.88
479.658	108.88
479.876	91.88
480.095	98.88
480.313	86.88
480.532	106.88
480.751	87.88
480.969	196.88
481.188	589.88
481.406	370.88
481.624	114.88
481.843	96.88
482.061	93.88
482.28	96.88
482.498	96.88
482.717	107.88
482.935	95.88
483.153	95.88
483.372	80.88
483.59	99.88
483.808	102.88
484.027	100.88
484.245	91.88
484.463	100.88
484.681	93.88
484.9	110.88
485.118	101.88
485.336	93.88
485.554	87.88
485.772	103.88
485.99	92.88
486.209	101.88
486.427	90.88
486.645	104.88
486.863	103.88
487.081	77.88
487.299	88.88
487.517	100.88
487.735	114.88
487.953	86.88
488.171	85.88
488.389	96.88
488.607	92.88
488.825	92.88
489.043	104.88
489.261	101.88
489.479	94.88
489.696	95.88
489.914	89.88
490.132	88.88
490.35	96.88
490.568	95.88
490.786	92.88
491.003	90.88
491.221	95.88
491.439	102.88
491.657	88.88
491.874	95.88
492.092	81.88
492.31	84.88
492.527	85.88
492.745	91.88
492.963	96.88
493.18	85.88
493.398	92.88
493.615	85.88
493.833	85.88
494.05	95.88
494.268	83.88
494.485	83.88
494.703	84.88
494.92	99.88
495.138	77.88
495.355	83.88
495.573	101.88
495.79	95.88
496.008	86.88
496.225	83.88
496.442	92.88
496.66	97.88
496.877	95.88
497.094	80.88
497.312	88.88
497.529	103.88
497.746	89.88
497.963	94.88
498.181	82.88
498.398	95.88
498.615	103.88
498.832	103.88
499.049	82.88
499.267	97.88
499.484	93.88
499.701	104.88
499.918	88.88
500.135	84.88
500.352	81.88
500.569	93.88
500.786	87.88
501.003	96.88
501.22	87.88
501.437	86.88
501.654	102.88
501.871	119.88
502.088	92.88
502.305	83.88
502.522	87.88
502.739	77.88
502.956	94.88
503.172	86.88
503.389	104.88
503.606	102.88
503.823	105.88
504.04	86.88
504.256	91.88
504.473	88.88
504.69	94.88
504.907	86.88
505.123	90.88
505.34	85.88
505.557	93.88
505.773	75.88
505.99	86.88
506.207	91.88
506.423	90.88
506.64	84.88
506.856	88.88
507.073	95.88
507.289	96.88
507.506	98.88
507.722	84.88
507.939	91.88
508.155	81.88
508.372	83.88
508.588	103.88
508.805	107.88
509.021	97.88
509.238	104.88
509.454	100.88
509.67	99.88
509.887	99.88
510.103	139.88
510.319	200.88
510.536	683.88
510.752	2197.88
510.968	640.88
511.184	154.88
511.401	116.88
511.617	102.88
511.833	84.88
512.049	119.88
512.265	99.88
512.481	89.88
512.698	81.88
512.914	96.88
513.13	92.88
513.346	90.88
513.562	101.88
513.778	94.88
513.994	91.88
514.21	102.88
514.426	105.88
514.642	106.88
514.858	114.88
515.074	152.88
515.29	403.88
515.506	1318.88
515.721	503.88
515.937	152.88
516.153	104.88
