Data from Circ_2005_H10_HRD10591_00062.txt Node
Date: Wed Jan 03 10:30:03 EST 2024
User: Yrep
Spectrometer: HR+D1059
Trigger mode: 1
Integration Time (sec): 1.000000E-1
Scans to average: 1
Electric dark correction enabled: true
Nonlinearity correction enabled: false
Boxcar width: 0
XAxis mode: Wavelengths
Number of Pixels in Spectrum: 2048
>>>>>Begin Spectral Data<<<<<
223.165	-20.5
223.4	-20.5
223.635	-20.5
223.869	-10.5
224.104	-24.5
224.338	-26.5
224.573	-27.5
224.808	-5.5
225.042	8.5
225.277	-13.5
225.511	-6.5
225.746	5.5
225.98	12.5
226.215	22.5
226.449	14.5
226.683	28.5
226.918	21.5
227.152	21.5
227.387	26.5
227.621	35.5
227.856	58.5
228.09	53.5
228.324	48.5
228.559	44.5
228.793	64.5
229.027	54.5
229.262	74.5
229.496	52.5
229.73	67.5
229.964	74.5
230.199	69.5
230.433	81.5
230.667	87.5
230.901	79.5
231.136	91.5
231.37	67.5
231.604	98.5
231.838	90.5
232.072	76.5
232.306	81.5
232.541	96.5
232.775	91.5
233.009	60.5
233.243	74.5
233.477	81.5
233.711	75.5
233.945	62.5
234.179	93.5
234.413	80.5
234.647	79.5
234.881	88.5
235.115	79.5
235.349	59.5
235.583	86.5
235.817	68.5
236.051	78.5
236.285	77.5
236.519	62.5
236.753	80.5
236.987	83.5
237.221	72.5
237.455	81.5
237.689	78.5
237.922	65.5
238.156	68.5
238.39	72.5
238.624	75.5
238.858	76.5
239.091	76.5
239.325	75.5
239.559	71.5
239.793	91.5
240.027	78.5
240.26	79.5
240.494	69.5
240.728	78.5
240.961	77.5
241.195	74.5
241.429	53.5
241.662	69.5
241.896	68.5
242.13	78.5
242.363	87.5
242.597	81.5
242.83	87.5
243.064	69.5
243.298	78.5
243.531	75.5
243.765	75.5
243.998	82.5
244.232	69.5
244.465	93.5
244.699	84.5
244.932	91.5
245.166	70.5
245.399	71.5
245.633	86.5
245.866	80.5
246.099	75.5
246.333	87.5
246.566	83.5
246.8	92.5
247.033	86.5
247.266	68.5
247.5	66.5
247.733	90.5
247.966	75.5
248.2	87.5
248.433	75.5
248.666	81.5
248.899	80.5
249.133	92.5
249.366	91.5
249.599	82.5
249.832	75.5
250.066	87.5
250.299	70.5
250.532	87.5
250.765	92.5
250.998	65.5
251.231	76.5
251.465	83.5
251.698	70.5
251.931	87.5
252.164	81.5
252.397	63.5
252.63	82.5
252.863	77.5
253.096	81.5
253.329	84.5
253.562	67.5
253.795	81.5
254.028	71.5
254.261	87.5
254.494	71.5
254.727	72.5
254.96	70.5
255.193	86.5
255.426	68.5
255.659	87.5
255.892	58.5
256.124	72.5
256.357	85.5
256.59	76.5
256.823	68.5
257.056	85.5
257.289	82.5
257.521	76.5
257.754	77.5
257.987	93.5
258.22	82.5
258.452	87.5
258.685	79.5
258.918	74.5
259.151	81.5
259.383	99.5
259.616	80.5
259.849	83.5
260.081	86.5
260.314	81.5
260.547	71.5
260.779	68.5
261.012	92.5
261.244	84.5
261.477	92.5
261.71	76.5
261.942	89.5
262.175	101.5
262.407	107.5
262.64	84.5
262.872	89.5
263.105	77.5
263.337	80.5
263.57	89.5
263.802	86.5
264.035	84.5
264.267	83.5
264.499	85.5
264.732	85.5
264.964	88.5
265.197	84.5
265.429	83.5
265.661	81.5
265.894	67.5
266.126	72.5
266.358	75.5
266.591	79.5
266.823	83.5
267.055	87.5
267.287	81.5
267.52	76.5
267.752	86.5
267.984	72.5
268.216	76.5
268.448	86.5
268.681	87.5
268.913	81.5
269.145	77.5
269.377	78.5
269.609	80.5
269.841	87.5
270.073	83.5
270.306	85.5
270.538	83.5
270.77	94.5
271.002	81.5
271.234	94.5
271.466	88.5
271.698	92.5
271.93	91.5
272.162	87.5
272.394	89.5
272.626	86.5
272.858	95.5
273.09	78.5
273.322	89.5
273.553	93.5
273.785	86.5
274.017	74.5
274.249	86.5
274.481	81.5
274.713	76.5
274.945	85.5
275.176	83.5
275.408	84.5
275.64	83.5
275.872	73.5
276.104	79.5
276.335	79.5
276.567	87.5
276.799	95.5
277.031	104.5
277.262	90.5
277.494	89.5
277.726	81.5
277.957	98.5
278.189	82.5
278.421	80.5
278.652	68.5
278.884	88.5
279.115	76.5
279.347	61.5
279.579	87.5
279.81	87.5
280.042	89.5
280.273	94.5
280.505	76.5
280.736	79.5
280.968	83.5
281.199	85.5
281.431	78.5
281.662	81.5
281.894	96.5
282.125	92.5
282.356	98.5
282.588	117.5
282.819	107.5
283.051	95.5
283.282	73.5
283.513	93.5
283.745	84.5
283.976	84.5
284.207	98.5
284.439	81.5
284.67	90.5
284.901	72.5
285.132	93.5
285.364	92.5
285.595	91.5
285.826	79.5
286.057	78.5
286.288	93.5
286.52	95.5
286.751	89.5
286.982	92.5
287.213	89.5
287.444	80.5
287.675	76.5
287.906	80.5
288.138	76.5
288.369	99.5
288.6	93.5
288.831	96.5
289.062	97.5
289.293	79.5
289.524	88.5
289.755	82.5
289.986	76.5
290.217	81.5
290.448	83.5
290.679	86.5
290.91	95.5
291.141	101.5
291.371	72.5
291.602	88.5
291.833	90.5
292.064	65.5
292.295	93.5
292.526	97.5
292.757	91.5
292.987	81.5
293.218	86.5
293.449	75.5
293.68	85.5
293.91	82.5
294.141	102.5
294.372	85.5
294.603	98.5
294.833	82.5
295.064	78.5
295.295	90.5
295.525	88.5
295.756	87.5
295.987	104.5
296.217	113.5
296.448	95.5
296.679	82.5
296.909	93.5
297.14	83.5
297.37	104.5
297.601	95.5
297.831	87.5
298.062	84.5
298.292	81.5
298.523	75.5
298.753	93.5
298.984	91.5
299.214	90.5
299.445	77.5
299.675	83.5
299.905	90.5
300.136	88.5
300.366	89.5
300.597	94.5
300.827	100.5
301.057	104.5
301.288	97.5
301.518	93.5
301.748	84.5
301.979	84.5
302.209	103.5
302.439	97.5
302.669	86.5
302.9	72.5
303.13	89.5
303.36	89.5
303.59	102.5
303.82	100.5
304.051	96.5
304.281	86.5
304.511	97.5
304.741	95.5
304.971	89.5
305.201	85.5
305.431	98.5
305.661	88.5
305.891	97.5
306.121	87.5
306.352	90.5
306.582	111.5
306.812	99.5
307.042	103.5
307.272	109.5
307.502	103.5
307.731	98.5
307.961	108.5
308.191	73.5
308.421	88.5
308.651	88.5
308.881	92.5
309.111	98.5
309.341	95.5
309.571	83.5
309.8	83.5
310.03	84.5
310.26	97.5
310.49	82.5
310.72	100.5
310.949	107.5
311.179	88.5
311.409	102.5
311.639	92.5
311.868	96.5
312.098	88.5
312.328	97.5
312.557	99.5
312.787	93.5
313.017	96.5
313.246	92.5
313.476	84.5
313.706	90.5
313.935	98.5
314.165	100.5
314.394	105.5
314.624	94.5
314.853	96.5
315.083	98.5
315.312	87.5
315.542	86.5
315.771	68.5
316.001	89.5
316.23	98.5
316.46	105.5
316.689	78.5
316.919	88.5
317.148	106.5
317.377	101.5
317.607	104.5
317.836	95.5
318.065	84.5
318.295	89.5
318.524	102.5
318.753	90.5
318.983	94.5
319.212	88.5
319.441	98.5
319.67	94.5
319.9	84.5
320.129	92.5
320.358	82.5
320.587	99.5
320.816	82.5
321.046	101.5
321.275	90.5
321.504	85.5
321.733	82.5
321.962	98.5
322.191	110.5
322.42	88.5
322.649	96.5
322.878	119.5
323.108	98.5
323.337	118.5
323.566	130.5
323.795	145.5
324.024	182.5
324.253	325.5
324.482	710.5
324.71	1389.5
324.939	1827.5
325.168	678.5
325.397	224.5
325.626	148.5
325.855	132.5
326.084	117.5
326.313	122.5
326.542	138.5
326.77	204.5
326.999	393.5
327.228	809.5
327.457	1485.5
327.686	1148.5
327.914	312.5
328.143	186.5
328.372	156.5
328.6	117.5
328.829	119.5
329.058	113.5
329.287	108.5
329.515	104.5
329.744	113.5
329.972	99.5
330.201	143.5
330.43	164.5
330.658	130.5
330.887	139.5
331.115	122.5
331.344	112.5
331.572	95.5
331.801	103.5
332.03	97.5
332.258	95.5
332.486	88.5
332.715	90.5
332.943	88.5
333.172	92.5
333.4	91.5
333.629	96.5
333.857	100.5
334.085	124.5
334.314	154.5
334.542	201.5
334.771	194.5
334.999	119.5
335.227	98.5
335.455	91.5
335.684	95.5
335.912	90.5
336.14	99.5
336.369	90.5
336.597	92.5
336.825	99.5
337.053	101.5
337.281	83.5
337.51	95.5
337.738	101.5
337.966	86.5
338.194	101.5
338.422	107.5
338.65	96.5
338.878	95.5
339.106	87.5
339.334	94.5
339.562	80.5
339.79	80.5
340.018	91.5
340.246	80.5
340.474	91.5
340.702	97.5
340.93	80.5
341.158	90.5
341.386	91.5
341.614	94.5
341.842	97.5
342.07	93.5
342.298	96.5
342.526	76.5
342.754	87.5
342.981	96.5
343.209	79.5
343.437	90.5
343.665	91.5
343.893	102.5
344.12	95.5
344.348	95.5
344.576	81.5
344.804	76.5
345.031	95.5
345.259	86.5
345.487	90.5
345.714	85.5
345.942	88.5
346.17	88.5
346.397	85.5
346.625	91.5
346.853	102.5
347.08	92.5
347.308	88.5
347.535	75.5
347.763	92.5
347.99	102.5
348.218	105.5
348.445	96.5
348.673	100.5
348.9	91.5
349.128	101.5
349.355	87.5
349.583	72.5
349.81	83.5
350.037	82.5
350.265	99.5
350.492	99.5
350.72	102.5
350.947	99.5
351.174	102.5
351.402	91.5
351.629	87.5
351.856	98.5
352.083	92.5
352.311	104.5
352.538	95.5
352.765	103.5
352.992	122.5
353.22	103.5
353.447	90.5
353.674	99.5
353.901	101.5
354.128	98.5
354.355	100.5
354.583	95.5
354.81	82.5
355.037	90.5
355.264	89.5
355.491	79.5
355.718	85.5
355.945	91.5
356.172	102.5
356.399	93.5
356.626	88.5
356.853	77.5
357.08	89.5
357.307	95.5
357.534	96.5
357.761	86.5
357.988	92.5
358.215	105.5
358.441	103.5
358.668	88.5
358.895	85.5
359.122	82.5
359.349	82.5
359.576	96.5
359.802	89.5
360.029	124.5
360.256	98.5
360.483	90.5
360.709	98.5
360.936	78.5
361.163	83.5
361.39	89.5
361.616	84.5
361.843	84.5
362.07	91.5
362.296	82.5
362.523	96.5
362.749	87.5
362.976	84.5
363.203	101.5
363.429	90.5
363.656	90.5
363.882	78.5
364.109	85.5
364.335	91.5
364.562	91.5
364.788	74.5
365.015	78.5
365.241	92.5
365.468	108.5
365.694	93.5
365.92	105.5
366.147	82.5
366.373	94.5
366.599	81.5
366.826	95.5
367.052	80.5
367.278	83.5
367.505	96.5
367.731	101.5
367.957	80.5
368.184	94.5
368.41	97.5
368.636	110.5
368.862	102.5
369.089	102.5
369.315	88.5
369.541	92.5
369.767	85.5
369.993	91.5
370.219	88.5
370.445	87.5
370.672	92.5
370.898	83.5
371.124	80.5
371.35	81.5
371.576	81.5
371.802	90.5
372.028	75.5
372.254	88.5
372.48	100.5
372.706	77.5
372.932	82.5
373.158	85.5
373.384	91.5
373.61	85.5
373.835	86.5
374.061	72.5
374.287	85.5
374.513	89.5
374.739	78.5
374.965	92.5
375.191	90.5
375.416	93.5
375.642	93.5
375.868	93.5
376.094	102.5
376.319	97.5
376.545	90.5
376.771	100.5
376.997	85.5
377.222	85.5
377.448	100.5
377.674	98.5
377.899	92.5
378.125	79.5
378.35	87.5
378.576	85.5
378.802	89.5
379.027	101.5
379.253	92.5
379.478	88.5
379.704	83.5
379.929	83.5
380.155	86.5
380.38	79.5
380.606	80.5
380.831	73.5
381.057	104.5
381.282	95.5
381.507	90.5
381.733	105.5
381.958	97.5
382.184	102.5
382.409	89.5
382.634	99.5
382.86	94.5
383.085	103.5
383.31	87.5
383.535	92.5
383.761	91.5
383.986	101.5
384.211	111.5
384.436	95.5
384.662	95.5
384.887	95.5
385.112	92.5
385.337	97.5
385.562	113.5
385.787	106.5
386.013	117.5
386.238	111.5
386.463	97.5
386.688	104.5
386.913	101.5
387.138	94.5
387.363	109.5
387.588	86.5
387.813	108.5
388.038	113.5
388.263	99.5
388.488	92.5
388.713	90.5
388.938	89.5
389.163	91.5
389.387	102.5
389.612	98.5
389.837	91.5
390.062	103.5
390.287	99.5
390.512	80.5
390.736	89.5
390.961	91.5
391.186	85.5
391.411	90.5
391.636	79.5
391.86	84.5
392.085	93.5
392.31	78.5
392.534	83.5
392.759	96.5
392.984	82.5
393.208	84.5
393.433	92.5
393.658	93.5
393.882	77.5
394.107	91.5
394.331	83.5
394.556	89.5
394.78	96.5
395.005	78.5
395.229	80.5
395.454	83.5
395.678	87.5
395.903	96.5
396.127	75.5
396.352	105.5
396.576	74.5
396.801	76.5
397.025	79.5
397.249	84.5
397.474	82.5
397.698	102.5
397.922	87.5
398.147	86.5
398.371	97.5
398.595	76.5
398.82	69.5
399.044	80.5
399.268	99.5
399.492	90.5
399.717	83.5
399.941	86.5
400.165	77.5
400.389	81.5
400.613	80.5
400.837	90.5
401.062	70.5
401.286	96.5
401.51	72.5
401.734	83.5
401.958	89.5
402.182	130.5
402.406	131.5
402.63	115.5
402.854	81.5
403.078	84.5
403.302	76.5
403.526	77.5
403.75	87.5
403.974	82.5
404.198	84.5
404.422	95.5
404.645	86.5
404.869	85.5
405.093	95.5
405.317	106.5
405.541	98.5
405.765	92.5
405.988	102.5
406.212	117.5
406.436	191.5
406.66	123.5
406.883	80.5
407.107	91.5
407.331	92.5
407.555	93.5
407.778	85.5
408.002	88.5
408.226	88.5
408.449	86.5
408.673	83.5
408.896	93.5
409.12	96.5
409.344	98.5
409.567	95.5
409.791	84.5
410.014	87.5
410.238	99.5
410.461	89.5
410.685	85.5
410.908	107.5
411.132	101.5
411.355	100.5
411.578	86.5
411.802	85.5
412.025	82.5
412.249	102.5
412.472	94.5
412.695	109.5
412.919	99.5
413.142	87.5
413.365	98.5
413.589	84.5
413.812	90.5
414.035	94.5
414.258	87.5
414.482	87.5
414.705	76.5
414.928	92.5
415.151	90.5
415.374	82.5
415.597	92.5
415.821	102.5
416.044	84.5
416.267	94.5
416.49	75.5
416.713	85.5
416.936	105.5
417.159	90.5
417.382	92.5
417.605	86.5
417.828	96.5
418.051	66.5
418.274	84.5
418.497	98.5
418.72	90.5
418.943	96.5
419.166	93.5
419.389	92.5
419.611	90.5
419.834	88.5
420.057	88.5
420.28	90.5
420.503	84.5
420.726	87.5
420.948	86.5
421.171	91.5
421.394	83.5
421.617	94.5
421.839	96.5
422.062	90.5
422.285	92.5
422.507	86.5
422.73	91.5
422.953	91.5
423.175	79.5
423.398	77.5
423.621	87.5
423.843	74.5
424.066	71.5
424.288	77.5
424.511	83.5
424.733	96.5
424.956	113.5
425.178	98.5
425.401	88.5
425.623	102.5
425.846	82.5
426.068	91.5
426.291	87.5
426.513	89.5
426.735	99.5
426.958	87.5
427.18	96.5
427.402	135.5
427.625	152.5
427.847	123.5
428.069	109.5
428.292	90.5
428.514	91.5
428.736	72.5
428.958	81.5
429.181	86.5
429.403	81.5
429.625	91.5
429.847	93.5
430.069	98.5
430.292	87.5
430.514	86.5
430.736	92.5
430.958	86.5
431.18	78.5
431.402	82.5
431.624	94.5
431.846	69.5
432.068	88.5
432.29	68.5
432.512	82.5
432.734	85.5
432.956	80.5
433.178	93.5
433.4	97.5
433.622	82.5
433.844	89.5
434.066	90.5
434.287	79.5
434.509	93.5
434.731	89.5
434.953	102.5
435.175	78.5
435.397	87.5
435.618	92.5
435.84	92.5
436.062	118.5
436.284	99.5
436.505	97.5
436.727	101.5
436.949	90.5
437.17	75.5
437.392	77.5
437.614	96.5
437.835	94.5
438.057	94.5
438.278	105.5
438.5	87.5
438.721	91.5
438.943	85.5
439.165	86.5
439.386	79.5
439.608	91.5
439.829	90.5
440.05	101.5
440.272	125.5
440.493	87.5
440.715	91.5
440.936	84.5
441.158	87.5
441.379	80.5
441.6	95.5
441.822	80.5
442.043	89.5
442.264	93.5
442.486	98.5
442.707	64.5
442.928	102.5
443.149	113.5
443.371	121.5
443.592	103.5
443.813	104.5
444.034	88.5
444.255	81.5
444.476	89.5
444.698	93.5
444.919	82.5
445.14	126.5
445.361	115.5
445.582	117.5
445.803	117.5
446.024	112.5
446.245	117.5
446.466	107.5
446.687	94.5
446.908	84.5
447.129	98.5
447.35	82.5
447.571	102.5
447.792	97.5
448.013	100.5
448.234	99.5
448.455	102.5
448.675	104.5
448.896	110.5
449.117	96.5
449.338	98.5
449.559	119.5
449.779	119.5
450	101.5
450.221	88.5
450.442	86.5
450.662	84.5
450.883	89.5
451.104	110.5
451.324	80.5
451.545	85.5
451.766	85.5
451.986	71.5
452.207	83.5
452.428	86.5
452.648	94.5
452.869	100.5
453.089	103.5
453.31	118.5
453.53	102.5
453.751	65.5
453.971	100.5
454.192	110.5
454.412	86.5
454.633	70.5
454.853	96.5
455.073	84.5
455.294	98.5
455.514	106.5
455.734	83.5
455.955	77.5
456.175	90.5
456.395	78.5
456.616	96.5
456.836	86.5
457.056	88.5
457.276	85.5
457.497	88.5
457.717	92.5
457.937	75.5
458.157	92.5
458.377	96.5
458.598	103.5
458.818	134.5
459.038	125.5
459.258	101.5
459.478	82.5
459.698	80.5
459.918	78.5
460.138	87.5
460.358	87.5
460.578	87.5
460.798	102.5
461.018	93.5
461.238	81.5
461.458	95.5
461.678	84.5
461.898	85.5
462.118	79.5
462.338	82.5
462.558	85.5
462.777	88.5
462.997	92.5
463.217	100.5
463.437	96.5
463.657	87.5
463.876	88.5
464.096	91.5
464.316	74.5
464.536	98.5
464.755	94.5
464.975	95.5
465.195	132.5
465.414	131.5
465.634	105.5
465.854	91.5
466.073	80.5
466.293	82.5
466.512	80.5
466.732	80.5
466.951	97.5
467.171	89.5
467.391	84.5
467.61	100.5
467.829	97.5
468.049	98.5
468.268	133.5
468.488	86.5
468.707	82.5
468.927	93.5
469.146	92.5
469.365	77.5
469.585	93.5
469.804	91.5
470.023	94.5
470.243	88.5
470.462	106.5
470.681	112.5
470.901	99.5
471.12	78.5
471.339	78.5
471.558	81.5
471.777	92.5
471.997	79.5
472.216	145.5
472.435	214.5
472.654	113.5
472.873	91.5
473.092	82.5
473.311	82.5
473.53	84.5
473.749	82.5
473.968	91.5
474.187	108.5
474.406	99.5
474.625	89.5
474.844	88.5
475.063	81.5
475.282	75.5
475.501	96.5
475.72	102.5
475.939	85.5
476.158	84.5
476.377	86.5
476.596	80.5
476.814	77.5
477.033	101.5
477.252	89.5
477.471	80.5
477.69	86.5
477.908	88.5
478.127	98.5
478.346	81.5
478.564	87.5
478.783	79.5
479.002	87.5
479.22	91.5
479.439	93.5
479.658	94.5
479.876	90.5
480.095	80.5
480.313	108.5
480.532	87.5
480.751	114.5
480.969	148.5
481.188	351.5
481.406	237.5
481.624	112.5
481.843	95.5
482.061	100.5
482.28	86.5
482.498	81.5
482.717	91.5
482.935	84.5
483.153	85.5
483.372	94.5
483.59	102.5
483.808	97.5
484.027	93.5
484.245	101.5
484.463	81.5
484.681	94.5
484.9	95.5
485.118	95.5
485.336	85.5
485.554	97.5
485.772	114.5
485.99	106.5
486.209	83.5
486.427	115.5
486.645	108.5
486.863	110.5
487.081	86.5
487.299	87.5
487.517	98.5
487.735	87.5
487.953	85.5
488.171	91.5
488.389	95.5
488.607	95.5
488.825	83.5
489.043	86.5
489.261	87.5
489.479	91.5
489.696	97.5
489.914	80.5
490.132	88.5
490.35	75.5
490.568	89.5
490.786	76.5
491.003	84.5
491.221	102.5
491.439	100.5
491.657	92.5
491.874	96.5
492.092	92.5
492.31	86.5
492.527	96.5
492.745	99.5
492.963	93.5
493.18	89.5
493.398	95.5
493.615	98.5
493.833	85.5
494.05	84.5
494.268	94.5
494.485	84.5
494.703	95.5
494.92	91.5
495.138	92.5
495.355	91.5
495.573	83.5
495.79	74.5
496.008	87.5
496.225	84.5
496.442	94.5
496.66	88.5
496.877	96.5
497.094	101.5
497.312	85.5
497.529	74.5
497.746	87.5
497.963	79.5
498.181	99.5
498.398	80.5
498.615	87.5
498.832	98.5
499.049	97.5
499.267	98.5
499.484	84.5
499.701	86.5
499.918	98.5
500.135	88.5
500.352	94.5
500.569	89.5
500.786	104.5
501.003	88.5
501.22	96.5
501.437	87.5
501.654	89.5
501.871	91.5
502.088	110.5
502.305	99.5
502.522	89.5
502.739	93.5
502.956	96.5
503.172	88.5
503.389	84.5
503.606	110.5
503.823	103.5
504.04	86.5
504.256	98.5
504.473	97.5
504.69	87.5
504.907	79.5
505.123	92.5
505.34	75.5
505.557	86.5
505.773	88.5
505.99	85.5
506.207	92.5
506.423	94.5
506.64	90.5
506.856	88.5
507.073	85.5
507.289	99.5
507.506	98.5
507.722	90.5
507.939	111.5
508.155	83.5
508.372	93.5
508.588	66.5
508.805	84.5
509.021	79.5
509.238	115.5
509.454	83.5
509.67	106.5
509.887	101.5
510.103	136.5
510.319	187.5
510.536	619.5
510.752	1976.5
510.968	573.5
511.184	141.5
511.401	106.5
511.617	104.5
511.833	91.5
512.049	71.5
512.265	85.5
512.481	88.5
512.698	90.5
512.914	112.5
513.13	100.5
513.346	89.5
513.562	100.5
513.778	108.5
513.994	99.5
514.21	106.5
514.426	108.5
514.642	101.5
514.858	114.5
515.074	142.5
515.29	359.5
515.506	1132.5
515.721	439.5
515.937	133.5
516.153	104.5
516.369	106.5
516.585	92.5
516.801	89.5
517.016	85.5
517.232	101.5
517.448	80.5
517.664	95.5
517.879	107.5
518.095	83.5
518.311	87.5
518.527	95.5
518.742	93.5
518.958	103.5
519.173	80.5
519.389	100.5
519.605	108.5
519.82	76.5
520.036	87.5
520.251	107.5
520.467	110.5
520.682	109.5
520.898	109.5
521.113	102.5
521.329	123.5
521.544	164.5
521.76	475.5
521.975	1834.5
522.19	1129.5
522.406	253.5
522.621	118.5
522.836	90.5
523.052	95.5
523.267	86.5
523.482	88.5
523.698	90.5
523.913	106.5
524.128	92.5
524.343	92.5
524.559	103.5
524.774	101.5
524.989	94.5
525.204	96.5
525.419	94.5
525.634	94.5
525.849	91.5
526.064	101.5
526.28	95.5
526.495	87.5
526.71	94.5
526.925	90.5
527.14	89.5
527.355	86.5
527.57	92.5
527.785	92.5
527.999	85.5
528.214	87.5
528.429	78.5
528.644	85.5
528.859	86.5
529.074	96.5
529.289	115.5
529.503	139.5
529.718	95.5
529.933	91.5
530.148	82.5
530.363	88.5
530.577	77.5
530.792	116.5
531.007	97.5
531.221	92.5
531.436	76.5
531.651	92.5
531.865	72.5
532.08	106.5
532.295	85.5
532.509	86.5
532.724	98.5
532.938	100.5
533.153	105.5
533.367	75.5
533.582	72.5
533.796	90.5
534.011	90.5
534.225	83.5
534.44	86.5
534.654	81.5
534.868	86.5
535.083	71.5
535.297	97.5
535.511	95.5
535.726	113.5
535.94	100.5
536.154	99.5
