Data from Circ_2005_H10_HRD10591_00065.txt Node
Date: Wed Jan 03 10:30:04 EST 2024
User: Yrep
Spectrometer: HR+D1059
Trigger mode: 1
Integration Time (sec): 1.000000E-1
Scans to average: 1
Electric dark correction enabled: true
Nonlinearity correction enabled: false
Boxcar width: 0
XAxis mode: Wavelengths
Number of Pixels in Spectrum: 2048
>>>>>Begin Spectral Data<<<<<
223.165	-11.81
223.4	-11.81
223.635	-11.81
223.869	-23.81
224.104	-17.81
224.338	-15.81
224.573	-13.81
224.808	-6.81
225.042	2.19
225.277	-11.81
225.511	-4.81
225.746	-1.81
225.98	8.19
226.215	11.19
226.449	18.19
226.683	18.19
226.918	26.19
227.152	24.19
227.387	14.19
227.621	30.19
227.856	45.19
228.09	39.19
228.324	49.19
228.559	48.19
228.793	47.19
229.027	56.19
229.262	55.19
229.496	63.19
229.73	76.19
229.964	76.19
230.199	70.19
230.433	68.19
230.667	78.19
230.901	68.19
231.136	65.19
231.37	73.19
231.604	80.19
231.838	78.19
232.072	70.19
232.306	76.19
232.541	76.19
232.775	79.19
233.009	69.19
233.243	72.19
233.477	71.19
233.711	80.19
233.945	80.19
234.179	72.19
234.413	58.19
234.647	77.19
234.881	71.19
235.115	72.19
235.349	71.19
235.583	81.19
235.817	74.19
236.051	80.19
236.285	67.19
236.519	70.19
236.753	80.19
236.987	74.19
237.221	75.19
237.455	67.19
237.689	90.19
237.922	76.19
238.156	59.19
238.39	77.19
238.624	70.19
238.858	71.19
239.091	70.19
239.325	80.19
239.559	73.19
239.793	72.19
240.027	70.19
240.26	78.19
240.494	53.19
240.728	72.19
240.961	84.19
241.195	65.19
241.429	71.19
241.662	59.19
241.896	64.19
242.13	62.19
242.363	78.19
242.597	85.19
242.83	75.19
243.064	75.19
243.298	69.19
243.531	58.19
243.765	60.19
243.998	63.19
244.232	70.19
244.465	86.19
244.699	77.19
244.932	78.19
245.166	76.19
245.399	63.19
245.633	90.19
245.866	70.19
246.099	83.19
246.333	82.19
246.566	84.19
246.8	64.19
247.033	74.19
247.266	79.19
247.5	68.19
247.733	82.19
247.966	68.19
248.2	68.19
248.433	76.19
248.666	70.19
248.899	67.19
249.133	79.19
249.366	90.19
249.599	90.19
249.832	75.19
250.066	76.19
250.299	91.19
250.532	86.19
250.765	76.19
250.998	78.19
251.231	81.19
251.465	78.19
251.698	69.19
251.931	78.19
252.164	80.19
252.397	71.19
252.63	82.19
252.863	84.19
253.096	81.19
253.329	79.19
253.562	78.19
253.795	77.19
254.028	70.19
254.261	70.19
254.494	75.19
254.727	80.19
254.96	67.19
255.193	68.19
255.426	77.19
255.659	86.19
255.892	64.19
256.124	79.19
256.357	61.19
256.59	78.19
256.823	99.19
257.056	96.19
257.289	89.19
257.521	79.19
257.754	82.19
257.987	69.19
258.22	73.19
258.452	96.19
258.685	82.19
258.918	69.19
259.151	92.19
259.383	85.19
259.616	76.19
259.849	82.19
260.081	89.19
260.314	83.19
260.547	73.19
260.779	73.19
261.012	74.19
261.244	73.19
261.477	68.19
261.71	63.19
261.942	103.19
262.175	111.19
262.407	84.19
262.64	74.19
262.872	75.19
263.105	80.19
263.337	80.19
263.57	68.19
263.802	75.19
264.035	79.19
264.267	63.19
264.499	71.19
264.732	71.19
264.964	82.19
265.197	72.19
265.429	86.19
265.661	84.19
265.894	80.19
266.126	76.19
266.358	90.19
266.591	98.19
266.823	72.19
267.055	77.19
267.287	77.19
267.52	79.19
267.752	75.19
267.984	75.19
268.216	72.19
268.448	79.19
268.681	92.19
268.913	61.19
269.145	88.19
269.377	72.19
269.609	66.19
269.841	80.19
270.073	71.19
270.306	76.19
270.538	72.19
270.77	77.19
271.002	75.19
271.234	89.19
271.466	80.19
271.698	72.19
271.93	82.19
272.162	71.19
272.394	72.19
272.626	86.19
272.858	74.19
273.09	81.19
273.322	80.19
273.553	74.19
273.785	81.19
274.017	75.19
274.249	76.19
274.481	91.19
274.713	88.19
274.945	76.19
275.176	80.19
275.408	79.19
275.64	74.19
275.872	70.19
276.104	75.19
276.335	82.19
276.567	82.19
276.799	99.19
277.031	99.19
277.262	83.19
277.494	81.19
277.726	71.19
277.957	75.19
278.189	96.19
278.421	82.19
278.652	83.19
278.884	87.19
279.115	80.19
279.347	81.19
279.579	86.19
279.81	78.19
280.042	94.19
280.273	84.19
280.505	89.19
280.736	82.19
280.968	86.19
281.199	92.19
281.431	85.19
281.662	73.19
281.894	77.19
282.125	87.19
282.356	103.19
282.588	126.19
282.819	108.19
283.051	83.19
283.282	84.19
283.513	85.19
283.745	76.19
283.976	82.19
284.207	84.19
284.439	87.19
284.67	91.19
284.901	80.19
285.132	86.19
285.364	72.19
285.595	81.19
285.826	82.19
286.057	83.19
286.288	82.19
286.52	79.19
286.751	79.19
286.982	83.19
287.213	81.19
287.444	73.19
287.675	73.19
287.906	77.19
288.138	71.19
288.369	88.19
288.6	87.19
288.831	82.19
289.062	93.19
289.293	89.19
289.524	72.19
289.755	72.19
289.986	76.19
290.217	97.19
290.448	83.19
290.679	72.19
290.91	86.19
291.141	70.19
291.371	71.19
291.602	80.19
291.833	88.19
292.064	81.19
292.295	86.19
292.526	91.19
292.757	92.19
292.987	70.19
293.218	84.19
293.449	72.19
293.68	91.19
293.91	102.19
294.141	94.19
294.372	76.19
294.603	83.19
294.833	87.19
295.064	91.19
295.295	96.19
295.525	86.19
295.756	94.19
295.987	109.19
296.217	120.19
296.448	111.19
296.679	87.19
296.909	84.19
297.14	82.19
297.37	90.19
297.601	89.19
297.831	95.19
298.062	88.19
298.292	72.19
298.523	93.19
298.753	82.19
298.984	97.19
299.214	89.19
299.445	79.19
299.675	73.19
299.905	82.19
300.136	88.19
300.366	79.19
300.597	83.19
300.827	95.19
301.057	84.19
301.288	92.19
301.518	91.19
301.748	79.19
301.979	91.19
302.209	89.19
302.439	81.19
302.669	88.19
302.9	78.19
303.13	88.19
303.36	75.19
303.59	82.19
303.82	103.19
304.051	94.19
304.281	98.19
304.511	95.19
304.741	88.19
304.971	95.19
305.201	94.19
305.431	77.19
305.661	81.19
305.891	88.19
306.121	90.19
306.352	108.19
306.582	84.19
306.812	91.19
307.042	83.19
307.272	90.19
307.502	84.19
307.731	102.19
307.961	99.19
308.191	88.19
308.421	82.19
308.651	77.19
308.881	100.19
309.111	91.19
309.341	82.19
309.571	92.19
309.8	96.19
310.03	84.19
310.26	95.19
310.49	95.19
310.72	104.19
310.949	97.19
311.179	84.19
311.409	82.19
311.639	102.19
311.868	84.19
312.098	93.19
312.328	104.19
312.557	99.19
312.787	98.19
313.017	98.19
313.246	90.19
313.476	71.19
313.706	87.19
313.935	84.19
314.165	90.19
314.394	89.19
314.624	83.19
314.853	90.19
315.083	95.19
315.312	80.19
315.542	90.19
315.771	93.19
316.001	87.19
316.23	85.19
316.46	82.19
316.689	83.19
316.919	94.19
317.148	95.19
317.377	94.19
317.607	89.19
317.836	94.19
318.065	91.19
318.295	87.19
318.524	86.19
318.753	91.19
318.983	94.19
319.212	98.19
319.441	109.19
319.67	90.19
319.9	101.19
320.129	88.19
320.358	88.19
320.587	85.19
320.816	94.19
321.046	94.19
321.275	88.19
321.504	78.19
321.733	91.19
321.962	77.19
322.191	97.19
322.42	106.19
322.649	105.19
322.878	107.19
323.108	120.19
323.337	128.19
323.566	140.19
323.795	150.19
324.024	184.19
324.253	363.19
324.482	780.19
324.71	1619.19
324.939	2128.19
325.168	769.19
325.397	223.19
325.626	146.19
325.855	122.19
326.084	116.19
326.313	119.19
326.542	169.19
326.77	224.19
326.999	432.19
327.228	901.19
327.457	1670.19
327.686	1309.19
327.914	365.19
328.143	198.19
328.372	162.19
328.6	132.19
328.829	98.19
329.058	108.19
329.287	122.19
329.515	98.19
329.744	95.19
329.972	127.19
330.201	160.19
330.43	192.19
330.658	148.19
330.887	130.19
331.115	111.19
331.344	100.19
331.572	89.19
331.801	88.19
332.03	91.19
332.258	97.19
332.486	81.19
332.715	95.19
332.943	99.19
333.172	93.19
333.4	89.19
333.629	97.19
333.857	129.19
334.085	125.19
334.314	153.19
334.542	220.19
334.771	202.19
334.999	108.19
335.227	87.19
335.455	92.19
335.684	89.19
335.912	83.19
336.14	101.19
336.369	97.19
336.597	87.19
336.825	105.19
337.053	79.19
337.281	80.19
337.51	87.19
337.738	91.19
337.966	95.19
338.194	95.19
338.422	97.19
338.65	95.19
338.878	91.19
339.106	81.19
339.334	98.19
339.562	78.19
339.79	86.19
340.018	86.19
340.246	88.19
340.474	70.19
340.702	90.19
340.93	90.19
341.158	73.19
341.386	100.19
341.614	94.19
341.842	108.19
342.07	89.19
342.298	91.19
342.526	81.19
342.754	93.19
342.981	85.19
343.209	79.19
343.437	84.19
343.665	90.19
343.893	81.19
344.12	88.19
344.348	90.19
344.576	96.19
344.804	93.19
345.031	95.19
345.259	90.19
345.487	98.19
345.714	94.19
345.942	81.19
346.17	89.19
346.397	93.19
346.625	81.19
346.853	84.19
347.08	82.19
347.308	95.19
347.535	89.19
347.763	90.19
347.99	88.19
348.218	93.19
348.445	95.19
348.673	101.19
348.9	91.19
349.128	84.19
349.355	92.19
349.583	88.19
349.81	95.19
350.037	86.19
350.265	77.19
350.492	77.19
350.72	106.19
350.947	88.19
351.174	102.19
351.402	102.19
351.629	95.19
351.856	96.19
352.083	84.19
352.311	98.19
352.538	100.19
352.765	82.19
352.992	104.19
353.22	94.19
353.447	96.19
353.674	103.19
353.901	91.19
354.128	99.19
354.355	86.19
354.583	84.19
354.81	97.19
355.037	104.19
355.264	80.19
355.491	90.19
355.718	84.19
355.945	97.19
356.172	82.19
356.399	88.19
356.626	83.19
356.853	106.19
357.08	105.19
357.307	89.19
357.534	104.19
357.761	87.19
357.988	85.19
358.215	81.19
358.441	99.19
358.668	89.19
358.895	87.19
359.122	90.19
359.349	79.19
359.576	96.19
359.802	87.19
360.029	102.19
360.256	98.19
360.483	92.19
360.709	74.19
360.936	88.19
361.163	88.19
361.39	103.19
361.616	91.19
361.843	91.19
362.07	86.19
362.296	74.19
362.523	103.19
362.749	103.19
362.976	89.19
363.203	95.19
363.429	99.19
363.656	95.19
363.882	83.19
364.109	89.19
364.335	82.19
364.562	90.19
364.788	84.19
365.015	94.19
365.241	80.19
365.468	102.19
365.694	91.19
365.92	97.19
366.147	84.19
366.373	89.19
366.599	89.19
366.826	98.19
367.052	86.19
367.278	72.19
367.505	83.19
367.731	98.19
367.957	81.19
368.184	100.19
368.41	94.19
368.636	111.19
368.862	133.19
369.089	102.19
369.315	96.19
369.541	82.19
369.767	94.19
369.993	93.19
370.219	93.19
370.445	76.19
370.672	70.19
370.898	75.19
371.124	94.19
371.35	82.19
371.576	81.19
371.802	74.19
372.028	86.19
372.254	88.19
372.48	94.19
372.706	83.19
372.932	80.19
373.158	77.19
373.384	84.19
373.61	93.19
373.835	103.19
374.061	82.19
374.287	91.19
374.513	94.19
374.739	86.19
374.965	80.19
375.191	88.19
375.416	80.19
375.642	90.19
375.868	78.19
376.094	97.19
376.319	79.19
376.545	89.19
376.771	70.19
376.997	89.19
377.222	82.19
377.448	86.19
377.674	92.19
377.899	87.19
378.125	80.19
378.35	86.19
378.576	82.19
378.802	84.19
379.027	82.19
379.253	94.19
379.478	83.19
379.704	76.19
379.929	90.19
380.155	97.19
380.38	80.19
380.606	102.19
380.831	92.19
381.057	81.19
381.282	92.19
381.507	104.19
381.733	100.19
381.958	86.19
382.184	100.19
382.409	79.19
382.634	106.19
382.86	90.19
383.085	86.19
383.31	104.19
383.535	100.19
383.761	86.19
383.986	95.19
384.211	83.19
384.436	87.19
384.662	100.19
384.887	97.19
385.112	105.19
385.337	111.19
385.562	113.19
385.787	107.19
386.013	113.19
386.238	116.19
386.463	97.19
386.688	109.19
386.913	90.19
387.138	98.19
387.363	105.19
387.588	90.19
387.813	99.19
388.038	110.19
388.263	111.19
388.488	126.19
388.713	102.19
388.938	92.19
389.163	88.19
389.387	94.19
389.612	87.19
389.837	89.19
390.062	83.19
390.287	70.19
390.512	90.19
390.736	96.19
390.961	90.19
391.186	99.19
391.411	89.19
391.636	75.19
391.86	78.19
392.085	87.19
392.31	79.19
392.534	79.19
392.759	80.19
392.984	90.19
393.208	97.19
393.433	86.19
393.658	90.19
393.882	75.19
394.107	75.19
394.331	83.19
394.556	79.19
394.78	87.19
395.005	103.19
395.229	87.19
395.454	81.19
395.678	84.19
395.903	87.19
396.127	77.19
396.352	77.19
396.576	80.19
396.801	96.19
397.025	84.19
397.249	94.19
397.474	84.19
397.698	84.19
397.922	86.19
398.147	95.19
398.371	83.19
398.595	92.19
398.82	80.19
399.044	82.19
399.268	80.19
399.492	88.19
399.717	92.19
399.941	83.19
400.165	91.19
400.389	89.19
400.613	94.19
400.837	85.19
401.062	97.19
401.286	85.19
401.51	81.19
401.734	84.19
401.958	93.19
402.182	126.19
402.406	140.19
402.63	126.19
402.854	81.19
403.078	90.19
403.302	91.19
403.526	91.19
403.75	84.19
403.974	87.19
404.198	77.19
404.422	79.19
404.645	84.19
404.869	92.19
405.093	95.19
405.317	98.19
405.541	80.19
405.765	88.19
405.988	103.19
406.212	156.19
406.436	213.19
406.66	139.19
406.883	108.19
407.107	89.19
407.331	90.19
407.555	98.19
407.778	98.19
408.002	94.19
408.226	91.19
408.449	84.19
408.673	96.19
408.896	82.19
409.12	91.19
409.344	90.19
409.567	75.19
409.791	68.19
410.014	82.19
410.238	95.19
410.461	96.19
410.685	97.19
410.908	98.19
411.132	96.19
411.355	99.19
411.578	84.19
411.802	86.19
412.025	86.19
412.249	89.19
412.472	86.19
412.695	93.19
412.919	83.19
413.142	73.19
413.365	87.19
413.589	80.19
413.812	95.19
414.035	85.19
414.258	70.19
414.482	95.19
414.705	88.19
414.928	82.19
415.151	90.19
415.374	66.19
415.597	88.19
415.821	94.19
416.044	86.19
416.267	91.19
416.49	87.19
416.713	87.19
416.936	64.19
417.159	90.19
417.382	87.19
417.605	90.19
417.828	85.19
418.051	81.19
418.274	90.19
418.497	73.19
418.72	92.19
418.943	79.19
419.166	85.19
419.389	87.19
419.611	69.19
419.834	79.19
420.057	80.19
420.28	90.19
420.503	74.19
420.726	87.19
420.948	89.19
421.171	82.19
421.394	91.19
421.617	74.19
421.839	96.19
422.062	82.19
422.285	88.19
422.507	77.19
422.73	88.19
422.953	91.19
423.175	83.19
423.398	89.19
423.621	83.19
423.843	78.19
424.066	98.19
424.288	91.19
424.511	84.19
424.733	97.19
424.956	79.19
425.178	83.19
425.401	106.19
425.623	81.19
425.846	80.19
426.068	86.19
426.291	84.19
426.513	99.19
426.735	79.19
426.958	89.19
427.18	92.19
427.402	131.19
427.625	153.19
427.847	144.19
428.069	100.19
428.292	81.19
428.514	80.19
428.736	90.19
428.958	67.19
429.181	70.19
429.403	84.19
429.625	90.19
429.847	94.19
430.069	86.19
430.292	80.19
430.514	72.19
430.736	76.19
430.958	81.19
431.18	85.19
431.402	92.19
431.624	86.19
431.846	72.19
432.068	89.19
432.29	78.19
432.512	87.19
432.734	87.19
432.956	82.19
433.178	90.19
433.4	96.19
433.622	83.19
433.844	79.19
434.066	93.19
434.287	82.19
434.509	86.19
434.731	87.19
434.953	85.19
435.175	68.19
435.397	92.19
435.618	92.19
435.84	105.19
436.062	108.19
436.284	102.19
436.505	95.19
436.727	104.19
436.949	80.19
437.17	87.19
437.392	96.19
437.614	84.19
437.835	103.19
438.057	106.19
438.278	113.19
438.5	93.19
438.721	101.19
438.943	104.19
439.165	82.19
439.386	83.19
439.608	81.19
439.829	78.19
440.05	99.19
440.272	136.19
440.493	91.19
440.715	90.19
440.936	89.19
441.158	90.19
441.379	77.19
441.6	87.19
441.822	86.19
442.043	100.19
442.264	108.19
442.486	92.19
442.707	83.19
442.928	102.19
443.149	107.19
443.371	127.19
443.592	106.19
443.813	98.19
444.034	107.19
444.255	83.19
444.476	85.19
444.698	74.19
444.919	75.19
445.14	124.19
445.361	127.19
445.582	99.19
445.803	131.19
446.024	118.19
446.245	121.19
446.466	95.19
446.687	77.19
446.908	82.19
447.129	98.19
447.35	103.19
447.571	94.19
447.792	83.19
448.013	87.19
448.234	94.19
448.455	89.19
448.675	119.19
448.896	110.19
449.117	106.19
449.338	94.19
449.559	111.19
449.779	113.19
450	81.19
450.221	82.19
450.442	99.19
450.662	94.19
450.883	108.19
451.104	100.19
451.324	79.19
451.545	80.19
451.766	73.19
451.986	76.19
452.207	72.19
452.428	83.19
452.648	98.19
452.869	103.19
453.089	100.19
453.31	102.19
453.53	94.19
453.751	92.19
453.971	115.19
454.192	120.19
454.412	84.19
454.633	86.19
454.853	80.19
455.073	81.19
455.294	74.19
455.514	96.19
455.734	92.19
455.955	84.19
456.175	92.19
456.395	84.19
456.616	84.19
456.836	88.19
457.056	102.19
457.276	76.19
457.497	86.19
457.717	81.19
457.937	71.19
458.157	90.19
458.377	87.19
458.598	104.19
458.818	140.19
459.038	137.19
459.258	99.19
459.478	79.19
459.698	92.19
459.918	83.19
460.138	90.19
460.358	95.19
460.578	77.19
460.798	85.19
461.018	84.19
461.238	90.19
461.458	73.19
461.678	87.19
461.898	72.19
462.118	88.19
462.338	82.19
462.558	79.19
462.777	83.19
462.997	79.19
463.217	85.19
463.437	79.19
463.657	84.19
463.876	78.19
464.096	90.19
464.316	73.19
464.536	88.19
464.755	90.19
464.975	100.19
465.195	151.19
465.414	144.19
465.634	99.19
465.854	89.19
466.073	73.19
466.293	94.19
466.512	84.19
466.732	94.19
466.951	96.19
467.171	89.19
467.391	80.19
467.61	91.19
467.829	84.19
468.049	110.19
468.268	132.19
468.488	94.19
468.707	83.19
468.927	69.19
469.146	97.19
469.365	88.19
469.585	79.19
469.804	79.19
470.023	83.19
470.243	88.19
470.462	90.19
470.681	86.19
470.901	96.19
471.12	94.19
471.339	75.19
471.558	76.19
471.777	93.19
471.997	105.19
472.216	156.19
472.435	260.19
472.654	109.19
472.873	83.19
473.092	81.19
473.311	79.19
473.53	75.19
473.749	91.19
473.968	111.19
474.187	96.19
474.406	86.19
474.625	82.19
474.844	81.19
475.063	84.19
475.282	70.19
475.501	79.19
475.72	88.19
475.939	82.19
476.158	80.19
476.377	99.19
476.596	81.19
476.814	94.19
477.033	89.19
477.252	82.19
477.471	79.19
477.69	82.19
477.908	87.19
478.127	83.19
478.346	86.19
478.564	93.19
478.783	109.19
479.002	91.19
479.22	86.19
479.439	99.19
479.658	100.19
479.876	90.19
480.095	83.19
480.313	80.19
480.532	96.19
480.751	91.19
480.969	163.19
481.188	404.19
481.406	266.19
481.624	107.19
481.843	90.19
482.061	86.19
482.28	66.19
482.498	76.19
482.717	81.19
482.935	87.19
483.153	90.19
483.372	86.19
483.59	90.19
483.808	100.19
484.027	80.19
484.245	68.19
484.463	80.19
484.681	98.19
484.9	75.19
485.118	84.19
485.336	91.19
485.554	84.19
485.772	92.19
485.99	96.19
486.209	88.19
486.427	109.19
486.645	103.19
486.863	115.19
487.081	99.19
487.299	95.19
487.517	86.19
487.735	58.19
487.953	88.19
488.171	85.19
488.389	82.19
488.607	99.19
488.825	95.19
489.043	89.19
489.261	91.19
489.479	82.19
489.696	75.19
489.914	85.19
490.132	92.19
490.35	92.19
490.568	88.19
490.786	82.19
491.003	80.19
491.221	88.19
491.439	83.19
491.657	88.19
491.874	85.19
492.092	93.19
492.31	83.19
492.527	89.19
492.745	79.19
492.963	83.19
493.18	91.19
493.398	107.19
493.615	94.19
493.833	98.19
494.05	80.19
494.268	89.19
494.485	81.19
494.703	83.19
494.92	83.19
495.138	90.19
495.355	85.19
495.573	81.19
495.79	80.19
496.008	86.19
496.225	89.19
496.442	82.19
496.66	83.19
496.877	90.19
497.094	90.19
497.312	88.19
497.529	69.19
497.746	77.19
497.963	88.19
498.181	93.19
498.398	97.19
498.615	96.19
498.832	94.19
499.049	85.19
499.267	87.19
499.484	83.19
499.701	89.19
499.918	79.19
500.135	85.19
500.352	93.19
500.569	82.19
500.786	92.19
501.003	88.19
501.22	88.19
501.437	87.19
501.654	95.19
501.871	97.19
502.088	71.19
502.305	83.19
502.522	77.19
502.739	83.19
502.956	96.19
503.172	80.19
503.389	76.19
503.606	102.19
503.823	92.19
504.04	85.19
504.256	84.19
504.473	83.19
504.69	94.19
504.907	95.19
505.123	99.19
505.34	87.19
505.557	84.19
505.773	83.19
505.99	87.19
506.207	89.19
506.423	79.19
506.64	77.19
506.856	83.19
507.073	81.19
507.289	72.19
507.506	91.19
507.722	107.19
507.939	102.19
508.155	85.19
508.372	92.19
508.588	90.19
508.805	80.19
509.021	106.19
509.238	109.19
509.454	100.19
509.67	89.19
509.887	112.19
510.103	131.19
510.319	214.19
510.536	713.19
510.752	2218.19
510.968	612.19
511.184	157.19
511.401	122.19
511.617	103.19
511.833	86.19
512.049	88.19
512.265	82.19
512.481	81.19
512.698	83.19
512.914	84.19
513.13	80.19
513.346	72.19
513.562	84.19
513.778	88.19
513.994	81.19
514.21	99.19
514.426	111.19
514.642	125.19
514.858	121.19
515.074	162.19
515.29	431.19
515.506	1363.19
515.721	499.19
515.937	140.19
516.153	105.19
516.369	91.19
516.585	78.19
516.801	95.19
517.016	89.19
517.232	77.19
