Data from Circ_2005_H10_HRD10591_00039.txt Node
Date: Wed Jan 03 10:29:58 EST 2024
User: Yrep
Spectrometer: HR+D1059
Trigger mode: 1
Integration Time (sec): 1.000000E-1
Scans to average: 1
Electric dark correction enabled: true
Nonlinearity correction enabled: false
Boxcar width: 0
XAxis mode: Wavelengths
Number of Pixels in Spectrum: 2048
>>>>>Begin Spectral Data<<<<<
223.165	-5.31
223.4	-5.31
223.635	-5.31
223.869	-16.31
224.104	-19.31
224.338	-14.31
224.573	-17.31
224.808	-12.31
225.042	-3.31
225.277	0.69
225.511	-10.31
225.746	1.69
225.98	0.69
226.215	12.69
226.449	6.69
226.683	20.69
226.918	32.69
227.152	22.69
227.387	33.69
227.621	32.69
227.856	44.69
228.09	42.69
228.324	40.69
228.559	56.69
228.793	61.69
229.027	42.69
229.262	62.69
229.496	67.69
229.73	84.69
229.964	82.69
230.199	70.69
230.433	69.69
230.667	78.69
230.901	87.69
231.136	76.69
231.37	80.69
231.604	69.69
231.838	82.69
232.072	85.69
232.306	86.69
232.541	86.69
232.775	74.69
233.009	69.69
233.243	72.69
233.477	76.69
233.711	70.69
233.945	77.69
234.179	65.69
234.413	77.69
234.647	85.69
234.881	66.69
235.115	81.69
235.349	87.69
235.583	81.69
235.817	81.69
236.051	67.69
236.285	67.69
236.519	81.69
236.753	69.69
236.987	83.69
237.221	75.69
237.455	83.69
237.689	70.69
237.922	75.69
238.156	73.69
238.39	72.69
238.624	69.69
238.858	73.69
239.091	69.69
239.325	73.69
239.559	73.69
239.793	74.69
240.027	87.69
240.26	85.69
240.494	78.69
240.728	77.69
240.961	78.69
241.195	67.69
241.429	94.69
241.662	64.69
241.896	79.69
242.13	61.69
242.363	82.69
242.597	65.69
242.83	70.69
243.064	62.69
243.298	63.69
243.531	78.69
243.765	74.69
243.998	78.69
244.232	77.69
244.465	77.69
244.699	74.69
244.932	68.69
245.166	61.69
245.399	69.69
245.633	85.69
245.866	93.69
246.099	61.69
246.333	81.69
246.566	82.69
246.8	73.69
247.033	86.69
247.266	72.69
247.5	67.69
247.733	76.69
247.966	74.69
248.2	80.69
248.433	73.69
248.666	76.69
248.899	85.69
249.133	87.69
249.366	92.69
249.599	95.69
249.832	74.69
250.066	74.69
250.299	73.69
250.532	65.69
250.765	87.69
250.998	84.69
251.231	76.69
251.465	73.69
251.698	76.69
251.931	80.69
252.164	83.69
252.397	74.69
252.63	82.69
252.863	75.69
253.096	80.69
253.329	75.69
253.562	80.69
253.795	83.69
254.028	74.69
254.261	79.69
254.494	76.69
254.727	70.69
254.96	77.69
255.193	72.69
255.426	84.69
255.659	81.69
255.892	79.69
256.124	84.69
256.357	82.69
256.59	80.69
256.823	91.69
257.056	74.69
257.289	66.69
257.521	65.69
257.754	90.69
257.987	76.69
258.22	81.69
258.452	79.69
258.685	81.69
258.918	93.69
259.151	78.69
259.383	81.69
259.616	77.69
259.849	70.69
260.081	75.69
260.314	90.69
260.547	80.69
260.779	84.69
261.012	67.69
261.244	79.69
261.477	83.69
261.71	96.69
261.942	110.69
262.175	111.69
262.407	92.69
262.64	78.69
262.872	90.69
263.105	77.69
263.337	75.69
263.57	85.69
263.802	88.69
264.035	93.69
264.267	90.69
264.499	79.69
264.732	80.69
264.964	83.69
265.197	76.69
265.429	80.69
265.661	84.69
265.894	86.69
266.126	80.69
266.358	70.69
266.591	74.69
266.823	80.69
267.055	74.69
267.287	77.69
267.52	80.69
267.752	89.69
267.984	70.69
268.216	83.69
268.448	90.69
268.681	72.69
268.913	84.69
269.145	75.69
269.377	101.69
269.609	62.69
269.841	85.69
270.073	89.69
270.306	90.69
270.538	70.69
270.77	85.69
271.002	86.69
271.234	77.69
271.466	83.69
271.698	86.69
271.93	76.69
272.162	62.69
272.394	81.69
272.626	76.69
272.858	88.69
273.09	61.69
273.322	92.69
273.553	89.69
273.785	66.69
274.017	89.69
274.249	85.69
274.481	72.69
274.713	72.69
274.945	88.69
275.176	92.69
275.408	90.69
275.64	87.69
275.872	72.69
276.104	69.69
276.335	88.69
276.567	104.69
276.799	108.69
277.031	100.69
277.262	91.69
277.494	83.69
277.726	79.69
277.957	75.69
278.189	83.69
278.421	81.69
278.652	100.69
278.884	84.69
279.115	87.69
279.347	97.69
279.579	91.69
279.81	53.69
280.042	85.69
280.273	80.69
280.505	76.69
280.736	90.69
280.968	93.69
281.199	89.69
281.431	86.69
281.662	77.69
281.894	83.69
282.125	105.69
282.356	116.69
282.588	157.69
282.819	121.69
283.051	96.69
283.282	92.69
283.513	97.69
283.745	82.69
283.976	80.69
284.207	84.69
284.439	94.69
284.67	84.69
284.901	80.69
285.132	72.69
285.364	69.69
285.595	79.69
285.826	77.69
286.057	82.69
286.288	81.69
286.52	66.69
286.751	70.69
286.982	86.69
287.213	99.69
287.444	68.69
287.675	69.69
287.906	90.69
288.138	89.69
288.369	84.69
288.6	88.69
288.831	81.69
289.062	85.69
289.293	89.69
289.524	98.69
289.755	81.69
289.986	72.69
290.217	82.69
290.448	65.69
290.679	87.69
290.91	85.69
291.141	84.69
291.371	89.69
291.602	92.69
291.833	60.69
292.064	93.69
292.295	92.69
292.526	90.69
292.757	92.69
292.987	84.69
293.218	85.69
293.449	80.69
293.68	105.69
293.91	80.69
294.141	80.69
294.372	86.69
294.603	91.69
294.833	88.69
295.064	86.69
295.295	79.69
295.525	86.69
295.756	81.69
295.987	111.69
296.217	151.69
296.448	124.69
296.679	92.69
296.909	96.69
297.14	80.69
297.37	86.69
297.601	86.69
297.831	89.69
298.062	93.69
298.292	82.69
298.523	92.69
298.753	74.69
298.984	100.69
299.214	103.69
299.445	86.69
299.675	80.69
299.905	95.69
300.136	99.69
300.366	74.69
300.597	86.69
300.827	94.69
301.057	107.69
301.288	96.69
301.518	92.69
301.748	96.69
301.979	91.69
302.209	92.69
302.439	91.69
302.669	85.69
302.9	83.69
303.13	78.69
303.36	90.69
303.59	92.69
303.82	110.69
304.051	89.69
304.281	83.69
304.511	100.69
304.741	84.69
304.971	76.69
305.201	93.69
305.431	100.69
305.661	94.69
305.891	90.69
306.121	108.69
306.352	97.69
306.582	106.69
306.812	89.69
307.042	85.69
307.272	100.69
307.502	96.69
307.731	94.69
307.961	89.69
308.191	89.69
308.421	69.69
308.651	98.69
308.881	108.69
309.111	100.69
309.341	86.69
309.571	104.69
309.8	100.69
310.03	99.69
310.26	96.69
310.49	89.69
310.72	78.69
310.949	104.69
311.179	94.69
311.409	85.69
311.639	106.69
311.868	86.69
312.098	86.69
312.328	99.69
312.557	93.69
312.787	109.69
313.017	110.69
313.246	92.69
313.476	89.69
313.706	90.69
313.935	86.69
314.165	95.69
314.394	102.69
314.624	98.69
314.853	87.69
315.083	96.69
315.312	84.69
315.542	84.69
315.771	96.69
316.001	98.69
316.23	83.69
316.46	77.69
316.689	89.69
316.919	96.69
317.148	89.69
317.377	99.69
317.607	93.69
317.836	104.69
318.065	94.69
318.295	85.69
318.524	74.69
318.753	91.69
318.983	100.69
319.212	100.69
319.441	122.69
319.67	112.69
319.9	96.69
320.129	86.69
320.358	89.69
320.587	96.69
320.816	105.69
321.046	103.69
321.275	83.69
321.504	99.69
321.733	82.69
321.962	96.69
322.191	94.69
322.42	106.69
322.649	106.69
322.878	115.69
323.108	117.69
323.337	129.69
323.566	131.69
323.795	154.69
324.024	225.69
324.253	462.69
324.482	990.69
324.71	2076.69
324.939	2798.69
325.168	987.69
325.397	286.69
325.626	177.69
325.855	145.69
326.084	134.69
326.313	142.69
326.542	176.69
326.77	256.69
326.999	528.69
327.228	1164.69
327.457	2092.69
327.686	1701.69
327.914	443.69
328.143	210.69
328.372	184.69
328.6	157.69
328.829	128.69
329.058	133.69
329.287	151.69
329.515	106.69
329.744	102.69
329.972	113.69
330.201	130.69
330.43	168.69
330.658	147.69
330.887	162.69
331.115	139.69
331.344	93.69
331.572	104.69
331.801	112.69
332.03	94.69
332.258	99.69
332.486	81.69
332.715	98.69
332.943	104.69
333.172	100.69
333.4	99.69
333.629	106.69
333.857	124.69
334.085	122.69
334.314	142.69
334.542	165.69
334.771	160.69
334.999	130.69
335.227	106.69
335.455	96.69
335.684	94.69
335.912	83.69
336.14	95.69
336.369	101.69
336.597	95.69
336.825	98.69
337.053	112.69
337.281	98.69
337.51	83.69
337.738	77.69
337.966	86.69
338.194	98.69
338.422	80.69
338.65	87.69
338.878	89.69
339.106	92.69
339.334	63.69
339.562	93.69
339.79	89.69
340.018	92.69
340.246	104.69
340.474	92.69
340.702	88.69
340.93	90.69
341.158	83.69
341.386	104.69
341.614	97.69
341.842	97.69
342.07	91.69
342.298	98.69
342.526	82.69
342.754	90.69
342.981	93.69
343.209	87.69
343.437	100.69
343.665	85.69
343.893	91.69
344.12	98.69
344.348	110.69
344.576	103.69
344.804	79.69
345.031	85.69
345.259	92.69
345.487	103.69
345.714	110.69
345.942	90.69
346.17	96.69
346.397	79.69
346.625	96.69
346.853	88.69
347.08	99.69
347.308	89.69
347.535	101.69
347.763	100.69
347.99	85.69
348.218	96.69
348.445	100.69
348.673	98.69
348.9	93.69
349.128	77.69
349.355	92.69
349.583	90.69
349.81	83.69
350.037	93.69
350.265	90.69
350.492	90.69
350.72	93.69
350.947	89.69
351.174	116.69
351.402	126.69
351.629	107.69
351.856	86.69
352.083	106.69
352.311	106.69
352.538	110.69
352.765	104.69
352.992	132.69
353.22	105.69
353.447	88.69
353.674	99.69
353.901	92.69
354.128	84.69
354.355	89.69
354.583	97.69
354.81	106.69
355.037	94.69
355.264	99.69
355.491	96.69
355.718	101.69
355.945	82.69
356.172	81.69
356.399	83.69
356.626	93.69
356.853	89.69
357.08	85.69
357.307	86.69
357.534	83.69
357.761	88.69
357.988	84.69
358.215	101.69
358.441	99.69
358.668	99.69
358.895	91.69
359.122	94.69
359.349	81.69
359.576	86.69
359.802	107.69
360.029	125.69
360.256	122.69
360.483	114.69
360.709	83.69
360.936	102.69
361.163	91.69
361.39	84.69
361.616	85.69
361.843	91.69
362.07	94.69
362.296	94.69
362.523	94.69
362.749	93.69
362.976	94.69
363.203	95.69
363.429	90.69
363.656	96.69
363.882	85.69
364.109	95.69
364.335	84.69
364.562	85.69
364.788	85.69
365.015	89.69
365.241	84.69
365.468	106.69
365.694	86.69
365.92	89.69
366.147	100.69
366.373	83.69
366.599	91.69
366.826	94.69
367.052	86.69
367.278	83.69
367.505	85.69
367.731	79.69
367.957	92.69
368.184	73.69
368.41	92.69
368.636	113.69
368.862	130.69
369.089	117.69
369.315	95.69
369.541	104.69
369.767	106.69
369.993	92.69
370.219	92.69
370.445	98.69
370.672	93.69
370.898	77.69
371.124	101.69
371.35	87.69
371.576	93.69
371.802	86.69
372.028	79.69
372.254	93.69
372.48	100.69
372.706	86.69
372.932	94.69
373.158	85.69
373.384	75.69
373.61	78.69
373.835	93.69
374.061	95.69
374.287	91.69
374.513	93.69
374.739	99.69
374.965	71.69
375.191	97.69
375.416	74.69
375.642	87.69
375.868	82.69
376.094	85.69
376.319	72.69
376.545	92.69
376.771	81.69
376.997	85.69
377.222	94.69
377.448	77.69
377.674	103.69
377.899	92.69
378.125	92.69
378.35	79.69
378.576	101.69
378.802	83.69
379.027	93.69
379.253	87.69
379.478	83.69
379.704	95.69
379.929	86.69
380.155	100.69
380.38	107.69
380.606	95.69
380.831	113.69
381.057	78.69
381.282	97.69
381.507	83.69
381.733	89.69
381.958	94.69
382.184	92.69
382.409	94.69
382.634	94.69
382.86	99.69
383.085	90.69
383.31	107.69
383.535	101.69
383.761	89.69
383.986	91.69
384.211	110.69
384.436	105.69
384.662	102.69
384.887	107.69
385.112	100.69
385.337	89.69
385.562	101.69
385.787	104.69
386.013	128.69
386.238	118.69
386.463	85.69
386.688	111.69
386.913	106.69
387.138	100.69
387.363	100.69
387.588	106.69
387.813	102.69
388.038	96.69
388.263	104.69
388.488	113.69
388.713	98.69
388.938	93.69
389.163	92.69
389.387	91.69
389.612	91.69
389.837	90.69
390.062	89.69
390.287	94.69
390.512	80.69
390.736	97.69
390.961	97.69
391.186	116.69
391.411	88.69
391.636	93.69
391.86	83.69
392.085	76.69
392.31	77.69
392.534	90.69
392.759	83.69
392.984	79.69
393.208	88.69
393.433	79.69
393.658	90.69
393.882	86.69
394.107	80.69
394.331	81.69
394.556	85.69
394.78	90.69
395.005	84.69
395.229	83.69
395.454	84.69
395.678	86.69
395.903	86.69
396.127	74.69
396.352	93.69
396.576	82.69
396.801	92.69
397.025	68.69
397.249	84.69
397.474	86.69
397.698	91.69
397.922	92.69
398.147	93.69
398.371	94.69
398.595	81.69
398.82	95.69
399.044	93.69
399.268	78.69
399.492	82.69
399.717	105.69
399.941	85.69
400.165	91.69
400.389	89.69
400.613	72.69
400.837	89.69
401.062	90.69
401.286	95.69
401.51	88.69
401.734	92.69
401.958	93.69
402.182	139.69
402.406	169.69
402.63	130.69
402.854	93.69
403.078	79.69
403.302	92.69
403.526	85.69
403.75	84.69
403.974	79.69
404.198	87.69
404.422	75.69
404.645	80.69
404.869	87.69
405.093	117.69
405.317	114.69
405.541	107.69
405.765	90.69
405.988	129.69
406.212	180.69
406.436	246.69
406.66	160.69
406.883	114.69
407.107	79.69
407.331	107.69
407.555	100.69
407.778	92.69
408.002	102.69
408.226	76.69
408.449	75.69
408.673	91.69
408.896	94.69
409.12	108.69
409.344	94.69
409.567	82.69
409.791	96.69
410.014	99.69
410.238	90.69
410.461	84.69
410.685	98.69
410.908	97.69
411.132	109.69
411.355	96.69
411.578	85.69
411.802	74.69
412.025	94.69
412.249	99.69
412.472	96.69
412.695	98.69
412.919	88.69
413.142	100.69
413.365	72.69
413.589	92.69
413.812	97.69
414.035	102.69
414.258	77.69
414.482	80.69
414.705	86.69
414.928	92.69
415.151	94.69
415.374	81.69
415.597	78.69
415.821	91.69
416.044	80.69
416.267	98.69
416.49	76.69
416.713	84.69
416.936	83.69
417.159	90.69
417.382	91.69
417.605	82.69
417.828	90.69
418.051	101.69
418.274	98.69
418.497	75.69
418.72	82.69
418.943	97.69
419.166	96.69
419.389	87.69
419.611	80.69
419.834	91.69
420.057	82.69
420.28	85.69
420.503	82.69
420.726	81.69
420.948	86.69
421.171	100.69
421.394	96.69
421.617	85.69
421.839	88.69
422.062	83.69
422.285	95.69
422.507	98.69
422.73	97.69
422.953	95.69
423.175	86.69
423.398	88.69
423.621	83.69
423.843	82.69
424.066	87.69
424.288	80.69
424.511	93.69
424.733	96.69
424.956	109.69
425.178	93.69
425.401	95.69
425.623	97.69
425.846	92.69
426.068	92.69
426.291	76.69
426.513	89.69
426.735	86.69
426.958	92.69
427.18	96.69
427.402	137.69
427.625	179.69
427.847	146.69
428.069	121.69
428.292	87.69
428.514	95.69
428.736	91.69
428.958	82.69
429.181	84.69
429.403	90.69
429.625	95.69
429.847	101.69
430.069	96.69
430.292	85.69
430.514	80.69
430.736	93.69
430.958	83.69
431.18	79.69
431.402	84.69
431.624	88.69
431.846	84.69
432.068	79.69
432.29	81.69
432.512	80.69
432.734	106.69
432.956	87.69
433.178	89.69
433.4	95.69
433.622	75.69
433.844	85.69
434.066	94.69
434.287	87.69
434.509	91.69
434.731	67.69
434.953	74.69
435.175	78.69
435.397	80.69
435.618	98.69
435.84	96.69
436.062	132.69
436.284	124.69
436.505	106.69
436.727	87.69
436.949	97.69
437.17	75.69
437.392	91.69
437.614	100.69
437.835	116.69
438.057	120.69
438.278	113.69
438.5	104.69
438.721	138.69
438.943	103.69
439.165	88.69
439.386	94.69
439.608	88.69
439.829	105.69
440.05	124.69
440.272	166.69
440.493	99.69
440.715	94.69
440.936	87.69
441.158	78.69
441.379	80.69
441.6	72.69
441.822	83.69
442.043	94.69
442.264	111.69
442.486	86.69
442.707	83.69
442.928	94.69
443.149	141.69
443.371	158.69
443.592	109.69
443.813	121.69
444.034	108.69
444.255	90.69
444.476	84.69
444.698	76.69
444.919	101.69
445.14	128.69
445.361	130.69
445.582	123.69
445.803	124.69
446.024	144.69
446.245	141.69
446.466	93.69
446.687	81.69
446.908	100.69
447.129	78.69
447.35	80.69
447.571	86.69
447.792	91.69
448.013	93.69
448.234	112.69
448.455	104.69
448.675	124.69
448.896	139.69
449.117	114.69
449.338	113.69
449.559	121.69
449.779	146.69
450	94.69
450.221	84.69
450.442	80.69
450.662	78.69
450.883	101.69
451.104	105.69
451.324	91.69
451.545	102.69
451.766	77.69
451.986	78.69
452.207	86.69
452.428	91.69
452.648	107.69
452.869	110.69
453.089	125.69
453.31	120.69
453.53	92.69
453.751	99.69
453.971	96.69
454.192	110.69
454.412	103.69
454.633	87.69
454.853	101.69
455.073	80.69
455.294	87.69
455.514	97.69
455.734	82.69
455.955	86.69
456.175	73.69
456.395	97.69
456.616	80.69
456.836	76.69
457.056	83.69
457.276	88.69
457.497	86.69
457.717	88.69
457.937	83.69
458.157	90.69
458.377	96.69
458.598	109.69
458.818	165.69
459.038	167.69
459.258	133.69
459.478	93.69
459.698	77.69
459.918	90.69
460.138	80.69
460.358	82.69
460.578	74.69
460.798	76.69
461.018	96.69
461.238	80.69
461.458	74.69
461.678	80.69
461.898	93.69
462.118	86.69
462.338	79.69
462.558	74.69
462.777	75.69
462.997	72.69
463.217	82.69
463.437	79.69
463.657	79.69
463.876	78.69
464.096	82.69
464.316	80.69
464.536	105.69
464.755	96.69
464.975	107.69
465.195	197.69
465.414	188.69
465.634	88.69
465.854	86.69
466.073	86.69
466.293	86.69
466.512	78.69
466.732	85.69
466.951	80.69
467.171	89.69
467.391	83.69
467.61	114.69
467.829	113.69
468.049	105.69
468.268	110.69
468.488	78.69
468.707	85.69
468.927	77.69
469.146	76.69
469.365	82.69
469.585	94.69
469.804	100.69
470.023	98.69
470.243	70.69
470.462	106.69
470.681	109.69
470.901	80.69
471.12	90.69
471.339	87.69
471.558	76.69
471.777	73.69
471.997	81.69
472.216	126.69
472.435	191.69
472.654	109.69
472.873	87.69
473.092	64.69
473.311	70.69
473.53	75.69
473.749	88.69
473.968	87.69
474.187	101.69
474.406	89.69
474.625	83.69
474.844	71.69
475.063	76.69
475.282	85.69
475.501	81.69
475.72	83.69
475.939	72.69
476.158	77.69
476.377	78.69
476.596	83.69
476.814	93.69
477.033	82.69
477.252	93.69
477.471	76.69
477.69	92.69
477.908	77.69
478.127	81.69
478.346	80.69
478.564	91.69
478.783	101.69
479.002	86.69
479.22	92.69
479.439	110.69
479.658	99.69
479.876	86.69
480.095	87.69
480.313	86.69
480.532	97.69
480.751	87.69
480.969	127.69
481.188	288.69
481.406	214.69
481.624	91.69
481.843	76.69
482.061	81.69
482.28	93.69
482.498	91.69
482.717	91.69
482.935	86.69
483.153	77.69
483.372	87.69
483.59	92.69
483.808	83.69
484.027	96.69
484.245	81.69
484.463	82.69
484.681	75.69
484.9	89.69
485.118	91.69
485.336	80.69
485.554	92.69
485.772	92.69
485.99	109.69
486.209	84.69
486.427	83.69
486.645	104.69
486.863	112.69
487.081	97.69
487.299	84.69
487.517	94.69
487.735	84.69
487.953	96.69
488.171	85.69
488.389	103.69
488.607	107.69
488.825	92.69
489.043	77.69
489.261	82.69
489.479	92.69
489.696	84.69
489.914	93.69
490.132	94.69
490.35	90.69
490.568	78.69
490.786	89.69
491.003	82.69
491.221	83.69
491.439	95.69
491.657	100.69
491.874	85.69
492.092	100.69
492.31	79.69
492.527	81.69
492.745	78.69
492.963	86.69
493.18	81.69
493.398	94.69
493.615	105.69
493.833	103.69
494.05	73.69
494.268	84.69
494.485	88.69
494.703	84.69
494.92	89.69
495.138	90.69
495.355	84.69
495.573	85.69
495.79	86.69
496.008	75.69
496.225	85.69
496.442	78.69
496.66	92.69
496.877	90.69
497.094	93.69
497.312	104.69
497.529	78.69
497.746	82.69
497.963	97.69
498.181	96.69
498.398	97.69
498.615	98.69
498.832	108.69
499.049	73.69
499.267	95.69
499.484	79.69
499.701	81.69
499.918	94.69
500.135	95.69
500.352	84.69
500.569	89.69
500.786	89.69
501.003	86.69
501.22	90.69
501.437	97.69
501.654	86.69
501.871	108.69
502.088	72.69
502.305	84.69
502.522	86.69
502.739	85.69
502.956	84.69
503.172	79.69
503.389	98.69
503.606	117.69
503.823	94.69
504.04	97.69
504.256	85.69
504.473	75.69
504.69	90.69
504.907	84.69
505.123	75.69
505.34	84.69
505.557	81.69
505.773	91.69
505.99	70.69
506.207	85.69
506.423	99.69
506.64	91.69
506.856	69.69
507.073	86.69
507.289	93.69
507.506	88.69
507.722	120.69
507.939	115.69
508.155	90.69
508.372	91.69
508.588	94.69
508.805	94.69
509.021	100.69
509.238	92.69
509.454	106.69
509.67	108.69
509.887	112.69
510.103	137.69
510.319	224.69
510.536	851.69
510.752	2922.69
510.968	806.69
511.184	170.69
511.401	109.69
511.617	97.69
511.833	91.69
512.049	84.69
512.265	80.69
512.481	94.69
512.698	82.69
512.914	92.69
513.13	94.69
513.346	88.69
513.562	83.69
513.778	100.69
513.994	91.69
514.21	100.69
514.426	117.69
514.642	148.69
514.858	130.69
515.074	180.69
515.29	565.69
515.506	1978.69
515.721	716.69
515.937	169.69
