Data from Circ_2005_H10_HRD10591_00016.txt Node
Date: Wed Jan 03 10:29:54 EST 2024
User: Yrep
Spectrometer: HR+D1059
Trigger mode: 1
Integration Time (sec): 1.000000E-1
Scans to average: 1
Electric dark correction enabled: true
Nonlinearity correction enabled: false
Boxcar width: 0
XAxis mode: Wavelengths
Number of Pixels in Spectrum: 2048
>>>>>Begin Spectral Data<<<<<
223.165	-9.44
223.4	-9.44
223.635	-9.44
223.869	-19.44
224.104	-9.44
224.338	-20.44
224.573	-16.44
224.808	-5.44
225.042	-3.44
225.277	-11.44
225.511	-0.44
225.746	-4.44
225.98	-4.44
226.215	5.56
226.449	22.56
226.683	23.56
226.918	22.56
227.152	30.56
227.387	32.56
227.621	44.56
227.856	56.56
228.09	46.56
228.324	48.56
228.559	51.56
228.793	157.56
229.027	427.56
229.262	493.56
229.496	600.56
229.73	809.56
229.964	805.56
230.199	536.56
230.433	471.56
230.667	462.56
230.901	474.56
231.136	437.56
231.37	434.56
231.604	463.56
231.838	459.56
232.072	447.56
232.306	455.56
232.541	456.56
232.775	474.56
233.009	469.56
233.243	486.56
233.477	483.56
233.711	468.56
233.945	512.56
234.179	508.56
234.413	504.56
234.647	496.56
234.881	505.56
235.115	564.56
235.349	543.56
235.583	564.56
235.817	578.56
236.051	623.56
236.285	621.56
236.519	624.56
236.753	688.56
236.987	925.56
237.221	1385.56
237.455	1426.56
237.689	894.56
237.922	720.56
238.156	703.56
238.39	659.56
238.624	661.56
238.858	660.56
239.091	655.56
239.325	682.56
239.559	695.56
239.793	691.56
240.027	783.56
240.26	886.56
240.494	960.56
240.728	925.56
240.961	919.56
241.195	815.56
241.429	807.56
241.662	772.56
241.896	775.56
242.13	750.56
242.363	778.56
242.597	776.56
242.83	834.56
243.064	822.56
243.298	842.56
243.531	808.56
243.765	827.56
243.998	839.56
244.232	842.56
244.465	877.56
244.699	895.56
244.932	868.56
245.166	890.56
245.399	912.56
245.633	873.56
245.866	876.56
246.099	912.56
246.333	941.56
246.566	944.56
246.8	971.56
247.033	985.56
247.266	1031.56
247.5	1072.56
247.733	1133.56
247.966	1150.56
248.2	1144.56
248.433	1161.56
248.666	1195.56
248.899	1297.56
249.133	1437.56
249.366	1420.56
249.599	1328.56
249.832	1179.56
250.066	1219.56
250.299	1219.56
250.532	1331.56
250.765	1507.56
250.998	1670.56
251.231	1614.56
251.465	1462.56
251.698	1377.56
251.931	1382.56
252.164	1390.56
252.397	1401.56
252.63	1400.56
252.863	1555.56
253.096	1652.56
253.329	1702.56
253.562	1625.56
253.795	1544.56
254.028	1531.56
254.261	1644.56
254.494	1796.56
254.727	2097.56
254.96	2185.56
255.193	1910.56
255.426	1680.56
255.659	1620.56
255.892	1582.56
256.124	1560.56
256.357	1538.56
256.59	1506.56
256.823	1485.56
257.056	1523.56
257.289	1496.56
257.521	1537.56
257.754	1527.56
257.987	1496.56
258.22	1525.56
258.452	1509.56
258.685	1559.56
258.918	1549.56
259.151	1580.56
259.383	1667.56
259.616	1691.56
259.849	1777.56
260.081	1900.56
260.314	2088.56
260.547	2017.56
260.779	1827.56
261.012	1766.56
261.244	1731.56
261.477	1681.56
261.71	1692.56
261.942	1751.56
262.175	1767.56
262.407	1713.56
262.64	1635.56
262.872	1645.56
263.105	1667.56
263.337	1629.56
263.57	1640.56
263.802	1669.56
264.035	1654.56
264.267	1714.56
264.499	1683.56
264.732	1689.56
264.964	1681.56
265.197	1695.56
265.429	1744.56
265.661	1693.56
265.894	1720.56
266.126	1711.56
266.358	1780.56
266.591	1826.56
266.823	1858.56
267.055	1832.56
267.287	1880.56
267.52	1845.56
267.752	1868.56
267.984	1855.56
268.216	1912.56
268.448	1947.56
268.681	2002.56
268.913	2098.56
269.145	2334.56
269.377	2381.56
269.609	2317.56
269.841	2279.56
270.073	2413.56
270.306	2638.56
270.538	2801.56
270.77	2670.56
271.002	2515.56
271.234	2470.56
271.466	2602.56
271.698	2752.56
271.93	2742.56
272.162	2761.56
272.394	2661.56
272.626	2499.56
272.858	2363.56
273.09	2307.56
273.322	2285.56
273.553	2213.56
273.785	2242.56
274.017	2233.56
274.249	2230.56
274.481	2252.56
274.713	2256.56
274.945	2319.56
275.176	2308.56
275.408	2261.56
275.64	2263.56
275.872	2304.56
276.104	2318.56
276.335	2345.56
276.567	2401.56
276.799	2567.56
277.031	2765.56
277.262	2907.56
277.494	2772.56
277.726	2591.56
277.957	2483.56
278.189	2494.56
278.421	2437.56
278.652	2382.56
278.884	2390.56
279.115	2404.56
279.347	2377.56
279.579	2351.56
279.81	2411.56
280.042	2375.56
280.273	2367.56
280.505	2409.56
280.736	2396.56
280.968	2424.56
281.199	2385.56
281.431	2457.56
281.662	2458.56
281.894	2492.56
282.125	2529.56
282.356	2678.56
282.588	2812.56
282.819	2723.56
283.051	2544.56
283.282	2531.56
283.513	2565.56
283.745	2632.56
283.976	2659.56
284.207	2652.56
284.439	2643.56
284.67	2568.56
284.901	2646.56
285.132	2635.56
285.364	2580.56
285.595	2648.56
285.826	2629.56
286.057	2693.56
286.288	2616.56
286.52	2645.56
286.751	2663.56
286.982	2663.56
287.213	2758.56
287.444	2757.56
287.675	2759.56
287.906	2881.56
288.138	2934.56
288.369	2926.56
288.6	2929.56
288.831	2825.56
289.062	2788.56
289.293	2772.56
289.524	2812.56
289.755	2771.56
289.986	2808.56
290.217	2805.56
290.448	2775.56
290.679	2807.56
290.91	2824.56
291.141	2757.56
291.371	2851.56
291.602	2804.56
291.833	2783.56
292.064	2827.56
292.295	2815.56
292.526	2838.56
292.757	2821.56
292.987	2798.56
293.218	2812.56
293.449	2862.56
293.68	2846.56
293.91	2855.56
294.141	2867.56
294.372	2839.56
294.603	2875.56
294.833	2889.56
295.064	2866.56
295.295	2905.56
295.525	2945.56
295.756	2984.56
295.987	3051.56
296.217	3227.56
296.448	3160.56
296.679	2974.56
296.909	2967.56
297.14	2983.56
297.37	3026.56
297.601	3062.56
297.831	3053.56
298.062	3029.56
298.292	3078.56
298.523	3115.56
298.753	3131.56
298.984	3083.56
299.214	3073.56
299.445	3077.56
299.675	3108.56
299.905	3188.56
300.136	3135.56
300.366	3118.56
300.597	3272.56
300.827	3317.56
301.057	3327.56
301.288	3451.56
301.518	3347.56
301.748	3421.56
301.979	3376.56
302.209	3351.56
302.439	3401.56
302.669	3376.56
302.9	3317.56
303.13	3296.56
303.36	3353.56
303.59	3395.56
303.82	3417.56
304.051	3357.56
304.281	3352.56
304.511	3238.56
304.741	3318.56
304.971	3257.56
305.201	3230.56
305.431	3253.56
305.661	3331.56
305.891	3256.56
306.121	3291.56
306.352	3271.56
306.582	3314.56
306.812	3224.56
307.042	3299.56
307.272	3247.56
307.502	3289.56
307.731	3224.56
307.961	3225.56
308.191	3287.56
308.421	3312.56
308.651	3346.56
308.881	3345.56
309.111	3345.56
309.341	3385.56
309.571	3452.56
309.8	3537.56
310.03	3659.56
310.26	3672.56
310.49	3635.56
310.72	3745.56
310.949	3813.56
311.179	3778.56
311.409	3734.56
311.639	3701.56
311.868	3692.56
312.098	3750.56
312.328	3855.56
312.557	4031.56
312.787	4013.56
313.017	3930.56
313.246	3858.56
313.476	3789.56
313.706	3779.56
313.935	3887.56
314.165	4029.56
314.394	4029.56
314.624	3946.56
314.853	3852.56
315.083	3830.56
315.312	3770.56
315.542	3799.56
315.771	3679.56
316.001	3679.56
316.23	3709.56
316.46	3646.56
316.689	3737.56
316.919	3805.56
317.148	3851.56
317.377	3824.56
317.607	3738.56
317.836	3792.56
318.065	3738.56
318.295	3679.56
318.524	3744.56
318.753	3683.56
318.983	3750.56
319.212	3680.56
319.441	3848.56
319.67	3773.56
319.9	3677.56
320.129	3703.56
320.358	3749.56
320.587	3801.56
320.816	3859.56
321.046	3918.56
321.275	3895.56
321.504	3918.56
321.733	3929.56
321.962	4010.56
322.191	4107.56
322.42	4203.56
322.649	4332.56
322.878	4393.56
323.108	4381.56
323.337	4642.56
323.566	4909.56
323.795	5170.56
324.024	5889.56
324.253	7812.56
324.482	11756.56
324.71	15609.56
324.939	15609.56
325.168	13555.56
325.397	6958.56
325.626	5445.56
325.855	5029.56
326.084	4953.56
326.313	4972.56
326.542	5104.56
326.77	5778.56
326.999	7459.56
327.228	10913.56
327.457	14883.56
327.686	14085.56
327.914	7743.56
328.143	6128.56
328.372	5713.56
328.6	5468.56
328.829	5380.56
329.058	5544.56
329.287	5486.56
329.515	5102.56
329.744	4814.56
329.972	4939.56
330.201	5031.56
330.43	5357.56
330.658	5602.56
330.887	5951.56
331.115	5507.56
331.344	5084.56
331.572	5030.56
331.801	5141.56
332.03	5093.56
332.258	4994.56
332.486	5010.56
332.715	5057.56
332.943	5273.56
333.172	5301.56
333.4	5470.56
333.629	5574.56
333.857	5688.56
334.085	5601.56
334.314	5551.56
334.542	5477.56
334.771	5423.56
334.999	5348.56
335.227	5268.56
335.455	5204.56
335.684	5044.56
335.912	5049.56
336.14	4950.56
336.369	4918.56
336.597	5043.56
336.825	4941.56
337.053	4915.56
337.281	4799.56
337.51	4731.56
337.738	4791.56
337.966	4725.56
338.194	4770.56
338.422	4684.56
338.65	4608.56
338.878	4524.56
339.106	4547.56
339.334	4533.56
339.562	4499.56
339.79	4391.56
340.018	4536.56
340.246	4456.56
340.474	4466.56
340.702	4448.56
340.93	4408.56
341.158	4410.56
341.386	4417.56
341.614	4463.56
341.842	4441.56
342.07	4371.56
342.298	4366.56
342.526	4332.56
342.754	4317.56
342.981	4387.56
343.209	4444.56
343.437	4690.56
343.665	4920.56
343.893	5201.56
344.12	5186.56
344.348	4984.56
344.576	4819.56
344.804	4811.56
345.031	4657.56
345.259	4662.56
345.487	4449.56
345.714	4432.56
345.942	4308.56
346.17	4253.56
346.397	4279.56
346.625	4256.56
346.853	4271.56
347.08	4195.56
347.308	4271.56
347.535	4404.56
347.763	4409.56
347.99	4347.56
348.218	4393.56
348.445	4438.56
348.673	4336.56
348.9	4248.56
349.128	4145.56
349.355	4130.56
349.583	4113.56
349.81	4119.56
350.037	4097.56
350.265	4086.56
350.492	4102.56
350.72	4087.56
350.947	4202.56
351.174	4245.56
351.402	4303.56
351.629	4194.56
351.856	4229.56
352.083	4286.56
352.311	4276.56
352.538	4368.56
352.765	4308.56
352.992	4164.56
353.22	4168.56
353.447	4113.56
353.674	4087.56
353.901	4029.56
354.128	3964.56
354.355	4036.56
354.583	3997.56
354.81	3947.56
355.037	3991.56
355.264	3993.56
355.491	4019.56
355.718	4049.56
355.945	4009.56
356.172	3999.56
356.399	3961.56
356.626	4011.56
356.853	4015.56
357.08	4011.56
357.307	3924.56
357.534	3986.56
357.761	3969.56
357.988	4047.56
358.215	4027.56
358.441	4002.56
358.668	4037.56
358.895	4070.56
359.122	4145.56
359.349	4265.56
359.576	4321.56
359.802	4615.56
360.029	4739.56
360.256	4742.56
360.483	4440.56
360.709	4262.56
360.936	4206.56
361.163	4272.56
361.39	4244.56
361.616	4292.56
361.843	4212.56
362.07	4319.56
362.296	4297.56
362.523	4238.56
362.749	4214.56
362.976	4163.56
363.203	4102.56
363.429	4084.56
363.656	4091.56
363.882	4075.56
364.109	4063.56
364.335	4057.56
364.562	4104.56
364.788	4075.56
365.015	4097.56
365.241	4090.56
365.468	4063.56
365.694	4138.56
365.92	4103.56
366.147	4045.56
366.373	4117.56
366.599	4053.56
366.826	4034.56
367.052	3974.56
367.278	4073.56
367.505	4085.56
367.731	4099.56
367.957	4029.56
368.184	4203.56
368.41	4236.56
368.636	4183.56
368.862	4299.56
369.089	4193.56
369.315	4115.56
369.541	4180.56
369.767	4223.56
369.993	4155.56
370.219	4220.56
370.445	4240.56
370.672	4288.56
370.898	4238.56
371.124	4279.56
371.35	4295.56
371.576	4332.56
371.802	4293.56
372.028	4301.56
372.254	4321.56
372.48	4338.56
372.706	4393.56
372.932	4445.56
373.158	4433.56
373.384	4349.56
373.61	4312.56
373.835	4391.56
374.061	4379.56
374.287	4447.56
374.513	4476.56
374.739	4652.56
374.965	4747.56
375.191	4736.56
375.416	4671.56
375.642	4536.56
375.868	4519.56
376.094	4486.56
376.319	4387.56
376.545	4341.56
376.771	4341.56
376.997	4354.56
377.222	4341.56
377.448	4363.56
377.674	4326.56
377.899	4359.56
378.125	4306.56
378.35	4274.56
378.576	4254.56
378.802	4247.56
379.027	4301.56
379.253	4240.56
379.478	4260.56
379.704	4310.56
379.929	4337.56
380.155	4356.56
380.38	4277.56
380.606	4363.56
380.831	4364.56
381.057	4330.56
381.282	4375.56
381.507	4381.56
381.733	4363.56
381.958	4392.56
382.184	4470.56
382.409	4572.56
382.634	4594.56
382.86	4613.56
383.085	4663.56
383.31	4759.56
383.535	4758.56
383.761	4803.56
383.986	4879.56
384.211	4993.56
384.436	5099.56
384.662	5134.56
384.887	5191.56
385.112	5197.56
385.337	5205.56
385.562	5218.56
385.787	5246.56
386.013	5314.56
386.238	5317.56
386.463	5325.56
386.688	5260.56
386.913	5169.56
387.138	5130.56
387.363	5182.56
387.588	5099.56
387.813	5170.56
388.038	5227.56
388.263	5198.56
388.488	5139.56
388.713	5183.56
388.938	5151.56
389.163	5002.56
389.387	5152.56
389.612	5035.56
389.837	5078.56
390.062	5055.56
390.287	5039.56
390.512	5056.56
390.736	5086.56
390.961	5286.56
391.186	5330.56
391.411	5421.56
391.636	5639.56
391.86	5691.56
392.085	5811.56
392.31	5683.56
392.534	5534.56
392.759	5477.56
392.984	5387.56
393.208	5352.56
393.433	5271.56
393.658	5320.56
393.882	5326.56
394.107	5405.56
394.331	5426.56
394.556	5416.56
394.78	5439.56
395.005	5565.56
395.229	5461.56
395.454	5698.56
395.678	5794.56
395.903	5812.56
396.127	5861.56
396.352	5672.56
396.576	5552.56
396.801	5385.56
397.025	5484.56
397.249	5675.56
397.474	5835.56
397.698	5852.56
397.922	5939.56
398.147	6037.56
398.371	6098.56
398.595	6318.56
398.82	6491.56
399.044	7135.56
399.268	7821.56
399.492	8864.56
399.717	9495.56
399.941	9328.56
400.165	8670.56
400.389	8048.56
400.613	7228.56
400.837	6791.56
401.062	6630.56
401.286	6588.56
401.51	6568.56
401.734	6493.56
401.958	6638.56
402.182	6775.56
402.406	6887.56
402.63	6812.56
402.854	7028.56
403.078	7019.56
403.302	7247.56
403.526	7319.56
403.75	7349.56
403.974	7417.56
404.198	7309.56
404.422	7466.56
404.645	7366.56
404.869	7420.56
405.093	7521.56
405.317	7521.56
405.541	7592.56
405.765	7293.56
405.988	7266.56
406.212	7440.56
406.436	7505.56
406.66	7720.56
406.883	7679.56
407.107	8343.56
407.331	8829.56
407.555	9325.56
407.778	9000.56
408.002	8259.56
408.226	7862.56
408.449	7725.56
408.673	7595.56
408.896	7773.56
409.12	7913.56
409.344	7522.56
409.567	7161.56
409.791	7134.56
410.014	7060.56
410.238	7003.56
410.461	6973.56
410.685	7043.56
410.908	7120.56
411.132	7357.56
411.355	7285.56
411.578	6990.56
411.802	6734.56
412.025	6675.56
412.249	6872.56
412.472	6905.56
412.695	6845.56
412.919	6635.56
413.142	6425.56
413.365	6415.56
413.589	6405.56
413.812	6285.56
414.035	6296.56
414.258	6355.56
414.482	6368.56
414.705	6435.56
414.928	6360.56
415.151	6364.56
415.374	6408.56
415.597	6255.56
415.821	6240.56
416.044	6218.56
416.267	6260.56
416.49	6131.56
416.713	6183.56
416.936	6335.56
417.159	6274.56
417.382	6369.56
417.605	6375.56
417.828	6513.56
418.051	6660.56
418.274	6503.56
418.497	6397.56
418.72	6485.56
418.943	6531.56
419.166	6856.56
419.389	7285.56
419.611	7089.56
419.834	6873.56
420.057	6778.56
420.28	6547.56
420.503	6430.56
420.726	6471.56
420.948	6572.56
421.171	6972.56
421.394	6926.56
421.617	6496.56
421.839	6461.56
422.062	6661.56
422.285	6750.56
422.507	7430.56
422.73	7839.56
422.953	7331.56
423.175	6988.56
423.398	6877.56
423.621	6980.56
423.843	7233.56
424.066	7206.56
424.288	7091.56
424.511	7309.56
424.733	7734.56
424.956	8269.56
425.178	7743.56
425.401	7822.56
425.623	7773.56
425.846	6898.56
426.068	6669.56
426.291	6631.56
426.513	6553.56
426.735	6709.56
426.958	7150.56
427.18	7853.56
427.402	8990.56
427.625	9111.56
427.847	7724.56
428.069	6889.56
428.292	6463.56
428.514	6117.56
428.736	6000.56
428.958	5964.56
429.181	5838.56
429.403	5828.56
429.625	5971.56
429.847	6341.56
430.069	6817.56
430.292	6374.56
430.514	5859.56
430.736	5796.56
430.958	5739.56
431.18	5703.56
431.402	5652.56
431.624	5581.56
431.846	5722.56
432.068	5743.56
432.29	5877.56
432.512	5728.56
432.734	5883.56
432.956	5771.56
433.178	5839.56
433.4	5842.56
433.622	5814.56
433.844	5779.56
434.066	5782.56
434.287	5869.56
434.509	6143.56
434.731	6252.56
434.953	6497.56
435.175	6572.56
435.397	6641.56
435.618	6673.56
435.84	7012.56
436.062	7753.56
436.284	7702.56
436.505	6548.56
436.727	6271.56
436.949	5986.56
437.17	5830.56
437.392	5819.56
437.614	5982.56
437.835	6375.56
438.057	7396.56
438.278	7995.56
438.5	7844.56
438.721	8634.56
438.943	7543.56
439.165	6472.56
439.386	6339.56
439.608	6263.56
439.829	6377.56
440.05	6713.56
440.272	7151.56
440.493	6439.56
440.715	6259.56
440.936	6125.56
441.158	6218.56
441.379	6273.56
441.6	6696.56
441.822	6916.56
442.043	7267.56
442.264	8019.56
442.486	7701.56
442.707	6923.56
442.928	6775.56
443.149	6943.56
443.371	7191.56
443.592	7698.56
443.813	8662.56
444.034	8543.56
444.255	7436.56
444.476	7363.56
444.698	7510.56
444.919	7530.56
445.14	7434.56
445.361	7258.56
445.582	7318.56
445.803	8095.56
446.024	8633.56
446.245	8285.56
446.466	7465.56
446.687	6464.56
446.908	6183.56
447.129	5835.56
447.35	5695.56
447.571	5631.56
447.792	5497.56
448.013	5626.56
448.234	5919.56
448.455	6516.56
448.675	7709.56
448.896	8041.56
449.117	6663.56
449.338	6991.56
449.559	8201.56
449.779	8361.56
450	6500.56
450.221	5771.56
450.442	5624.56
450.662	5500.56
450.883	5610.56
451.104	5733.56
451.324	5582.56
451.545	5438.56
451.766	5184.56
451.986	5108.56
452.207	5119.56
452.428	5061.56
452.648	5181.56
452.869	5176.56
453.089	5195.56
453.31	5277.56
453.53	5072.56
453.751	5045.56
453.971	5090.56
454.192	5130.56
454.412	5111.56
454.633	5003.56
454.853	4902.56
455.073	5070.56
455.294	5335.56
455.514	5829.56
455.734	5401.56
455.955	4820.56
456.175	4728.56
456.395	4687.56
456.616	4659.56
456.836	4673.56
457.056	4617.56
457.276	4632.56
457.497	4768.56
457.717	4720.56
457.937	4790.56
458.157	4913.56
458.377	4992.56
458.598	5350.56
458.818	6019.56
459.038	6865.56
459.258	6723.56
459.478	5977.56
459.698	5874.56
459.918	5874.56
460.138	6050.56
460.358	6357.56
460.578	6253.56
460.798	6422.56
461.018	6341.56
461.238	6277.56
461.458	6223.56
461.678	6160.56
461.898	6444.56
462.118	6356.56
462.338	6732.56
462.558	6801.56
462.777	7202.56
462.997	7697.56
463.217	8149.56
463.437	7844.56
463.657	7292.56
463.876	7120.56
464.096	7234.56
464.316	7175.56
464.536	7206.56
464.755	6982.56
464.975	6928.56
465.195	7105.56
465.414	7209.56
465.634	6480.56
465.854	5938.56
466.073	5698.56
466.293	5468.56
466.512	5395.56
466.732	5265.56
466.951	5310.56
467.171	5313.56
467.391	5374.56
467.61	5398.56
467.829	5334.56
468.049	5267.56
468.268	5079.56
468.488	4993.56
468.707	4983.56
468.927	5002.56
469.146	5052.56
469.365	5130.56
469.585	5155.56
469.804	5321.56
470.023	5454.56
470.243	5496.56
470.462	5460.56
470.681	5615.56
470.901	5569.56
471.12	5374.56
471.339	5337.56
471.558	5290.56
471.777	5205.56
471.997	5131.56
472.216	5080.56
472.435	5119.56
472.654	5008.56
472.873	4992.56
473.092	5006.56
473.311	4970.56
473.53	5006.56
473.749	5166.56
473.968	5698.56
474.187	6661.56
474.406	6177.56
474.625	5335.56
474.844	5041.56
475.063	5024.56
475.282	5097.56
475.501	5141.56
475.72	5179.56
475.939	5168.56
476.158	5169.56
476.377	5241.56
476.596	5230.56
476.814	5382.56
477.033	5410.56
477.252	5543.56
477.471	5619.56
477.69	5723.56
477.908	5889.56
478.127	5959.56
478.346	5955.56
478.564	6167.56
478.783	6218.56
479.002	6324.56
479.22	6392.56
479.439	6433.56
479.658	6496.56
479.876	6655.56
480.095	6801.56
480.313	7220.56
480.532	7077.56
480.751	6940.56
480.969	6815.56
481.188	6844.56
481.406	6651.56
481.624	6322.56
481.843	6193.56
482.061	6081.56
482.28	6024.56
482.498	5928.56
482.717	5768.56
482.935	5908.56
483.153	5859.56
483.372	5793.56
483.59	5854.56
483.808	5914.56
484.027	5895.56
484.245	5967.56
484.463	6019.56
484.681	6039.56
484.9	6070.56
485.118	6108.56
485.336	6095.56
485.554	6316.56
485.772	6267.56
485.99	6375.56
486.209	6382.56
486.427	6368.56
486.645	6444.56
486.863	6572.56
487.081	6513.56
487.299	6392.56
487.517	6405.56
487.735	6341.56
487.953	6335.56
