Data from Circ_2005_H10_HRD10591_00064.txt Node
Date: Wed Jan 03 10:30:03 EST 2024
User: Yrep
Spectrometer: HR+D1059
Trigger mode: 1
Integration Time (sec): 1.000000E-1
Scans to average: 1
Electric dark correction enabled: true
Nonlinearity correction enabled: false
Boxcar width: 0
XAxis mode: Wavelengths
Number of Pixels in Spectrum: 2048
>>>>>Begin Spectral Data<<<<<
223.165	-1.94
223.4	-1.94
223.635	-1.94
223.869	-15.94
224.104	-17.94
224.338	-20.94
224.573	-12.94
224.808	-3.94
225.042	-2.94
225.277	0.06
225.511	-2.94
225.746	-13.94
225.98	10.06
226.215	13.06
226.449	15.06
226.683	9.06
226.918	20.06
227.152	26.06
227.387	37.06
227.621	42.06
227.856	51.06
228.09	42.06
228.324	66.06
228.559	49.06
228.793	80.06
229.027	78.06
229.262	69.06
229.496	67.06
229.73	82.06
229.964	87.06
230.199	81.06
230.433	73.06
230.667	82.06
230.901	99.06
231.136	73.06
231.37	75.06
231.604	93.06
231.838	73.06
232.072	80.06
232.306	74.06
232.541	80.06
232.775	88.06
233.009	87.06
233.243	78.06
233.477	67.06
233.711	83.06
233.945	89.06
234.179	79.06
234.413	83.06
234.647	82.06
234.881	81.06
235.115	81.06
235.349	80.06
235.583	93.06
235.817	86.06
236.051	85.06
236.285	78.06
236.519	79.06
236.753	81.06
236.987	77.06
237.221	83.06
237.455	85.06
237.689	74.06
237.922	74.06
238.156	78.06
238.39	78.06
238.624	65.06
238.858	82.06
239.091	86.06
239.325	72.06
239.559	80.06
239.793	87.06
240.027	79.06
240.26	78.06
240.494	73.06
240.728	71.06
240.961	84.06
241.195	80.06
241.429	78.06
241.662	74.06
241.896	91.06
242.13	80.06
242.363	82.06
242.597	74.06
242.83	78.06
243.064	88.06
243.298	82.06
243.531	72.06
243.765	61.06
243.998	75.06
244.232	83.06
244.465	77.06
244.699	86.06
244.932	74.06
245.166	65.06
245.399	71.06
245.633	74.06
245.866	82.06
246.099	86.06
246.333	88.06
246.566	88.06
246.8	80.06
247.033	81.06
247.266	79.06
247.5	85.06
247.733	83.06
247.966	89.06
248.2	82.06
248.433	81.06
248.666	78.06
248.899	84.06
249.133	81.06
249.366	101.06
249.599	94.06
249.832	75.06
250.066	79.06
250.299	85.06
250.532	78.06
250.765	82.06
250.998	69.06
251.231	73.06
251.465	78.06
251.698	82.06
251.931	86.06
252.164	75.06
252.397	73.06
252.63	92.06
252.863	80.06
253.096	87.06
253.329	90.06
253.562	77.06
253.795	87.06
254.028	86.06
254.261	88.06
254.494	82.06
254.727	80.06
254.96	78.06
255.193	87.06
255.426	79.06
255.659	75.06
255.892	86.06
256.124	77.06
256.357	93.06
256.59	75.06
256.823	69.06
257.056	77.06
257.289	90.06
257.521	93.06
257.754	73.06
257.987	90.06
258.22	83.06
258.452	77.06
258.685	77.06
258.918	91.06
259.151	84.06
259.383	95.06
259.616	77.06
259.849	88.06
260.081	85.06
260.314	98.06
260.547	74.06
260.779	71.06
261.012	70.06
261.244	105.06
261.477	90.06
261.71	75.06
261.942	99.06
262.175	100.06
262.407	85.06
262.64	77.06
262.872	87.06
263.105	82.06
263.337	90.06
263.57	85.06
263.802	96.06
264.035	89.06
264.267	85.06
264.499	79.06
264.732	78.06
264.964	90.06
265.197	81.06
265.429	77.06
265.661	73.06
265.894	85.06
266.126	89.06
266.358	92.06
266.591	78.06
266.823	83.06
267.055	85.06
267.287	86.06
267.52	86.06
267.752	71.06
267.984	78.06
268.216	80.06
268.448	82.06
268.681	82.06
268.913	85.06
269.145	78.06
269.377	78.06
269.609	87.06
269.841	70.06
270.073	98.06
270.306	90.06
270.538	81.06
270.77	78.06
271.002	93.06
271.234	89.06
271.466	91.06
271.698	76.06
271.93	93.06
272.162	90.06
272.394	101.06
272.626	86.06
272.858	82.06
273.09	86.06
273.322	83.06
273.553	73.06
273.785	87.06
274.017	89.06
274.249	85.06
274.481	100.06
274.713	87.06
274.945	87.06
275.176	62.06
275.408	93.06
275.64	94.06
275.872	90.06
276.104	99.06
276.335	87.06
276.567	101.06
276.799	109.06
277.031	95.06
277.262	87.06
277.494	83.06
277.726	87.06
277.957	92.06
278.189	79.06
278.421	94.06
278.652	96.06
278.884	82.06
279.115	91.06
279.347	87.06
279.579	86.06
279.81	86.06
280.042	86.06
280.273	100.06
280.505	94.06
280.736	86.06
280.968	86.06
281.199	89.06
281.431	88.06
281.662	81.06
281.894	94.06
282.125	103.06
282.356	117.06
282.588	136.06
282.819	105.06
283.051	96.06
283.282	97.06
283.513	91.06
283.745	90.06
283.976	93.06
284.207	92.06
284.439	93.06
284.67	102.06
284.901	91.06
285.132	74.06
285.364	89.06
285.595	88.06
285.826	90.06
286.057	90.06
286.288	94.06
286.52	86.06
286.751	90.06
286.982	92.06
287.213	80.06
287.444	86.06
287.675	82.06
287.906	99.06
288.138	105.06
288.369	104.06
288.6	85.06
288.831	88.06
289.062	90.06
289.293	73.06
289.524	78.06
289.755	91.06
289.986	102.06
290.217	85.06
290.448	87.06
290.679	77.06
290.91	90.06
291.141	85.06
291.371	86.06
291.602	85.06
291.833	83.06
292.064	85.06
292.295	78.06
292.526	95.06
292.757	86.06
292.987	82.06
293.218	94.06
293.449	94.06
293.68	87.06
293.91	96.06
294.141	88.06
294.372	91.06
294.603	85.06
294.833	86.06
295.064	76.06
295.295	89.06
295.525	87.06
295.756	89.06
295.987	113.06
296.217	136.06
296.448	116.06
296.679	85.06
296.909	88.06
297.14	95.06
297.37	85.06
297.601	80.06
297.831	80.06
298.062	80.06
298.292	92.06
298.523	87.06
298.753	97.06
298.984	98.06
299.214	92.06
299.445	87.06
299.675	89.06
299.905	93.06
300.136	97.06
300.366	101.06
300.597	101.06
300.827	89.06
301.057	105.06
301.288	102.06
301.518	92.06
301.748	86.06
301.979	114.06
302.209	80.06
302.439	100.06
302.669	97.06
302.9	79.06
303.13	99.06
303.36	110.06
303.59	104.06
303.82	100.06
304.051	98.06
304.281	105.06
304.511	95.06
304.741	88.06
304.971	90.06
305.201	103.06
305.431	95.06
305.661	96.06
305.891	95.06
306.121	105.06
306.352	99.06
306.582	111.06
306.812	91.06
307.042	90.06
307.272	100.06
307.502	105.06
307.731	98.06
307.961	91.06
308.191	88.06
308.421	103.06
308.651	112.06
308.881	89.06
309.111	80.06
309.341	109.06
309.571	102.06
309.8	101.06
310.03	96.06
310.26	104.06
310.49	81.06
310.72	95.06
310.949	97.06
311.179	106.06
311.409	108.06
311.639	93.06
311.868	83.06
312.098	88.06
312.328	104.06
312.557	99.06
312.787	100.06
313.017	101.06
313.246	91.06
313.476	85.06
313.706	86.06
313.935	83.06
314.165	101.06
314.394	107.06
314.624	98.06
314.853	115.06
315.083	99.06
315.312	98.06
315.542	89.06
315.771	99.06
316.001	103.06
316.23	86.06
316.46	82.06
316.689	96.06
316.919	90.06
317.148	111.06
317.377	102.06
317.607	110.06
317.836	110.06
318.065	98.06
318.295	88.06
318.524	99.06
318.753	93.06
318.983	99.06
319.212	105.06
319.441	90.06
319.67	111.06
319.9	85.06
320.129	89.06
320.358	106.06
320.587	105.06
320.816	94.06
321.046	112.06
321.275	101.06
321.504	90.06
321.733	87.06
321.962	105.06
322.191	106.06
322.42	110.06
322.649	99.06
322.878	117.06
323.108	115.06
323.337	124.06
323.566	120.06
323.795	156.06
324.024	198.06
324.253	363.06
324.482	788.06
324.71	1585.06
324.939	2027.06
325.168	790.06
325.397	223.06
325.626	149.06
325.855	134.06
326.084	110.06
326.313	134.06
326.542	135.06
326.77	226.06
326.999	442.06
327.228	898.06
327.457	1610.06
327.686	1275.06
327.914	367.06
328.143	210.06
328.372	162.06
328.6	145.06
328.829	129.06
329.058	119.06
329.287	135.06
329.515	121.06
329.744	120.06
329.972	119.06
330.201	152.06
330.43	193.06
330.658	145.06
330.887	128.06
331.115	123.06
331.344	105.06
331.572	102.06
331.801	104.06
332.03	93.06
332.258	100.06
332.486	99.06
332.715	98.06
332.943	73.06
333.172	100.06
333.4	95.06
333.629	120.06
333.857	109.06
334.085	126.06
334.314	170.06
334.542	223.06
334.771	203.06
334.999	117.06
335.227	111.06
335.455	85.06
335.684	99.06
335.912	104.06
336.14	106.06
336.369	94.06
336.597	92.06
336.825	112.06
337.053	102.06
337.281	75.06
337.51	85.06
337.738	83.06
337.966	94.06
338.194	100.06
338.422	112.06
338.65	79.06
338.878	101.06
339.106	96.06
339.334	91.06
339.562	89.06
339.79	95.06
340.018	91.06
340.246	102.06
340.474	89.06
340.702	102.06
340.93	92.06
341.158	88.06
341.386	83.06
341.614	98.06
341.842	95.06
342.07	98.06
342.298	92.06
342.526	92.06
342.754	88.06
342.981	91.06
343.209	81.06
343.437	101.06
343.665	90.06
343.893	85.06
344.12	91.06
344.348	106.06
344.576	92.06
344.804	99.06
345.031	104.06
345.259	94.06
345.487	84.06
345.714	98.06
345.942	94.06
346.17	92.06
346.397	101.06
346.625	99.06
346.853	82.06
347.08	87.06
347.308	99.06
347.535	98.06
347.763	98.06
347.99	102.06
348.218	90.06
348.445	107.06
348.673	100.06
348.9	96.06
349.128	96.06
349.355	86.06
349.583	98.06
349.81	87.06
350.037	102.06
350.265	107.06
350.492	90.06
350.72	88.06
350.947	99.06
351.174	102.06
351.402	105.06
351.629	112.06
351.856	114.06
352.083	113.06
352.311	97.06
352.538	110.06
352.765	121.06
352.992	123.06
353.22	106.06
353.447	101.06
353.674	103.06
353.901	100.06
354.128	96.06
354.355	102.06
354.583	105.06
354.81	100.06
355.037	113.06
355.264	94.06
355.491	93.06
355.718	88.06
355.945	98.06
356.172	74.06
356.399	93.06
356.626	93.06
356.853	85.06
357.08	98.06
357.307	89.06
357.534	107.06
357.761	85.06
357.988	91.06
358.215	101.06
358.441	96.06
358.668	99.06
358.895	95.06
359.122	94.06
359.349	84.06
359.576	90.06
359.802	109.06
360.029	112.06
360.256	109.06
360.483	104.06
360.709	89.06
360.936	106.06
361.163	79.06
361.39	97.06
361.616	88.06
361.843	84.06
362.07	111.06
362.296	98.06
362.523	98.06
362.749	104.06
362.976	90.06
363.203	103.06
363.429	89.06
363.656	93.06
363.882	80.06
364.109	94.06
364.335	90.06
364.562	77.06
364.788	87.06
365.015	84.06
365.241	108.06
365.468	120.06
365.694	103.06
365.92	108.06
366.147	90.06
366.373	86.06
366.599	94.06
366.826	93.06
367.052	110.06
367.278	97.06
367.505	96.06
367.731	96.06
367.957	96.06
368.184	109.06
368.41	100.06
368.636	100.06
368.862	132.06
369.089	104.06
369.315	85.06
369.541	96.06
369.767	92.06
369.993	90.06
370.219	85.06
370.445	80.06
370.672	89.06
370.898	104.06
371.124	92.06
371.35	91.06
371.576	101.06
371.802	103.06
372.028	79.06
372.254	95.06
372.48	89.06
372.706	92.06
372.932	95.06
373.158	87.06
373.384	91.06
373.61	100.06
373.835	101.06
374.061	87.06
374.287	89.06
374.513	82.06
374.739	85.06
374.965	94.06
375.191	96.06
375.416	103.06
375.642	90.06
375.868	91.06
376.094	101.06
376.319	77.06
376.545	96.06
376.771	88.06
376.997	97.06
377.222	96.06
377.448	83.06
377.674	99.06
377.899	90.06
378.125	88.06
378.35	108.06
378.576	80.06
378.802	88.06
379.027	97.06
379.253	97.06
379.478	87.06
379.704	105.06
379.929	104.06
380.155	100.06
380.38	93.06
380.606	93.06
380.831	94.06
381.057	98.06
381.282	103.06
381.507	97.06
381.733	90.06
381.958	105.06
382.184	95.06
382.409	93.06
382.634	101.06
382.86	92.06
383.085	83.06
383.31	100.06
383.535	99.06
383.761	94.06
383.986	107.06
384.211	106.06
384.436	98.06
384.662	109.06
384.887	112.06
385.112	114.06
385.337	109.06
385.562	109.06
385.787	104.06
386.013	115.06
386.238	102.06
386.463	95.06
386.688	109.06
386.913	104.06
387.138	105.06
387.363	105.06
387.588	110.06
387.813	94.06
388.038	97.06
388.263	113.06
388.488	117.06
388.713	96.06
388.938	91.06
389.163	101.06
389.387	91.06
389.612	108.06
389.837	80.06
390.062	89.06
390.287	93.06
390.512	87.06
390.736	100.06
390.961	95.06
391.186	105.06
391.411	97.06
391.636	94.06
391.86	88.06
392.085	87.06
392.31	90.06
392.534	102.06
392.759	93.06
392.984	87.06
393.208	87.06
393.433	94.06
393.658	91.06
393.882	85.06
394.107	81.06
394.331	89.06
394.556	79.06
394.78	98.06
395.005	97.06
395.229	94.06
395.454	90.06
395.678	91.06
395.903	83.06
396.127	76.06
396.352	82.06
396.576	87.06
396.801	82.06
397.025	82.06
397.249	78.06
397.474	86.06
397.698	90.06
397.922	77.06
398.147	98.06
398.371	91.06
398.595	85.06
398.82	86.06
399.044	86.06
399.268	93.06
399.492	95.06
399.717	109.06
399.941	94.06
400.165	83.06
400.389	89.06
400.613	89.06
400.837	85.06
401.062	71.06
401.286	96.06
401.51	95.06
401.734	89.06
401.958	109.06
402.182	119.06
402.406	143.06
402.63	124.06
402.854	101.06
403.078	73.06
403.302	91.06
403.526	82.06
403.75	87.06
403.974	84.06
404.198	77.06
404.422	91.06
404.645	91.06
404.869	93.06
405.093	98.06
405.317	98.06
405.541	94.06
405.765	103.06
405.988	119.06
406.212	168.06
406.436	225.06
406.66	144.06
406.883	87.06
407.107	77.06
407.331	100.06
407.555	92.06
407.778	91.06
408.002	90.06
408.226	92.06
408.449	75.06
408.673	89.06
408.896	88.06
409.12	78.06
409.344	85.06
409.567	99.06
409.791	103.06
410.014	108.06
410.238	93.06
410.461	85.06
410.685	110.06
410.908	78.06
411.132	99.06
411.355	111.06
411.578	91.06
411.802	76.06
412.025	96.06
412.249	83.06
412.472	98.06
412.695	99.06
412.919	100.06
413.142	73.06
413.365	85.06
413.589	98.06
413.812	102.06
414.035	101.06
414.258	99.06
414.482	105.06
414.705	90.06
414.928	95.06
415.151	85.06
415.374	95.06
415.597	88.06
415.821	90.06
416.044	86.06
416.267	96.06
416.49	91.06
416.713	81.06
416.936	87.06
417.159	101.06
417.382	86.06
417.605	98.06
417.828	102.06
418.051	92.06
418.274	94.06
418.497	87.06
418.72	91.06
418.943	87.06
419.166	101.06
419.389	97.06
419.611	95.06
419.834	82.06
420.057	94.06
420.28	88.06
420.503	88.06
420.726	83.06
420.948	83.06
421.171	98.06
421.394	107.06
421.617	91.06
421.839	86.06
422.062	90.06
422.285	98.06
422.507	101.06
422.73	88.06
422.953	102.06
423.175	100.06
423.398	95.06
423.621	98.06
423.843	87.06
424.066	80.06
424.288	79.06
424.511	106.06
424.733	94.06
424.956	96.06
425.178	100.06
425.401	104.06
425.623	91.06
425.846	87.06
426.068	96.06
426.291	101.06
426.513	90.06
426.735	78.06
426.958	95.06
427.18	109.06
427.402	143.06
427.625	168.06
427.847	125.06
428.069	117.06
428.292	107.06
428.514	85.06
428.736	71.06
428.958	81.06
429.181	90.06
429.403	76.06
429.625	78.06
429.847	89.06
430.069	92.06
430.292	99.06
430.514	89.06
430.736	89.06
430.958	80.06
431.18	73.06
431.402	98.06
431.624	85.06
431.846	82.06
432.068	94.06
432.29	78.06
432.512	61.06
432.734	89.06
432.956	96.06
433.178	97.06
433.4	89.06
433.622	86.06
433.844	96.06
434.066	93.06
434.287	108.06
434.509	106.06
434.731	97.06
434.953	86.06
435.175	93.06
435.397	85.06
435.618	89.06
435.84	113.06
436.062	118.06
436.284	111.06
436.505	104.06
436.727	102.06
436.949	98.06
437.17	88.06
437.392	83.06
437.614	89.06
437.835	104.06
438.057	118.06
438.278	116.06
438.5	88.06
438.721	114.06
438.943	92.06
439.165	88.06
439.386	80.06
439.608	87.06
439.829	107.06
440.05	118.06
440.272	133.06
440.493	111.06
440.715	81.06
440.936	87.06
441.158	86.06
441.379	101.06
441.6	99.06
441.822	96.06
442.043	106.06
442.264	88.06
442.486	87.06
442.707	97.06
442.928	116.06
443.149	132.06
443.371	131.06
443.592	115.06
443.813	120.06
444.034	101.06
444.255	88.06
444.476	83.06
444.698	103.06
444.919	82.06
445.14	142.06
445.361	129.06
445.582	112.06
445.803	120.06
446.024	114.06
446.245	117.06
446.466	118.06
446.687	97.06
446.908	90.06
447.129	87.06
447.35	94.06
447.571	87.06
447.792	103.06
448.013	104.06
448.234	112.06
448.455	96.06
448.675	120.06
448.896	119.06
449.117	115.06
449.338	100.06
449.559	113.06
449.779	124.06
450	96.06
450.221	102.06
450.442	105.06
450.662	101.06
450.883	94.06
451.104	96.06
451.324	72.06
451.545	73.06
451.766	81.06
451.986	83.06
452.207	97.06
452.428	110.06
452.648	83.06
452.869	119.06
453.089	101.06
453.31	107.06
453.53	78.06
453.751	79.06
453.971	100.06
454.192	110.06
454.412	86.06
454.633	93.06
454.853	88.06
455.073	78.06
455.294	97.06
455.514	105.06
455.734	83.06
455.955	89.06
456.175	76.06
456.395	84.06
456.616	90.06
456.836	86.06
457.056	87.06
457.276	93.06
457.497	95.06
457.717	85.06
457.937	86.06
458.157	74.06
458.377	85.06
458.598	106.06
458.818	145.06
459.038	146.06
459.258	100.06
459.478	82.06
459.698	97.06
459.918	91.06
460.138	96.06
460.358	90.06
460.578	84.06
460.798	101.06
461.018	87.06
461.238	88.06
461.458	98.06
461.678	94.06
461.898	83.06
462.118	89.06
462.338	88.06
462.558	104.06
462.777	92.06
462.997	91.06
463.217	97.06
463.437	82.06
463.657	77.06
463.876	88.06
464.096	101.06
464.316	91.06
464.536	94.06
464.755	99.06
464.975	95.06
465.195	147.06
465.414	134.06
465.634	82.06
465.854	84.06
466.073	87.06
466.293	98.06
466.512	92.06
466.732	89.06
466.951	86.06
467.171	103.06
467.391	93.06
467.61	104.06
467.829	98.06
468.049	120.06
468.268	126.06
468.488	102.06
468.707	79.06
468.927	79.06
469.146	80.06
469.365	102.06
469.585	91.06
469.804	99.06
470.023	92.06
470.243	94.06
470.462	94.06
470.681	108.06
470.901	89.06
471.12	85.06
471.339	80.06
471.558	99.06
471.777	101.06
471.997	109.06
472.216	159.06
472.435	258.06
472.654	113.06
472.873	85.06
473.092	87.06
473.311	88.06
473.53	95.06
473.749	85.06
473.968	86.06
474.187	104.06
474.406	99.06
474.625	81.06
474.844	86.06
475.063	91.06
475.282	87.06
475.501	90.06
475.72	82.06
475.939	83.06
476.158	86.06
476.377	81.06
476.596	80.06
476.814	95.06
477.033	99.06
477.252	97.06
477.471	103.06
477.69	90.06
477.908	91.06
478.127	86.06
478.346	101.06
478.564	86.06
478.783	88.06
479.002	95.06
479.22	90.06
479.439	104.06
479.658	104.06
479.876	88.06
480.095	86.06
480.313	82.06
480.532	94.06
480.751	116.06
480.969	169.06
481.188	404.06
481.406	276.06
481.624	102.06
481.843	99.06
482.061	85.06
482.28	103.06
482.498	84.06
482.717	93.06
482.935	95.06
483.153	73.06
483.372	95.06
483.59	88.06
483.808	89.06
484.027	82.06
484.245	96.06
484.463	85.06
484.681	103.06
484.9	93.06
485.118	96.06
485.336	97.06
485.554	86.06
485.772	99.06
485.99	122.06
486.209	112.06
486.427	114.06
486.645	118.06
486.863	115.06
487.081	115.06
487.299	96.06
487.517	92.06
487.735	99.06
487.953	90.06
488.171	110.06
488.389	80.06
488.607	93.06
488.825	89.06
489.043	99.06
489.261	91.06
489.479	95.06
489.696	96.06
489.914	115.06
490.132	90.06
490.35	81.06
490.568	87.06
490.786	88.06
491.003	70.06
491.221	89.06
491.439	77.06
491.657	96.06
491.874	91.06
492.092	89.06
492.31	89.06
492.527	92.06
492.745	78.06
492.963	94.06
493.18	103.06
493.398	92.06
493.615	97.06
493.833	91.06
494.05	90.06
494.268	93.06
494.485	97.06
494.703	95.06
494.92	98.06
495.138	99.06
495.355	85.06
495.573	96.06
495.79	93.06
496.008	108.06
496.225	110.06
496.442	102.06
496.66	82.06
496.877	88.06
497.094	96.06
497.312	93.06
497.529	90.06
497.746	94.06
497.963	94.06
498.181	84.06
498.398	76.06
498.615	114.06
498.832	104.06
499.049	97.06
499.267	97.06
499.484	106.06
499.701	94.06
499.918	86.06
500.135	82.06
500.352	90.06
500.569	94.06
500.786	90.06
501.003	102.06
501.22	81.06
501.437	86.06
501.654	91.06
501.871	104.06
502.088	98.06
502.305	94.06
502.522	84.06
502.739	93.06
502.956	88.06
503.172	104.06
503.389	87.06
503.606	95.06
503.823	99.06
504.04	97.06
504.256	95.06
504.473	90.06
504.69	91.06
504.907	95.06
505.123	90.06
505.34	84.06
505.557	97.06
505.773	87.06
505.99	88.06
506.207	98.06
506.423	91.06
506.64	80.06
506.856	99.06
507.073	94.06
507.289	91.06
507.506	93.06
507.722	98.06
507.939	113.06
508.155	89.06
508.372	90.06
508.588	87.06
508.805	97.06
509.021	101.06
509.238	89.06
509.454	103.06
509.67	116.06
509.887	111.06
510.103	138.06
510.319	203.06
510.536	696.06
510.752	2225.06
510.968	610.06
511.184	155.06
511.401	105.06
511.617	113.06
511.833	95.06
512.049	82.06
512.265	103.06
512.481	105.06
512.698	94.06
512.914	90.06
513.13	96.06
513.346	91.06
513.562	101.06
513.778	108.06
513.994	110.06
514.21	105.06
514.426	103.06
514.642	133.06
514.858	142.06
