Data from Circ_2005_H10_HRD10591_00010.txt Node
Date: Wed Jan 03 10:29:53 EST 2024
User: Yrep
Spectrometer: HR+D1059
Trigger mode: 1
Integration Time (sec): 1.000000E-1
Scans to average: 1
Electric dark correction enabled: true
Nonlinearity correction enabled: false
Boxcar width: 0
XAxis mode: Wavelengths
Number of Pixels in Spectrum: 2048
>>>>>Begin Spectral Data<<<<<
223.165	-23.88
223.4	-23.88
223.635	-23.88
223.869	-26.88
224.104	-9.88
224.338	-11.88
224.573	-21.88
224.808	-16.88
225.042	-4.88
225.277	-3.88
225.511	-1.88
225.746	4.12
225.98	9.12
226.215	18.12
226.449	20.12
226.683	28.12
226.918	18.12
227.152	24.12
227.387	27.12
227.621	38.12
227.856	40.12
228.09	32.12
228.324	56.12
228.559	54.12
228.793	48.12
229.027	65.12
229.262	60.12
229.496	81.12
229.73	82.12
229.964	82.12
230.199	78.12
230.433	74.12
230.667	75.12
230.901	83.12
231.136	78.12
231.37	83.12
231.604	81.12
231.838	68.12
232.072	86.12
232.306	82.12
232.541	92.12
232.775	87.12
233.009	84.12
233.243	71.12
233.477	86.12
233.711	74.12
233.945	91.12
234.179	74.12
234.413	79.12
234.647	79.12
234.881	80.12
235.115	85.12
235.349	81.12
235.583	71.12
235.817	87.12
236.051	80.12
236.285	76.12
236.519	82.12
236.753	79.12
236.987	82.12
237.221	71.12
237.455	70.12
237.689	68.12
237.922	85.12
238.156	75.12
238.39	64.12
238.624	77.12
238.858	77.12
239.091	87.12
239.325	88.12
239.559	85.12
239.793	75.12
240.027	78.12
240.26	60.12
240.494	78.12
240.728	92.12
240.961	80.12
241.195	81.12
241.429	84.12
241.662	85.12
241.896	73.12
242.13	76.12
242.363	80.12
242.597	81.12
242.83	72.12
243.064	61.12
243.298	82.12
243.531	74.12
243.765	73.12
243.998	72.12
244.232	82.12
244.465	83.12
244.699	76.12
244.932	67.12
245.166	85.12
245.399	78.12
245.633	76.12
245.866	64.12
246.099	84.12
246.333	84.12
246.566	83.12
246.8	66.12
247.033	66.12
247.266	63.12
247.5	76.12
247.733	80.12
247.966	81.12
248.2	101.12
248.433	84.12
248.666	86.12
248.899	79.12
249.133	87.12
249.366	93.12
249.599	81.12
249.832	78.12
250.066	86.12
250.299	69.12
250.532	82.12
250.765	70.12
250.998	79.12
251.231	83.12
251.465	80.12
251.698	74.12
251.931	82.12
252.164	83.12
252.397	68.12
252.63	73.12
252.863	69.12
253.096	78.12
253.329	89.12
253.562	73.12
253.795	81.12
254.028	69.12
254.261	82.12
254.494	73.12
254.727	80.12
254.96	96.12
255.193	71.12
255.426	76.12
255.659	85.12
255.892	84.12
256.124	88.12
256.357	81.12
256.59	82.12
256.823	79.12
257.056	85.12
257.289	69.12
257.521	84.12
257.754	87.12
257.987	73.12
258.22	69.12
258.452	98.12
258.685	78.12
258.918	82.12
259.151	92.12
259.383	78.12
259.616	70.12
259.849	91.12
260.081	103.12
260.314	72.12
260.547	80.12
260.779	71.12
261.012	76.12
261.244	85.12
261.477	92.12
261.71	92.12
261.942	99.12
262.175	110.12
262.407	84.12
262.64	74.12
262.872	77.12
263.105	82.12
263.337	94.12
263.57	79.12
263.802	73.12
264.035	68.12
264.267	90.12
264.499	82.12
264.732	88.12
264.964	87.12
265.197	89.12
265.429	86.12
265.661	87.12
265.894	73.12
266.126	96.12
266.358	87.12
266.591	87.12
266.823	92.12
267.055	88.12
267.287	74.12
267.52	83.12
267.752	80.12
267.984	94.12
268.216	96.12
268.448	80.12
268.681	91.12
268.913	85.12
269.145	92.12
269.377	90.12
269.609	84.12
269.841	79.12
270.073	85.12
270.306	77.12
270.538	75.12
270.77	90.12
271.002	79.12
271.234	95.12
271.466	80.12
271.698	87.12
271.93	70.12
272.162	93.12
272.394	83.12
272.626	90.12
272.858	74.12
273.09	85.12
273.322	77.12
273.553	85.12
273.785	95.12
274.017	70.12
274.249	77.12
274.481	85.12
274.713	84.12
274.945	87.12
275.176	79.12
275.408	96.12
275.64	73.12
275.872	88.12
276.104	73.12
276.335	89.12
276.567	103.12
276.799	97.12
277.031	89.12
277.262	90.12
277.494	72.12
277.726	85.12
277.957	74.12
278.189	86.12
278.421	95.12
278.652	105.12
278.884	83.12
279.115	94.12
279.347	86.12
279.579	88.12
279.81	88.12
280.042	102.12
280.273	81.12
280.505	79.12
280.736	92.12
280.968	93.12
281.199	87.12
281.431	73.12
281.662	83.12
281.894	88.12
282.125	102.12
282.356	113.12
282.588	120.12
282.819	98.12
283.051	74.12
283.282	86.12
283.513	96.12
283.745	83.12
283.976	95.12
284.207	92.12
284.439	79.12
284.67	75.12
284.901	88.12
285.132	89.12
285.364	81.12
285.595	74.12
285.826	78.12
286.057	79.12
286.288	77.12
286.52	79.12
286.751	76.12
286.982	83.12
287.213	94.12
287.444	85.12
287.675	88.12
287.906	66.12
288.138	74.12
288.369	92.12
288.6	93.12
288.831	87.12
289.062	87.12
289.293	87.12
289.524	86.12
289.755	77.12
289.986	84.12
290.217	101.12
290.448	93.12
290.679	73.12
290.91	70.12
291.141	79.12
291.371	68.12
291.602	88.12
291.833	86.12
292.064	89.12
292.295	95.12
292.526	94.12
292.757	95.12
292.987	76.12
293.218	83.12
293.449	75.12
293.68	82.12
293.91	87.12
294.141	102.12
294.372	82.12
294.603	93.12
294.833	85.12
295.064	89.12
295.295	93.12
295.525	90.12
295.756	91.12
295.987	102.12
296.217	127.12
296.448	111.12
296.679	102.12
296.909	79.12
297.14	66.12
297.37	93.12
297.601	92.12
297.831	97.12
298.062	98.12
298.292	94.12
298.523	90.12
298.753	105.12
298.984	79.12
299.214	72.12
299.445	88.12
299.675	74.12
299.905	95.12
300.136	83.12
300.366	97.12
300.597	83.12
300.827	79.12
301.057	95.12
301.288	101.12
301.518	84.12
301.748	92.12
301.979	100.12
302.209	95.12
302.439	84.12
302.669	80.12
302.9	87.12
303.13	92.12
303.36	89.12
303.59	109.12
303.82	98.12
304.051	89.12
304.281	87.12
304.511	96.12
304.741	101.12
304.971	80.12
305.201	88.12
305.431	78.12
305.661	81.12
305.891	79.12
306.121	87.12
306.352	101.12
306.582	87.12
306.812	98.12
307.042	78.12
307.272	90.12
307.502	97.12
307.731	96.12
307.961	85.12
308.191	82.12
308.421	90.12
308.651	113.12
308.881	98.12
309.111	99.12
309.341	99.12
309.571	79.12
309.8	94.12
310.03	86.12
310.26	90.12
310.49	89.12
310.72	91.12
310.949	92.12
311.179	86.12
311.409	98.12
311.639	95.12
311.868	98.12
312.098	97.12
312.328	85.12
312.557	105.12
312.787	101.12
313.017	78.12
313.246	98.12
313.476	94.12
313.706	78.12
313.935	77.12
314.165	95.12
314.394	90.12
314.624	85.12
314.853	109.12
315.083	83.12
315.312	100.12
315.542	86.12
315.771	74.12
316.001	95.12
316.23	88.12
316.46	91.12
316.689	86.12
316.919	90.12
317.148	94.12
317.377	82.12
317.607	91.12
317.836	95.12
318.065	83.12
318.295	98.12
318.524	94.12
318.753	90.12
318.983	88.12
319.212	104.12
319.441	113.12
319.67	100.12
319.9	94.12
320.129	87.12
320.358	94.12
320.587	107.12
320.816	103.12
321.046	84.12
321.275	94.12
321.504	74.12
321.733	97.12
321.962	100.12
322.191	97.12
322.42	93.12
322.649	106.12
322.878	104.12
323.108	100.12
323.337	102.12
323.566	125.12
323.795	147.12
324.024	185.12
324.253	348.12
324.482	769.12
324.71	1583.12
324.939	2093.12
325.168	776.12
325.397	226.12
325.626	138.12
325.855	113.12
326.084	121.12
326.313	117.12
326.542	138.12
326.77	230.12
326.999	456.12
327.228	907.12
327.457	1687.12
327.686	1322.12
327.914	340.12
328.143	178.12
328.372	132.12
328.6	127.12
328.829	112.12
329.058	108.12
329.287	112.12
329.515	92.12
329.744	96.12
329.972	109.12
330.201	95.12
330.43	112.12
330.658	95.12
330.887	115.12
331.115	100.12
331.344	95.12
331.572	86.12
331.801	98.12
332.03	98.12
332.258	94.12
332.486	103.12
332.715	100.12
332.943	96.12
333.172	96.12
333.4	95.12
333.629	94.12
333.857	83.12
334.085	97.12
334.314	108.12
334.542	110.12
334.771	85.12
334.999	95.12
335.227	101.12
335.455	92.12
335.684	93.12
335.912	94.12
336.14	103.12
336.369	106.12
336.597	91.12
336.825	89.12
337.053	91.12
337.281	107.12
337.51	77.12
337.738	91.12
337.966	95.12
338.194	88.12
338.422	83.12
338.65	83.12
338.878	74.12
339.106	88.12
339.334	96.12
339.562	93.12
339.79	85.12
340.018	92.12
340.246	78.12
340.474	91.12
340.702	83.12
340.93	87.12
341.158	95.12
341.386	102.12
341.614	88.12
341.842	89.12
342.07	79.12
342.298	82.12
342.526	81.12
342.754	98.12
342.981	84.12
343.209	79.12
343.437	112.12
343.665	83.12
343.893	86.12
344.12	82.12
344.348	79.12
344.576	93.12
344.804	80.12
345.031	91.12
345.259	92.12
345.487	83.12
345.714	88.12
345.942	98.12
346.17	76.12
346.397	98.12
346.625	88.12
346.853	87.12
347.08	93.12
347.308	96.12
347.535	81.12
347.763	99.12
347.99	94.12
348.218	110.12
348.445	97.12
348.673	94.12
348.9	74.12
349.128	87.12
349.355	87.12
349.583	93.12
349.81	107.12
350.037	93.12
350.265	77.12
350.492	87.12
350.72	83.12
350.947	96.12
351.174	99.12
351.402	115.12
351.629	104.12
351.856	88.12
352.083	95.12
352.311	97.12
352.538	109.12
352.765	117.12
352.992	108.12
353.22	102.12
353.447	103.12
353.674	93.12
353.901	96.12
354.128	93.12
354.355	88.12
354.583	94.12
354.81	90.12
355.037	80.12
355.264	106.12
355.491	93.12
355.718	104.12
355.945	96.12
356.172	91.12
356.399	99.12
356.626	99.12
356.853	87.12
357.08	101.12
357.307	98.12
357.534	90.12
357.761	95.12
357.988	90.12
358.215	102.12
358.441	103.12
358.668	86.12
358.895	88.12
359.122	88.12
359.349	95.12
359.576	88.12
359.802	102.12
360.029	90.12
360.256	104.12
360.483	107.12
360.709	80.12
360.936	98.12
361.163	86.12
361.39	98.12
361.616	100.12
361.843	86.12
362.07	86.12
362.296	88.12
362.523	92.12
362.749	92.12
362.976	84.12
363.203	95.12
363.429	86.12
363.656	79.12
363.882	90.12
364.109	94.12
364.335	87.12
364.562	89.12
364.788	86.12
365.015	80.12
365.241	96.12
365.468	94.12
365.694	103.12
365.92	96.12
366.147	98.12
366.373	88.12
366.599	91.12
366.826	101.12
367.052	84.12
367.278	92.12
367.505	84.12
367.731	92.12
367.957	97.12
368.184	85.12
368.41	89.12
368.636	103.12
368.862	111.12
369.089	98.12
369.315	78.12
369.541	105.12
369.767	108.12
369.993	96.12
370.219	89.12
370.445	86.12
370.672	76.12
370.898	93.12
371.124	78.12
371.35	76.12
371.576	92.12
371.802	86.12
372.028	97.12
372.254	91.12
372.48	76.12
372.706	88.12
372.932	82.12
373.158	80.12
373.384	87.12
373.61	102.12
373.835	92.12
374.061	88.12
374.287	88.12
374.513	94.12
374.739	87.12
374.965	88.12
375.191	88.12
375.416	75.12
375.642	86.12
375.868	91.12
376.094	97.12
376.319	86.12
376.545	97.12
376.771	85.12
376.997	89.12
377.222	95.12
377.448	89.12
377.674	85.12
377.899	90.12
378.125	85.12
378.35	94.12
378.576	76.12
378.802	91.12
379.027	83.12
379.253	98.12
379.478	102.12
379.704	94.12
379.929	103.12
380.155	98.12
380.38	97.12
380.606	99.12
380.831	93.12
381.057	102.12
381.282	101.12
381.507	102.12
381.733	108.12
381.958	94.12
382.184	91.12
382.409	94.12
382.634	106.12
382.86	102.12
383.085	97.12
383.31	100.12
383.535	113.12
383.761	122.12
383.986	100.12
384.211	100.12
384.436	103.12
384.662	105.12
384.887	113.12
385.112	120.12
385.337	108.12
385.562	106.12
385.787	113.12
386.013	121.12
386.238	125.12
386.463	118.12
386.688	122.12
386.913	102.12
387.138	129.12
387.363	108.12
387.588	106.12
387.813	107.12
388.038	101.12
388.263	123.12
388.488	123.12
388.713	100.12
388.938	85.12
389.163	93.12
389.387	88.12
389.612	86.12
389.837	86.12
390.062	84.12
390.287	85.12
390.512	90.12
390.736	97.12
390.961	91.12
391.186	80.12
391.411	86.12
391.636	92.12
391.86	84.12
392.085	99.12
392.31	90.12
392.534	95.12
392.759	86.12
392.984	85.12
393.208	76.12
393.433	94.12
393.658	86.12
393.882	79.12
394.107	84.12
394.331	83.12
394.556	83.12
394.78	87.12
395.005	85.12
395.229	80.12
395.454	103.12
395.678	87.12
395.903	82.12
396.127	88.12
396.352	88.12
396.576	71.12
396.801	95.12
397.025	81.12
397.249	98.12
397.474	96.12
397.698	85.12
397.922	95.12
398.147	81.12
398.371	91.12
398.595	100.12
398.82	87.12
399.044	88.12
399.268	84.12
399.492	74.12
399.717	80.12
399.941	76.12
400.165	93.12
400.389	87.12
400.613	94.12
400.837	88.12
401.062	77.12
401.286	86.12
401.51	99.12
401.734	71.12
401.958	102.12
402.182	112.12
402.406	142.12
402.63	106.12
402.854	92.12
403.078	94.12
403.302	80.12
403.526	78.12
403.75	73.12
403.974	81.12
404.198	94.12
404.422	102.12
404.645	86.12
404.869	88.12
405.093	79.12
405.317	88.12
405.541	92.12
405.765	83.12
405.988	102.12
406.212	139.12
406.436	192.12
406.66	117.12
406.883	99.12
407.107	83.12
407.331	89.12
407.555	99.12
407.778	88.12
408.002	92.12
408.226	94.12
408.449	91.12
408.673	94.12
408.896	94.12
409.12	92.12
409.344	90.12
409.567	81.12
409.791	96.12
410.014	102.12
410.238	97.12
410.461	80.12
410.685	102.12
410.908	106.12
411.132	106.12
411.355	102.12
411.578	95.12
411.802	85.12
412.025	95.12
412.249	82.12
412.472	88.12
412.695	98.12
412.919	93.12
413.142	86.12
413.365	95.12
413.589	107.12
413.812	93.12
414.035	90.12
414.258	84.12
414.482	80.12
414.705	85.12
414.928	98.12
415.151	99.12
415.374	68.12
415.597	80.12
415.821	103.12
416.044	84.12
416.267	98.12
416.49	91.12
416.713	88.12
416.936	86.12
417.159	94.12
417.382	84.12
417.605	77.12
417.828	99.12
418.051	80.12
418.274	92.12
418.497	78.12
418.72	97.12
418.943	94.12
419.166	82.12
419.389	93.12
419.611	87.12
419.834	92.12
420.057	76.12
420.28	73.12
420.503	90.12
420.726	94.12
420.948	93.12
421.171	83.12
421.394	79.12
421.617	88.12
421.839	93.12
422.062	85.12
422.285	90.12
422.507	104.12
422.73	102.12
422.953	84.12
423.175	91.12
423.398	96.12
423.621	82.12
423.843	102.12
424.066	92.12
424.288	81.12
424.511	86.12
424.733	88.12
424.956	94.12
425.178	79.12
425.401	108.12
425.623	110.12
425.846	95.12
426.068	76.12
426.291	83.12
426.513	98.12
426.735	96.12
426.958	95.12
427.18	99.12
427.402	139.12
427.625	165.12
427.847	116.12
428.069	108.12
428.292	85.12
428.514	77.12
428.736	88.12
428.958	86.12
429.181	76.12
429.403	85.12
429.625	85.12
429.847	99.12
430.069	108.12
430.292	103.12
430.514	69.12
430.736	80.12
430.958	86.12
431.18	84.12
431.402	83.12
431.624	81.12
431.846	80.12
432.068	79.12
432.29	73.12
432.512	92.12
432.734	79.12
432.956	84.12
433.178	89.12
433.4	92.12
433.622	83.12
433.844	86.12
434.066	86.12
434.287	88.12
434.509	86.12
434.731	91.12
434.953	92.12
435.175	95.12
435.397	93.12
435.618	85.12
435.84	97.12
436.062	119.12
436.284	119.12
436.505	115.12
436.727	94.12
436.949	95.12
437.17	99.12
437.392	87.12
437.614	94.12
437.835	113.12
438.057	101.12
438.278	96.12
438.5	100.12
438.721	115.12
438.943	100.12
439.165	83.12
439.386	92.12
439.608	79.12
439.829	100.12
440.05	116.12
440.272	134.12
440.493	88.12
440.715	85.12
440.936	95.12
441.158	90.12
441.379	79.12
441.6	90.12
441.822	87.12
442.043	89.12
442.264	88.12
442.486	87.12
442.707	91.12
442.928	99.12
443.149	110.12
443.371	108.12
443.592	99.12
443.813	96.12
444.034	114.12
444.255	93.12
444.476	102.12
444.698	76.12
444.919	94.12
445.14	126.12
445.361	107.12
445.582	108.12
445.803	126.12
446.024	113.12
446.245	138.12
446.466	101.12
446.687	96.12
446.908	74.12
447.129	82.12
447.35	78.12
447.571	84.12
447.792	83.12
448.013	99.12
448.234	86.12
448.455	106.12
448.675	111.12
448.896	114.12
449.117	95.12
449.338	94.12
449.559	125.12
449.779	123.12
450	95.12
450.221	85.12
450.442	85.12
450.662	81.12
450.883	94.12
451.104	106.12
451.324	101.12
451.545	84.12
451.766	77.12
451.986	81.12
452.207	83.12
452.428	84.12
452.648	88.12
452.869	106.12
453.089	92.12
453.31	122.12
453.53	98.12
453.751	103.12
453.971	101.12
454.192	92.12
454.412	101.12
454.633	82.12
454.853	85.12
455.073	85.12
455.294	91.12
455.514	100.12
455.734	95.12
455.955	80.12
456.175	87.12
456.395	79.12
456.616	92.12
456.836	90.12
457.056	88.12
457.276	87.12
457.497	92.12
457.717	80.12
457.937	75.12
458.157	80.12
458.377	76.12
458.598	100.12
458.818	152.12
459.038	130.12
459.258	107.12
459.478	88.12
459.698	100.12
459.918	85.12
460.138	85.12
460.358	87.12
460.578	96.12
460.798	100.12
461.018	86.12
461.238	84.12
461.458	88.12
461.678	82.12
461.898	79.12
462.118	99.12
462.338	86.12
462.558	83.12
462.777	88.12
462.997	85.12
463.217	93.12
463.437	88.12
463.657	88.12
463.876	91.12
464.096	95.12
464.316	90.12
464.536	95.12
464.755	88.12
464.975	88.12
465.195	139.12
465.414	156.12
465.634	99.12
465.854	95.12
466.073	96.12
466.293	84.12
466.512	84.12
466.732	77.12
466.951	89.12
467.171	91.12
467.391	96.12
467.61	94.12
467.829	78.12
468.049	88.12
468.268	83.12
468.488	101.12
468.707	78.12
468.927	92.12
469.146	97.12
469.365	83.12
469.585	76.12
469.804	80.12
470.023	76.12
470.243	84.12
470.462	96.12
470.681	92.12
470.901	83.12
471.12	92.12
471.339	87.12
471.558	79.12
471.777	88.12
471.997	85.12
472.216	87.12
472.435	95.12
472.654	92.12
472.873	96.12
473.092	83.12
473.311	87.12
473.53	98.12
473.749	83.12
473.968	103.12
474.187	91.12
474.406	88.12
474.625	80.12
474.844	86.12
475.063	78.12
475.282	86.12
475.501	94.12
475.72	90.12
475.939	78.12
476.158	77.12
476.377	83.12
476.596	89.12
476.814	99.12
477.033	99.12
477.252	91.12
477.471	87.12
477.69	82.12
477.908	88.12
478.127	99.12
478.346	79.12
478.564	86.12
478.783	84.12
479.002	78.12
479.22	101.12
479.439	80.12
479.658	92.12
479.876	85.12
480.095	87.12
480.313	95.12
480.532	101.12
480.751	94.12
480.969	100.12
481.188	109.12
481.406	97.12
481.624	87.12
481.843	81.12
482.061	86.12
482.28	90.12
482.498	83.12
482.717	89.12
482.935	74.12
483.153	93.12
483.372	82.12
483.59	95.12
483.808	70.12
484.027	84.12
484.245	94.12
484.463	91.12
484.681	97.12
484.9	85.12
485.118	87.12
485.336	101.12
485.554	106.12
485.772	99.12
485.99	102.12
486.209	105.12
486.427	114.12
486.645	99.12
486.863	110.12
487.081	91.12
487.299	91.12
487.517	91.12
487.735	95.12
487.953	93.12
488.171	85.12
488.389	104.12
488.607	100.12
488.825	101.12
489.043	97.12
489.261	90.12
489.479	91.12
489.696	94.12
489.914	93.12
490.132	86.12
490.35	79.12
490.568	85.12
490.786	71.12
491.003	84.12
491.221	100.12
491.439	91.12
491.657	88.12
491.874	87.12
492.092	85.12
492.31	94.12
492.527	109.12
492.745	95.12
492.963	107.12
493.18	103.12
493.398	94.12
493.615	97.12
493.833	92.12
494.05	99.12
494.268	105.12
494.485	86.12
494.703	79.12
494.92	92.12
495.138	74.12
495.355	98.12
495.573	85.12
495.79	93.12
496.008	91.12
496.225	85.12
496.442	87.12
496.66	87.12
496.877	88.12
497.094	85.12
497.312	79.12
497.529	95.12
497.746	88.12
497.963	88.12
498.181	99.12
498.398	95.12
498.615	101.12
498.832	116.12
499.049	90.12
499.267	100.12
499.484	71.12
499.701	89.12
499.918	82.12
500.135	76.12
500.352	95.12
500.569	81.12
500.786	84.12
501.003	84.12
501.22	90.12
501.437	98.12
501.654	85.12
501.871	98.12
502.088	87.12
502.305	92.12
502.522	94.12
502.739	95.12
502.956	94.12
503.172	83.12
503.389	95.12
503.606	101.12
503.823	99.12
504.04	91.12
504.256	91.12
504.473	78.12
504.69	88.12
504.907	100.12
505.123	95.12
505.34	82.12
505.557	100.12
505.773	114.12
505.99	87.12
506.207	94.12
506.423	98.12
506.64	97.12
506.856	86.12
507.073	83.12
507.289	82.12
507.506	89.12
507.722	95.12
507.939	106.12
508.155	86.12
508.372	99.12
508.588	108.12
508.805	91.12
509.021	90.12
509.238	91.12
509.454	95.12
509.67	100.12
509.887	107.12
510.103	118.12
510.319	182.12
510.536	580.12
510.752	1821.12
510.968	549.12
511.184	144.12
511.401	106.12
511.617	94.12
511.833	87.12
512.049	84.12
512.265	104.12
512.481	98.12
512.698	80.12
512.914	91.12
513.13	90.12
513.346	93.12
513.562	100.12
513.778	84.12
513.994	78.12
514.21	98.12
514.426	113.12
514.642	123.12
514.858	122.12
515.074	143.12
515.29	337.12
515.506	1108.12
515.721	419.12
515.937	129.12
516.153	109.12
516.369	101.12
