Data from Circ_2005_H10_HRD10591_00079.txt Node
Date: Wed Jan 03 10:30:06 EST 2024
User: Yrep
Spectrometer: HR+D1059
Trigger mode: 1
Integration Time (sec): 1.000000E-1
Scans to average: 1
Electric dark correction enabled: true
Nonlinearity correction enabled: false
Boxcar width: 0
XAxis mode: Wavelengths
Number of Pixels in Spectrum: 2048
>>>>>Begin Spectral Data<<<<<
223.165	-18.94
223.4	-18.94
223.635	-18.94
223.869	-16.94
224.104	-17.94
224.338	-18.94
224.573	-15.94
224.808	-11.94
225.042	-5.94
225.277	-9.94
225.511	-1.94
225.746	-0.94
225.98	9.06
226.215	14.06
226.449	19.06
226.683	14.06
226.918	23.06
227.152	40.06
227.387	27.06
227.621	42.06
227.856	22.06
228.09	41.06
228.324	42.06
228.559	59.06
228.793	51.06
229.027	65.06
229.262	76.06
229.496	58.06
229.73	74.06
229.964	83.06
230.199	79.06
230.433	61.06
230.667	74.06
230.901	76.06
231.136	82.06
231.37	75.06
231.604	92.06
231.838	78.06
232.072	71.06
232.306	89.06
232.541	71.06
232.775	81.06
233.009	84.06
233.243	85.06
233.477	87.06
233.711	60.06
233.945	74.06
234.179	79.06
234.413	64.06
234.647	74.06
234.881	73.06
235.115	78.06
235.349	67.06
235.583	81.06
235.817	79.06
236.051	73.06
236.285	82.06
236.519	71.06
236.753	84.06
236.987	53.06
237.221	79.06
237.455	88.06
237.689	69.06
237.922	85.06
238.156	75.06
238.39	66.06
238.624	74.06
238.858	75.06
239.091	78.06
239.325	75.06
239.559	80.06
239.793	69.06
240.027	75.06
240.26	73.06
240.494	74.06
240.728	60.06
240.961	61.06
241.195	78.06
241.429	82.06
241.662	73.06
241.896	76.06
242.13	83.06
242.363	77.06
242.597	64.06
242.83	76.06
243.064	78.06
243.298	84.06
243.531	90.06
243.765	73.06
243.998	78.06
244.232	70.06
244.465	87.06
244.699	76.06
244.932	84.06
245.166	76.06
245.399	67.06
245.633	82.06
245.866	62.06
246.099	80.06
246.333	71.06
246.566	68.06
246.8	61.06
247.033	73.06
247.266	63.06
247.5	65.06
247.733	75.06
247.966	73.06
248.2	88.06
248.433	86.06
248.666	77.06
248.899	77.06
249.133	90.06
249.366	91.06
249.599	92.06
249.832	97.06
250.066	75.06
250.299	66.06
250.532	78.06
250.765	76.06
250.998	75.06
251.231	76.06
251.465	83.06
251.698	75.06
251.931	72.06
252.164	71.06
252.397	63.06
252.63	79.06
252.863	79.06
253.096	84.06
253.329	75.06
253.562	82.06
253.795	68.06
254.028	83.06
254.261	73.06
254.494	66.06
254.727	84.06
254.96	68.06
255.193	78.06
255.426	80.06
255.659	67.06
255.892	68.06
256.124	81.06
256.357	89.06
256.59	72.06
256.823	68.06
257.056	72.06
257.289	61.06
257.521	87.06
257.754	72.06
257.987	64.06
258.22	84.06
258.452	75.06
258.685	65.06
258.918	87.06
259.151	69.06
259.383	88.06
259.616	71.06
259.849	70.06
260.081	76.06
260.314	82.06
260.547	81.06
260.779	79.06
261.012	91.06
261.244	80.06
261.477	90.06
261.71	89.06
261.942	95.06
262.175	116.06
262.407	78.06
262.64	74.06
262.872	79.06
263.105	82.06
263.337	84.06
263.57	73.06
263.802	83.06
264.035	74.06
264.267	75.06
264.499	73.06
264.732	77.06
264.964	69.06
265.197	66.06
265.429	91.06
265.661	81.06
265.894	67.06
266.126	79.06
266.358	80.06
266.591	69.06
266.823	83.06
267.055	78.06
267.287	72.06
267.52	72.06
267.752	92.06
267.984	79.06
268.216	88.06
268.448	94.06
268.681	78.06
268.913	83.06
269.145	86.06
269.377	92.06
269.609	85.06
269.841	76.06
270.073	83.06
270.306	69.06
270.538	76.06
270.77	88.06
271.002	85.06
271.234	74.06
271.466	76.06
271.698	85.06
271.93	80.06
272.162	89.06
272.394	78.06
272.626	78.06
272.858	78.06
273.09	79.06
273.322	82.06
273.553	84.06
273.785	91.06
274.017	81.06
274.249	90.06
274.481	91.06
274.713	81.06
274.945	65.06
275.176	70.06
275.408	91.06
275.64	85.06
275.872	90.06
276.104	77.06
276.335	85.06
276.567	110.06
276.799	107.06
277.031	95.06
277.262	91.06
277.494	93.06
277.726	83.06
277.957	83.06
278.189	80.06
278.421	90.06
278.652	88.06
278.884	81.06
279.115	85.06
279.347	85.06
279.579	81.06
279.81	73.06
280.042	85.06
280.273	92.06
280.505	74.06
280.736	66.06
280.968	82.06
281.199	68.06
281.431	86.06
281.662	75.06
281.894	86.06
282.125	99.06
282.356	112.06
282.588	128.06
282.819	107.06
283.051	82.06
283.282	77.06
283.513	92.06
283.745	85.06
283.976	78.06
284.207	81.06
284.439	85.06
284.67	92.06
284.901	96.06
285.132	80.06
285.364	85.06
285.595	90.06
285.826	77.06
286.057	79.06
286.288	72.06
286.52	83.06
286.751	85.06
286.982	84.06
287.213	88.06
287.444	76.06
287.675	85.06
287.906	80.06
288.138	79.06
288.369	80.06
288.6	90.06
288.831	90.06
289.062	80.06
289.293	78.06
289.524	95.06
289.755	76.06
289.986	83.06
290.217	84.06
290.448	88.06
290.679	75.06
290.91	73.06
291.141	86.06
291.371	98.06
291.602	85.06
291.833	78.06
292.064	74.06
292.295	90.06
292.526	90.06
292.757	99.06
292.987	85.06
293.218	73.06
293.449	69.06
293.68	72.06
293.91	89.06
294.141	89.06
294.372	92.06
294.603	82.06
294.833	99.06
295.064	81.06
295.295	94.06
295.525	83.06
295.756	92.06
295.987	100.06
296.217	113.06
296.448	112.06
296.679	92.06
296.909	83.06
297.14	97.06
297.37	94.06
297.601	92.06
297.831	63.06
298.062	74.06
298.292	85.06
298.523	76.06
298.753	81.06
298.984	88.06
299.214	72.06
299.445	88.06
299.675	82.06
299.905	99.06
300.136	82.06
300.366	65.06
300.597	85.06
300.827	94.06
301.057	95.06
301.288	95.06
301.518	76.06
301.748	79.06
301.979	97.06
302.209	86.06
302.439	86.06
302.669	77.06
302.9	91.06
303.13	89.06
303.36	89.06
303.59	99.06
303.82	97.06
304.051	93.06
304.281	94.06
304.511	88.06
304.741	61.06
304.971	96.06
305.201	83.06
305.431	76.06
305.661	83.06
305.891	76.06
306.121	91.06
306.352	104.06
306.582	105.06
306.812	100.06
307.042	76.06
307.272	86.06
307.502	97.06
307.731	110.06
307.961	100.06
308.191	85.06
308.421	80.06
308.651	76.06
308.881	84.06
309.111	91.06
309.341	84.06
309.571	97.06
309.8	85.06
310.03	97.06
310.26	98.06
310.49	91.06
310.72	84.06
310.949	86.06
311.179	100.06
311.409	88.06
311.639	79.06
311.868	88.06
312.098	90.06
312.328	91.06
312.557	82.06
312.787	98.06
313.017	82.06
313.246	97.06
313.476	84.06
313.706	72.06
313.935	99.06
314.165	86.06
314.394	85.06
314.624	86.06
314.853	93.06
315.083	83.06
315.312	79.06
315.542	104.06
315.771	79.06
316.001	84.06
316.23	88.06
316.46	100.06
316.689	80.06
316.919	99.06
317.148	99.06
317.377	84.06
317.607	93.06
317.836	82.06
318.065	94.06
318.295	90.06
318.524	87.06
318.753	82.06
318.983	91.06
319.212	94.06
319.441	100.06
319.67	114.06
319.9	93.06
320.129	99.06
320.358	102.06
320.587	108.06
320.816	100.06
321.046	107.06
321.275	99.06
321.504	97.06
321.733	96.06
321.962	96.06
322.191	89.06
322.42	93.06
322.649	99.06
322.878	106.06
323.108	102.06
323.337	124.06
323.566	138.06
323.795	134.06
324.024	192.06
324.253	353.06
324.482	766.06
324.71	1593.06
324.939	2031.06
325.168	755.06
325.397	237.06
325.626	146.06
325.855	118.06
326.084	124.06
326.313	124.06
326.542	157.06
326.77	237.06
326.999	435.06
327.228	866.06
327.457	1580.06
327.686	1298.06
327.914	360.06
328.143	190.06
328.372	156.06
328.6	122.06
328.829	101.06
329.058	108.06
329.287	118.06
329.515	108.06
329.744	98.06
329.972	111.06
330.201	163.06
330.43	192.06
330.658	137.06
330.887	139.06
331.115	107.06
331.344	86.06
331.572	109.06
331.801	104.06
332.03	104.06
332.258	99.06
332.486	77.06
332.715	87.06
332.943	99.06
333.172	95.06
333.4	108.06
333.629	101.06
333.857	105.06
334.085	142.06
334.314	164.06
334.542	241.06
334.771	231.06
334.999	105.06
335.227	94.06
335.455	91.06
335.684	99.06
335.912	104.06
336.14	98.06
336.369	104.06
336.597	97.06
336.825	88.06
337.053	97.06
337.281	94.06
337.51	92.06
337.738	92.06
337.966	91.06
338.194	75.06
338.422	79.06
338.65	80.06
338.878	73.06
339.106	73.06
339.334	93.06
339.562	90.06
339.79	83.06
340.018	93.06
340.246	88.06
340.474	92.06
340.702	84.06
340.93	85.06
341.158	87.06
341.386	99.06
341.614	89.06
341.842	100.06
342.07	84.06
342.298	76.06
342.526	62.06
342.754	82.06
342.981	78.06
343.209	104.06
343.437	96.06
343.665	93.06
343.893	75.06
344.12	104.06
344.348	101.06
344.576	89.06
344.804	85.06
345.031	98.06
345.259	99.06
345.487	96.06
345.714	106.06
345.942	98.06
346.17	92.06
346.397	81.06
346.625	79.06
346.853	91.06
347.08	88.06
347.308	83.06
347.535	92.06
347.763	81.06
347.99	91.06
348.218	91.06
348.445	82.06
348.673	102.06
348.9	90.06
349.128	87.06
349.355	78.06
349.583	81.06
349.81	80.06
350.037	84.06
350.265	91.06
350.492	86.06
350.72	84.06
350.947	88.06
351.174	107.06
351.402	103.06
351.629	112.06
351.856	104.06
352.083	108.06
352.311	103.06
352.538	101.06
352.765	99.06
352.992	111.06
353.22	112.06
353.447	92.06
353.674	89.06
353.901	97.06
354.128	93.06
354.355	87.06
354.583	91.06
354.81	113.06
355.037	86.06
355.264	88.06
355.491	83.06
355.718	87.06
355.945	90.06
356.172	86.06
356.399	72.06
356.626	90.06
356.853	87.06
357.08	87.06
357.307	98.06
357.534	85.06
357.761	86.06
357.988	88.06
358.215	111.06
358.441	94.06
358.668	77.06
358.895	100.06
359.122	78.06
359.349	104.06
359.576	95.06
359.802	101.06
360.029	106.06
360.256	96.06
360.483	96.06
360.709	78.06
360.936	85.06
361.163	83.06
361.39	97.06
361.616	93.06
361.843	87.06
362.07	79.06
362.296	99.06
362.523	91.06
362.749	85.06
362.976	92.06
363.203	80.06
363.429	92.06
363.656	92.06
363.882	86.06
364.109	105.06
364.335	97.06
364.562	87.06
364.788	104.06
365.015	105.06
365.241	100.06
365.468	99.06
365.694	96.06
365.92	76.06
366.147	90.06
366.373	92.06
366.599	90.06
366.826	88.06
367.052	67.06
367.278	86.06
367.505	86.06
367.731	95.06
367.957	97.06
368.184	78.06
368.41	98.06
368.636	109.06
368.862	111.06
369.089	96.06
369.315	90.06
369.541	89.06
369.767	86.06
369.993	92.06
370.219	85.06
370.445	68.06
370.672	83.06
370.898	92.06
371.124	84.06
371.35	81.06
371.576	75.06
371.802	92.06
372.028	78.06
372.254	84.06
372.48	89.06
372.706	91.06
372.932	82.06
373.158	88.06
373.384	91.06
373.61	88.06
373.835	82.06
374.061	90.06
374.287	97.06
374.513	85.06
374.739	98.06
374.965	86.06
375.191	85.06
375.416	77.06
375.642	89.06
375.868	76.06
376.094	86.06
376.319	93.06
376.545	72.06
376.771	78.06
376.997	81.06
377.222	98.06
377.448	100.06
377.674	87.06
377.899	92.06
378.125	90.06
378.35	94.06
378.576	80.06
378.802	86.06
379.027	82.06
379.253	81.06
379.478	100.06
379.704	84.06
379.929	83.06
380.155	104.06
380.38	93.06
380.606	90.06
380.831	86.06
381.057	96.06
381.282	103.06
381.507	86.06
381.733	97.06
381.958	85.06
382.184	99.06
382.409	93.06
382.634	95.06
382.86	83.06
383.085	90.06
383.31	94.06
383.535	92.06
383.761	91.06
383.986	100.06
384.211	95.06
384.436	84.06
384.662	112.06
384.887	94.06
385.112	88.06
385.337	82.06
385.562	90.06
385.787	92.06
386.013	89.06
386.238	96.06
386.463	95.06
386.688	98.06
386.913	101.06
387.138	110.06
387.363	104.06
387.588	102.06
387.813	98.06
388.038	104.06
388.263	98.06
388.488	100.06
388.713	96.06
388.938	100.06
389.163	94.06
389.387	90.06
389.612	93.06
389.837	87.06
390.062	91.06
390.287	85.06
390.512	73.06
390.736	93.06
390.961	83.06
391.186	101.06
391.411	99.06
391.636	101.06
391.86	104.06
392.085	89.06
392.31	80.06
392.534	84.06
392.759	72.06
392.984	101.06
393.208	77.06
393.433	88.06
393.658	91.06
393.882	97.06
394.107	80.06
394.331	63.06
394.556	71.06
394.78	87.06
395.005	85.06
395.229	87.06
395.454	81.06
395.678	76.06
395.903	86.06
396.127	81.06
396.352	74.06
396.576	79.06
396.801	90.06
397.025	76.06
397.249	77.06
397.474	101.06
397.698	86.06
397.922	87.06
398.147	88.06
398.371	95.06
398.595	92.06
398.82	72.06
399.044	89.06
399.268	69.06
399.492	87.06
399.717	93.06
399.941	67.06
400.165	85.06
400.389	75.06
400.613	85.06
400.837	88.06
401.062	72.06
401.286	81.06
401.51	82.06
401.734	83.06
401.958	101.06
402.182	128.06
402.406	148.06
402.63	129.06
402.854	94.06
403.078	86.06
403.302	82.06
403.526	85.06
403.75	90.06
403.974	90.06
404.198	76.06
404.422	65.06
404.645	95.06
404.869	82.06
405.093	89.06
405.317	94.06
405.541	89.06
405.765	99.06
405.988	104.06
406.212	164.06
406.436	214.06
406.66	140.06
406.883	92.06
407.107	77.06
407.331	92.06
407.555	109.06
407.778	104.06
408.002	91.06
408.226	80.06
408.449	87.06
408.673	88.06
408.896	93.06
409.12	83.06
409.344	80.06
409.567	88.06
409.791	91.06
410.014	89.06
410.238	95.06
410.461	84.06
410.685	96.06
410.908	99.06
411.132	94.06
411.355	106.06
411.578	86.06
411.802	73.06
412.025	84.06
412.249	91.06
412.472	78.06
412.695	78.06
412.919	83.06
413.142	82.06
413.365	76.06
413.589	97.06
413.812	93.06
414.035	91.06
414.258	89.06
414.482	93.06
414.705	90.06
414.928	89.06
415.151	91.06
415.374	100.06
415.597	78.06
415.821	85.06
416.044	93.06
416.267	89.06
416.49	82.06
416.713	96.06
416.936	92.06
417.159	76.06
417.382	80.06
417.605	100.06
417.828	86.06
418.051	85.06
418.274	94.06
418.497	85.06
418.72	84.06
418.943	92.06
419.166	81.06
419.389	94.06
419.611	85.06
419.834	94.06
420.057	73.06
420.28	79.06
420.503	80.06
420.726	92.06
420.948	99.06
421.171	91.06
421.394	102.06
421.617	85.06
421.839	71.06
422.062	91.06
422.285	85.06
422.507	87.06
422.73	97.06
422.953	76.06
423.175	87.06
423.398	84.06
423.621	105.06
423.843	91.06
424.066	89.06
424.288	100.06
424.511	85.06
424.733	103.06
424.956	109.06
425.178	94.06
425.401	91.06
425.623	93.06
425.846	87.06
426.068	95.06
426.291	86.06
426.513	71.06
426.735	95.06
426.958	96.06
427.18	104.06
427.402	126.06
427.625	146.06
427.847	122.06
428.069	122.06
428.292	82.06
428.514	84.06
428.736	83.06
428.958	92.06
429.181	98.06
429.403	84.06
429.625	76.06
429.847	95.06
430.069	83.06
430.292	93.06
430.514	80.06
430.736	79.06
430.958	84.06
431.18	79.06
431.402	83.06
431.624	80.06
431.846	84.06
432.068	75.06
432.29	90.06
432.512	85.06
432.734	95.06
432.956	92.06
433.178	90.06
433.4	90.06
433.622	92.06
433.844	92.06
434.066	73.06
434.287	78.06
434.509	73.06
434.731	82.06
434.953	86.06
435.175	96.06
435.397	86.06
435.618	92.06
435.84	74.06
436.062	108.06
436.284	100.06
436.505	95.06
436.727	93.06
436.949	81.06
437.17	83.06
437.392	76.06
437.614	97.06
437.835	103.06
438.057	110.06
438.278	86.06
438.5	109.06
438.721	124.06
438.943	97.06
439.165	82.06
439.386	68.06
439.608	99.06
439.829	104.06
440.05	109.06
440.272	114.06
440.493	95.06
440.715	92.06
440.936	82.06
441.158	82.06
441.379	78.06
441.6	87.06
441.822	86.06
442.043	85.06
442.264	85.06
442.486	82.06
442.707	80.06
442.928	99.06
443.149	123.06
443.371	125.06
443.592	98.06
443.813	85.06
444.034	101.06
444.255	84.06
444.476	83.06
444.698	86.06
444.919	83.06
445.14	134.06
445.361	109.06
445.582	87.06
445.803	124.06
446.024	128.06
446.245	131.06
446.466	98.06
446.687	82.06
446.908	84.06
447.129	77.06
447.35	85.06
447.571	108.06
447.792	86.06
448.013	98.06
448.234	111.06
448.455	103.06
448.675	89.06
448.896	109.06
449.117	85.06
449.338	97.06
449.559	124.06
449.779	108.06
450	100.06
450.221	96.06
450.442	85.06
450.662	85.06
450.883	97.06
451.104	90.06
451.324	87.06
451.545	68.06
451.766	72.06
451.986	72.06
452.207	99.06
452.428	83.06
452.648	96.06
452.869	109.06
453.089	101.06
453.31	107.06
453.53	76.06
453.751	78.06
453.971	110.06
454.192	92.06
454.412	87.06
454.633	95.06
454.853	76.06
455.073	73.06
455.294	97.06
455.514	98.06
455.734	91.06
455.955	76.06
456.175	85.06
456.395	91.06
456.616	90.06
456.836	80.06
457.056	92.06
457.276	85.06
457.497	75.06
457.717	83.06
457.937	89.06
458.157	92.06
458.377	90.06
458.598	113.06
458.818	122.06
459.038	135.06
459.258	110.06
459.478	77.06
459.698	85.06
459.918	85.06
460.138	83.06
460.358	76.06
460.578	75.06
460.798	88.06
461.018	79.06
461.238	98.06
461.458	87.06
461.678	78.06
461.898	82.06
462.118	58.06
462.338	86.06
462.558	78.06
462.777	95.06
462.997	91.06
463.217	83.06
463.437	81.06
463.657	80.06
463.876	97.06
464.096	90.06
464.316	91.06
464.536	81.06
464.755	84.06
464.975	98.06
465.195	149.06
465.414	150.06
465.634	87.06
465.854	80.06
466.073	84.06
466.293	100.06
466.512	94.06
466.732	76.06
466.951	88.06
467.171	103.06
467.391	90.06
467.61	88.06
467.829	99.06
468.049	121.06
468.268	155.06
468.488	102.06
468.707	85.06
468.927	88.06
469.146	91.06
469.365	85.06
469.585	89.06
469.804	89.06
470.023	89.06
470.243	92.06
470.462	99.06
470.681	101.06
470.901	90.06
471.12	97.06
471.339	92.06
471.558	83.06
471.777	90.06
471.997	106.06
472.216	170.06
472.435	294.06
472.654	127.06
472.873	84.06
473.092	94.06
473.311	84.06
473.53	92.06
473.749	82.06
473.968	82.06
474.187	97.06
474.406	77.06
474.625	75.06
474.844	96.06
475.063	86.06
475.282	85.06
475.501	80.06
475.72	88.06
475.939	88.06
476.158	81.06
476.377	85.06
476.596	81.06
476.814	98.06
477.033	91.06
477.252	89.06
477.471	92.06
477.69	81.06
477.908	80.06
478.127	87.06
478.346	100.06
478.564	89.06
478.783	91.06
479.002	95.06
479.22	86.06
479.439	102.06
479.658	106.06
479.876	96.06
480.095	93.06
480.313	90.06
480.532	79.06
480.751	99.06
480.969	180.06
481.188	480.06
481.406	323.06
481.624	112.06
481.843	82.06
482.061	76.06
482.28	90.06
482.498	98.06
482.717	91.06
482.935	100.06
483.153	98.06
483.372	88.06
483.59	77.06
483.808	79.06
484.027	79.06
484.245	95.06
484.463	87.06
484.681	93.06
484.9	83.06
485.118	93.06
485.336	91.06
485.554	91.06
485.772	97.06
485.99	86.06
486.209	95.06
486.427	108.06
486.645	102.06
486.863	110.06
487.081	93.06
487.299	96.06
487.517	88.06
487.735	77.06
487.953	80.06
488.171	93.06
488.389	77.06
488.607	88.06
488.825	94.06
489.043	81.06
489.261	80.06
489.479	89.06
489.696	88.06
489.914	89.06
490.132	95.06
490.35	108.06
490.568	83.06
490.786	90.06
491.003	82.06
491.221	81.06
491.439	92.06
491.657	93.06
491.874	92.06
492.092	107.06
492.31	79.06
492.527	82.06
492.745	90.06
492.963	82.06
493.18	90.06
493.398	81.06
493.615	85.06
493.833	80.06
494.05	82.06
494.268	89.06
494.485	74.06
494.703	75.06
494.92	97.06
495.138	81.06
495.355	89.06
495.573	83.06
495.79	93.06
496.008	86.06
496.225	89.06
496.442	96.06
496.66	83.06
496.877	88.06
497.094	84.06
497.312	86.06
497.529	90.06
497.746	85.06
497.963	85.06
498.181	90.06
498.398	99.06
498.615	90.06
498.832	98.06
499.049	84.06
499.267	92.06
499.484	91.06
499.701	92.06
499.918	97.06
500.135	88.06
500.352	87.06
500.569	75.06
500.786	81.06
501.003	89.06
501.22	70.06
501.437	92.06
501.654	109.06
501.871	93.06
502.088	98.06
502.305	94.06
502.522	89.06
502.739	85.06
502.956	78.06
503.172	82.06
503.389	91.06
503.606	101.06
503.823	80.06
504.04	77.06
504.256	81.06
504.473	93.06
504.69	85.06
504.907	85.06
505.123	72.06
505.34	104.06
505.557	93.06
505.773	76.06
505.99	90.06
506.207	91.06
506.423	93.06
506.64	84.06
506.856	98.06
507.073	85.06
507.289	96.06
507.506	90.06
507.722	107.06
507.939	101.06
508.155	98.06
508.372	95.06
508.588	88.06
508.805	86.06
509.021	105.06
509.238	98.06
509.454	96.06
509.67	102.06
509.887	102.06
510.103	126.06
510.319	205.06
510.536	709.06
510.752	2285.06
510.968	613.06
511.184	136.06
511.401	99.06
511.617	97.06
511.833	91.06
512.049	97.06
512.265	83.06
512.481	91.06
512.698	85.06
512.914	101.06
513.13	90.06
513.346	94.06
513.562	83.06
513.778	88.06
513.994	89.06
514.21	101.06
514.426	104.06
514.642	123.06
514.858	124.06
515.074	140.06
515.29	382.06
515.506	1357.06
515.721	513.06
515.937	154.06
516.153	100.06
516.369	97.06
516.585	101.06
516.801	110.06
