Data from Circ_2005_H10_HRD10591_00061.txt Node
Date: Wed Jan 03 10:30:03 EST 2024
User: Yrep
Spectrometer: HR+D1059
Trigger mode: 1
Integration Time (sec): 1.000000E-1
Scans to average: 1
Electric dark correction enabled: true
Nonlinearity correction enabled: false
Boxcar width: 0
XAxis mode: Wavelengths
Number of Pixels in Spectrum: 2048
>>>>>Begin Spectral Data<<<<<
223.165	-11.75
223.4	-11.75
223.635	-11.75
223.869	-32.75
224.104	-21.75
224.338	-6.75
224.573	-6.75
224.808	-10.75
225.042	-13.75
225.277	-12.75
225.511	-7.75
225.746	12.25
225.98	3.25
226.215	18.25
226.449	16.25
226.683	26.25
226.918	19.25
227.152	29.25
227.387	24.25
227.621	18.25
227.856	47.25
228.09	47.25
228.324	58.25
228.559	52.25
228.793	61.25
229.027	68.25
229.262	59.25
229.496	57.25
229.73	75.25
229.964	86.25
230.199	73.25
230.433	82.25
230.667	73.25
230.901	79.25
231.136	78.25
231.37	73.25
231.604	73.25
231.838	74.25
232.072	81.25
232.306	75.25
232.541	79.25
232.775	79.25
233.009	67.25
233.243	86.25
233.477	73.25
233.711	66.25
233.945	80.25
234.179	75.25
234.413	72.25
234.647	70.25
234.881	81.25
235.115	72.25
235.349	89.25
235.583	72.25
235.817	71.25
236.051	79.25
236.285	83.25
236.519	64.25
236.753	76.25
236.987	75.25
237.221	83.25
237.455	74.25
237.689	75.25
237.922	71.25
238.156	72.25
238.39	70.25
238.624	63.25
238.858	69.25
239.091	64.25
239.325	69.25
239.559	81.25
239.793	64.25
240.027	84.25
240.26	86.25
240.494	69.25
240.728	71.25
240.961	74.25
241.195	66.25
241.429	90.25
241.662	62.25
241.896	77.25
242.13	72.25
242.363	79.25
242.597	79.25
242.83	87.25
243.064	77.25
243.298	81.25
243.531	88.25
243.765	68.25
243.998	75.25
244.232	73.25
244.465	80.25
244.699	65.25
244.932	76.25
245.166	80.25
245.399	60.25
245.633	81.25
245.866	71.25
246.099	69.25
246.333	75.25
246.566	79.25
246.8	81.25
247.033	75.25
247.266	68.25
247.5	72.25
247.733	71.25
247.966	84.25
248.2	71.25
248.433	88.25
248.666	69.25
248.899	78.25
249.133	80.25
249.366	86.25
249.599	80.25
249.832	75.25
250.066	72.25
250.299	75.25
250.532	69.25
250.765	87.25
250.998	75.25
251.231	71.25
251.465	75.25
251.698	65.25
251.931	84.25
252.164	81.25
252.397	81.25
252.63	75.25
252.863	64.25
253.096	85.25
253.329	69.25
253.562	67.25
253.795	85.25
254.028	83.25
254.261	65.25
254.494	65.25
254.727	78.25
254.96	86.25
255.193	69.25
255.426	83.25
255.659	98.25
255.892	78.25
256.124	78.25
256.357	83.25
256.59	94.25
256.823	71.25
257.056	81.25
257.289	96.25
257.521	81.25
257.754	82.25
257.987	71.25
258.22	84.25
258.452	92.25
258.685	88.25
258.918	82.25
259.151	84.25
259.383	76.25
259.616	78.25
259.849	80.25
260.081	77.25
260.314	83.25
260.547	82.25
260.779	92.25
261.012	81.25
261.244	82.25
261.477	84.25
261.71	91.25
261.942	90.25
262.175	84.25
262.407	74.25
262.64	82.25
262.872	81.25
263.105	76.25
263.337	76.25
263.57	86.25
263.802	69.25
264.035	80.25
264.267	79.25
264.499	86.25
264.732	82.25
264.964	90.25
265.197	73.25
265.429	77.25
265.661	71.25
265.894	96.25
266.126	78.25
266.358	66.25
266.591	72.25
266.823	73.25
267.055	81.25
267.287	68.25
267.52	70.25
267.752	89.25
267.984	85.25
268.216	81.25
268.448	81.25
268.681	73.25
268.913	80.25
269.145	85.25
269.377	90.25
269.609	80.25
269.841	81.25
270.073	75.25
270.306	84.25
270.538	90.25
270.77	83.25
271.002	77.25
271.234	81.25
271.466	76.25
271.698	74.25
271.93	74.25
272.162	90.25
272.394	80.25
272.626	87.25
272.858	77.25
273.09	85.25
273.322	82.25
273.553	81.25
273.785	76.25
274.017	87.25
274.249	81.25
274.481	71.25
274.713	78.25
274.945	90.25
275.176	83.25
275.408	81.25
275.64	80.25
275.872	89.25
276.104	66.25
276.335	94.25
276.567	82.25
276.799	112.25
277.031	97.25
277.262	94.25
277.494	64.25
277.726	76.25
277.957	70.25
278.189	64.25
278.421	82.25
278.652	97.25
278.884	71.25
279.115	93.25
279.347	87.25
279.579	73.25
279.81	85.25
280.042	90.25
280.273	85.25
280.505	95.25
280.736	78.25
280.968	71.25
281.199	77.25
281.431	90.25
281.662	79.25
281.894	89.25
282.125	94.25
282.356	103.25
282.588	132.25
282.819	116.25
283.051	88.25
283.282	99.25
283.513	89.25
283.745	83.25
283.976	76.25
284.207	87.25
284.439	93.25
284.67	69.25
284.901	91.25
285.132	78.25
285.364	91.25
285.595	84.25
285.826	84.25
286.057	80.25
286.288	93.25
286.52	90.25
286.751	68.25
286.982	94.25
287.213	88.25
287.444	85.25
287.675	78.25
287.906	71.25
288.138	81.25
288.369	90.25
288.6	89.25
288.831	82.25
289.062	89.25
289.293	79.25
289.524	72.25
289.755	82.25
289.986	75.25
290.217	70.25
290.448	76.25
290.679	84.25
290.91	91.25
291.141	75.25
291.371	93.25
291.602	87.25
291.833	80.25
292.064	86.25
292.295	77.25
292.526	92.25
292.757	76.25
292.987	88.25
293.218	77.25
293.449	85.25
293.68	88.25
293.91	80.25
294.141	89.25
294.372	92.25
294.603	72.25
294.833	75.25
295.064	81.25
295.295	78.25
295.525	78.25
295.756	88.25
295.987	91.25
296.217	120.25
296.448	97.25
296.679	104.25
296.909	90.25
297.14	83.25
297.37	76.25
297.601	82.25
297.831	85.25
298.062	84.25
298.292	84.25
298.523	79.25
298.753	67.25
298.984	85.25
299.214	87.25
299.445	94.25
299.675	97.25
299.905	91.25
300.136	72.25
300.366	87.25
300.597	88.25
300.827	80.25
301.057	94.25
301.288	95.25
301.518	80.25
301.748	81.25
301.979	93.25
302.209	86.25
302.439	81.25
302.669	82.25
302.9	89.25
303.13	90.25
303.36	96.25
303.59	95.25
303.82	95.25
304.051	79.25
304.281	89.25
304.511	105.25
304.741	71.25
304.971	82.25
305.201	74.25
305.431	79.25
305.661	83.25
305.891	88.25
306.121	90.25
306.352	90.25
306.582	101.25
306.812	95.25
307.042	84.25
307.272	91.25
307.502	80.25
307.731	91.25
307.961	97.25
308.191	84.25
308.421	97.25
308.651	91.25
308.881	85.25
309.111	106.25
309.341	89.25
309.571	96.25
309.8	82.25
310.03	101.25
310.26	89.25
310.49	85.25
310.72	90.25
310.949	92.25
311.179	97.25
311.409	94.25
311.639	93.25
311.868	90.25
312.098	93.25
312.328	79.25
312.557	87.25
312.787	87.25
313.017	91.25
313.246	75.25
313.476	60.25
313.706	82.25
313.935	92.25
314.165	90.25
314.394	100.25
314.624	95.25
314.853	99.25
315.083	78.25
315.312	85.25
315.542	85.25
315.771	90.25
316.001	86.25
316.23	92.25
316.46	87.25
316.689	79.25
316.919	79.25
317.148	88.25
317.377	84.25
317.607	79.25
317.836	87.25
318.065	89.25
318.295	91.25
318.524	91.25
318.753	83.25
318.983	95.25
319.212	101.25
319.441	109.25
319.67	103.25
319.9	81.25
320.129	88.25
320.358	92.25
320.587	88.25
320.816	85.25
321.046	98.25
321.275	105.25
321.504	91.25
321.733	99.25
321.962	92.25
322.191	93.25
322.42	102.25
322.649	108.25
322.878	104.25
323.108	103.25
323.337	106.25
323.566	114.25
323.795	139.25
324.024	197.25
324.253	346.25
324.482	730.25
324.71	1435.25
324.939	1949.25
325.168	721.25
325.397	219.25
325.626	135.25
325.855	118.25
326.084	108.25
326.313	133.25
326.542	135.25
326.77	203.25
326.999	410.25
327.228	805.25
327.457	1458.25
327.686	1207.25
327.914	331.25
328.143	196.25
328.372	147.25
328.6	131.25
328.829	119.25
329.058	126.25
329.287	117.25
329.515	88.25
329.744	108.25
329.972	112.25
330.201	146.25
330.43	160.25
330.658	129.25
330.887	140.25
331.115	114.25
331.344	90.25
331.572	91.25
331.801	104.25
332.03	96.25
332.258	93.25
332.486	93.25
332.715	80.25
332.943	88.25
333.172	89.25
333.4	102.25
333.629	91.25
333.857	123.25
334.085	119.25
334.314	138.25
334.542	177.25
334.771	169.25
334.999	117.25
335.227	100.25
335.455	80.25
335.684	84.25
335.912	88.25
336.14	97.25
336.369	93.25
336.597	68.25
336.825	89.25
337.053	99.25
337.281	89.25
337.51	90.25
337.738	87.25
337.966	95.25
338.194	68.25
338.422	79.25
338.65	94.25
338.878	91.25
339.106	85.25
339.334	85.25
339.562	81.25
339.79	84.25
340.018	87.25
340.246	96.25
340.474	83.25
340.702	96.25
340.93	93.25
341.158	96.25
341.386	97.25
341.614	84.25
341.842	96.25
342.07	87.25
342.298	95.25
342.526	108.25
342.754	94.25
342.981	86.25
343.209	82.25
343.437	88.25
343.665	83.25
343.893	93.25
344.12	94.25
344.348	97.25
344.576	90.25
344.804	95.25
345.031	80.25
345.259	93.25
345.487	96.25
345.714	85.25
345.942	83.25
346.17	85.25
346.397	82.25
346.625	85.25
346.853	87.25
347.08	86.25
347.308	76.25
347.535	85.25
347.763	92.25
347.99	95.25
348.218	88.25
348.445	103.25
348.673	99.25
348.9	90.25
349.128	84.25
349.355	82.25
349.583	80.25
349.81	78.25
350.037	86.25
350.265	85.25
350.492	74.25
350.72	84.25
350.947	98.25
351.174	92.25
351.402	92.25
351.629	78.25
351.856	98.25
352.083	116.25
352.311	100.25
352.538	103.25
352.765	91.25
352.992	110.25
353.22	103.25
353.447	105.25
353.674	93.25
353.901	100.25
354.128	90.25
354.355	104.25
354.583	92.25
354.81	99.25
355.037	94.25
355.264	83.25
355.491	101.25
355.718	87.25
355.945	93.25
356.172	102.25
356.399	92.25
356.626	76.25
356.853	89.25
357.08	95.25
357.307	80.25
357.534	88.25
357.761	87.25
357.988	84.25
358.215	79.25
358.441	81.25
358.668	95.25
358.895	88.25
359.122	95.25
359.349	83.25
359.576	92.25
359.802	88.25
360.029	106.25
360.256	96.25
360.483	92.25
360.709	86.25
360.936	85.25
361.163	85.25
361.39	85.25
361.616	84.25
361.843	84.25
362.07	88.25
362.296	106.25
362.523	84.25
362.749	94.25
362.976	71.25
363.203	86.25
363.429	92.25
363.656	92.25
363.882	95.25
364.109	89.25
364.335	84.25
364.562	79.25
364.788	100.25
365.015	80.25
365.241	85.25
365.468	90.25
365.694	108.25
365.92	90.25
366.147	90.25
366.373	91.25
366.599	85.25
366.826	93.25
367.052	91.25
367.278	85.25
367.505	116.25
367.731	90.25
367.957	82.25
368.184	92.25
368.41	97.25
368.636	96.25
368.862	132.25
369.089	91.25
369.315	91.25
369.541	73.25
369.767	98.25
369.993	99.25
370.219	91.25
370.445	83.25
370.672	88.25
370.898	89.25
371.124	84.25
371.35	77.25
371.576	91.25
371.802	75.25
372.028	77.25
372.254	80.25
372.48	81.25
372.706	81.25
372.932	63.25
373.158	79.25
373.384	78.25
373.61	99.25
373.835	87.25
374.061	100.25
374.287	94.25
374.513	90.25
374.739	80.25
374.965	86.25
375.191	88.25
375.416	89.25
375.642	92.25
375.868	88.25
376.094	73.25
376.319	84.25
376.545	81.25
376.771	86.25
376.997	96.25
377.222	79.25
377.448	80.25
377.674	83.25
377.899	85.25
378.125	95.25
378.35	84.25
378.576	78.25
378.802	78.25
379.027	76.25
379.253	78.25
379.478	89.25
379.704	102.25
379.929	90.25
380.155	83.25
380.38	94.25
380.606	84.25
380.831	99.25
381.057	91.25
381.282	93.25
381.507	92.25
381.733	89.25
381.958	105.25
382.184	85.25
382.409	93.25
382.634	90.25
382.86	91.25
383.085	92.25
383.31	94.25
383.535	83.25
383.761	110.25
383.986	101.25
384.211	96.25
384.436	93.25
384.662	107.25
384.887	98.25
385.112	100.25
385.337	88.25
385.562	77.25
385.787	93.25
386.013	93.25
386.238	103.25
386.463	91.25
386.688	106.25
386.913	100.25
387.138	100.25
387.363	95.25
387.588	82.25
387.813	103.25
388.038	98.25
388.263	106.25
388.488	91.25
388.713	96.25
388.938	77.25
389.163	83.25
389.387	107.25
389.612	91.25
389.837	75.25
390.062	93.25
390.287	85.25
390.512	98.25
390.736	97.25
390.961	90.25
391.186	93.25
391.411	97.25
391.636	101.25
391.86	76.25
392.085	71.25
392.31	92.25
392.534	71.25
392.759	86.25
392.984	80.25
393.208	72.25
393.433	83.25
393.658	95.25
393.882	73.25
394.107	72.25
394.331	85.25
394.556	84.25
394.78	95.25
395.005	89.25
395.229	72.25
395.454	99.25
395.678	75.25
395.903	72.25
396.127	77.25
396.352	87.25
396.576	69.25
396.801	87.25
397.025	94.25
397.249	92.25
397.474	73.25
397.698	73.25
397.922	79.25
398.147	69.25
398.371	72.25
398.595	84.25
398.82	95.25
399.044	75.25
399.268	77.25
399.492	64.25
399.717	84.25
399.941	78.25
400.165	84.25
400.389	72.25
400.613	90.25
400.837	92.25
401.062	84.25
401.286	99.25
401.51	104.25
401.734	83.25
401.958	99.25
402.182	119.25
402.406	131.25
402.63	107.25
402.854	95.25
403.078	76.25
403.302	83.25
403.526	79.25
403.75	80.25
403.974	73.25
404.198	80.25
404.422	92.25
404.645	69.25
404.869	91.25
405.093	91.25
405.317	101.25
405.541	94.25
405.765	97.25
405.988	104.25
406.212	147.25
406.436	193.25
406.66	112.25
406.883	104.25
407.107	84.25
407.331	88.25
407.555	88.25
407.778	98.25
408.002	86.25
408.226	75.25
408.449	87.25
408.673	90.25
408.896	82.25
409.12	80.25
409.344	75.25
409.567	87.25
409.791	96.25
410.014	95.25
410.238	106.25
410.461	100.25
410.685	92.25
410.908	91.25
411.132	108.25
411.355	93.25
411.578	91.25
411.802	74.25
412.025	89.25
412.249	87.25
412.472	82.25
412.695	101.25
412.919	94.25
413.142	90.25
413.365	95.25
413.589	81.25
413.812	81.25
414.035	85.25
414.258	85.25
414.482	79.25
414.705	84.25
414.928	95.25
415.151	88.25
415.374	89.25
415.597	85.25
415.821	70.25
416.044	78.25
416.267	90.25
416.49	87.25
416.713	78.25
416.936	92.25
417.159	87.25
417.382	75.25
417.605	83.25
417.828	90.25
418.051	85.25
418.274	93.25
418.497	76.25
418.72	74.25
418.943	87.25
419.166	99.25
419.389	90.25
419.611	82.25
419.834	79.25
420.057	88.25
420.28	87.25
420.503	83.25
420.726	82.25
420.948	83.25
421.171	89.25
421.394	72.25
421.617	73.25
421.839	75.25
422.062	79.25
422.285	75.25
422.507	96.25
422.73	91.25
422.953	84.25
423.175	77.25
423.398	89.25
423.621	86.25
423.843	91.25
424.066	73.25
424.288	74.25
424.511	82.25
424.733	83.25
424.956	95.25
425.178	91.25
425.401	83.25
425.623	93.25
425.846	87.25
426.068	98.25
426.291	88.25
426.513	99.25
426.735	86.25
426.958	82.25
427.18	100.25
427.402	132.25
427.625	141.25
427.847	123.25
428.069	110.25
428.292	94.25
428.514	95.25
428.736	86.25
428.958	80.25
429.181	82.25
429.403	75.25
429.625	82.25
429.847	96.25
430.069	98.25
430.292	84.25
430.514	81.25
430.736	73.25
430.958	75.25
431.18	77.25
431.402	74.25
431.624	80.25
431.846	87.25
432.068	78.25
432.29	87.25
432.512	81.25
432.734	75.25
432.956	89.25
433.178	98.25
433.4	102.25
433.622	96.25
433.844	81.25
434.066	90.25
434.287	88.25
434.509	75.25
434.731	88.25
434.953	95.25
435.175	92.25
435.397	93.25
435.618	86.25
435.84	97.25
436.062	111.25
436.284	100.25
436.505	92.25
436.727	109.25
436.949	79.25
437.17	84.25
437.392	87.25
437.614	84.25
437.835	101.25
438.057	112.25
438.278	91.25
438.5	97.25
438.721	111.25
438.943	99.25
439.165	87.25
439.386	82.25
439.608	80.25
439.829	94.25
440.05	119.25
440.272	131.25
440.493	92.25
440.715	91.25
440.936	81.25
441.158	64.25
441.379	75.25
441.6	80.25
441.822	82.25
442.043	92.25
442.264	84.25
442.486	98.25
442.707	94.25
442.928	85.25
443.149	105.25
443.371	127.25
443.592	89.25
443.813	93.25
444.034	98.25
444.255	92.25
444.476	63.25
444.698	80.25
444.919	83.25
445.14	144.25
445.361	112.25
445.582	102.25
445.803	123.25
446.024	109.25
446.245	110.25
446.466	109.25
446.687	66.25
446.908	85.25
447.129	90.25
447.35	92.25
447.571	88.25
447.792	88.25
448.013	94.25
448.234	81.25
448.455	89.25
448.675	103.25
448.896	107.25
449.117	88.25
449.338	102.25
449.559	119.25
449.779	113.25
450	98.25
450.221	90.25
450.442	90.25
450.662	86.25
450.883	84.25
451.104	98.25
451.324	87.25
451.545	84.25
451.766	92.25
451.986	73.25
452.207	84.25
452.428	78.25
452.648	93.25
452.869	112.25
453.089	118.25
453.31	120.25
453.53	104.25
453.751	97.25
453.971	95.25
454.192	111.25
454.412	93.25
454.633	87.25
454.853	88.25
455.073	84.25
455.294	92.25
455.514	90.25
455.734	94.25
455.955	83.25
456.175	90.25
456.395	73.25
456.616	82.25
456.836	76.25
457.056	83.25
457.276	71.25
457.497	85.25
457.717	81.25
457.937	88.25
458.157	75.25
458.377	85.25
458.598	88.25
458.818	126.25
459.038	150.25
459.258	114.25
459.478	88.25
459.698	91.25
459.918	85.25
460.138	84.25
460.358	81.25
460.578	80.25
460.798	92.25
461.018	78.25
461.238	100.25
461.458	82.25
461.678	77.25
461.898	76.25
462.118	79.25
462.338	62.25
462.558	83.25
462.777	77.25
462.997	92.25
463.217	89.25
463.437	70.25
463.657	84.25
463.876	68.25
464.096	83.25
464.316	77.25
464.536	91.25
464.755	79.25
464.975	96.25
465.195	149.25
465.414	134.25
465.634	106.25
465.854	97.25
466.073	69.25
466.293	84.25
466.512	70.25
466.732	69.25
466.951	82.25
467.171	95.25
467.391	82.25
467.61	93.25
467.829	94.25
468.049	103.25
468.268	129.25
468.488	94.25
468.707	82.25
468.927	80.25
469.146	72.25
469.365	88.25
469.585	77.25
469.804	81.25
470.023	83.25
470.243	91.25
470.462	91.25
470.681	102.25
470.901	81.25
471.12	82.25
471.339	84.25
471.558	85.25
471.777	99.25
471.997	101.25
472.216	152.25
472.435	236.25
472.654	108.25
472.873	88.25
473.092	79.25
473.311	77.25
473.53	85.25
473.749	84.25
473.968	80.25
474.187	93.25
474.406	82.25
474.625	78.25
474.844	79.25
475.063	83.25
475.282	85.25
475.501	79.25
475.72	79.25
475.939	98.25
476.158	88.25
476.377	88.25
476.596	71.25
476.814	71.25
477.033	80.25
477.252	90.25
477.471	87.25
477.69	80.25
477.908	83.25
478.127	68.25
478.346	84.25
478.564	83.25
478.783	106.25
479.002	89.25
479.22	90.25
479.439	94.25
479.658	101.25
479.876	93.25
480.095	84.25
480.313	84.25
480.532	88.25
480.751	90.25
480.969	150.25
481.188	339.25
481.406	240.25
481.624	102.25
481.843	74.25
482.061	74.25
482.28	67.25
482.498	98.25
482.717	85.25
482.935	85.25
483.153	86.25
483.372	89.25
483.59	77.25
483.808	74.25
484.027	83.25
484.245	90.25
484.463	97.25
484.681	85.25
484.9	89.25
485.118	91.25
485.336	90.25
485.554	110.25
485.772	100.25
485.99	88.25
486.209	89.25
486.427	91.25
486.645	104.25
486.863	106.25
487.081	93.25
487.299	104.25
487.517	96.25
487.735	100.25
487.953	81.25
488.171	96.25
488.389	91.25
488.607	83.25
488.825	75.25
489.043	92.25
489.261	75.25
489.479	84.25
489.696	79.25
489.914	82.25
490.132	57.25
490.35	93.25
490.568	75.25
490.786	77.25
491.003	93.25
491.221	94.25
491.439	85.25
491.657	92.25
491.874	93.25
492.092	104.25
492.31	94.25
492.527	88.25
492.745	76.25
492.963	87.25
493.18	91.25
493.398	96.25
493.615	103.25
493.833	83.25
494.05	79.25
494.268	85.25
494.485	68.25
494.703	92.25
494.92	99.25
495.138	80.25
495.355	75.25
495.573	76.25
495.79	79.25
496.008	83.25
496.225	76.25
496.442	88.25
496.66	91.25
496.877	76.25
497.094	93.25
497.312	84.25
497.529	74.25
497.746	80.25
497.963	86.25
498.181	81.25
498.398	88.25
498.615	94.25
498.832	96.25
499.049	89.25
499.267	77.25
499.484	82.25
499.701	81.25
499.918	82.25
500.135	77.25
500.352	96.25
500.569	91.25
500.786	82.25
501.003	83.25
501.22	90.25
501.437	73.25
501.654	96.25
501.871	97.25
502.088	83.25
502.305	71.25
502.522	92.25
502.739	89.25
502.956	84.25
503.172	85.25
503.389	82.25
503.606	83.25
503.823	85.25
504.04	99.25
504.256	80.25
504.473	84.25
504.69	81.25
504.907	98.25
505.123	91.25
505.34	75.25
505.557	89.25
505.773	96.25
505.99	95.25
506.207	78.25
506.423	96.25
506.64	71.25
506.856	85.25
507.073	82.25
507.289	83.25
507.506	83.25
507.722	99.25
507.939	104.25
508.155	105.25
508.372	82.25
508.588	90.25
508.805	100.25
509.021	102.25
509.238	100.25
509.454	92.25
509.67	95.25
509.887	111.25
510.103	115.25
510.319	193.25
510.536	670.25
510.752	2130.25
510.968	612.25
511.184	148.25
511.401	106.25
511.617	89.25
511.833	83.25
512.049	89.25
512.265	85.25
512.481	85.25
512.698	78.25
512.914	76.25
513.13	88.25
513.346	92.25
513.562	101.25
513.778	105.25
513.994	95.25
514.21	104.25
514.426	107.25
514.642	123.25
514.858	125.25
515.074	148.25
515.29	398.25
515.506	1266.25
515.721	499.25
515.937	155.25
516.153	96.25
516.369	103.25
516.585	80.25
516.801	78.25
517.016	92.25
517.232	88.25
