Data from Circ_2005_H10_HRD10591_00011.txt Node
Date: Wed Jan 03 10:29:53 EST 2024
User: Yrep
Spectrometer: HR+D1059
Trigger mode: 1
Integration Time (sec): 1.000000E-1
Scans to average: 1
Electric dark correction enabled: true
Nonlinearity correction enabled: false
Boxcar width: 0
XAxis mode: Wavelengths
Number of Pixels in Spectrum: 2048
>>>>>Begin Spectral Data<<<<<
223.165	-17.44
223.4	-17.44
223.635	-17.44
223.869	-15.44
224.104	-10.44
224.338	-13.44
224.573	-11.44
224.808	-27.44
225.042	-6.44
225.277	-11.44
225.511	2.56
225.746	-6.44
225.98	3.56
226.215	14.56
226.449	13.56
226.683	7.56
226.918	44.56
227.152	33.56
227.387	41.56
227.621	56.56
227.856	47.56
228.09	46.56
228.324	57.56
228.559	62.56
228.793	65.56
229.027	62.56
229.262	70.56
229.496	81.56
229.73	74.56
229.964	63.56
230.199	67.56
230.433	68.56
230.667	78.56
230.901	85.56
231.136	86.56
231.37	77.56
231.604	91.56
231.838	86.56
232.072	93.56
232.306	83.56
232.541	75.56
232.775	66.56
233.009	71.56
233.243	100.56
233.477	75.56
233.711	88.56
233.945	78.56
234.179	82.56
234.413	69.56
234.647	92.56
234.881	79.56
235.115	88.56
235.349	89.56
235.583	68.56
235.817	75.56
236.051	66.56
236.285	73.56
236.519	84.56
236.753	81.56
236.987	76.56
237.221	68.56
237.455	80.56
237.689	78.56
237.922	86.56
238.156	67.56
238.39	78.56
238.624	78.56
238.858	80.56
239.091	78.56
239.325	70.56
239.559	77.56
239.793	71.56
240.027	68.56
240.26	55.56
240.494	83.56
240.728	85.56
240.961	71.56
241.195	82.56
241.429	94.56
241.662	83.56
241.896	75.56
242.13	68.56
242.363	73.56
242.597	84.56
242.83	74.56
243.064	81.56
243.298	83.56
243.531	88.56
243.765	75.56
243.998	80.56
244.232	95.56
244.465	76.56
244.699	76.56
244.932	78.56
245.166	83.56
245.399	73.56
245.633	94.56
245.866	77.56
246.099	77.56
246.333	73.56
246.566	87.56
246.8	72.56
247.033	84.56
247.266	73.56
247.5	77.56
247.733	83.56
247.966	91.56
248.2	78.56
248.433	95.56
248.666	83.56
248.899	81.56
249.133	82.56
249.366	94.56
249.599	99.56
249.832	85.56
250.066	79.56
250.299	80.56
250.532	79.56
250.765	91.56
250.998	91.56
251.231	77.56
251.465	94.56
251.698	70.56
251.931	80.56
252.164	83.56
252.397	83.56
252.63	76.56
252.863	84.56
253.096	75.56
253.329	89.56
253.562	83.56
253.795	91.56
254.028	87.56
254.261	73.56
254.494	86.56
254.727	81.56
254.96	90.56
255.193	72.56
255.426	81.56
255.659	75.56
255.892	79.56
256.124	84.56
256.357	77.56
256.59	78.56
256.823	77.56
257.056	82.56
257.289	76.56
257.521	72.56
257.754	91.56
257.987	100.56
258.22	92.56
258.452	81.56
258.685	72.56
258.918	78.56
259.151	69.56
259.383	85.56
259.616	93.56
259.849	83.56
260.081	91.56
260.314	87.56
260.547	89.56
260.779	78.56
261.012	83.56
261.244	66.56
261.477	91.56
261.71	95.56
261.942	87.56
262.175	113.56
262.407	85.56
262.64	72.56
262.872	81.56
263.105	63.56
263.337	91.56
263.57	90.56
263.802	92.56
264.035	82.56
264.267	93.56
264.499	75.56
264.732	83.56
264.964	87.56
265.197	85.56
265.429	86.56
265.661	87.56
265.894	89.56
266.126	85.56
266.358	86.56
266.591	69.56
266.823	84.56
267.055	91.56
267.287	83.56
267.52	77.56
267.752	83.56
267.984	78.56
268.216	85.56
268.448	85.56
268.681	86.56
268.913	80.56
269.145	82.56
269.377	94.56
269.609	81.56
269.841	84.56
270.073	73.56
270.306	78.56
270.538	77.56
270.77	94.56
271.002	81.56
271.234	95.56
271.466	81.56
271.698	90.56
271.93	87.56
272.162	95.56
272.394	77.56
272.626	85.56
272.858	74.56
273.09	78.56
273.322	84.56
273.553	97.56
273.785	88.56
274.017	98.56
274.249	75.56
274.481	71.56
274.713	78.56
274.945	86.56
275.176	78.56
275.408	84.56
275.64	85.56
275.872	89.56
276.104	98.56
276.335	86.56
276.567	90.56
276.799	118.56
277.031	97.56
277.262	81.56
277.494	87.56
277.726	91.56
277.957	99.56
278.189	88.56
278.421	92.56
278.652	89.56
278.884	74.56
279.115	83.56
279.347	86.56
279.579	87.56
279.81	77.56
280.042	82.56
280.273	93.56
280.505	84.56
280.736	84.56
280.968	69.56
281.199	76.56
281.431	90.56
281.662	83.56
281.894	89.56
282.125	88.56
282.356	119.56
282.588	128.56
282.819	105.56
283.051	86.56
283.282	89.56
283.513	95.56
283.745	95.56
283.976	91.56
284.207	90.56
284.439	87.56
284.67	73.56
284.901	72.56
285.132	85.56
285.364	80.56
285.595	83.56
285.826	87.56
286.057	91.56
286.288	95.56
286.52	79.56
286.751	79.56
286.982	85.56
287.213	88.56
287.444	92.56
287.675	102.56
287.906	100.56
288.138	103.56
288.369	96.56
288.6	80.56
288.831	96.56
289.062	104.56
289.293	84.56
289.524	79.56
289.755	82.56
289.986	90.56
290.217	92.56
290.448	82.56
290.679	81.56
290.91	87.56
291.141	81.56
291.371	71.56
291.602	82.56
291.833	75.56
292.064	89.56
292.295	87.56
292.526	95.56
292.757	85.56
292.987	80.56
293.218	76.56
293.449	87.56
293.68	88.56
293.91	88.56
294.141	92.56
294.372	102.56
294.603	69.56
294.833	78.56
295.064	95.56
295.295	88.56
295.525	91.56
295.756	100.56
295.987	108.56
296.217	130.56
296.448	118.56
296.679	99.56
296.909	96.56
297.14	83.56
297.37	100.56
297.601	87.56
297.831	81.56
298.062	80.56
298.292	81.56
298.523	81.56
298.753	82.56
298.984	81.56
299.214	82.56
299.445	85.56
299.675	93.56
299.905	100.56
300.136	104.56
300.366	75.56
300.597	88.56
300.827	88.56
301.057	104.56
301.288	102.56
301.518	103.56
301.748	101.56
301.979	89.56
302.209	87.56
302.439	85.56
302.669	73.56
302.9	93.56
303.13	100.56
303.36	95.56
303.59	102.56
303.82	103.56
304.051	81.56
304.281	94.56
304.511	95.56
304.741	93.56
304.971	84.56
305.201	99.56
305.431	102.56
305.661	82.56
305.891	78.56
306.121	94.56
306.352	103.56
306.582	108.56
306.812	105.56
307.042	99.56
307.272	81.56
307.502	95.56
307.731	104.56
307.961	92.56
308.191	99.56
308.421	93.56
308.651	80.56
308.881	84.56
309.111	96.56
309.341	93.56
309.571	87.56
309.8	102.56
310.03	82.56
310.26	92.56
310.49	81.56
310.72	90.56
310.949	99.56
311.179	94.56
311.409	100.56
311.639	92.56
311.868	89.56
312.098	101.56
312.328	92.56
312.557	89.56
312.787	103.56
313.017	91.56
313.246	102.56
313.476	101.56
313.706	91.56
313.935	96.56
314.165	97.56
314.394	109.56
314.624	95.56
314.853	85.56
315.083	89.56
315.312	95.56
315.542	82.56
315.771	96.56
316.001	84.56
316.23	73.56
316.46	75.56
316.689	87.56
316.919	84.56
317.148	83.56
317.377	76.56
317.607	95.56
317.836	103.56
318.065	91.56
318.295	103.56
318.524	95.56
318.753	86.56
318.983	90.56
319.212	89.56
319.441	101.56
319.67	103.56
319.9	93.56
320.129	96.56
320.358	83.56
320.587	93.56
320.816	107.56
321.046	102.56
321.275	107.56
321.504	106.56
321.733	95.56
321.962	101.56
322.191	102.56
322.42	95.56
322.649	100.56
322.878	107.56
323.108	115.56
323.337	121.56
323.566	125.56
323.795	155.56
324.024	217.56
324.253	407.56
324.482	852.56
324.71	1725.56
324.939	2309.56
325.168	840.56
325.397	248.56
325.626	150.56
325.855	150.56
326.084	137.56
326.313	145.56
326.542	167.56
326.77	236.56
326.999	467.56
327.228	947.56
327.457	1778.56
327.686	1381.56
327.914	371.56
328.143	181.56
328.372	127.56
328.6	120.56
328.829	110.56
329.058	151.56
329.287	108.56
329.515	90.56
329.744	101.56
329.972	103.56
330.201	106.56
330.43	112.56
330.658	110.56
330.887	135.56
331.115	106.56
331.344	91.56
331.572	101.56
331.801	104.56
332.03	100.56
332.258	111.56
332.486	92.56
332.715	108.56
332.943	95.56
333.172	99.56
333.4	109.56
333.629	110.56
333.857	100.56
334.085	91.56
334.314	102.56
334.542	112.56
334.771	99.56
334.999	88.56
335.227	87.56
335.455	85.56
335.684	109.56
335.912	84.56
336.14	105.56
336.369	93.56
336.597	107.56
336.825	100.56
337.053	87.56
337.281	101.56
337.51	93.56
337.738	105.56
337.966	85.56
338.194	104.56
338.422	89.56
338.65	89.56
338.878	92.56
339.106	86.56
339.334	95.56
339.562	89.56
339.79	94.56
340.018	89.56
340.246	105.56
340.474	87.56
340.702	85.56
340.93	82.56
341.158	90.56
341.386	92.56
341.614	84.56
341.842	84.56
342.07	93.56
342.298	102.56
342.526	97.56
342.754	113.56
342.981	100.56
343.209	91.56
343.437	97.56
343.665	95.56
343.893	91.56
344.12	97.56
344.348	89.56
344.576	96.56
344.804	89.56
345.031	104.56
345.259	93.56
345.487	93.56
345.714	97.56
345.942	91.56
346.17	87.56
346.397	86.56
346.625	102.56
346.853	80.56
347.08	88.56
347.308	91.56
347.535	98.56
347.763	102.56
347.99	91.56
348.218	85.56
348.445	97.56
348.673	99.56
348.9	91.56
349.128	84.56
349.355	97.56
349.583	111.56
349.81	99.56
350.037	94.56
350.265	93.56
350.492	82.56
350.72	91.56
350.947	91.56
351.174	92.56
351.402	103.56
351.629	92.56
351.856	93.56
352.083	99.56
352.311	114.56
352.538	95.56
352.765	106.56
352.992	115.56
353.22	102.56
353.447	109.56
353.674	107.56
353.901	106.56
354.128	104.56
354.355	86.56
354.583	101.56
354.81	100.56
355.037	107.56
355.264	95.56
355.491	105.56
355.718	96.56
355.945	84.56
356.172	95.56
356.399	88.56
356.626	100.56
356.853	99.56
357.08	104.56
357.307	92.56
357.534	87.56
357.761	104.56
357.988	91.56
358.215	87.56
358.441	77.56
358.668	92.56
358.895	95.56
359.122	103.56
359.349	84.56
359.576	85.56
359.802	97.56
360.029	110.56
360.256	111.56
360.483	106.56
360.709	113.56
360.936	92.56
361.163	87.56
361.39	99.56
361.616	98.56
361.843	82.56
362.07	97.56
362.296	95.56
362.523	82.56
362.749	101.56
362.976	87.56
363.203	100.56
363.429	91.56
363.656	80.56
363.882	93.56
364.109	94.56
364.335	96.56
364.562	100.56
364.788	96.56
365.015	113.56
365.241	104.56
365.468	87.56
365.694	88.56
365.92	89.56
366.147	111.56
366.373	92.56
366.599	95.56
366.826	90.56
367.052	93.56
367.278	94.56
367.505	93.56
367.731	96.56
367.957	75.56
368.184	85.56
368.41	95.56
368.636	101.56
368.862	124.56
369.089	104.56
369.315	95.56
369.541	93.56
369.767	105.56
369.993	95.56
370.219	78.56
370.445	92.56
370.672	88.56
370.898	82.56
371.124	89.56
371.35	94.56
371.576	92.56
371.802	92.56
372.028	86.56
372.254	79.56
372.48	95.56
372.706	96.56
372.932	88.56
373.158	87.56
373.384	88.56
373.61	97.56
373.835	84.56
374.061	86.56
374.287	100.56
374.513	77.56
374.739	112.56
374.965	83.56
375.191	94.56
375.416	99.56
375.642	95.56
375.868	89.56
376.094	94.56
376.319	75.56
376.545	93.56
376.771	85.56
376.997	98.56
377.222	101.56
377.448	91.56
377.674	104.56
377.899	92.56
378.125	86.56
378.35	98.56
378.576	95.56
378.802	108.56
379.027	91.56
379.253	88.56
379.478	95.56
379.704	93.56
379.929	98.56
380.155	89.56
380.38	93.56
380.606	95.56
380.831	93.56
381.057	112.56
381.282	99.56
381.507	105.56
381.733	93.56
381.958	95.56
382.184	103.56
382.409	103.56
382.634	110.56
382.86	99.56
383.085	114.56
383.31	108.56
383.535	89.56
383.761	99.56
383.986	93.56
384.211	98.56
384.436	86.56
384.662	100.56
384.887	106.56
385.112	110.56
385.337	118.56
385.562	107.56
385.787	115.56
386.013	110.56
386.238	132.56
386.463	122.56
386.688	109.56
386.913	113.56
387.138	112.56
387.363	105.56
387.588	105.56
387.813	102.56
388.038	111.56
388.263	124.56
388.488	123.56
388.713	104.56
388.938	109.56
389.163	90.56
389.387	98.56
389.612	108.56
389.837	85.56
390.062	94.56
390.287	93.56
390.512	82.56
390.736	93.56
390.961	95.56
391.186	99.56
391.411	97.56
391.636	87.56
391.86	76.56
392.085	83.56
392.31	81.56
392.534	87.56
392.759	80.56
392.984	100.56
393.208	95.56
393.433	93.56
393.658	85.56
393.882	81.56
394.107	91.56
394.331	78.56
394.556	89.56
394.78	106.56
395.005	82.56
395.229	88.56
395.454	85.56
395.678	102.56
395.903	89.56
396.127	96.56
396.352	87.56
396.576	89.56
396.801	95.56
397.025	81.56
397.249	97.56
397.474	91.56
397.698	89.56
397.922	92.56
398.147	89.56
398.371	95.56
398.595	86.56
398.82	81.56
399.044	94.56
399.268	93.56
399.492	85.56
399.717	87.56
399.941	79.56
400.165	94.56
400.389	87.56
400.613	83.56
400.837	80.56
401.062	82.56
401.286	90.56
401.51	88.56
401.734	71.56
401.958	95.56
402.182	116.56
402.406	164.56
402.63	107.56
402.854	100.56
403.078	94.56
403.302	105.56
403.526	97.56
403.75	88.56
403.974	84.56
404.198	87.56
404.422	86.56
404.645	81.56
404.869	80.56
405.093	106.56
405.317	85.56
405.541	115.56
405.765	92.56
405.988	102.56
406.212	155.56
406.436	231.56
406.66	146.56
406.883	85.56
407.107	76.56
407.331	103.56
407.555	109.56
407.778	108.56
408.002	81.56
408.226	77.56
408.449	79.56
408.673	91.56
408.896	96.56
409.12	97.56
409.344	89.56
409.567	88.56
409.791	89.56
410.014	84.56
410.238	86.56
410.461	83.56
410.685	113.56
410.908	104.56
411.132	105.56
411.355	96.56
411.578	90.56
411.802	88.56
412.025	112.56
412.249	98.56
412.472	102.56
412.695	95.56
412.919	71.56
413.142	83.56
413.365	80.56
413.589	93.56
413.812	96.56
414.035	98.56
414.258	96.56
414.482	88.56
414.705	103.56
414.928	99.56
415.151	86.56
415.374	97.56
415.597	82.56
415.821	95.56
416.044	94.56
416.267	81.56
416.49	96.56
416.713	102.56
416.936	83.56
417.159	82.56
417.382	100.56
417.605	83.56
417.828	91.56
418.051	84.56
418.274	96.56
418.497	92.56
418.72	84.56
418.943	78.56
419.166	97.56
419.389	79.56
419.611	90.56
419.834	87.56
420.057	102.56
420.28	85.56
420.503	80.56
420.726	85.56
420.948	102.56
421.171	86.56
421.394	93.56
421.617	94.56
421.839	85.56
422.062	78.56
422.285	93.56
422.507	97.56
422.73	104.56
422.953	79.56
423.175	93.56
423.398	94.56
423.621	87.56
423.843	80.56
424.066	83.56
424.288	88.56
424.511	87.56
424.733	101.56
424.956	100.56
425.178	96.56
425.401	99.56
425.623	103.56
425.846	85.56
426.068	93.56
426.291	94.56
426.513	86.56
426.735	93.56
426.958	86.56
427.18	89.56
427.402	140.56
427.625	151.56
427.847	125.56
428.069	100.56
428.292	87.56
428.514	86.56
428.736	90.56
428.958	85.56
429.181	92.56
429.403	101.56
429.625	89.56
429.847	89.56
430.069	89.56
430.292	86.56
430.514	89.56
430.736	89.56
430.958	80.56
431.18	83.56
431.402	85.56
431.624	93.56
431.846	90.56
432.068	80.56
432.29	84.56
432.512	80.56
432.734	80.56
432.956	95.56
433.178	109.56
433.4	97.56
433.622	103.56
433.844	95.56
434.066	94.56
434.287	97.56
434.509	89.56
434.731	80.56
434.953	91.56
435.175	88.56
435.397	77.56
435.618	100.56
435.84	113.56
436.062	119.56
436.284	118.56
436.505	105.56
436.727	90.56
436.949	90.56
437.17	89.56
437.392	85.56
437.614	97.56
437.835	93.56
438.057	118.56
438.278	118.56
438.5	119.56
438.721	126.56
438.943	105.56
439.165	92.56
439.386	88.56
439.608	83.56
439.829	104.56
440.05	105.56
440.272	144.56
440.493	109.56
440.715	88.56
440.936	91.56
441.158	75.56
441.379	75.56
441.6	96.56
441.822	83.56
442.043	99.56
442.264	104.56
442.486	94.56
442.707	99.56
442.928	100.56
443.149	119.56
443.371	119.56
443.592	97.56
443.813	110.56
444.034	114.56
444.255	95.56
444.476	74.56
444.698	78.56
444.919	90.56
445.14	127.56
445.361	123.56
445.582	105.56
445.803	122.56
446.024	132.56
446.245	116.56
446.466	103.56
446.687	83.56
446.908	84.56
447.129	93.56
447.35	98.56
447.571	87.56
447.792	88.56
448.013	90.56
448.234	123.56
448.455	103.56
448.675	104.56
448.896	124.56
449.117	83.56
449.338	108.56
449.559	138.56
449.779	117.56
450	115.56
450.221	76.56
450.442	87.56
450.662	86.56
450.883	97.56
451.104	95.56
451.324	93.56
451.545	102.56
451.766	78.56
451.986	77.56
452.207	84.56
452.428	103.56
452.648	111.56
452.869	109.56
453.089	126.56
453.31	112.56
453.53	80.56
453.751	91.56
453.971	94.56
454.192	112.56
454.412	85.56
454.633	87.56
454.853	90.56
455.073	77.56
455.294	87.56
455.514	100.56
455.734	99.56
455.955	84.56
456.175	80.56
456.395	88.56
456.616	91.56
456.836	83.56
457.056	85.56
457.276	78.56
457.497	80.56
457.717	84.56
457.937	93.56
458.157	106.56
458.377	86.56
458.598	104.56
458.818	152.56
459.038	153.56
459.258	98.56
459.478	92.56
459.698	83.56
459.918	98.56
460.138	85.56
460.358	83.56
460.578	95.56
460.798	92.56
461.018	88.56
461.238	98.56
461.458	98.56
461.678	94.56
461.898	81.56
462.118	77.56
462.338	82.56
462.558	76.56
462.777	78.56
462.997	72.56
463.217	84.56
463.437	81.56
463.657	86.56
463.876	83.56
464.096	94.56
464.316	80.56
464.536	73.56
464.755	96.56
464.975	103.56
465.195	154.56
465.414	149.56
465.634	108.56
465.854	85.56
466.073	88.56
466.293	94.56
466.512	78.56
466.732	76.56
466.951	81.56
467.171	88.56
467.391	86.56
467.61	109.56
467.829	82.56
468.049	84.56
468.268	63.56
468.488	96.56
468.707	84.56
468.927	82.56
469.146	95.56
469.365	90.56
469.585	91.56
469.804	102.56
470.023	106.56
470.243	95.56
470.462	85.56
470.681	93.56
470.901	97.56
471.12	72.56
471.339	90.56
471.558	87.56
471.777	86.56
471.997	88.56
472.216	95.56
472.435	105.56
472.654	87.56
472.873	93.56
473.092	82.56
473.311	81.56
473.53	84.56
473.749	83.56
473.968	83.56
474.187	101.56
474.406	102.56
474.625	85.56
474.844	92.56
475.063	91.56
475.282	83.56
475.501	83.56
475.72	73.56
475.939	70.56
476.158	77.56
476.377	81.56
476.596	87.56
476.814	101.56
477.033	86.56
477.252	80.56
477.471	88.56
477.69	100.56
477.908	99.56
478.127	99.56
478.346	95.56
478.564	87.56
478.783	96.56
479.002	91.56
479.22	93.56
479.439	104.56
479.658	116.56
479.876	99.56
480.095	73.56
480.313	97.56
480.532	76.56
480.751	75.56
480.969	98.56
481.188	112.56
481.406	100.56
481.624	96.56
481.843	95.56
482.061	84.56
482.28	87.56
482.498	97.56
482.717	87.56
482.935	75.56
483.153	74.56
483.372	84.56
483.59	83.56
483.808	70.56
484.027	83.56
484.245	101.56
484.463	81.56
484.681	92.56
484.9	102.56
485.118	92.56
485.336	78.56
485.554	100.56
485.772	93.56
485.99	99.56
486.209	94.56
486.427	101.56
486.645	108.56
486.863	116.56
487.081	88.56
487.299	99.56
487.517	102.56
487.735	86.56
487.953	87.56
488.171	97.56
488.389	92.56
488.607	103.56
488.825	92.56
489.043	83.56
489.261	88.56
489.479	69.56
489.696	84.56
489.914	97.56
490.132	101.56
490.35	89.56
490.568	95.56
490.786	84.56
491.003	92.56
491.221	79.56
491.439	92.56
491.657	89.56
491.874	89.56
492.092	98.56
492.31	86.56
492.527	95.56
492.745	81.56
492.963	89.56
493.18	83.56
493.398	90.56
493.615	95.56
493.833	101.56
494.05	95.56
494.268	86.56
494.485	95.56
494.703	88.56
494.92	68.56
495.138	96.56
495.355	83.56
495.573	93.56
495.79	89.56
496.008	85.56
496.225	86.56
496.442	96.56
496.66	88.56
496.877	81.56
497.094	94.56
497.312	103.56
497.529	91.56
497.746	83.56
497.963	100.56
498.181	80.56
498.398	89.56
498.615	102.56
498.832	96.56
499.049	100.56
499.267	96.56
499.484	80.56
499.701	89.56
499.918	89.56
500.135	76.56
500.352	81.56
500.569	91.56
500.786	83.56
501.003	89.56
501.22	77.56
501.437	79.56
501.654	99.56
501.871	107.56
502.088	84.56
502.305	97.56
502.522	93.56
502.739	78.56
502.956	88.56
503.172	101.56
503.389	98.56
503.606	95.56
503.823	94.56
504.04	95.56
504.256	85.56
504.473	89.56
504.69	96.56
504.907	92.56
505.123	94.56
505.34	75.56
505.557	77.56
505.773	92.56
505.99	90.56
506.207	94.56
506.423	102.56
506.64	78.56
506.856	84.56
507.073	96.56
507.289	97.56
507.506	101.56
507.722	100.56
507.939	107.56
508.155	85.56
508.372	78.56
508.588	93.56
508.805	92.56
509.021	84.56
509.238	86.56
509.454	89.56
509.67	96.56
509.887	110.56
510.103	134.56
510.319	191.56
510.536	692.56
510.752	2199.56
510.968	632.56
511.184	142.56
511.401	107.56
511.617	95.56
511.833	88.56
512.049	91.56
512.265	92.56
512.481	94.56
512.698	91.56
512.914	96.56
513.13	84.56
513.346	81.56
513.562	104.56
513.778	103.56
513.994	103.56
514.21	110.56
514.426	124.56
514.642	139.56
514.858	121.56
515.074	159.56
515.29	416.56
515.506	1387.56
