Data from Circ_2005_H10_HRD10591_00094.txt Node
Date: Wed Jan 03 10:30:09 EST 2024
User: Yrep
Spectrometer: HR+D1059
Trigger mode: 1
Integration Time (sec): 1.000000E-1
Scans to average: 1
Electric dark correction enabled: true
Nonlinearity correction enabled: false
Boxcar width: 0
XAxis mode: Wavelengths
Number of Pixels in Spectrum: 2048
>>>>>Begin Spectral Data<<<<<
223.165	-25.19
223.4	-25.19
223.635	-25.19
223.869	-22.19
224.104	-21.19
224.338	-13.19
224.573	-33.19
224.808	-9.19
225.042	4.81
225.277	4.81
225.511	5.81
225.746	3.81
225.98	-0.19
226.215	6.81
226.449	18.81
226.683	23.81
226.918	23.81
227.152	31.81
227.387	47.81
227.621	32.81
227.856	36.81
228.09	37.81
228.324	58.81
228.559	64.81
228.793	65.81
229.027	54.81
229.262	71.81
229.496	76.81
229.73	79.81
229.964	81.81
230.199	78.81
230.433	73.81
230.667	72.81
230.901	83.81
231.136	76.81
231.37	81.81
231.604	74.81
231.838	74.81
232.072	62.81
232.306	85.81
232.541	73.81
232.775	78.81
233.009	84.81
233.243	86.81
233.477	84.81
233.711	86.81
233.945	93.81
234.179	75.81
234.413	70.81
234.647	70.81
234.881	79.81
235.115	74.81
235.349	71.81
235.583	81.81
235.817	79.81
236.051	79.81
236.285	75.81
236.519	75.81
236.753	67.81
236.987	79.81
237.221	71.81
237.455	85.81
237.689	63.81
237.922	72.81
238.156	53.81
238.39	60.81
238.624	76.81
238.858	82.81
239.091	81.81
239.325	75.81
239.559	76.81
239.793	78.81
240.027	77.81
240.26	64.81
240.494	93.81
240.728	70.81
240.961	75.81
241.195	78.81
241.429	76.81
241.662	68.81
241.896	82.81
242.13	81.81
242.363	83.81
242.597	80.81
242.83	92.81
243.064	73.81
243.298	82.81
243.531	75.81
243.765	78.81
243.998	70.81
244.232	69.81
244.465	81.81
244.699	83.81
244.932	84.81
245.166	83.81
245.399	77.81
245.633	79.81
245.866	70.81
246.099	76.81
246.333	83.81
246.566	69.81
246.8	78.81
247.033	92.81
247.266	81.81
247.5	81.81
247.733	75.81
247.966	62.81
248.2	80.81
248.433	74.81
248.666	79.81
248.899	73.81
249.133	60.81
249.366	103.81
249.599	97.81
249.832	85.81
250.066	77.81
250.299	81.81
250.532	88.81
250.765	81.81
250.998	78.81
251.231	80.81
251.465	89.81
251.698	84.81
251.931	94.81
252.164	75.81
252.397	74.81
252.63	83.81
252.863	84.81
253.096	70.81
253.329	85.81
253.562	77.81
253.795	62.81
254.028	79.81
254.261	78.81
254.494	79.81
254.727	82.81
254.96	87.81
255.193	81.81
255.426	78.81
255.659	80.81
255.892	93.81
256.124	86.81
256.357	85.81
256.59	87.81
256.823	88.81
257.056	78.81
257.289	83.81
257.521	78.81
257.754	72.81
257.987	64.81
258.22	88.81
258.452	95.81
258.685	88.81
258.918	82.81
259.151	68.81
259.383	87.81
259.616	81.81
259.849	87.81
260.081	74.81
260.314	79.81
260.547	82.81
260.779	89.81
261.012	80.81
261.244	85.81
261.477	77.81
261.71	103.81
261.942	100.81
262.175	107.81
262.407	102.81
262.64	68.81
262.872	90.81
263.105	76.81
263.337	98.81
263.57	84.81
263.802	93.81
264.035	84.81
264.267	91.81
264.499	94.81
264.732	81.81
264.964	78.81
265.197	90.81
265.429	89.81
265.661	85.81
265.894	95.81
266.126	84.81
266.358	76.81
266.591	87.81
266.823	88.81
267.055	80.81
267.287	82.81
267.52	94.81
267.752	74.81
267.984	74.81
268.216	70.81
268.448	80.81
268.681	93.81
268.913	67.81
269.145	84.81
269.377	85.81
269.609	94.81
269.841	90.81
270.073	84.81
270.306	92.81
270.538	81.81
270.77	77.81
271.002	76.81
271.234	77.81
271.466	87.81
271.698	85.81
271.93	86.81
272.162	76.81
272.394	98.81
272.626	67.81
272.858	88.81
273.09	95.81
273.322	77.81
273.553	59.81
273.785	70.81
274.017	84.81
274.249	90.81
274.481	86.81
274.713	95.81
274.945	88.81
275.176	74.81
275.408	73.81
275.64	91.81
275.872	88.81
276.104	86.81
276.335	94.81
276.567	101.81
276.799	96.81
277.031	106.81
277.262	92.81
277.494	80.81
277.726	75.81
277.957	82.81
278.189	79.81
278.421	87.81
278.652	94.81
278.884	90.81
279.115	91.81
279.347	86.81
279.579	87.81
279.81	85.81
280.042	92.81
280.273	88.81
280.505	91.81
280.736	89.81
280.968	96.81
281.199	83.81
281.431	83.81
281.662	99.81
281.894	98.81
282.125	89.81
282.356	111.81
282.588	111.81
282.819	104.81
283.051	93.81
283.282	90.81
283.513	100.81
283.745	86.81
283.976	84.81
284.207	96.81
284.439	77.81
284.67	101.81
284.901	83.81
285.132	88.81
285.364	80.81
285.595	89.81
285.826	88.81
286.057	78.81
286.288	83.81
286.52	81.81
286.751	83.81
286.982	91.81
287.213	85.81
287.444	87.81
287.675	91.81
287.906	87.81
288.138	89.81
288.369	86.81
288.6	95.81
288.831	72.81
289.062	77.81
289.293	84.81
289.524	83.81
289.755	92.81
289.986	75.81
290.217	93.81
290.448	90.81
290.679	97.81
290.91	98.81
291.141	80.81
291.371	93.81
291.602	87.81
291.833	89.81
292.064	77.81
292.295	90.81
292.526	85.81
292.757	88.81
292.987	79.81
293.218	87.81
293.449	81.81
293.68	94.81
293.91	80.81
294.141	94.81
294.372	84.81
294.603	87.81
294.833	98.81
295.064	80.81
295.295	91.81
295.525	77.81
295.756	95.81
295.987	113.81
296.217	114.81
296.448	126.81
296.679	102.81
296.909	86.81
297.14	85.81
297.37	76.81
297.601	87.81
297.831	100.81
298.062	93.81
298.292	72.81
298.523	104.81
298.753	84.81
298.984	92.81
299.214	92.81
299.445	94.81
299.675	91.81
299.905	86.81
300.136	87.81
300.366	94.81
300.597	93.81
300.827	93.81
301.057	101.81
301.288	92.81
301.518	105.81
301.748	83.81
301.979	104.81
302.209	82.81
302.439	86.81
302.669	94.81
302.9	85.81
303.13	99.81
303.36	103.81
303.59	99.81
303.82	103.81
304.051	93.81
304.281	90.81
304.511	73.81
304.741	79.81
304.971	98.81
305.201	114.81
305.431	92.81
305.661	96.81
305.891	95.81
306.121	86.81
306.352	105.81
306.582	103.81
306.812	100.81
307.042	96.81
307.272	96.81
307.502	96.81
307.731	93.81
307.961	92.81
308.191	92.81
308.421	96.81
308.651	91.81
308.881	91.81
309.111	96.81
309.341	81.81
309.571	98.81
309.8	101.81
310.03	93.81
310.26	86.81
310.49	97.81
310.72	98.81
310.949	99.81
311.179	96.81
311.409	99.81
311.639	79.81
311.868	86.81
312.098	83.81
312.328	94.81
312.557	84.81
312.787	93.81
313.017	100.81
313.246	88.81
313.476	76.81
313.706	99.81
313.935	105.81
314.165	91.81
314.394	87.81
314.624	93.81
314.853	98.81
315.083	100.81
315.312	88.81
315.542	86.81
315.771	82.81
316.001	85.81
316.23	83.81
316.46	88.81
316.689	87.81
316.919	92.81
317.148	90.81
317.377	99.81
317.607	96.81
317.836	86.81
318.065	76.81
318.295	84.81
318.524	93.81
318.753	94.81
318.983	99.81
319.212	90.81
319.441	105.81
319.67	78.81
319.9	94.81
320.129	82.81
320.358	83.81
320.587	88.81
320.816	94.81
321.046	93.81
321.275	93.81
321.504	88.81
321.733	87.81
321.962	74.81
322.191	115.81
322.42	94.81
322.649	111.81
322.878	114.81
323.108	110.81
323.337	112.81
323.566	121.81
323.795	159.81
324.024	182.81
324.253	357.81
324.482	702.81
324.71	1428.81
324.939	1853.81
325.168	716.81
325.397	219.81
325.626	159.81
325.855	112.81
326.084	123.81
326.313	125.81
326.542	138.81
326.77	224.81
326.999	407.81
327.228	793.81
327.457	1424.81
327.686	1150.81
327.914	339.81
328.143	202.81
328.372	178.81
328.6	128.81
328.829	109.81
329.058	108.81
329.287	128.81
329.515	104.81
329.744	116.81
329.972	126.81
330.201	166.81
330.43	212.81
330.658	155.81
330.887	134.81
331.115	136.81
331.344	94.81
331.572	104.81
331.801	100.81
332.03	98.81
332.258	106.81
332.486	109.81
332.715	97.81
332.943	83.81
333.172	101.81
333.4	86.81
333.629	104.81
333.857	127.81
334.085	151.81
334.314	176.81
334.542	265.81
334.771	254.81
334.999	131.81
335.227	104.81
335.455	107.81
335.684	93.81
335.912	98.81
336.14	94.81
336.369	94.81
336.597	106.81
336.825	95.81
337.053	92.81
337.281	98.81
337.51	92.81
337.738	93.81
337.966	100.81
338.194	76.81
338.422	84.81
338.65	94.81
338.878	99.81
339.106	84.81
339.334	98.81
339.562	84.81
339.79	92.81
340.018	99.81
340.246	97.81
340.474	104.81
340.702	96.81
340.93	104.81
341.158	88.81
341.386	103.81
341.614	106.81
341.842	100.81
342.07	90.81
342.298	95.81
342.526	83.81
342.754	105.81
342.981	92.81
343.209	102.81
343.437	104.81
343.665	102.81
343.893	94.81
344.12	87.81
344.348	86.81
344.576	96.81
344.804	96.81
345.031	91.81
345.259	98.81
345.487	79.81
345.714	75.81
345.942	92.81
346.17	92.81
346.397	88.81
346.625	94.81
346.853	88.81
347.08	100.81
347.308	94.81
347.535	92.81
347.763	103.81
347.99	90.81
348.218	100.81
348.445	96.81
348.673	105.81
348.9	82.81
349.128	95.81
349.355	90.81
349.583	79.81
349.81	98.81
350.037	94.81
350.265	107.81
350.492	95.81
350.72	91.81
350.947	99.81
351.174	88.81
351.402	86.81
351.629	94.81
351.856	105.81
352.083	84.81
352.311	94.81
352.538	107.81
352.765	107.81
352.992	115.81
353.22	116.81
353.447	91.81
353.674	100.81
353.901	91.81
354.128	79.81
354.355	102.81
354.583	105.81
354.81	87.81
355.037	84.81
355.264	87.81
355.491	102.81
355.718	98.81
355.945	84.81
356.172	89.81
356.399	83.81
356.626	103.81
356.853	97.81
357.08	82.81
357.307	91.81
357.534	85.81
357.761	77.81
357.988	102.81
358.215	101.81
358.441	90.81
358.668	98.81
358.895	82.81
359.122	85.81
359.349	65.81
359.576	99.81
359.802	100.81
360.029	101.81
360.256	102.81
360.483	94.81
360.709	75.81
360.936	83.81
361.163	102.81
361.39	83.81
361.616	84.81
361.843	95.81
362.07	94.81
362.296	88.81
362.523	85.81
362.749	80.81
362.976	96.81
363.203	100.81
363.429	81.81
363.656	76.81
363.882	87.81
364.109	96.81
364.335	89.81
364.562	97.81
364.788	83.81
365.015	88.81
365.241	101.81
365.468	102.81
365.694	107.81
365.92	91.81
366.147	88.81
366.373	74.81
366.599	82.81
366.826	83.81
367.052	89.81
367.278	98.81
367.505	85.81
367.731	100.81
367.957	101.81
368.184	98.81
368.41	104.81
368.636	97.81
368.862	115.81
369.089	94.81
369.315	97.81
369.541	88.81
369.767	78.81
369.993	100.81
370.219	90.81
370.445	93.81
370.672	81.81
370.898	100.81
371.124	90.81
371.35	96.81
371.576	86.81
371.802	77.81
372.028	68.81
372.254	79.81
372.48	81.81
372.706	93.81
372.932	84.81
373.158	79.81
373.384	87.81
373.61	85.81
373.835	82.81
374.061	87.81
374.287	96.81
374.513	101.81
374.739	89.81
374.965	107.81
375.191	93.81
375.416	84.81
375.642	90.81
375.868	88.81
376.094	82.81
376.319	82.81
376.545	91.81
376.771	92.81
376.997	89.81
377.222	92.81
377.448	95.81
377.674	93.81
377.899	90.81
378.125	83.81
378.35	98.81
378.576	92.81
378.802	99.81
379.027	105.81
379.253	86.81
379.478	79.81
379.704	88.81
379.929	99.81
380.155	86.81
380.38	98.81
380.606	90.81
380.831	99.81
381.057	101.81
381.282	90.81
381.507	80.81
381.733	98.81
381.958	96.81
382.184	88.81
382.409	106.81
382.634	105.81
382.86	96.81
383.085	102.81
383.31	108.81
383.535	101.81
383.761	86.81
383.986	94.81
384.211	95.81
384.436	96.81
384.662	98.81
384.887	100.81
385.112	115.81
385.337	101.81
385.562	101.81
385.787	99.81
386.013	92.81
386.238	107.81
386.463	95.81
386.688	109.81
386.913	103.81
387.138	102.81
387.363	94.81
387.588	106.81
387.813	99.81
388.038	106.81
388.263	103.81
388.488	96.81
388.713	92.81
388.938	100.81
389.163	100.81
389.387	85.81
389.612	83.81
389.837	87.81
390.062	88.81
390.287	98.81
390.512	91.81
390.736	108.81
390.961	95.81
391.186	96.81
391.411	101.81
391.636	81.81
391.86	73.81
392.085	78.81
392.31	93.81
392.534	55.81
392.759	91.81
392.984	86.81
393.208	78.81
393.433	85.81
393.658	79.81
393.882	81.81
394.107	78.81
394.331	77.81
394.556	86.81
394.78	77.81
395.005	88.81
395.229	79.81
395.454	97.81
395.678	84.81
395.903	86.81
396.127	96.81
396.352	73.81
396.576	68.81
396.801	100.81
397.025	87.81
397.249	78.81
397.474	92.81
397.698	95.81
397.922	86.81
398.147	86.81
398.371	85.81
398.595	86.81
398.82	82.81
399.044	82.81
399.268	94.81
399.492	90.81
399.717	77.81
399.941	95.81
400.165	107.81
400.389	83.81
400.613	87.81
400.837	92.81
401.062	96.81
401.286	88.81
401.51	86.81
401.734	91.81
401.958	94.81
402.182	111.81
402.406	156.81
402.63	113.81
402.854	93.81
403.078	98.81
403.302	84.81
403.526	87.81
403.75	87.81
403.974	100.81
404.198	84.81
404.422	75.81
404.645	76.81
404.869	90.81
405.093	87.81
405.317	109.81
405.541	113.81
405.765	88.81
405.988	109.81
406.212	138.81
406.436	179.81
406.66	113.81
406.883	92.81
407.107	91.81
407.331	100.81
407.555	96.81
407.778	92.81
408.002	95.81
408.226	84.81
408.449	83.81
408.673	85.81
408.896	78.81
409.12	86.81
409.344	92.81
409.567	98.81
409.791	86.81
410.014	83.81
410.238	79.81
410.461	82.81
410.685	92.81
410.908	85.81
411.132	102.81
411.355	87.81
411.578	87.81
411.802	76.81
412.025	82.81
412.249	88.81
412.472	91.81
412.695	90.81
412.919	82.81
413.142	90.81
413.365	83.81
413.589	93.81
413.812	94.81
414.035	98.81
414.258	88.81
414.482	82.81
414.705	94.81
414.928	80.81
415.151	89.81
415.374	99.81
415.597	94.81
415.821	66.81
416.044	88.81
416.267	80.81
416.49	80.81
416.713	79.81
416.936	88.81
417.159	70.81
417.382	96.81
417.605	94.81
417.828	93.81
418.051	85.81
418.274	89.81
418.497	83.81
418.72	77.81
418.943	84.81
419.166	98.81
419.389	90.81
419.611	82.81
419.834	94.81
420.057	92.81
420.28	84.81
420.503	86.81
420.726	79.81
420.948	95.81
421.171	85.81
421.394	79.81
421.617	80.81
421.839	83.81
422.062	78.81
422.285	91.81
422.507	83.81
422.73	90.81
422.953	72.81
423.175	66.81
423.398	86.81
423.621	85.81
423.843	95.81
424.066	97.81
424.288	78.81
424.511	85.81
424.733	86.81
424.956	98.81
425.178	103.81
425.401	99.81
425.623	93.81
425.846	78.81
426.068	91.81
426.291	83.81
426.513	75.81
426.735	83.81
426.958	84.81
427.18	96.81
427.402	108.81
427.625	143.81
427.847	122.81
428.069	107.81
428.292	87.81
428.514	96.81
428.736	95.81
428.958	87.81
429.181	88.81
429.403	81.81
429.625	79.81
429.847	85.81
430.069	96.81
430.292	95.81
430.514	95.81
430.736	85.81
430.958	79.81
431.18	86.81
431.402	93.81
431.624	79.81
431.846	85.81
432.068	95.81
432.29	80.81
432.512	95.81
432.734	78.81
432.956	94.81
433.178	105.81
433.4	104.81
433.622	86.81
433.844	92.81
434.066	93.81
434.287	80.81
434.509	73.81
434.731	94.81
434.953	72.81
435.175	68.81
435.397	91.81
435.618	90.81
435.84	96.81
436.062	106.81
436.284	99.81
436.505	87.81
436.727	85.81
436.949	78.81
437.17	93.81
437.392	85.81
437.614	94.81
437.835	92.81
438.057	97.81
438.278	104.81
438.5	103.81
438.721	99.81
438.943	90.81
439.165	95.81
439.386	99.81
439.608	76.81
439.829	98.81
440.05	103.81
440.272	122.81
440.493	90.81
440.715	85.81
440.936	76.81
441.158	98.81
441.379	90.81
441.6	76.81
441.822	89.81
442.043	98.81
442.264	92.81
442.486	95.81
442.707	85.81
442.928	115.81
443.149	110.81
443.371	109.81
443.592	95.81
443.813	106.81
444.034	102.81
444.255	87.81
444.476	92.81
444.698	74.81
444.919	90.81
445.14	130.81
445.361	115.81
445.582	114.81
445.803	96.81
446.024	100.81
446.245	115.81
446.466	100.81
446.687	97.81
446.908	79.81
447.129	73.81
447.35	98.81
447.571	91.81
447.792	101.81
448.013	81.81
448.234	83.81
448.455	86.81
448.675	113.81
448.896	120.81
449.117	92.81
449.338	88.81
449.559	99.81
449.779	113.81
450	86.81
450.221	83.81
450.442	83.81
450.662	89.81
450.883	105.81
451.104	101.81
451.324	103.81
451.545	73.81
451.766	86.81
451.986	73.81
452.207	85.81
452.428	81.81
452.648	79.81
452.869	103.81
453.089	101.81
453.31	99.81
453.53	104.81
453.751	87.81
453.971	93.81
454.192	101.81
454.412	83.81
454.633	83.81
454.853	76.81
455.073	89.81
455.294	80.81
455.514	99.81
455.734	78.81
455.955	83.81
456.175	84.81
456.395	77.81
456.616	77.81
456.836	89.81
457.056	86.81
457.276	88.81
457.497	78.81
457.717	77.81
457.937	83.81
458.157	99.81
458.377	92.81
458.598	97.81
458.818	121.81
459.038	129.81
459.258	91.81
459.478	93.81
459.698	81.81
459.918	83.81
460.138	86.81
460.358	92.81
460.578	85.81
460.798	81.81
461.018	95.81
461.238	82.81
461.458	89.81
461.678	88.81
461.898	76.81
462.118	86.81
462.338	76.81
462.558	74.81
462.777	97.81
462.997	98.81
463.217	92.81
463.437	88.81
463.657	83.81
463.876	68.81
464.096	95.81
464.316	93.81
464.536	95.81
464.755	79.81
464.975	91.81
465.195	139.81
465.414	152.81
465.634	107.81
465.854	70.81
466.073	82.81
466.293	84.81
466.512	77.81
466.732	77.81
466.951	88.81
467.171	94.81
467.391	102.81
467.61	92.81
467.829	105.81
468.049	146.81
468.268	169.81
468.488	100.81
468.707	80.81
468.927	73.81
469.146	90.81
469.365	88.81
469.585	98.81
469.804	104.81
470.023	77.81
470.243	76.81
470.462	96.81
470.681	103.81
470.901	85.81
471.12	80.81
471.339	73.81
471.558	80.81
471.777	94.81
471.997	102.81
472.216	199.81
472.435	349.81
472.654	125.81
472.873	96.81
473.092	87.81
473.311	77.81
473.53	79.81
473.749	92.81
473.968	86.81
474.187	104.81
474.406	103.81
474.625	88.81
474.844	84.81
475.063	80.81
475.282	95.81
475.501	85.81
475.72	80.81
475.939	71.81
476.158	83.81
476.377	86.81
476.596	82.81
476.814	96.81
477.033	103.81
477.252	91.81
477.471	80.81
477.69	100.81
477.908	78.81
478.127	88.81
478.346	76.81
478.564	98.81
478.783	96.81
479.002	82.81
479.22	85.81
479.439	78.81
479.658	102.81
479.876	97.81
480.095	95.81
480.313	79.81
480.532	94.81
480.751	112.81
480.969	192.81
481.188	520.81
481.406	350.81
481.624	120.81
481.843	90.81
482.061	86.81
482.28	95.81
482.498	85.81
482.717	84.81
482.935	91.81
483.153	88.81
483.372	82.81
483.59	83.81
483.808	95.81
484.027	87.81
484.245	95.81
484.463	83.81
484.681	81.81
484.9	94.81
485.118	95.81
485.336	96.81
485.554	95.81
485.772	92.81
485.99	109.81
486.209	95.81
486.427	100.81
486.645	109.81
486.863	110.81
487.081	92.81
487.299	83.81
487.517	93.81
487.735	103.81
487.953	94.81
488.171	91.81
488.389	101.81
488.607	91.81
488.825	101.81
489.043	87.81
489.261	92.81
489.479	95.81
489.696	109.81
489.914	96.81
490.132	76.81
490.35	82.81
490.568	87.81
490.786	93.81
491.003	85.81
491.221	91.81
491.439	88.81
491.657	86.81
491.874	76.81
492.092	98.81
492.31	101.81
492.527	87.81
492.745	92.81
492.963	84.81
493.18	88.81
493.398	88.81
493.615	78.81
493.833	92.81
494.05	90.81
494.268	81.81
494.485	79.81
494.703	87.81
494.92	95.81
495.138	90.81
495.355	86.81
495.573	96.81
495.79	88.81
496.008	92.81
496.225	79.81
496.442	81.81
496.66	82.81
496.877	82.81
497.094	78.81
497.312	87.81
497.529	99.81
497.746	103.81
497.963	87.81
498.181	80.81
498.398	78.81
498.615	103.81
498.832	104.81
499.049	94.81
499.267	75.81
499.484	88.81
499.701	92.81
499.918	87.81
500.135	94.81
500.352	87.81
500.569	102.81
500.786	84.81
501.003	84.81
501.22	98.81
501.437	88.81
501.654	108.81
501.871	94.81
502.088	91.81
502.305	85.81
502.522	83.81
502.739	100.81
502.956	85.81
503.172	93.81
503.389	111.81
503.606	98.81
503.823	86.81
504.04	96.81
504.256	85.81
504.473	101.81
504.69	86.81
504.907	88.81
505.123	92.81
505.34	85.81
505.557	81.81
505.773	103.81
505.99	94.81
506.207	89.81
506.423	107.81
506.64	97.81
506.856	83.81
507.073	97.81
507.289	86.81
507.506	97.81
507.722	105.81
507.939	100.81
508.155	78.81
508.372	88.81
508.588	92.81
508.805	94.81
509.021	67.81
509.238	92.81
509.454	95.81
509.67	85.81
509.887	106.81
510.103	140.81
510.319	178.81
510.536	633.81
510.752	2029.81
510.968	590.81
511.184	143.81
511.401	108.81
511.617	92.81
511.833	92.81
512.049	106.81
512.265	99.81
512.481	92.81
512.698	101.81
512.914	103.81
513.13	75.81
513.346	103.81
513.562	99.81
513.778	101.81
513.994	88.81
514.21	106.81
514.426	107.81
514.642	102.81
514.858	116.81
515.074	147.81
515.29	362.81
515.506	1148.81
515.721	450.81
515.937	144.81
516.153	107.81
516.369	92.81
