Data from Circ_2005_H10_HRD10591_00047.txt Node
Date: Wed Jan 03 10:30:00 EST 2024
User: Yrep
Spectrometer: HR+D1059
Trigger mode: 1
Integration Time (sec): 1.000000E-1
Scans to average: 1
Electric dark correction enabled: true
Nonlinearity correction enabled: false
Boxcar width: 0
XAxis mode: Wavelengths
Number of Pixels in Spectrum: 2048
>>>>>Begin Spectral Data<<<<<
223.165	-25.19
223.4	-25.19
223.635	-25.19
223.869	-7.19
224.104	-20.19
224.338	-22.19
224.573	-20.19
224.808	-18.19
225.042	0.81
225.277	-9.19
225.511	3.81
225.746	13.81
225.98	15.81
226.215	-1.19
226.449	20.81
226.683	20.81
226.918	8.81
227.152	38.81
227.387	37.81
227.621	29.81
227.856	45.81
228.09	44.81
228.324	48.81
228.559	70.81
228.793	73.81
229.027	62.81
229.262	66.81
229.496	76.81
229.73	81.81
229.964	85.81
230.199	87.81
230.433	66.81
230.667	80.81
230.901	71.81
231.136	69.81
231.37	94.81
231.604	91.81
231.838	68.81
232.072	87.81
232.306	78.81
232.541	79.81
232.775	71.81
233.009	83.81
233.243	77.81
233.477	75.81
233.711	78.81
233.945	68.81
234.179	88.81
234.413	79.81
234.647	81.81
234.881	68.81
235.115	87.81
235.349	66.81
235.583	80.81
235.817	84.81
236.051	86.81
236.285	66.81
236.519	77.81
236.753	70.81
236.987	91.81
237.221	91.81
237.455	82.81
237.689	83.81
237.922	87.81
238.156	76.81
238.39	75.81
238.624	84.81
238.858	88.81
239.091	72.81
239.325	66.81
239.559	88.81
239.793	79.81
240.027	86.81
240.26	89.81
240.494	87.81
240.728	82.81
240.961	79.81
241.195	87.81
241.429	68.81
241.662	73.81
241.896	75.81
242.13	70.81
242.363	87.81
242.597	74.81
242.83	70.81
243.064	71.81
243.298	89.81
243.531	89.81
243.765	87.81
243.998	73.81
244.232	71.81
244.465	80.81
244.699	76.81
244.932	76.81
245.166	72.81
245.399	80.81
245.633	78.81
245.866	68.81
246.099	80.81
246.333	93.81
246.566	72.81
246.8	91.81
247.033	79.81
247.266	71.81
247.5	75.81
247.733	81.81
247.966	88.81
248.2	82.81
248.433	80.81
248.666	75.81
248.899	73.81
249.133	82.81
249.366	91.81
249.599	112.81
249.832	89.81
250.066	75.81
250.299	84.81
250.532	84.81
250.765	73.81
250.998	86.81
251.231	74.81
251.465	68.81
251.698	69.81
251.931	80.81
252.164	80.81
252.397	95.81
252.63	76.81
252.863	94.81
253.096	75.81
253.329	77.81
253.562	99.81
253.795	82.81
254.028	89.81
254.261	79.81
254.494	93.81
254.727	78.81
254.96	72.81
255.193	93.81
255.426	91.81
255.659	87.81
255.892	94.81
256.124	84.81
256.357	84.81
256.59	76.81
256.823	57.81
257.056	59.81
257.289	75.81
257.521	85.81
257.754	85.81
257.987	86.81
258.22	97.81
258.452	100.81
258.685	97.81
258.918	83.81
259.151	76.81
259.383	80.81
259.616	88.81
259.849	91.81
260.081	88.81
260.314	97.81
260.547	79.81
260.779	93.81
261.012	89.81
261.244	80.81
261.477	89.81
261.71	103.81
261.942	113.81
262.175	111.81
262.407	95.81
262.64	71.81
262.872	79.81
263.105	85.81
263.337	88.81
263.57	84.81
263.802	89.81
264.035	69.81
264.267	78.81
264.499	81.81
264.732	81.81
264.964	74.81
265.197	82.81
265.429	76.81
265.661	85.81
265.894	92.81
266.126	101.81
266.358	61.81
266.591	90.81
266.823	100.81
267.055	84.81
267.287	91.81
267.52	86.81
267.752	81.81
267.984	88.81
268.216	96.81
268.448	87.81
268.681	89.81
268.913	84.81
269.145	96.81
269.377	80.81
269.609	84.81
269.841	103.81
270.073	86.81
270.306	93.81
270.538	87.81
270.77	89.81
271.002	86.81
271.234	88.81
271.466	77.81
271.698	94.81
271.93	86.81
272.162	79.81
272.394	83.81
272.626	85.81
272.858	77.81
273.09	98.81
273.322	72.81
273.553	87.81
273.785	87.81
274.017	81.81
274.249	73.81
274.481	76.81
274.713	76.81
274.945	92.81
275.176	94.81
275.408	72.81
275.64	89.81
275.872	104.81
276.104	97.81
276.335	98.81
276.567	96.81
276.799	97.81
277.031	101.81
277.262	92.81
277.494	103.81
277.726	85.81
277.957	84.81
278.189	80.81
278.421	84.81
278.652	101.81
278.884	99.81
279.115	94.81
279.347	96.81
279.579	89.81
279.81	87.81
280.042	84.81
280.273	101.81
280.505	85.81
280.736	79.81
280.968	86.81
281.199	84.81
281.431	77.81
281.662	99.81
281.894	93.81
282.125	104.81
282.356	126.81
282.588	141.81
282.819	101.81
283.051	95.81
283.282	94.81
283.513	96.81
283.745	100.81
283.976	77.81
284.207	83.81
284.439	89.81
284.67	88.81
284.901	101.81
285.132	95.81
285.364	94.81
285.595	81.81
285.826	89.81
286.057	91.81
286.288	90.81
286.52	86.81
286.751	89.81
286.982	93.81
287.213	84.81
287.444	97.81
287.675	84.81
287.906	81.81
288.138	89.81
288.369	88.81
288.6	79.81
288.831	89.81
289.062	86.81
289.293	101.81
289.524	81.81
289.755	87.81
289.986	93.81
290.217	81.81
290.448	83.81
290.679	88.81
290.91	83.81
291.141	81.81
291.371	92.81
291.602	91.81
291.833	86.81
292.064	91.81
292.295	91.81
292.526	92.81
292.757	87.81
292.987	86.81
293.218	97.81
293.449	77.81
293.68	92.81
293.91	94.81
294.141	89.81
294.372	93.81
294.603	85.81
294.833	78.81
295.064	97.81
295.295	90.81
295.525	91.81
295.756	94.81
295.987	119.81
296.217	135.81
296.448	110.81
296.679	87.81
296.909	89.81
297.14	103.81
297.37	93.81
297.601	89.81
297.831	95.81
298.062	93.81
298.292	87.81
298.523	83.81
298.753	79.81
298.984	104.81
299.214	89.81
299.445	86.81
299.675	107.81
299.905	101.81
300.136	80.81
300.366	88.81
300.597	90.81
300.827	91.81
301.057	96.81
301.288	94.81
301.518	84.81
301.748	93.81
301.979	102.81
302.209	99.81
302.439	103.81
302.669	84.81
302.9	90.81
303.13	92.81
303.36	97.81
303.59	103.81
303.82	108.81
304.051	106.81
304.281	90.81
304.511	104.81
304.741	89.81
304.971	88.81
305.201	59.81
305.431	81.81
305.661	87.81
305.891	95.81
306.121	102.81
306.352	100.81
306.582	96.81
306.812	99.81
307.042	94.81
307.272	92.81
307.502	95.81
307.731	89.81
307.961	80.81
308.191	87.81
308.421	85.81
308.651	93.81
308.881	97.81
309.111	100.81
309.341	84.81
309.571	107.81
309.8	95.81
310.03	87.81
310.26	104.81
310.49	103.81
310.72	99.81
310.949	94.81
311.179	107.81
311.409	88.81
311.639	87.81
311.868	94.81
312.098	97.81
312.328	91.81
312.557	105.81
312.787	111.81
313.017	97.81
313.246	89.81
313.476	89.81
313.706	103.81
313.935	99.81
314.165	111.81
314.394	93.81
314.624	110.81
314.853	99.81
315.083	85.81
315.312	88.81
315.542	91.81
315.771	86.81
316.001	97.81
316.23	112.81
316.46	92.81
316.689	99.81
316.919	98.81
317.148	85.81
317.377	100.81
317.607	97.81
317.836	104.81
318.065	86.81
318.295	97.81
318.524	86.81
318.753	92.81
318.983	92.81
319.212	99.81
319.441	101.81
319.67	100.81
319.9	85.81
320.129	94.81
320.358	87.81
320.587	96.81
320.816	102.81
321.046	104.81
321.275	95.81
321.504	100.81
321.733	104.81
321.962	111.81
322.191	116.81
322.42	109.81
322.649	115.81
322.878	125.81
323.108	123.81
323.337	111.81
323.566	140.81
323.795	160.81
324.024	209.81
324.253	418.81
324.482	898.81
324.71	1779.81
324.939	2355.81
325.168	853.81
325.397	263.81
325.626	165.81
325.855	132.81
326.084	128.81
326.313	115.81
326.542	181.81
326.77	229.81
326.999	487.81
327.228	969.81
327.457	1833.81
327.686	1427.81
327.914	403.81
328.143	210.81
328.372	156.81
328.6	143.81
328.829	121.81
329.058	126.81
329.287	144.81
329.515	112.81
329.744	118.81
329.972	124.81
330.201	141.81
330.43	181.81
330.658	156.81
330.887	158.81
331.115	117.81
331.344	109.81
331.572	101.81
331.801	99.81
332.03	89.81
332.258	96.81
332.486	104.81
332.715	96.81
332.943	96.81
333.172	83.81
333.4	91.81
333.629	105.81
333.857	116.81
334.085	125.81
334.314	160.81
334.542	196.81
334.771	193.81
334.999	112.81
335.227	93.81
335.455	104.81
335.684	103.81
335.912	93.81
336.14	94.81
336.369	103.81
336.597	107.81
336.825	98.81
337.053	96.81
337.281	96.81
337.51	84.81
337.738	95.81
337.966	103.81
338.194	98.81
338.422	102.81
338.65	92.81
338.878	89.81
339.106	97.81
339.334	83.81
339.562	87.81
339.79	88.81
340.018	96.81
340.246	91.81
340.474	88.81
340.702	91.81
340.93	85.81
341.158	95.81
341.386	101.81
341.614	110.81
341.842	84.81
342.07	92.81
342.298	87.81
342.526	83.81
342.754	88.81
342.981	86.81
343.209	77.81
343.437	102.81
343.665	88.81
343.893	95.81
344.12	90.81
344.348	97.81
344.576	95.81
344.804	100.81
345.031	85.81
345.259	98.81
345.487	82.81
345.714	94.81
345.942	103.81
346.17	96.81
346.397	89.81
346.625	104.81
346.853	97.81
347.08	101.81
347.308	89.81
347.535	104.81
347.763	97.81
347.99	87.81
348.218	101.81
348.445	102.81
348.673	112.81
348.9	89.81
349.128	82.81
349.355	99.81
349.583	103.81
349.81	88.81
350.037	83.81
350.265	84.81
350.492	94.81
350.72	86.81
350.947	107.81
351.174	108.81
351.402	95.81
351.629	105.81
351.856	99.81
352.083	109.81
352.311	107.81
352.538	102.81
352.765	109.81
352.992	98.81
353.22	113.81
353.447	102.81
353.674	100.81
353.901	99.81
354.128	79.81
354.355	85.81
354.583	95.81
354.81	107.81
355.037	88.81
355.264	100.81
355.491	105.81
355.718	99.81
355.945	80.81
356.172	91.81
356.399	93.81
356.626	88.81
356.853	95.81
357.08	94.81
357.307	93.81
357.534	77.81
357.761	102.81
357.988	103.81
358.215	85.81
358.441	87.81
358.668	86.81
358.895	93.81
359.122	83.81
359.349	94.81
359.576	96.81
359.802	106.81
360.029	109.81
360.256	122.81
360.483	88.81
360.709	88.81
360.936	92.81
361.163	96.81
361.39	95.81
361.616	83.81
361.843	91.81
362.07	82.81
362.296	89.81
362.523	77.81
362.749	77.81
362.976	95.81
363.203	96.81
363.429	86.81
363.656	92.81
363.882	92.81
364.109	89.81
364.335	74.81
364.562	90.81
364.788	99.81
365.015	86.81
365.241	94.81
365.468	114.81
365.694	111.81
365.92	98.81
366.147	95.81
366.373	85.81
366.599	93.81
366.826	86.81
367.052	97.81
367.278	88.81
367.505	99.81
367.731	95.81
367.957	94.81
368.184	81.81
368.41	98.81
368.636	121.81
368.862	121.81
369.089	116.81
369.315	104.81
369.541	78.81
369.767	90.81
369.993	91.81
370.219	103.81
370.445	93.81
370.672	83.81
370.898	89.81
371.124	101.81
371.35	96.81
371.576	84.81
371.802	95.81
372.028	95.81
372.254	86.81
372.48	92.81
372.706	89.81
372.932	91.81
373.158	87.81
373.384	96.81
373.61	93.81
373.835	108.81
374.061	81.81
374.287	87.81
374.513	79.81
374.739	85.81
374.965	85.81
375.191	92.81
375.416	93.81
375.642	96.81
375.868	94.81
376.094	99.81
376.319	85.81
376.545	85.81
376.771	92.81
376.997	105.81
377.222	87.81
377.448	107.81
377.674	91.81
377.899	102.81
378.125	97.81
378.35	92.81
378.576	99.81
378.802	88.81
379.027	101.81
379.253	91.81
379.478	88.81
379.704	90.81
379.929	86.81
380.155	100.81
380.38	80.81
380.606	103.81
380.831	103.81
381.057	103.81
381.282	91.81
381.507	118.81
381.733	92.81
381.958	83.81
382.184	104.81
382.409	85.81
382.634	113.81
382.86	104.81
383.085	86.81
383.31	102.81
383.535	91.81
383.761	99.81
383.986	103.81
384.211	84.81
384.436	83.81
384.662	95.81
384.887	108.81
385.112	95.81
385.337	111.81
385.562	113.81
385.787	111.81
386.013	96.81
386.238	101.81
386.463	112.81
386.688	117.81
386.913	105.81
387.138	105.81
387.363	121.81
387.588	87.81
387.813	104.81
388.038	110.81
388.263	119.81
388.488	104.81
388.713	95.81
388.938	93.81
389.163	108.81
389.387	111.81
389.612	95.81
389.837	98.81
390.062	96.81
390.287	103.81
390.512	103.81
390.736	97.81
390.961	93.81
391.186	97.81
391.411	101.81
391.636	78.81
391.86	103.81
392.085	84.81
392.31	83.81
392.534	91.81
392.759	85.81
392.984	93.81
393.208	76.81
393.433	79.81
393.658	93.81
393.882	81.81
394.107	89.81
394.331	92.81
394.556	98.81
394.78	87.81
395.005	93.81
395.229	96.81
395.454	102.81
395.678	108.81
395.903	84.81
396.127	88.81
396.352	94.81
396.576	77.81
396.801	88.81
397.025	79.81
397.249	86.81
397.474	117.81
397.698	86.81
397.922	87.81
398.147	94.81
398.371	84.81
398.595	79.81
398.82	76.81
399.044	93.81
399.268	73.81
399.492	79.81
399.717	77.81
399.941	85.81
400.165	93.81
400.389	93.81
400.613	87.81
400.837	94.81
401.062	84.81
401.286	102.81
401.51	100.81
401.734	91.81
401.958	89.81
402.182	135.81
402.406	170.81
402.63	132.81
402.854	96.81
403.078	105.81
403.302	82.81
403.526	94.81
403.75	81.81
403.974	84.81
404.198	91.81
404.422	91.81
404.645	83.81
404.869	89.81
405.093	86.81
405.317	100.81
405.541	106.81
405.765	102.81
405.988	113.81
406.212	168.81
406.436	254.81
406.66	136.81
406.883	91.81
407.107	96.81
407.331	85.81
407.555	92.81
407.778	98.81
408.002	107.81
408.226	92.81
408.449	79.81
408.673	77.81
408.896	95.81
409.12	106.81
409.344	74.81
409.567	83.81
409.791	89.81
410.014	91.81
410.238	82.81
410.461	93.81
410.685	93.81
410.908	96.81
411.132	126.81
411.355	84.81
411.578	89.81
411.802	101.81
412.025	94.81
412.249	84.81
412.472	94.81
412.695	93.81
412.919	96.81
413.142	102.81
413.365	91.81
413.589	78.81
413.812	90.81
414.035	88.81
414.258	82.81
414.482	100.81
414.705	99.81
414.928	96.81
415.151	88.81
415.374	81.81
415.597	78.81
415.821	92.81
416.044	97.81
416.267	89.81
416.49	79.81
416.713	79.81
416.936	67.81
417.159	91.81
417.382	86.81
417.605	73.81
417.828	93.81
418.051	84.81
418.274	96.81
418.497	83.81
418.72	92.81
418.943	89.81
419.166	96.81
419.389	104.81
419.611	94.81
419.834	90.81
420.057	97.81
420.28	83.81
420.503	81.81
420.726	85.81
420.948	82.81
421.171	93.81
421.394	103.81
421.617	83.81
421.839	89.81
422.062	90.81
422.285	94.81
422.507	95.81
422.73	116.81
422.953	94.81
423.175	83.81
423.398	91.81
423.621	93.81
423.843	95.81
424.066	84.81
424.288	101.81
424.511	89.81
424.733	87.81
424.956	103.81
425.178	94.81
425.401	95.81
425.623	99.81
425.846	98.81
426.068	98.81
426.291	95.81
426.513	103.81
426.735	103.81
426.958	102.81
427.18	111.81
427.402	127.81
427.625	162.81
427.847	132.81
428.069	125.81
428.292	88.81
428.514	90.81
428.736	97.81
428.958	88.81
429.181	89.81
429.403	84.81
429.625	96.81
429.847	87.81
430.069	100.81
430.292	95.81
430.514	87.81
430.736	80.81
430.958	87.81
431.18	70.81
431.402	82.81
431.624	84.81
431.846	99.81
432.068	65.81
432.29	94.81
432.512	96.81
432.734	74.81
432.956	100.81
433.178	95.81
433.4	92.81
433.622	79.81
433.844	99.81
434.066	95.81
434.287	101.81
434.509	83.81
434.731	76.81
434.953	84.81
435.175	85.81
435.397	84.81
435.618	88.81
435.84	93.81
436.062	128.81
436.284	112.81
436.505	104.81
436.727	102.81
436.949	101.81
437.17	108.81
437.392	105.81
437.614	112.81
437.835	99.81
438.057	116.81
438.278	128.81
438.5	112.81
438.721	109.81
438.943	117.81
439.165	97.81
439.386	80.81
439.608	79.81
439.829	105.81
440.05	120.81
440.272	139.81
440.493	99.81
440.715	95.81
440.936	94.81
441.158	95.81
441.379	83.81
441.6	91.81
441.822	103.81
442.043	88.81
442.264	95.81
442.486	90.81
442.707	100.81
442.928	107.81
443.149	148.81
443.371	140.81
443.592	105.81
443.813	104.81
444.034	102.81
444.255	92.81
444.476	93.81
444.698	89.81
444.919	88.81
445.14	138.81
445.361	129.81
445.582	118.81
445.803	143.81
446.024	141.81
446.245	139.81
446.466	112.81
446.687	98.81
446.908	82.81
447.129	101.81
447.35	79.81
447.571	100.81
447.792	80.81
448.013	97.81
448.234	104.81
448.455	102.81
448.675	121.81
448.896	121.81
449.117	97.81
449.338	106.81
449.559	121.81
449.779	128.81
450	98.81
450.221	76.81
450.442	97.81
450.662	96.81
450.883	125.81
451.104	119.81
451.324	105.81
451.545	97.81
451.766	82.81
451.986	75.81
452.207	91.81
452.428	79.81
452.648	110.81
452.869	111.81
453.089	100.81
453.31	126.81
453.53	93.81
453.751	93.81
453.971	92.81
454.192	103.81
454.412	83.81
454.633	70.81
454.853	92.81
455.073	101.81
455.294	89.81
455.514	110.81
455.734	101.81
455.955	74.81
456.175	85.81
456.395	81.81
456.616	82.81
456.836	84.81
457.056	87.81
457.276	81.81
457.497	86.81
457.717	88.81
457.937	101.81
458.157	87.81
458.377	73.81
458.598	112.81
458.818	159.81
459.038	170.81
459.258	127.81
459.478	82.81
459.698	93.81
459.918	93.81
460.138	89.81
460.358	79.81
460.578	96.81
460.798	91.81
461.018	85.81
461.238	93.81
461.458	88.81
461.678	79.81
461.898	70.81
462.118	73.81
462.338	82.81
462.558	76.81
462.777	95.81
462.997	94.81
463.217	80.81
463.437	80.81
463.657	86.81
463.876	87.81
464.096	95.81
464.316	88.81
464.536	109.81
464.755	91.81
464.975	104.81
465.195	164.81
465.414	168.81
465.634	100.81
465.854	99.81
466.073	78.81
466.293	69.81
466.512	82.81
466.732	88.81
466.951	94.81
467.171	99.81
467.391	94.81
467.61	93.81
467.829	83.81
468.049	110.81
468.268	132.81
468.488	80.81
468.707	91.81
468.927	86.81
469.146	95.81
469.365	84.81
469.585	94.81
469.804	101.81
470.023	96.81
470.243	93.81
470.462	104.81
470.681	106.81
470.901	114.81
471.12	88.81
471.339	99.81
471.558	87.81
471.777	98.81
471.997	97.81
472.216	145.81
472.435	237.81
472.654	115.81
472.873	87.81
473.092	92.81
473.311	81.81
473.53	80.81
473.749	87.81
473.968	102.81
474.187	109.81
474.406	92.81
474.625	85.81
474.844	70.81
475.063	88.81
475.282	88.81
475.501	88.81
475.72	89.81
475.939	86.81
476.158	84.81
476.377	83.81
476.596	96.81
476.814	94.81
477.033	102.81
477.252	93.81
477.471	97.81
477.69	89.81
477.908	84.81
478.127	88.81
478.346	83.81
478.564	94.81
478.783	94.81
479.002	98.81
479.22	99.81
479.439	106.81
479.658	107.81
479.876	82.81
480.095	100.81
480.313	111.81
480.532	93.81
480.751	95.81
480.969	142.81
481.188	344.81
481.406	256.81
481.624	101.81
481.843	97.81
482.061	103.81
482.28	87.81
482.498	101.81
482.717	83.81
482.935	85.81
483.153	100.81
483.372	78.81
483.59	106.81
483.808	73.81
484.027	92.81
484.245	91.81
484.463	95.81
484.681	107.81
484.9	93.81
485.118	100.81
485.336	104.81
485.554	91.81
485.772	92.81
485.99	97.81
486.209	96.81
486.427	108.81
486.645	114.81
486.863	114.81
487.081	95.81
487.299	102.81
487.517	98.81
487.735	88.81
487.953	93.81
488.171	96.81
488.389	100.81
488.607	100.81
488.825	104.81
489.043	96.81
489.261	96.81
489.479	95.81
489.696	89.81
489.914	70.81
490.132	92.81
490.35	84.81
490.568	89.81
490.786	99.81
491.003	80.81
491.221	94.81
491.439	86.81
491.657	99.81
491.874	94.81
492.092	83.81
492.31	100.81
492.527	85.81
492.745	88.81
492.963	94.81
493.18	87.81
493.398	96.81
493.615	88.81
493.833	99.81
494.05	79.81
494.268	90.81
494.485	91.81
494.703	89.81
494.92	86.81
495.138	89.81
495.355	95.81
495.573	82.81
495.79	77.81
496.008	99.81
496.225	94.81
496.442	89.81
496.66	95.81
496.877	92.81
497.094	88.81
497.312	104.81
497.529	102.81
497.746	103.81
497.963	97.81
498.181	90.81
498.398	102.81
498.615	117.81
498.832	103.81
499.049	88.81
499.267	92.81
499.484	79.81
499.701	84.81
499.918	93.81
500.135	89.81
500.352	86.81
500.569	88.81
500.786	98.81
501.003	82.81
501.22	84.81
501.437	85.81
501.654	91.81
501.871	104.81
502.088	109.81
502.305	105.81
502.522	90.81
502.739	92.81
502.956	96.81
503.172	94.81
503.389	89.81
503.606	104.81
503.823	104.81
504.04	100.81
504.256	94.81
504.473	83.81
504.69	91.81
504.907	93.81
505.123	95.81
505.34	79.81
505.557	81.81
505.773	82.81
505.99	87.81
506.207	84.81
506.423	83.81
506.64	89.81
506.856	86.81
507.073	85.81
507.289	97.81
507.506	91.81
507.722	108.81
507.939	100.81
508.155	92.81
508.372	86.81
508.588	100.81
508.805	108.81
509.021	101.81
509.238	94.81
509.454	95.81
509.67	107.81
509.887	95.81
510.103	128.81
510.319	211.81
510.536	739.81
510.752	2469.81
510.968	687.81
511.184	163.81
511.401	114.81
511.617	106.81
511.833	95.81
512.049	93.81
512.265	88.81
512.481	92.81
512.698	87.81
512.914	97.81
513.13	95.81
513.346	103.81
513.562	93.81
513.778	107.81
513.994	92.81
514.21	93.81
514.426	121.81
514.642	146.81
514.858	130.81
515.074	165.81
