Data from Circ_2005_H10_HRD10591_00089.txt Node
Date: Wed Jan 03 10:30:08 EST 2024
User: Yrep
Spectrometer: HR+D1059
Trigger mode: 1
Integration Time (sec): 1.000000E-1
Scans to average: 1
Electric dark correction enabled: true
Nonlinearity correction enabled: false
Boxcar width: 0
XAxis mode: Wavelengths
Number of Pixels in Spectrum: 2048
>>>>>Begin Spectral Data<<<<<
223.165	2.62
223.4	2.62
223.635	2.62
223.869	-29.38
224.104	-28.38
224.338	-14.38
224.573	-6.38
224.808	-1.38
225.042	-11.38
225.277	-0.38
225.511	-13.38
225.746	6.62
225.98	7.62
226.215	5.62
226.449	13.62
226.683	16.62
226.918	20.62
227.152	31.62
227.387	46.62
227.621	37.62
227.856	34.62
228.09	40.62
228.324	38.62
228.559	43.62
228.793	53.62
229.027	49.62
229.262	62.62
229.496	65.62
229.73	83.62
229.964	81.62
230.199	80.62
230.433	71.62
230.667	82.62
230.901	85.62
231.136	81.62
231.37	70.62
231.604	74.62
231.838	75.62
232.072	75.62
232.306	98.62
232.541	85.62
232.775	86.62
233.009	81.62
233.243	76.62
233.477	86.62
233.711	89.62
233.945	87.62
234.179	79.62
234.413	77.62
234.647	72.62
234.881	85.62
235.115	83.62
235.349	81.62
235.583	85.62
235.817	77.62
236.051	72.62
236.285	74.62
236.519	85.62
236.753	76.62
236.987	78.62
237.221	85.62
237.455	72.62
237.689	72.62
237.922	75.62
238.156	78.62
238.39	79.62
238.624	80.62
238.858	66.62
239.091	72.62
239.325	76.62
239.559	90.62
239.793	70.62
240.027	80.62
240.26	79.62
240.494	84.62
240.728	63.62
240.961	64.62
241.195	75.62
241.429	91.62
241.662	69.62
241.896	70.62
242.13	70.62
242.363	79.62
242.597	82.62
242.83	70.62
243.064	72.62
243.298	90.62
243.531	92.62
243.765	88.62
243.998	75.62
244.232	78.62
244.465	85.62
244.699	87.62
244.932	69.62
245.166	93.62
245.399	88.62
245.633	72.62
245.866	71.62
246.099	83.62
246.333	68.62
246.566	74.62
246.8	68.62
247.033	62.62
247.266	84.62
247.5	76.62
247.733	79.62
247.966	71.62
248.2	78.62
248.433	68.62
248.666	87.62
248.899	87.62
249.133	88.62
249.366	94.62
249.599	108.62
249.832	82.62
250.066	77.62
250.299	97.62
250.532	84.62
250.765	74.62
250.998	72.62
251.231	61.62
251.465	68.62
251.698	90.62
251.931	78.62
252.164	82.62
252.397	75.62
252.63	79.62
252.863	85.62
253.096	84.62
253.329	69.62
253.562	79.62
253.795	71.62
254.028	77.62
254.261	76.62
254.494	94.62
254.727	83.62
254.96	70.62
255.193	105.62
255.426	83.62
255.659	90.62
255.892	97.62
256.124	84.62
256.357	78.62
256.59	85.62
256.823	83.62
257.056	60.62
257.289	79.62
257.521	90.62
257.754	73.62
257.987	89.62
258.22	87.62
258.452	80.62
258.685	81.62
258.918	82.62
259.151	76.62
259.383	79.62
259.616	77.62
259.849	77.62
260.081	94.62
260.314	99.62
260.547	87.62
260.779	96.62
261.012	71.62
261.244	86.62
261.477	73.62
261.71	75.62
261.942	112.62
262.175	115.62
262.407	98.62
262.64	80.62
262.872	85.62
263.105	75.62
263.337	71.62
263.57	81.62
263.802	97.62
264.035	79.62
264.267	67.62
264.499	82.62
264.732	84.62
264.964	81.62
265.197	77.62
265.429	87.62
265.661	77.62
265.894	91.62
266.126	90.62
266.358	88.62
266.591	74.62
266.823	87.62
267.055	79.62
267.287	93.62
267.52	84.62
267.752	83.62
267.984	95.62
268.216	95.62
268.448	84.62
268.681	84.62
268.913	86.62
269.145	77.62
269.377	81.62
269.609	79.62
269.841	81.62
270.073	65.62
270.306	87.62
270.538	83.62
270.77	76.62
271.002	88.62
271.234	69.62
271.466	88.62
271.698	84.62
271.93	89.62
272.162	91.62
272.394	78.62
272.626	68.62
272.858	94.62
273.09	79.62
273.322	77.62
273.553	76.62
273.785	74.62
274.017	86.62
274.249	86.62
274.481	74.62
274.713	88.62
274.945	72.62
275.176	93.62
275.408	95.62
275.64	85.62
275.872	85.62
276.104	94.62
276.335	87.62
276.567	95.62
276.799	103.62
277.031	102.62
277.262	96.62
277.494	82.62
277.726	87.62
277.957	70.62
278.189	85.62
278.421	83.62
278.652	86.62
278.884	93.62
279.115	83.62
279.347	87.62
279.579	88.62
279.81	95.62
280.042	91.62
280.273	95.62
280.505	99.62
280.736	83.62
280.968	88.62
281.199	86.62
281.431	97.62
281.662	97.62
281.894	98.62
282.125	104.62
282.356	119.62
282.588	130.62
282.819	117.62
283.051	80.62
283.282	88.62
283.513	82.62
283.745	83.62
283.976	74.62
284.207	91.62
284.439	78.62
284.67	97.62
284.901	80.62
285.132	78.62
285.364	74.62
285.595	79.62
285.826	93.62
286.057	88.62
286.288	98.62
286.52	93.62
286.751	89.62
286.982	83.62
287.213	79.62
287.444	87.62
287.675	78.62
287.906	87.62
288.138	101.62
288.369	98.62
288.6	99.62
288.831	78.62
289.062	82.62
289.293	90.62
289.524	92.62
289.755	91.62
289.986	94.62
290.217	87.62
290.448	81.62
290.679	83.62
290.91	96.62
291.141	73.62
291.371	95.62
291.602	80.62
291.833	82.62
292.064	100.62
292.295	90.62
292.526	78.62
292.757	83.62
292.987	82.62
293.218	83.62
293.449	94.62
293.68	83.62
293.91	90.62
294.141	90.62
294.372	103.62
294.603	103.62
294.833	85.62
295.064	86.62
295.295	88.62
295.525	89.62
295.756	107.62
295.987	125.62
296.217	134.62
296.448	126.62
296.679	95.62
296.909	104.62
297.14	92.62
297.37	87.62
297.601	79.62
297.831	86.62
298.062	84.62
298.292	85.62
298.523	88.62
298.753	93.62
298.984	81.62
299.214	94.62
299.445	90.62
299.675	106.62
299.905	96.62
300.136	82.62
300.366	91.62
300.597	71.62
300.827	97.62
301.057	95.62
301.288	101.62
301.518	96.62
301.748	84.62
301.979	100.62
302.209	89.62
302.439	95.62
302.669	83.62
302.9	95.62
303.13	91.62
303.36	96.62
303.59	98.62
303.82	103.62
304.051	98.62
304.281	85.62
304.511	93.62
304.741	79.62
304.971	93.62
305.201	70.62
305.431	82.62
305.661	98.62
305.891	87.62
306.121	98.62
306.352	104.62
306.582	111.62
306.812	84.62
307.042	91.62
307.272	86.62
307.502	107.62
307.731	96.62
307.961	107.62
308.191	93.62
308.421	90.62
308.651	84.62
308.881	89.62
309.111	97.62
309.341	95.62
309.571	94.62
309.8	82.62
310.03	89.62
310.26	91.62
310.49	106.62
310.72	103.62
310.949	82.62
311.179	92.62
311.409	106.62
311.639	99.62
311.868	93.62
312.098	106.62
312.328	94.62
312.557	98.62
312.787	110.62
313.017	96.62
313.246	99.62
313.476	96.62
313.706	95.62
313.935	87.62
314.165	99.62
314.394	101.62
314.624	105.62
314.853	91.62
315.083	88.62
315.312	105.62
315.542	89.62
315.771	85.62
316.001	93.62
316.23	100.62
316.46	92.62
316.689	95.62
316.919	97.62
317.148	90.62
317.377	87.62
317.607	94.62
317.836	86.62
318.065	84.62
318.295	103.62
318.524	96.62
318.753	95.62
318.983	95.62
319.212	88.62
319.441	102.62
319.67	100.62
319.9	82.62
320.129	80.62
320.358	99.62
320.587	86.62
320.816	86.62
321.046	110.62
321.275	89.62
321.504	85.62
321.733	100.62
321.962	99.62
322.191	106.62
322.42	104.62
322.649	101.62
322.878	108.62
323.108	100.62
323.337	139.62
323.566	129.62
323.795	140.62
324.024	205.62
324.253	380.62
324.482	775.62
324.71	1625.62
324.939	2162.62
325.168	777.62
325.397	237.62
325.626	149.62
325.855	114.62
326.084	108.62
326.313	108.62
326.542	141.62
326.77	231.62
326.999	424.62
327.228	921.62
327.457	1674.62
327.686	1347.62
327.914	365.62
328.143	221.62
328.372	186.62
328.6	150.62
328.829	122.62
329.058	118.62
329.287	110.62
329.515	104.62
329.744	110.62
329.972	158.62
330.201	206.62
330.43	240.62
330.658	161.62
330.887	138.62
331.115	122.62
331.344	110.62
331.572	90.62
331.801	92.62
332.03	98.62
332.258	97.62
332.486	95.62
332.715	87.62
332.943	75.62
333.172	87.62
333.4	114.62
333.629	96.62
333.857	107.62
334.085	141.62
334.314	199.62
334.542	293.62
334.771	300.62
334.999	138.62
335.227	92.62
335.455	86.62
335.684	93.62
335.912	97.62
336.14	101.62
336.369	87.62
336.597	84.62
336.825	91.62
337.053	96.62
337.281	84.62
337.51	84.62
337.738	83.62
337.966	106.62
338.194	91.62
338.422	95.62
338.65	95.62
338.878	96.62
339.106	72.62
339.334	83.62
339.562	82.62
339.79	105.62
340.018	88.62
340.246	87.62
340.474	96.62
340.702	78.62
340.93	97.62
341.158	98.62
341.386	83.62
341.614	95.62
341.842	87.62
342.07	91.62
342.298	87.62
342.526	93.62
342.754	82.62
342.981	77.62
343.209	80.62
343.437	89.62
343.665	92.62
343.893	87.62
344.12	101.62
344.348	77.62
344.576	94.62
344.804	86.62
345.031	95.62
345.259	86.62
345.487	95.62
345.714	80.62
345.942	85.62
346.17	91.62
346.397	94.62
346.625	95.62
346.853	100.62
347.08	93.62
347.308	96.62
347.535	98.62
347.763	100.62
347.99	84.62
348.218	105.62
348.445	87.62
348.673	92.62
348.9	84.62
349.128	91.62
349.355	79.62
349.583	87.62
349.81	90.62
350.037	96.62
350.265	97.62
350.492	85.62
350.72	95.62
350.947	106.62
351.174	117.62
351.402	103.62
351.629	96.62
351.856	102.62
352.083	110.62
352.311	105.62
352.538	120.62
352.765	114.62
352.992	111.62
353.22	100.62
353.447	113.62
353.674	104.62
353.901	100.62
354.128	100.62
354.355	87.62
354.583	98.62
354.81	95.62
355.037	92.62
355.264	97.62
355.491	91.62
355.718	83.62
355.945	99.62
356.172	79.62
356.399	95.62
356.626	91.62
356.853	99.62
357.08	104.62
357.307	81.62
357.534	88.62
357.761	107.62
357.988	94.62
358.215	100.62
358.441	83.62
358.668	90.62
358.895	87.62
359.122	82.62
359.349	87.62
359.576	89.62
359.802	84.62
360.029	99.62
360.256	91.62
360.483	84.62
360.709	88.62
360.936	89.62
361.163	97.62
361.39	96.62
361.616	96.62
361.843	74.62
362.07	89.62
362.296	91.62
362.523	108.62
362.749	93.62
362.976	82.62
363.203	94.62
363.429	84.62
363.656	85.62
363.882	85.62
364.109	74.62
364.335	84.62
364.562	66.62
364.788	84.62
365.015	102.62
365.241	96.62
365.468	90.62
365.694	95.62
365.92	103.62
366.147	94.62
366.373	81.62
366.599	88.62
366.826	90.62
367.052	90.62
367.278	78.62
367.505	92.62
367.731	90.62
367.957	91.62
368.184	75.62
368.41	90.62
368.636	87.62
368.862	124.62
369.089	119.62
369.315	91.62
369.541	88.62
369.767	99.62
369.993	97.62
370.219	85.62
370.445	80.62
370.672	95.62
370.898	104.62
371.124	97.62
371.35	94.62
371.576	86.62
371.802	87.62
372.028	98.62
372.254	87.62
372.48	102.62
372.706	92.62
372.932	87.62
373.158	81.62
373.384	90.62
373.61	94.62
373.835	91.62
374.061	87.62
374.287	83.62
374.513	70.62
374.739	83.62
374.965	94.62
375.191	80.62
375.416	86.62
375.642	89.62
375.868	78.62
376.094	97.62
376.319	85.62
376.545	87.62
376.771	82.62
376.997	82.62
377.222	77.62
377.448	85.62
377.674	89.62
377.899	91.62
378.125	93.62
378.35	85.62
378.576	87.62
378.802	101.62
379.027	75.62
379.253	83.62
379.478	99.62
379.704	94.62
379.929	87.62
380.155	99.62
380.38	101.62
380.606	88.62
380.831	95.62
381.057	89.62
381.282	90.62
381.507	91.62
381.733	97.62
381.958	89.62
382.184	96.62
382.409	89.62
382.634	96.62
382.86	107.62
383.085	104.62
383.31	95.62
383.535	85.62
383.761	78.62
383.986	90.62
384.211	91.62
384.436	94.62
384.662	95.62
384.887	86.62
385.112	114.62
385.337	99.62
385.562	97.62
385.787	107.62
386.013	105.62
386.238	110.62
386.463	93.62
386.688	107.62
386.913	107.62
387.138	102.62
387.363	92.62
387.588	103.62
387.813	95.62
388.038	96.62
388.263	105.62
388.488	107.62
388.713	88.62
388.938	99.62
389.163	93.62
389.387	82.62
389.612	92.62
389.837	85.62
390.062	92.62
390.287	78.62
390.512	100.62
390.736	103.62
390.961	88.62
391.186	104.62
391.411	91.62
391.636	92.62
391.86	84.62
392.085	76.62
392.31	88.62
392.534	91.62
392.759	88.62
392.984	76.62
393.208	79.62
393.433	91.62
393.658	76.62
393.882	85.62
394.107	92.62
394.331	98.62
394.556	77.62
394.78	90.62
395.005	84.62
395.229	85.62
395.454	94.62
395.678	97.62
395.903	78.62
396.127	88.62
396.352	74.62
396.576	86.62
396.801	94.62
397.025	88.62
397.249	91.62
397.474	78.62
397.698	85.62
397.922	89.62
398.147	83.62
398.371	109.62
398.595	80.62
398.82	85.62
399.044	83.62
399.268	86.62
399.492	103.62
399.717	84.62
399.941	91.62
400.165	92.62
400.389	80.62
400.613	92.62
400.837	82.62
401.062	91.62
401.286	104.62
401.51	85.62
401.734	92.62
401.958	99.62
402.182	126.62
402.406	152.62
402.63	103.62
402.854	82.62
403.078	90.62
403.302	82.62
403.526	87.62
403.75	97.62
403.974	85.62
404.198	84.62
404.422	91.62
404.645	90.62
404.869	88.62
405.093	93.62
405.317	97.62
405.541	103.62
405.765	106.62
405.988	112.62
406.212	166.62
406.436	216.62
406.66	134.62
406.883	106.62
407.107	95.62
407.331	80.62
407.555	111.62
407.778	98.62
408.002	79.62
408.226	95.62
408.449	99.62
408.673	85.62
408.896	96.62
409.12	93.62
409.344	76.62
409.567	77.62
409.791	88.62
410.014	96.62
410.238	85.62
410.461	97.62
410.685	98.62
410.908	96.62
411.132	103.62
411.355	104.62
411.578	90.62
411.802	91.62
412.025	90.62
412.249	91.62
412.472	94.62
412.695	100.62
412.919	88.62
413.142	104.62
413.365	88.62
413.589	93.62
413.812	96.62
414.035	99.62
414.258	95.62
414.482	83.62
414.705	92.62
414.928	89.62
415.151	80.62
415.374	74.62
415.597	90.62
415.821	80.62
416.044	83.62
416.267	92.62
416.49	79.62
416.713	78.62
416.936	82.62
417.159	89.62
417.382	84.62
417.605	83.62
417.828	87.62
418.051	103.62
418.274	89.62
418.497	81.62
418.72	91.62
418.943	71.62
419.166	101.62
419.389	74.62
419.611	96.62
419.834	107.62
420.057	113.62
420.28	71.62
420.503	87.62
420.726	97.62
420.948	80.62
421.171	96.62
421.394	78.62
421.617	83.62
421.839	84.62
422.062	88.62
422.285	91.62
422.507	101.62
422.73	98.62
422.953	103.62
423.175	98.62
423.398	97.62
423.621	85.62
423.843	79.62
424.066	83.62
424.288	91.62
424.511	80.62
424.733	102.62
424.956	104.62
425.178	98.62
425.401	102.62
425.623	106.62
425.846	89.62
426.068	98.62
426.291	99.62
426.513	84.62
426.735	84.62
426.958	86.62
427.18	110.62
427.402	117.62
427.625	179.62
427.847	148.62
428.069	125.62
428.292	96.62
428.514	79.62
428.736	85.62
428.958	85.62
429.181	80.62
429.403	108.62
429.625	90.62
429.847	88.62
430.069	100.62
430.292	102.62
430.514	96.62
430.736	78.62
430.958	82.62
431.18	78.62
431.402	77.62
431.624	81.62
431.846	76.62
432.068	87.62
432.29	85.62
432.512	94.62
432.734	84.62
432.956	75.62
433.178	93.62
433.4	99.62
433.622	101.62
433.844	87.62
434.066	84.62
434.287	83.62
434.509	88.62
434.731	90.62
434.953	86.62
435.175	81.62
435.397	76.62
435.618	92.62
435.84	104.62
436.062	125.62
436.284	108.62
436.505	96.62
436.727	103.62
436.949	94.62
437.17	87.62
437.392	73.62
437.614	85.62
437.835	100.62
438.057	99.62
438.278	101.62
438.5	90.62
438.721	115.62
438.943	99.62
439.165	84.62
439.386	78.62
439.608	85.62
439.829	95.62
440.05	105.62
440.272	133.62
440.493	104.62
440.715	91.62
440.936	93.62
441.158	105.62
441.379	101.62
441.6	92.62
441.822	86.62
442.043	97.62
442.264	88.62
442.486	95.62
442.707	95.62
442.928	96.62
443.149	123.62
443.371	115.62
443.592	102.62
443.813	108.62
444.034	108.62
444.255	109.62
444.476	89.62
444.698	100.62
444.919	82.62
445.14	140.62
445.361	111.62
445.582	103.62
445.803	119.62
446.024	123.62
446.245	126.62
446.466	106.62
446.687	91.62
446.908	75.62
447.129	86.62
447.35	101.62
447.571	80.62
447.792	84.62
448.013	102.62
448.234	99.62
448.455	98.62
448.675	107.62
448.896	105.62
449.117	100.62
449.338	96.62
449.559	107.62
449.779	127.62
450	102.62
450.221	88.62
450.442	96.62
450.662	89.62
450.883	118.62
451.104	114.62
451.324	82.62
451.545	81.62
451.766	82.62
451.986	79.62
452.207	100.62
452.428	91.62
452.648	104.62
452.869	109.62
453.089	114.62
453.31	124.62
453.53	103.62
453.751	94.62
453.971	110.62
454.192	102.62
454.412	90.62
454.633	76.62
454.853	87.62
455.073	93.62
455.294	102.62
455.514	77.62
455.734	85.62
455.955	85.62
456.175	92.62
456.395	92.62
456.616	93.62
456.836	77.62
457.056	89.62
457.276	93.62
457.497	82.62
457.717	92.62
457.937	73.62
458.157	75.62
458.377	92.62
458.598	114.62
458.818	143.62
459.038	144.62
459.258	107.62
459.478	94.62
459.698	79.62
459.918	97.62
460.138	100.62
460.358	85.62
460.578	87.62
460.798	110.62
461.018	83.62
461.238	84.62
461.458	94.62
461.678	83.62
461.898	85.62
462.118	77.62
462.338	98.62
462.558	72.62
462.777	84.62
462.997	90.62
463.217	78.62
463.437	98.62
463.657	92.62
463.876	79.62
464.096	93.62
464.316	96.62
464.536	85.62
464.755	97.62
464.975	103.62
465.195	154.62
465.414	138.62
465.634	99.62
465.854	93.62
466.073	89.62
466.293	105.62
466.512	75.62
466.732	87.62
466.951	89.62
467.171	101.62
467.391	92.62
467.61	100.62
467.829	108.62
468.049	153.62
468.268	175.62
468.488	100.62
468.707	88.62
468.927	82.62
469.146	97.62
469.365	85.62
469.585	77.62
469.804	92.62
470.023	96.62
470.243	99.62
470.462	97.62
470.681	115.62
470.901	106.62
471.12	101.62
471.339	102.62
471.558	92.62
471.777	87.62
471.997	127.62
472.216	231.62
472.435	407.62
472.654	140.62
472.873	104.62
473.092	82.62
473.311	89.62
473.53	82.62
473.749	94.62
473.968	94.62
474.187	117.62
474.406	81.62
474.625	81.62
474.844	106.62
475.063	86.62
475.282	105.62
475.501	86.62
475.72	80.62
475.939	81.62
476.158	85.62
476.377	92.62
476.596	91.62
476.814	94.62
477.033	96.62
477.252	74.62
477.471	90.62
477.69	95.62
477.908	92.62
478.127	77.62
478.346	75.62
478.564	77.62
478.783	104.62
479.002	92.62
479.22	104.62
479.439	103.62
479.658	117.62
479.876	106.62
480.095	100.62
480.313	88.62
480.532	95.62
480.751	126.62
480.969	214.62
481.188	651.62
481.406	411.62
481.624	117.62
481.843	92.62
482.061	88.62
482.28	96.62
482.498	83.62
482.717	78.62
482.935	95.62
483.153	92.62
483.372	76.62
483.59	93.62
483.808	93.62
484.027	80.62
484.245	97.62
484.463	96.62
484.681	88.62
484.9	96.62
485.118	100.62
485.336	104.62
485.554	98.62
485.772	88.62
485.99	101.62
486.209	118.62
486.427	84.62
486.645	106.62
486.863	95.62
487.081	117.62
487.299	77.62
487.517	85.62
487.735	89.62
487.953	85.62
488.171	93.62
488.389	99.62
488.607	101.62
488.825	85.62
489.043	78.62
489.261	88.62
489.479	85.62
489.696	84.62
489.914	91.62
490.132	95.62
490.35	93.62
490.568	90.62
490.786	96.62
491.003	100.62
491.221	93.62
491.439	99.62
491.657	100.62
491.874	96.62
492.092	93.62
492.31	101.62
492.527	107.62
492.745	98.62
492.963	86.62
493.18	80.62
493.398	93.62
493.615	108.62
493.833	85.62
494.05	90.62
494.268	92.62
494.485	83.62
494.703	98.62
494.92	97.62
495.138	85.62
495.355	88.62
495.573	87.62
495.79	90.62
496.008	103.62
496.225	108.62
496.442	82.62
496.66	91.62
496.877	93.62
497.094	100.62
497.312	95.62
497.529	94.62
497.746	95.62
497.963	101.62
498.181	81.62
498.398	86.62
498.615	105.62
498.832	101.62
499.049	97.62
499.267	90.62
499.484	84.62
499.701	93.62
499.918	81.62
500.135	97.62
500.352	93.62
500.569	91.62
500.786	81.62
501.003	75.62
501.22	82.62
501.437	98.62
501.654	99.62
501.871	104.62
502.088	87.62
502.305	90.62
502.522	69.62
502.739	95.62
502.956	82.62
503.172	93.62
503.389	95.62
503.606	106.62
503.823	92.62
504.04	100.62
504.256	102.62
504.473	86.62
504.69	92.62
504.907	79.62
505.123	84.62
505.34	86.62
505.557	89.62
505.773	98.62
505.99	82.62
506.207	82.62
506.423	91.62
506.64	88.62
506.856	80.62
507.073	79.62
507.289	84.62
507.506	93.62
507.722	100.62
507.939	103.62
508.155	94.62
508.372	83.62
508.588	85.62
508.805	95.62
509.021	90.62
509.238	106.62
509.454	112.62
509.67	107.62
509.887	103.62
510.103	106.62
510.319	207.62
510.536	692.62
510.752	2192.62
510.968	639.62
511.184	160.62
511.401	122.62
511.617	100.62
511.833	88.62
512.049	102.62
512.265	94.62
512.481	102.62
512.698	94.62
512.914	107.62
513.13	98.62
513.346	84.62
513.562	81.62
513.778	84.62
513.994	97.62
514.21	82.62
514.426	113.62
514.642	135.62
514.858	110.62
515.074	156.62
515.29	379.62
515.506	1386.62
515.721	517.62
515.937	140.62
