Data from Circ_2005_H10_HRD10591_00006.txt Node
Date: Wed Jan 03 10:29:52 EST 2024
User: Yrep
Spectrometer: HR+D1059
Trigger mode: 1
Integration Time (sec): 1.000000E-1
Scans to average: 1
Electric dark correction enabled: true
Nonlinearity correction enabled: false
Boxcar width: 0
XAxis mode: Wavelengths
Number of Pixels in Spectrum: 2048
>>>>>Begin Spectral Data<<<<<
223.165	-11.56
223.4	-11.56
223.635	-11.56
223.869	-7.56
224.104	-17.56
224.338	-18.56
224.573	-24.56
224.808	-10.56
225.042	-25.56
225.277	-9.56
225.511	6.44
225.746	7.44
225.98	5.44
226.215	22.44
226.449	3.44
226.683	17.44
226.918	21.44
227.152	41.44
227.387	38.44
227.621	35.44
227.856	47.44
228.09	44.44
228.324	54.44
228.559	57.44
228.793	49.44
229.027	70.44
229.262	75.44
229.496	67.44
229.73	84.44
229.964	85.44
230.199	68.44
230.433	66.44
230.667	78.44
230.901	76.44
231.136	86.44
231.37	73.44
231.604	94.44
231.838	80.44
232.072	90.44
232.306	86.44
232.541	90.44
232.775	74.44
233.009	80.44
233.243	82.44
233.477	88.44
233.711	73.44
233.945	81.44
234.179	71.44
234.413	81.44
234.647	84.44
234.881	90.44
235.115	67.44
235.349	79.44
235.583	81.44
235.817	80.44
236.051	66.44
236.285	71.44
236.519	67.44
236.753	83.44
236.987	77.44
237.221	83.44
237.455	69.44
237.689	77.44
237.922	68.44
238.156	74.44
238.39	67.44
238.624	76.44
238.858	67.44
239.091	95.44
239.325	70.44
239.559	77.44
239.793	79.44
240.027	72.44
240.26	81.44
240.494	71.44
240.728	75.44
240.961	68.44
241.195	73.44
241.429	88.44
241.662	83.44
241.896	64.44
242.13	70.44
242.363	78.44
242.597	70.44
242.83	94.44
243.064	64.44
243.298	74.44
243.531	84.44
243.765	80.44
243.998	81.44
244.232	81.44
244.465	68.44
244.699	60.44
244.932	78.44
245.166	74.44
245.399	76.44
245.633	82.44
245.866	84.44
246.099	70.44
246.333	72.44
246.566	71.44
246.8	82.44
247.033	74.44
247.266	78.44
247.5	86.44
247.733	79.44
247.966	78.44
248.2	77.44
248.433	71.44
248.666	67.44
248.899	67.44
249.133	84.44
249.366	114.44
249.599	89.44
249.832	96.44
250.066	74.44
250.299	77.44
250.532	77.44
250.765	83.44
250.998	80.44
251.231	79.44
251.465	77.44
251.698	75.44
251.931	66.44
252.164	79.44
252.397	77.44
252.63	72.44
252.863	76.44
253.096	77.44
253.329	73.44
253.562	74.44
253.795	72.44
254.028	77.44
254.261	71.44
254.494	76.44
254.727	89.44
254.96	72.44
255.193	74.44
255.426	68.44
255.659	79.44
255.892	81.44
256.124	78.44
256.357	75.44
256.59	82.44
256.823	50.44
257.056	92.44
257.289	77.44
257.521	83.44
257.754	86.44
257.987	87.44
258.22	62.44
258.452	80.44
258.685	72.44
258.918	73.44
259.151	80.44
259.383	99.44
259.616	96.44
259.849	76.44
260.081	96.44
260.314	84.44
260.547	78.44
260.779	81.44
261.012	88.44
261.244	85.44
261.477	84.44
261.71	82.44
261.942	108.44
262.175	100.44
262.407	80.44
262.64	86.44
262.872	80.44
263.105	73.44
263.337	88.44
263.57	84.44
263.802	90.44
264.035	68.44
264.267	82.44
264.499	72.44
264.732	62.44
264.964	86.44
265.197	82.44
265.429	63.44
265.661	81.44
265.894	73.44
266.126	72.44
266.358	86.44
266.591	73.44
266.823	76.44
267.055	68.44
267.287	83.44
267.52	82.44
267.752	72.44
267.984	81.44
268.216	73.44
268.448	68.44
268.681	68.44
268.913	75.44
269.145	84.44
269.377	82.44
269.609	72.44
269.841	84.44
270.073	75.44
270.306	76.44
270.538	77.44
270.77	77.44
271.002	70.44
271.234	91.44
271.466	77.44
271.698	77.44
271.93	69.44
272.162	78.44
272.394	67.44
272.626	83.44
272.858	86.44
273.09	89.44
273.322	77.44
273.553	98.44
273.785	82.44
274.017	87.44
274.249	78.44
274.481	69.44
274.713	75.44
274.945	73.44
275.176	86.44
275.408	80.44
275.64	72.44
275.872	84.44
276.104	76.44
276.335	88.44
276.567	98.44
276.799	107.44
277.031	84.44
277.262	77.44
277.494	90.44
277.726	73.44
277.957	93.44
278.189	90.44
278.421	82.44
278.652	83.44
278.884	88.44
279.115	83.44
279.347	77.44
279.579	88.44
279.81	86.44
280.042	86.44
280.273	92.44
280.505	79.44
280.736	90.44
280.968	64.44
281.199	83.44
281.431	92.44
281.662	97.44
281.894	77.44
282.125	83.44
282.356	107.44
282.588	120.44
282.819	105.44
283.051	83.44
283.282	86.44
283.513	89.44
283.745	87.44
283.976	97.44
284.207	88.44
284.439	83.44
284.67	82.44
284.901	73.44
285.132	77.44
285.364	75.44
285.595	92.44
285.826	93.44
286.057	77.44
286.288	70.44
286.52	73.44
286.751	84.44
286.982	87.44
287.213	90.44
287.444	73.44
287.675	101.44
287.906	85.44
288.138	88.44
288.369	75.44
288.6	84.44
288.831	66.44
289.062	96.44
289.293	96.44
289.524	83.44
289.755	84.44
289.986	86.44
290.217	80.44
290.448	87.44
290.679	90.44
290.91	83.44
291.141	88.44
291.371	80.44
291.602	99.44
291.833	85.44
292.064	73.44
292.295	91.44
292.526	101.44
292.757	85.44
292.987	86.44
293.218	93.44
293.449	96.44
293.68	95.44
293.91	80.44
294.141	94.44
294.372	81.44
294.603	77.44
294.833	82.44
295.064	84.44
295.295	86.44
295.525	84.44
295.756	113.44
295.987	111.44
296.217	128.44
296.448	106.44
296.679	88.44
296.909	88.44
297.14	82.44
297.37	90.44
297.601	93.44
297.831	92.44
298.062	86.44
298.292	81.44
298.523	85.44
298.753	87.44
298.984	77.44
299.214	90.44
299.445	71.44
299.675	81.44
299.905	100.44
300.136	83.44
300.366	80.44
300.597	91.44
300.827	76.44
301.057	80.44
301.288	86.44
301.518	87.44
301.748	80.44
301.979	108.44
302.209	110.44
302.439	83.44
302.669	90.44
302.9	74.44
303.13	75.44
303.36	73.44
303.59	92.44
303.82	105.44
304.051	91.44
304.281	96.44
304.511	78.44
304.741	90.44
304.971	84.44
305.201	89.44
305.431	88.44
305.661	87.44
305.891	65.44
306.121	98.44
306.352	105.44
306.582	104.44
306.812	90.44
307.042	84.44
307.272	75.44
307.502	80.44
307.731	86.44
307.961	88.44
308.191	83.44
308.421	88.44
308.651	88.44
308.881	86.44
309.111	96.44
309.341	87.44
309.571	98.44
309.8	95.44
310.03	92.44
310.26	78.44
310.49	95.44
310.72	82.44
310.949	94.44
311.179	91.44
311.409	82.44
311.639	114.44
311.868	110.44
312.098	96.44
312.328	79.44
312.557	92.44
312.787	79.44
313.017	102.44
313.246	85.44
313.476	79.44
313.706	90.44
313.935	86.44
314.165	74.44
314.394	84.44
314.624	92.44
314.853	91.44
315.083	75.44
315.312	103.44
315.542	93.44
315.771	94.44
316.001	90.44
316.23	90.44
316.46	73.44
316.689	94.44
316.919	90.44
317.148	80.44
317.377	85.44
317.607	100.44
317.836	84.44
318.065	99.44
318.295	70.44
318.524	82.44
318.753	97.44
318.983	90.44
319.212	97.44
319.441	99.44
319.67	117.44
319.9	91.44
320.129	91.44
320.358	92.44
320.587	96.44
320.816	91.44
321.046	94.44
321.275	101.44
321.504	117.44
321.733	85.44
321.962	83.44
322.191	117.44
322.42	98.44
322.649	91.44
322.878	97.44
323.108	107.44
323.337	119.44
323.566	113.44
323.795	148.44
324.024	196.44
324.253	381.44
324.482	844.44
324.71	1680.44
324.939	2275.44
325.168	829.44
325.397	242.44
325.626	143.44
325.855	124.44
326.084	125.44
326.313	133.44
326.542	142.44
326.77	231.44
326.999	467.44
327.228	960.44
327.457	1770.44
327.686	1383.44
327.914	366.44
328.143	180.44
328.372	127.44
328.6	110.44
328.829	99.44
329.058	124.44
329.287	126.44
329.515	97.44
329.744	109.44
329.972	101.44
330.201	107.44
330.43	112.44
330.658	84.44
330.887	123.44
331.115	102.44
331.344	102.44
331.572	96.44
331.801	86.44
332.03	100.44
332.258	108.44
332.486	85.44
332.715	92.44
332.943	92.44
333.172	90.44
333.4	101.44
333.629	110.44
333.857	104.44
334.085	105.44
334.314	96.44
334.542	95.44
334.771	98.44
334.999	96.44
335.227	99.44
335.455	92.44
335.684	110.44
335.912	97.44
336.14	104.44
336.369	90.44
336.597	77.44
336.825	82.44
337.053	87.44
337.281	85.44
337.51	80.44
337.738	91.44
337.966	100.44
338.194	77.44
338.422	72.44
338.65	97.44
338.878	85.44
339.106	106.44
339.334	88.44
339.562	82.44
339.79	98.44
340.018	93.44
340.246	85.44
340.474	95.44
340.702	83.44
340.93	91.44
341.158	78.44
341.386	100.44
341.614	97.44
341.842	107.44
342.07	82.44
342.298	91.44
342.526	88.44
342.754	80.44
342.981	90.44
343.209	89.44
343.437	90.44
343.665	100.44
343.893	104.44
344.12	105.44
344.348	103.44
344.576	84.44
344.804	92.44
345.031	98.44
345.259	94.44
345.487	90.44
345.714	109.44
345.942	98.44
346.17	93.44
346.397	80.44
346.625	115.44
346.853	92.44
347.08	74.44
347.308	78.44
347.535	102.44
347.763	83.44
347.99	113.44
348.218	99.44
348.445	107.44
348.673	107.44
348.9	91.44
349.128	94.44
349.355	103.44
349.583	76.44
349.81	92.44
350.037	91.44
350.265	89.44
350.492	85.44
350.72	96.44
350.947	87.44
351.174	92.44
351.402	112.44
351.629	83.44
351.856	96.44
352.083	81.44
352.311	100.44
352.538	100.44
352.765	111.44
352.992	116.44
353.22	101.44
353.447	89.44
353.674	98.44
353.901	97.44
354.128	90.44
354.355	93.44
354.583	85.44
354.81	97.44
355.037	101.44
355.264	90.44
355.491	81.44
355.718	87.44
355.945	91.44
356.172	83.44
356.399	84.44
356.626	88.44
356.853	95.44
357.08	87.44
357.307	95.44
357.534	93.44
357.761	95.44
357.988	101.44
358.215	112.44
358.441	95.44
358.668	99.44
358.895	81.44
359.122	95.44
359.349	77.44
359.576	80.44
359.802	98.44
360.029	104.44
360.256	105.44
360.483	88.44
360.709	88.44
360.936	103.44
361.163	98.44
361.39	84.44
361.616	83.44
361.843	94.44
362.07	94.44
362.296	83.44
362.523	91.44
362.749	87.44
362.976	93.44
363.203	81.44
363.429	91.44
363.656	85.44
363.882	90.44
364.109	92.44
364.335	94.44
364.562	78.44
364.788	82.44
365.015	88.44
365.241	97.44
365.468	108.44
365.694	93.44
365.92	81.44
366.147	82.44
366.373	95.44
366.599	86.44
366.826	82.44
367.052	96.44
367.278	96.44
367.505	84.44
367.731	99.44
367.957	105.44
368.184	89.44
368.41	79.44
368.636	103.44
368.862	111.44
369.089	114.44
369.315	89.44
369.541	73.44
369.767	86.44
369.993	76.44
370.219	100.44
370.445	94.44
370.672	97.44
370.898	78.44
371.124	85.44
371.35	63.44
371.576	82.44
371.802	88.44
372.028	94.44
372.254	84.44
372.48	78.44
372.706	97.44
372.932	85.44
373.158	110.44
373.384	92.44
373.61	82.44
373.835	89.44
374.061	93.44
374.287	86.44
374.513	86.44
374.739	88.44
374.965	79.44
375.191	82.44
375.416	102.44
375.642	94.44
375.868	87.44
376.094	97.44
376.319	90.44
376.545	101.44
376.771	103.44
376.997	88.44
377.222	95.44
377.448	85.44
377.674	78.44
377.899	91.44
378.125	91.44
378.35	82.44
378.576	94.44
378.802	87.44
379.027	102.44
379.253	90.44
379.478	90.44
379.704	97.44
379.929	99.44
380.155	96.44
380.38	97.44
380.606	107.44
380.831	96.44
381.057	99.44
381.282	100.44
381.507	101.44
381.733	106.44
381.958	114.44
382.184	100.44
382.409	108.44
382.634	98.44
382.86	96.44
383.085	105.44
383.31	100.44
383.535	123.44
383.761	96.44
383.986	105.44
384.211	101.44
384.436	100.44
384.662	108.44
384.887	110.44
385.112	102.44
385.337	117.44
385.562	107.44
385.787	100.44
386.013	125.44
386.238	133.44
386.463	125.44
386.688	130.44
386.913	110.44
387.138	107.44
387.363	104.44
387.588	103.44
387.813	107.44
388.038	120.44
388.263	128.44
388.488	105.44
388.713	93.44
388.938	97.44
389.163	86.44
389.387	85.44
389.612	84.44
389.837	84.44
390.062	91.44
390.287	85.44
390.512	90.44
390.736	77.44
390.961	91.44
391.186	68.44
391.411	88.44
391.636	80.44
391.86	86.44
392.085	86.44
392.31	91.44
392.534	88.44
392.759	74.44
392.984	85.44
393.208	94.44
393.433	89.44
393.658	88.44
393.882	91.44
394.107	97.44
394.331	82.44
394.556	89.44
394.78	91.44
395.005	81.44
395.229	88.44
395.454	76.44
395.678	96.44
395.903	77.44
396.127	74.44
396.352	83.44
396.576	66.44
396.801	82.44
397.025	89.44
397.249	78.44
397.474	76.44
397.698	87.44
397.922	82.44
398.147	85.44
398.371	82.44
398.595	85.44
398.82	90.44
399.044	83.44
399.268	88.44
399.492	82.44
399.717	98.44
399.941	91.44
400.165	97.44
400.389	88.44
400.613	81.44
400.837	82.44
401.062	90.44
401.286	79.44
401.51	76.44
401.734	82.44
401.958	96.44
402.182	120.44
402.406	140.44
402.63	109.44
402.854	89.44
403.078	84.44
403.302	90.44
403.526	87.44
403.75	86.44
403.974	88.44
404.198	88.44
404.422	80.44
404.645	94.44
404.869	79.44
405.093	89.44
405.317	88.44
405.541	85.44
405.765	96.44
405.988	100.44
406.212	165.44
406.436	190.44
406.66	123.44
406.883	97.44
407.107	83.44
407.331	78.44
407.555	97.44
407.778	90.44
408.002	94.44
408.226	96.44
408.449	99.44
408.673	96.44
408.896	97.44
409.12	102.44
409.344	92.44
409.567	89.44
409.791	74.44
410.014	82.44
410.238	84.44
410.461	76.44
410.685	76.44
410.908	85.44
411.132	75.44
411.355	88.44
411.578	97.44
411.802	90.44
412.025	97.44
412.249	98.44
412.472	78.44
412.695	93.44
412.919	86.44
413.142	85.44
413.365	88.44
413.589	107.44
413.812	91.44
414.035	82.44
414.258	89.44
414.482	92.44
414.705	91.44
414.928	98.44
415.151	85.44
415.374	81.44
415.597	85.44
415.821	100.44
416.044	86.44
416.267	92.44
416.49	90.44
416.713	69.44
416.936	87.44
417.159	92.44
417.382	86.44
417.605	95.44
417.828	104.44
418.051	99.44
418.274	80.44
418.497	81.44
418.72	93.44
418.943	94.44
419.166	97.44
419.389	92.44
419.611	96.44
419.834	94.44
420.057	84.44
420.28	71.44
420.503	92.44
420.726	92.44
420.948	89.44
421.171	95.44
421.394	96.44
421.617	100.44
421.839	85.44
422.062	93.44
422.285	91.44
422.507	101.44
422.73	92.44
422.953	88.44
423.175	86.44
423.398	86.44
423.621	91.44
423.843	85.44
424.066	76.44
424.288	84.44
424.511	94.44
424.733	86.44
424.956	108.44
425.178	105.44
425.401	83.44
425.623	96.44
425.846	85.44
426.068	91.44
426.291	75.44
426.513	82.44
426.735	91.44
426.958	99.44
427.18	102.44
427.402	129.44
427.625	142.44
427.847	116.44
428.069	97.44
428.292	84.44
428.514	83.44
428.736	86.44
428.958	80.44
429.181	88.44
429.403	92.44
429.625	89.44
429.847	94.44
430.069	108.44
430.292	95.44
430.514	85.44
430.736	86.44
430.958	73.44
431.18	69.44
431.402	82.44
431.624	80.44
431.846	79.44
432.068	77.44
432.29	86.44
432.512	76.44
432.734	95.44
432.956	95.44
433.178	106.44
433.4	90.44
433.622	93.44
433.844	77.44
434.066	86.44
434.287	84.44
434.509	83.44
434.731	105.44
434.953	93.44
435.175	80.44
435.397	97.44
435.618	93.44
435.84	86.44
436.062	115.44
436.284	122.44
436.505	94.44
436.727	101.44
436.949	98.44
437.17	85.44
437.392	84.44
437.614	79.44
437.835	89.44
438.057	117.44
438.278	113.44
438.5	112.44
438.721	115.44
438.943	89.44
439.165	90.44
439.386	88.44
439.608	97.44
439.829	100.44
440.05	116.44
440.272	146.44
440.493	96.44
440.715	93.44
440.936	85.44
441.158	91.44
441.379	89.44
441.6	86.44
441.822	82.44
442.043	84.44
442.264	100.44
442.486	101.44
442.707	94.44
442.928	93.44
443.149	133.44
443.371	127.44
443.592	86.44
443.813	118.44
444.034	106.44
444.255	90.44
444.476	96.44
444.698	73.44
444.919	88.44
445.14	136.44
445.361	123.44
445.582	104.44
445.803	109.44
446.024	137.44
446.245	110.44
446.466	114.44
446.687	84.44
446.908	85.44
447.129	78.44
447.35	93.44
447.571	91.44
447.792	85.44
448.013	87.44
448.234	92.44
448.455	102.44
448.675	122.44
448.896	114.44
449.117	86.44
449.338	85.44
449.559	125.44
449.779	133.44
450	100.44
450.221	94.44
450.442	102.44
450.662	79.44
450.883	92.44
451.104	111.44
451.324	88.44
451.545	98.44
451.766	97.44
451.986	100.44
452.207	65.44
452.428	81.44
452.648	94.44
452.869	99.44
453.089	118.44
453.31	103.44
453.53	90.44
453.751	74.44
453.971	100.44
454.192	106.44
454.412	82.44
454.633	86.44
454.853	88.44
455.073	90.44
455.294	85.44
455.514	89.44
455.734	84.44
455.955	72.44
456.175	74.44
456.395	91.44
456.616	83.44
456.836	74.44
457.056	85.44
457.276	73.44
457.497	79.44
457.717	91.44
457.937	90.44
458.157	81.44
458.377	91.44
458.598	95.44
458.818	130.44
459.038	137.44
459.258	114.44
459.478	92.44
459.698	81.44
459.918	95.44
460.138	77.44
460.358	77.44
460.578	83.44
460.798	83.44
461.018	95.44
461.238	86.44
461.458	69.44
461.678	83.44
461.898	90.44
462.118	78.44
462.338	73.44
462.558	95.44
462.777	91.44
462.997	94.44
463.217	77.44
463.437	90.44
463.657	83.44
463.876	91.44
464.096	90.44
464.316	89.44
464.536	89.44
464.755	83.44
464.975	104.44
465.195	149.44
465.414	127.44
465.634	90.44
465.854	91.44
466.073	81.44
466.293	82.44
466.512	85.44
466.732	86.44
466.951	89.44
467.171	85.44
467.391	101.44
467.61	103.44
467.829	93.44
468.049	94.44
468.268	91.44
468.488	84.44
468.707	90.44
468.927	98.44
469.146	95.44
469.365	77.44
469.585	80.44
469.804	92.44
470.023	103.44
470.243	89.44
470.462	97.44
470.681	105.44
470.901	84.44
471.12	86.44
471.339	83.44
471.558	81.44
471.777	82.44
471.997	80.44
472.216	78.44
472.435	99.44
472.654	86.44
472.873	95.44
473.092	86.44
473.311	84.44
473.53	84.44
473.749	95.44
473.968	84.44
474.187	111.44
474.406	99.44
474.625	75.44
474.844	78.44
475.063	78.44
475.282	73.44
475.501	76.44
475.72	94.44
475.939	87.44
476.158	99.44
476.377	100.44
476.596	89.44
476.814	87.44
477.033	85.44
477.252	86.44
477.471	87.44
477.69	68.44
477.908	79.44
478.127	85.44
478.346	73.44
478.564	74.44
478.783	108.44
479.002	88.44
479.22	79.44
479.439	100.44
479.658	94.44
479.876	94.44
480.095	82.44
480.313	80.44
480.532	95.44
480.751	90.44
480.969	105.44
481.188	110.44
481.406	97.44
481.624	70.44
481.843	106.44
482.061	71.44
482.28	78.44
482.498	98.44
482.717	101.44
482.935	91.44
483.153	82.44
483.372	82.44
483.59	90.44
483.808	83.44
484.027	90.44
484.245	92.44
484.463	89.44
484.681	86.44
484.9	92.44
485.118	85.44
485.336	89.44
485.554	96.44
485.772	91.44
485.99	86.44
486.209	104.44
486.427	107.44
486.645	111.44
486.863	108.44
487.081	97.44
487.299	98.44
487.517	102.44
487.735	96.44
487.953	97.44
488.171	88.44
488.389	80.44
488.607	93.44
488.825	86.44
489.043	73.44
489.261	80.44
489.479	98.44
489.696	81.44
489.914	99.44
490.132	85.44
490.35	90.44
490.568	96.44
490.786	80.44
491.003	77.44
491.221	100.44
491.439	92.44
491.657	86.44
491.874	89.44
492.092	103.44
492.31	78.44
492.527	81.44
492.745	79.44
492.963	69.44
493.18	89.44
493.398	88.44
493.615	95.44
493.833	103.44
494.05	97.44
494.268	99.44
494.485	76.44
494.703	93.44
494.92	78.44
495.138	94.44
495.355	95.44
495.573	90.44
495.79	97.44
496.008	97.44
496.225	85.44
496.442	84.44
496.66	92.44
496.877	90.44
497.094	100.44
497.312	93.44
497.529	77.44
497.746	90.44
497.963	90.44
498.181	93.44
498.398	91.44
498.615	103.44
498.832	83.44
499.049	96.44
499.267	89.44
499.484	84.44
499.701	97.44
499.918	96.44
500.135	93.44
500.352	83.44
500.569	86.44
500.786	97.44
501.003	100.44
501.22	84.44
501.437	88.44
501.654	86.44
501.871	92.44
502.088	100.44
502.305	82.44
502.522	85.44
502.739	101.44
502.956	97.44
503.172	86.44
503.389	85.44
503.606	107.44
503.823	89.44
504.04	95.44
504.256	85.44
504.473	84.44
504.69	81.44
504.907	96.44
505.123	85.44
505.34	80.44
505.557	101.44
505.773	85.44
505.99	84.44
506.207	83.44
506.423	102.44
506.64	95.44
506.856	90.44
507.073	81.44
507.289	96.44
507.506	97.44
507.722	103.44
507.939	105.44
508.155	93.44
508.372	92.44
508.588	99.44
508.805	88.44
509.021	97.44
509.238	99.44
509.454	93.44
509.67	86.44
509.887	100.44
510.103	112.44
510.319	181.44
510.536	636.44
510.752	2014.44
510.968	576.44
511.184	141.44
511.401	108.44
511.617	104.44
511.833	90.44
512.049	97.44
512.265	87.44
512.481	68.44
512.698	94.44
512.914	79.44
513.13	95.44
513.346	92.44
513.562	100.44
513.778	98.44
513.994	88.44
514.21	104.44
514.426	113.44
514.642	124.44
514.858	127.44
515.074	141.44
515.29	399.44
515.506	1210.44
515.721	464.44
515.937	145.44
516.153	117.44
516.369	99.44
516.585	80.44
