Data from Circ_2005_H10_HRD10591_00044.txt Node
Date: Wed Jan 03 10:29:59 EST 2024
User: Yrep
Spectrometer: HR+D1059
Trigger mode: 1
Integration Time (sec): 1.000000E-1
Scans to average: 1
Electric dark correction enabled: true
Nonlinearity correction enabled: false
Boxcar width: 0
XAxis mode: Wavelengths
Number of Pixels in Spectrum: 2048
>>>>>Begin Spectral Data<<<<<
223.165	-21.38
223.4	-21.38
223.635	-21.38
223.869	-8.38
224.104	-9.38
224.338	-0.38
224.573	-11.38
224.808	-11.38
225.042	-10.38
225.277	-1.38
225.511	-11.38
225.746	-5.38
225.98	3.62
226.215	20.62
226.449	3.62
226.683	19.62
226.918	26.62
227.152	16.62
227.387	25.62
227.621	40.62
227.856	43.62
228.09	43.62
228.324	40.62
228.559	49.62
228.793	50.62
229.027	73.62
229.262	68.62
229.496	75.62
229.73	92.62
229.964	87.62
230.199	85.62
230.433	76.62
230.667	77.62
230.901	77.62
231.136	73.62
231.37	92.62
231.604	85.62
231.838	82.62
232.072	91.62
232.306	77.62
232.541	88.62
232.775	78.62
233.009	93.62
233.243	79.62
233.477	85.62
233.711	73.62
233.945	83.62
234.179	80.62
234.413	72.62
234.647	88.62
234.881	89.62
235.115	66.62
235.349	84.62
235.583	75.62
235.817	64.62
236.051	77.62
236.285	80.62
236.519	70.62
236.753	78.62
236.987	85.62
237.221	77.62
237.455	90.62
237.689	85.62
237.922	88.62
238.156	76.62
238.39	80.62
238.624	92.62
238.858	90.62
239.091	78.62
239.325	77.62
239.559	70.62
239.793	76.62
240.027	75.62
240.26	88.62
240.494	77.62
240.728	66.62
240.961	73.62
241.195	77.62
241.429	73.62
241.662	81.62
241.896	72.62
242.13	72.62
242.363	88.62
242.597	83.62
242.83	77.62
243.064	87.62
243.298	97.62
243.531	73.62
243.765	65.62
243.998	87.62
244.232	72.62
244.465	79.62
244.699	73.62
244.932	83.62
245.166	69.62
245.399	79.62
245.633	72.62
245.866	92.62
246.099	100.62
246.333	89.62
246.566	102.62
246.8	81.62
247.033	83.62
247.266	68.62
247.5	79.62
247.733	84.62
247.966	68.62
248.2	75.62
248.433	89.62
248.666	80.62
248.899	82.62
249.133	82.62
249.366	102.62
249.599	88.62
249.832	83.62
250.066	72.62
250.299	83.62
250.532	81.62
250.765	74.62
250.998	66.62
251.231	71.62
251.465	89.62
251.698	91.62
251.931	83.62
252.164	95.62
252.397	82.62
252.63	75.62
252.863	84.62
253.096	86.62
253.329	89.62
253.562	86.62
253.795	74.62
254.028	91.62
254.261	73.62
254.494	81.62
254.727	83.62
254.96	84.62
255.193	70.62
255.426	83.62
255.659	74.62
255.892	81.62
256.124	87.62
256.357	79.62
256.59	81.62
256.823	80.62
257.056	74.62
257.289	87.62
257.521	88.62
257.754	82.62
257.987	98.62
258.22	99.62
258.452	72.62
258.685	78.62
258.918	81.62
259.151	86.62
259.383	83.62
259.616	85.62
259.849	90.62
260.081	91.62
260.314	82.62
260.547	66.62
260.779	101.62
261.012	85.62
261.244	80.62
261.477	87.62
261.71	95.62
261.942	125.62
262.175	106.62
262.407	88.62
262.64	78.62
262.872	88.62
263.105	79.62
263.337	97.62
263.57	77.62
263.802	92.62
264.035	88.62
264.267	78.62
264.499	80.62
264.732	84.62
264.964	93.62
265.197	94.62
265.429	95.62
265.661	88.62
265.894	80.62
266.126	95.62
266.358	97.62
266.591	75.62
266.823	79.62
267.055	77.62
267.287	83.62
267.52	77.62
267.752	77.62
267.984	68.62
268.216	80.62
268.448	88.62
268.681	85.62
268.913	73.62
269.145	87.62
269.377	68.62
269.609	88.62
269.841	81.62
270.073	81.62
270.306	102.62
270.538	85.62
270.77	87.62
271.002	96.62
271.234	91.62
271.466	99.62
271.698	101.62
271.93	87.62
272.162	83.62
272.394	96.62
272.626	88.62
272.858	95.62
273.09	84.62
273.322	92.62
273.553	73.62
273.785	78.62
274.017	79.62
274.249	84.62
274.481	75.62
274.713	93.62
274.945	88.62
275.176	105.62
275.408	88.62
275.64	98.62
275.872	95.62
276.104	95.62
276.335	96.62
276.567	87.62
276.799	110.62
277.031	104.62
277.262	89.62
277.494	92.62
277.726	83.62
277.957	77.62
278.189	96.62
278.421	89.62
278.652	70.62
278.884	87.62
279.115	83.62
279.347	76.62
279.579	86.62
279.81	87.62
280.042	93.62
280.273	76.62
280.505	93.62
280.736	95.62
280.968	86.62
281.199	93.62
281.431	74.62
281.662	85.62
281.894	91.62
282.125	108.62
282.356	115.62
282.588	134.62
282.819	116.62
283.051	97.62
283.282	84.62
283.513	95.62
283.745	89.62
283.976	89.62
284.207	73.62
284.439	72.62
284.67	96.62
284.901	81.62
285.132	83.62
285.364	86.62
285.595	101.62
285.826	77.62
286.057	81.62
286.288	94.62
286.52	89.62
286.751	87.62
286.982	90.62
287.213	92.62
287.444	100.62
287.675	86.62
287.906	92.62
288.138	99.62
288.369	98.62
288.6	103.62
288.831	103.62
289.062	100.62
289.293	93.62
289.524	93.62
289.755	86.62
289.986	96.62
290.217	106.62
290.448	97.62
290.679	83.62
290.91	86.62
291.141	86.62
291.371	101.62
291.602	79.62
291.833	101.62
292.064	78.62
292.295	78.62
292.526	85.62
292.757	80.62
292.987	90.62
293.218	100.62
293.449	96.62
293.68	91.62
293.91	88.62
294.141	98.62
294.372	82.62
294.603	94.62
294.833	84.62
295.064	95.62
295.295	96.62
295.525	91.62
295.756	100.62
295.987	114.62
296.217	125.62
296.448	118.62
296.679	101.62
296.909	81.62
297.14	92.62
297.37	102.62
297.601	97.62
297.831	99.62
298.062	99.62
298.292	98.62
298.523	97.62
298.753	88.62
298.984	89.62
299.214	101.62
299.445	97.62
299.675	100.62
299.905	88.62
300.136	101.62
300.366	89.62
300.597	97.62
300.827	104.62
301.057	91.62
301.288	116.62
301.518	87.62
301.748	83.62
301.979	104.62
302.209	84.62
302.439	86.62
302.669	93.62
302.9	96.62
303.13	103.62
303.36	88.62
303.59	92.62
303.82	109.62
304.051	92.62
304.281	85.62
304.511	96.62
304.741	78.62
304.971	94.62
305.201	90.62
305.431	96.62
305.661	92.62
305.891	105.62
306.121	98.62
306.352	102.62
306.582	98.62
306.812	94.62
307.042	94.62
307.272	86.62
307.502	88.62
307.731	99.62
307.961	89.62
308.191	72.62
308.421	96.62
308.651	92.62
308.881	71.62
309.111	87.62
309.341	95.62
309.571	101.62
309.8	92.62
310.03	105.62
310.26	98.62
310.49	98.62
310.72	89.62
310.949	102.62
311.179	114.62
311.409	90.62
311.639	87.62
311.868	97.62
312.098	94.62
312.328	92.62
312.557	104.62
312.787	103.62
313.017	98.62
313.246	103.62
313.476	101.62
313.706	102.62
313.935	99.62
314.165	81.62
314.394	102.62
314.624	95.62
314.853	107.62
315.083	99.62
315.312	92.62
315.542	94.62
315.771	88.62
316.001	80.62
316.23	81.62
316.46	91.62
316.689	82.62
316.919	100.62
317.148	96.62
317.377	94.62
317.607	96.62
317.836	99.62
318.065	81.62
318.295	97.62
318.524	99.62
318.753	89.62
318.983	84.62
319.212	108.62
319.441	99.62
319.67	100.62
319.9	101.62
320.129	100.62
320.358	98.62
320.587	104.62
320.816	86.62
321.046	100.62
321.275	113.62
321.504	114.62
321.733	100.62
321.962	90.62
322.191	105.62
322.42	102.62
322.649	109.62
322.878	117.62
323.108	108.62
323.337	135.62
323.566	149.62
323.795	151.62
324.024	204.62
324.253	403.62
324.482	836.62
324.71	1768.62
324.939	2278.62
325.168	851.62
325.397	245.62
325.626	165.62
325.855	114.62
326.084	124.62
326.313	153.62
326.542	153.62
326.77	229.62
326.999	473.62
327.228	986.62
327.457	1804.62
327.686	1428.62
327.914	370.62
328.143	201.62
328.372	160.62
328.6	140.62
328.829	110.62
329.058	124.62
329.287	137.62
329.515	103.62
329.744	120.62
329.972	102.62
330.201	129.62
330.43	155.62
330.658	136.62
330.887	143.62
331.115	143.62
331.344	113.62
331.572	92.62
331.801	104.62
332.03	96.62
332.258	96.62
332.486	94.62
332.715	101.62
332.943	98.62
333.172	82.62
333.4	77.62
333.629	111.62
333.857	119.62
334.085	123.62
334.314	146.62
334.542	158.62
334.771	155.62
334.999	117.62
335.227	99.62
335.455	107.62
335.684	86.62
335.912	99.62
336.14	102.62
336.369	100.62
336.597	113.62
336.825	96.62
337.053	85.62
337.281	87.62
337.51	93.62
337.738	89.62
337.966	90.62
338.194	101.62
338.422	109.62
338.65	97.62
338.878	97.62
339.106	88.62
339.334	104.62
339.562	79.62
339.79	81.62
340.018	80.62
340.246	95.62
340.474	90.62
340.702	87.62
340.93	91.62
341.158	94.62
341.386	87.62
341.614	84.62
341.842	87.62
342.07	89.62
342.298	81.62
342.526	95.62
342.754	84.62
342.981	95.62
343.209	79.62
343.437	105.62
343.665	100.62
343.893	72.62
344.12	92.62
344.348	91.62
344.576	82.62
344.804	100.62
345.031	104.62
345.259	98.62
345.487	84.62
345.714	80.62
345.942	86.62
346.17	79.62
346.397	93.62
346.625	106.62
346.853	89.62
347.08	88.62
347.308	97.62
347.535	105.62
347.763	92.62
347.99	97.62
348.218	96.62
348.445	105.62
348.673	100.62
348.9	99.62
349.128	96.62
349.355	83.62
349.583	88.62
349.81	104.62
350.037	98.62
350.265	97.62
350.492	93.62
350.72	91.62
350.947	104.62
351.174	111.62
351.402	116.62
351.629	110.62
351.856	110.62
352.083	105.62
352.311	98.62
352.538	106.62
352.765	130.62
352.992	117.62
353.22	116.62
353.447	110.62
353.674	106.62
353.901	96.62
354.128	88.62
354.355	97.62
354.583	89.62
354.81	107.62
355.037	113.62
355.264	94.62
355.491	89.62
355.718	87.62
355.945	83.62
356.172	96.62
356.399	101.62
356.626	87.62
356.853	97.62
357.08	94.62
357.307	98.62
357.534	85.62
357.761	104.62
357.988	91.62
358.215	95.62
358.441	102.62
358.668	109.62
358.895	101.62
359.122	103.62
359.349	99.62
359.576	90.62
359.802	96.62
360.029	104.62
360.256	105.62
360.483	101.62
360.709	89.62
360.936	98.62
361.163	93.62
361.39	94.62
361.616	101.62
361.843	93.62
362.07	98.62
362.296	102.62
362.523	86.62
362.749	84.62
362.976	87.62
363.203	102.62
363.429	93.62
363.656	94.62
363.882	93.62
364.109	95.62
364.335	82.62
364.562	90.62
364.788	94.62
365.015	95.62
365.241	99.62
365.468	88.62
365.694	106.62
365.92	113.62
366.147	93.62
366.373	82.62
366.599	87.62
366.826	88.62
367.052	102.62
367.278	97.62
367.505	94.62
367.731	103.62
367.957	107.62
368.184	95.62
368.41	95.62
368.636	117.62
368.862	106.62
369.089	85.62
369.315	96.62
369.541	94.62
369.767	92.62
369.993	92.62
370.219	100.62
370.445	102.62
370.672	90.62
370.898	84.62
371.124	81.62
371.35	99.62
371.576	90.62
371.802	89.62
372.028	86.62
372.254	89.62
372.48	71.62
372.706	77.62
372.932	77.62
373.158	97.62
373.384	87.62
373.61	95.62
373.835	90.62
374.061	90.62
374.287	90.62
374.513	82.62
374.739	88.62
374.965	87.62
375.191	84.62
375.416	97.62
375.642	91.62
375.868	88.62
376.094	93.62
376.319	90.62
376.545	84.62
376.771	88.62
376.997	101.62
377.222	83.62
377.448	92.62
377.674	101.62
377.899	95.62
378.125	83.62
378.35	111.62
378.576	93.62
378.802	86.62
379.027	87.62
379.253	86.62
379.478	90.62
379.704	102.62
379.929	102.62
380.155	108.62
380.38	99.62
380.606	90.62
380.831	87.62
381.057	106.62
381.282	112.62
381.507	87.62
381.733	104.62
381.958	109.62
382.184	99.62
382.409	100.62
382.634	110.62
382.86	91.62
383.085	93.62
383.31	108.62
383.535	100.62
383.761	113.62
383.986	98.62
384.211	98.62
384.436	102.62
384.662	108.62
384.887	101.62
385.112	103.62
385.337	109.62
385.562	98.62
385.787	109.62
386.013	101.62
386.238	117.62
386.463	105.62
386.688	109.62
386.913	89.62
387.138	97.62
387.363	115.62
387.588	96.62
387.813	115.62
388.038	115.62
388.263	121.62
388.488	108.62
388.713	81.62
388.938	105.62
389.163	99.62
389.387	89.62
389.612	98.62
389.837	89.62
390.062	94.62
390.287	96.62
390.512	88.62
390.736	73.62
390.961	103.62
391.186	89.62
391.411	106.62
391.636	90.62
391.86	86.62
392.085	97.62
392.31	84.62
392.534	80.62
392.759	81.62
392.984	88.62
393.208	94.62
393.433	96.62
393.658	91.62
393.882	87.62
394.107	90.62
394.331	106.62
394.556	106.62
394.78	88.62
395.005	85.62
395.229	82.62
395.454	92.62
395.678	85.62
395.903	96.62
396.127	83.62
396.352	77.62
396.576	97.62
396.801	86.62
397.025	88.62
397.249	77.62
397.474	80.62
397.698	85.62
397.922	87.62
398.147	87.62
398.371	89.62
398.595	92.62
398.82	81.62
399.044	85.62
399.268	88.62
399.492	91.62
399.717	80.62
399.941	85.62
400.165	87.62
400.389	90.62
400.613	92.62
400.837	81.62
401.062	94.62
401.286	97.62
401.51	89.62
401.734	101.62
401.958	97.62
402.182	113.62
402.406	180.62
402.63	104.62
402.854	94.62
403.078	101.62
403.302	81.62
403.526	88.62
403.75	98.62
403.974	97.62
404.198	90.62
404.422	92.62
404.645	97.62
404.869	80.62
405.093	95.62
405.317	102.62
405.541	92.62
405.765	104.62
405.988	124.62
406.212	183.62
406.436	211.62
406.66	144.62
406.883	112.62
407.107	92.62
407.331	102.62
407.555	88.62
407.778	91.62
408.002	92.62
408.226	80.62
408.449	79.62
408.673	89.62
408.896	87.62
409.12	96.62
409.344	88.62
409.567	81.62
409.791	91.62
410.014	80.62
410.238	78.62
410.461	103.62
410.685	87.62
410.908	101.62
411.132	106.62
411.355	103.62
411.578	81.62
411.802	93.62
412.025	96.62
412.249	90.62
412.472	79.62
412.695	94.62
412.919	89.62
413.142	88.62
413.365	92.62
413.589	98.62
413.812	91.62
414.035	93.62
414.258	85.62
414.482	96.62
414.705	98.62
414.928	85.62
415.151	82.62
415.374	101.62
415.597	81.62
415.821	88.62
416.044	81.62
416.267	87.62
416.49	98.62
416.713	98.62
416.936	90.62
417.159	86.62
417.382	89.62
417.605	83.62
417.828	101.62
418.051	87.62
418.274	94.62
418.497	78.62
418.72	89.62
418.943	101.62
419.166	95.62
419.389	79.62
419.611	91.62
419.834	90.62
420.057	87.62
420.28	78.62
420.503	85.62
420.726	95.62
420.948	86.62
421.171	99.62
421.394	89.62
421.617	94.62
421.839	93.62
422.062	91.62
422.285	99.62
422.507	108.62
422.73	108.62
422.953	96.62
423.175	93.62
423.398	76.62
423.621	95.62
423.843	81.62
424.066	86.62
424.288	93.62
424.511	97.62
424.733	86.62
424.956	113.62
425.178	103.62
425.401	94.62
425.623	94.62
425.846	77.62
426.068	95.62
426.291	86.62
426.513	84.62
426.735	79.62
426.958	95.62
427.18	107.62
427.402	125.62
427.625	150.62
427.847	127.62
428.069	118.62
428.292	92.62
428.514	93.62
428.736	97.62
428.958	95.62
429.181	86.62
429.403	85.62
429.625	90.62
429.847	94.62
430.069	103.62
430.292	87.62
430.514	85.62
430.736	81.62
430.958	86.62
431.18	83.62
431.402	86.62
431.624	81.62
431.846	95.62
432.068	73.62
432.29	101.62
432.512	94.62
432.734	90.62
432.956	86.62
433.178	106.62
433.4	91.62
433.622	89.62
433.844	91.62
434.066	98.62
434.287	85.62
434.509	87.62
434.731	89.62
434.953	76.62
435.175	91.62
435.397	95.62
435.618	86.62
435.84	98.62
436.062	107.62
436.284	113.62
436.505	108.62
436.727	103.62
436.949	96.62
437.17	93.62
437.392	102.62
437.614	104.62
437.835	120.62
438.057	103.62
438.278	107.62
438.5	110.62
438.721	114.62
438.943	101.62
439.165	97.62
439.386	85.62
439.608	97.62
439.829	108.62
440.05	139.62
440.272	137.62
440.493	122.62
440.715	81.62
440.936	83.62
441.158	104.62
441.379	95.62
441.6	103.62
441.822	81.62
442.043	95.62
442.264	94.62
442.486	100.62
442.707	102.62
442.928	98.62
443.149	124.62
443.371	129.62
443.592	101.62
443.813	117.62
444.034	94.62
444.255	100.62
444.476	87.62
444.698	97.62
444.919	75.62
445.14	144.62
445.361	124.62
445.582	115.62
445.803	125.62
446.024	138.62
446.245	135.62
446.466	113.62
446.687	102.62
446.908	88.62
447.129	96.62
447.35	100.62
447.571	100.62
447.792	90.62
448.013	90.62
448.234	104.62
448.455	81.62
448.675	108.62
448.896	105.62
449.117	86.62
449.338	88.62
449.559	138.62
449.779	136.62
450	95.62
450.221	86.62
450.442	93.62
450.662	109.62
450.883	108.62
451.104	94.62
451.324	96.62
451.545	87.62
451.766	85.62
451.986	87.62
452.207	84.62
452.428	85.62
452.648	99.62
452.869	104.62
453.089	106.62
453.31	104.62
453.53	89.62
453.751	84.62
453.971	104.62
454.192	122.62
454.412	89.62
454.633	92.62
454.853	96.62
455.073	89.62
455.294	96.62
455.514	101.62
455.734	80.62
455.955	86.62
456.175	83.62
456.395	84.62
456.616	94.62
456.836	90.62
457.056	84.62
457.276	80.62
457.497	98.62
457.717	87.62
457.937	77.62
458.157	96.62
458.377	95.62
458.598	98.62
458.818	144.62
459.038	140.62
459.258	129.62
459.478	106.62
459.698	80.62
459.918	78.62
460.138	96.62
460.358	89.62
460.578	89.62
460.798	95.62
461.018	89.62
461.238	85.62
461.458	87.62
461.678	85.62
461.898	82.62
462.118	105.62
462.338	82.62
462.558	86.62
462.777	91.62
462.997	100.62
463.217	78.62
463.437	81.62
463.657	82.62
463.876	76.62
464.096	93.62
464.316	88.62
464.536	80.62
464.755	97.62
464.975	110.62
465.195	148.62
465.414	157.62
465.634	105.62
465.854	75.62
466.073	79.62
466.293	88.62
466.512	72.62
466.732	75.62
466.951	98.62
467.171	81.62
467.391	101.62
467.61	98.62
467.829	89.62
468.049	102.62
468.268	117.62
468.488	101.62
468.707	79.62
468.927	86.62
469.146	86.62
469.365	87.62
469.585	98.62
469.804	103.62
470.023	109.62
470.243	85.62
470.462	105.62
470.681	103.62
470.901	84.62
471.12	83.62
471.339	80.62
471.558	82.62
471.777	99.62
471.997	97.62
472.216	131.62
472.435	169.62
472.654	116.62
472.873	76.62
473.092	85.62
473.311	95.62
473.53	84.62
473.749	86.62
473.968	93.62
474.187	106.62
474.406	82.62
474.625	91.62
474.844	86.62
475.063	80.62
475.282	86.62
475.501	94.62
475.72	95.62
475.939	93.62
476.158	88.62
476.377	85.62
476.596	97.62
476.814	97.62
477.033	90.62
477.252	93.62
477.471	97.62
477.69	88.62
477.908	75.62
478.127	92.62
478.346	88.62
478.564	84.62
478.783	88.62
479.002	102.62
479.22	97.62
479.439	109.62
479.658	103.62
479.876	104.62
480.095	104.62
480.313	90.62
480.532	87.62
480.751	100.62
480.969	132.62
481.188	248.62
481.406	185.62
481.624	95.62
481.843	103.62
482.061	81.62
482.28	81.62
482.498	93.62
482.717	90.62
482.935	88.62
483.153	94.62
483.372	84.62
483.59	98.62
483.808	87.62
484.027	85.62
484.245	98.62
484.463	98.62
484.681	98.62
484.9	98.62
485.118	96.62
485.336	90.62
485.554	89.62
485.772	94.62
485.99	93.62
486.209	105.62
486.427	120.62
486.645	111.62
486.863	112.62
487.081	110.62
487.299	92.62
487.517	92.62
487.735	91.62
487.953	90.62
488.171	88.62
488.389	103.62
488.607	96.62
488.825	95.62
489.043	85.62
489.261	105.62
489.479	109.62
489.696	98.62
489.914	90.62
490.132	102.62
490.35	84.62
490.568	89.62
490.786	89.62
491.003	84.62
491.221	87.62
491.439	91.62
491.657	79.62
491.874	74.62
492.092	89.62
492.31	96.62
492.527	101.62
492.745	104.62
492.963	101.62
493.18	88.62
493.398	101.62
493.615	100.62
493.833	96.62
494.05	89.62
494.268	92.62
494.485	86.62
494.703	93.62
494.92	96.62
495.138	87.62
495.355	86.62
495.573	87.62
495.79	96.62
496.008	79.62
496.225	97.62
496.442	105.62
496.66	99.62
496.877	76.62
497.094	97.62
497.312	97.62
497.529	81.62
497.746	97.62
497.963	96.62
498.181	89.62
498.398	99.62
498.615	112.62
498.832	96.62
499.049	88.62
499.267	100.62
499.484	92.62
499.701	86.62
499.918	97.62
500.135	89.62
500.352	86.62
500.569	72.62
500.786	88.62
501.003	100.62
501.22	88.62
501.437	80.62
501.654	100.62
501.871	114.62
502.088	86.62
502.305	89.62
502.522	77.62
502.739	102.62
502.956	99.62
503.172	94.62
503.389	87.62
503.606	102.62
503.823	97.62
504.04	96.62
504.256	97.62
504.473	90.62
504.69	98.62
504.907	87.62
505.123	91.62
505.34	85.62
505.557	95.62
505.773	105.62
505.99	86.62
506.207	94.62
506.423	85.62
506.64	92.62
506.856	87.62
507.073	100.62
507.289	85.62
507.506	99.62
507.722	114.62
507.939	108.62
508.155	90.62
508.372	94.62
508.588	93.62
508.805	96.62
509.021	96.62
509.238	103.62
509.454	102.62
509.67	97.62
509.887	123.62
510.103	135.62
510.319	204.62
510.536	727.62
510.752	2360.62
510.968	658.62
511.184	140.62
511.401	102.62
511.617	92.62
511.833	98.62
512.049	102.62
512.265	84.62
512.481	83.62
512.698	104.62
512.914	88.62
513.13	91.62
513.346	87.62
513.562	96.62
513.778	101.62
513.994	90.62
514.21	90.62
514.426	103.62
514.642	143.62
514.858	121.62
515.074	166.62
