Data from Circ_2005_H10_HRD10591_00057.txt Node
Date: Wed Jan 03 10:30:02 EST 2024
User: Yrep
Spectrometer: HR+D1059
Trigger mode: 1
Integration Time (sec): 1.000000E-1
Scans to average: 1
Electric dark correction enabled: true
Nonlinearity correction enabled: false
Boxcar width: 0
XAxis mode: Wavelengths
Number of Pixels in Spectrum: 2048
>>>>>Begin Spectral Data<<<<<
223.165	-9.94
223.4	-9.94
223.635	-9.94
223.869	-23.94
224.104	-19.94
224.338	-17.94
224.573	-12.94
224.808	-16.94
225.042	-11.94
225.277	-1.94
225.511	0.06
225.746	6.06
225.98	5.06
226.215	20.06
226.449	18.06
226.683	6.06
226.918	34.06
227.152	26.06
227.387	34.06
227.621	40.06
227.856	42.06
228.09	38.06
228.324	50.06
228.559	64.06
228.793	60.06
229.027	73.06
229.262	70.06
229.496	75.06
229.73	74.06
229.964	85.06
230.199	82.06
230.433	64.06
230.667	70.06
230.901	90.06
231.136	79.06
231.37	83.06
231.604	89.06
231.838	87.06
232.072	87.06
232.306	83.06
232.541	88.06
232.775	98.06
233.009	80.06
233.243	86.06
233.477	103.06
233.711	78.06
233.945	81.06
234.179	84.06
234.413	77.06
234.647	71.06
234.881	96.06
235.115	91.06
235.349	87.06
235.583	85.06
235.817	79.06
236.051	74.06
236.285	70.06
236.519	79.06
236.753	85.06
236.987	89.06
237.221	81.06
237.455	96.06
237.689	87.06
237.922	86.06
238.156	80.06
238.39	69.06
238.624	71.06
238.858	75.06
239.091	62.06
239.325	73.06
239.559	66.06
239.793	78.06
240.027	82.06
240.26	84.06
240.494	72.06
240.728	70.06
240.961	80.06
241.195	83.06
241.429	80.06
241.662	79.06
241.896	77.06
242.13	87.06
242.363	78.06
242.597	69.06
242.83	85.06
243.064	75.06
243.298	65.06
243.531	66.06
243.765	89.06
243.998	78.06
244.232	82.06
244.465	84.06
244.699	78.06
244.932	78.06
245.166	90.06
245.399	88.06
245.633	79.06
245.866	88.06
246.099	86.06
246.333	83.06
246.566	73.06
246.8	80.06
247.033	80.06
247.266	84.06
247.5	86.06
247.733	82.06
247.966	83.06
248.2	85.06
248.433	65.06
248.666	82.06
248.899	90.06
249.133	102.06
249.366	100.06
249.599	102.06
249.832	84.06
250.066	101.06
250.299	98.06
250.532	72.06
250.765	93.06
250.998	86.06
251.231	83.06
251.465	97.06
251.698	68.06
251.931	91.06
252.164	87.06
252.397	80.06
252.63	89.06
252.863	91.06
253.096	82.06
253.329	78.06
253.562	98.06
253.795	89.06
254.028	83.06
254.261	74.06
254.494	75.06
254.727	86.06
254.96	87.06
255.193	83.06
255.426	84.06
255.659	68.06
255.892	87.06
256.124	80.06
256.357	78.06
256.59	98.06
256.823	87.06
257.056	84.06
257.289	89.06
257.521	80.06
257.754	80.06
257.987	89.06
258.22	86.06
258.452	88.06
258.685	87.06
258.918	89.06
259.151	90.06
259.383	85.06
259.616	90.06
259.849	73.06
260.081	88.06
260.314	92.06
260.547	72.06
260.779	72.06
261.012	78.06
261.244	80.06
261.477	82.06
261.71	93.06
261.942	101.06
262.175	104.06
262.407	109.06
262.64	72.06
262.872	79.06
263.105	87.06
263.337	95.06
263.57	89.06
263.802	99.06
264.035	83.06
264.267	91.06
264.499	75.06
264.732	92.06
264.964	89.06
265.197	92.06
265.429	96.06
265.661	89.06
265.894	91.06
266.126	90.06
266.358	84.06
266.591	80.06
266.823	91.06
267.055	90.06
267.287	81.06
267.52	74.06
267.752	96.06
267.984	90.06
268.216	92.06
268.448	81.06
268.681	90.06
268.913	101.06
269.145	93.06
269.377	86.06
269.609	80.06
269.841	89.06
270.073	87.06
270.306	85.06
270.538	80.06
270.77	71.06
271.002	83.06
271.234	83.06
271.466	93.06
271.698	86.06
271.93	90.06
272.162	68.06
272.394	75.06
272.626	63.06
272.858	79.06
273.09	87.06
273.322	85.06
273.553	86.06
273.785	83.06
274.017	86.06
274.249	89.06
274.481	92.06
274.713	90.06
274.945	87.06
275.176	82.06
275.408	97.06
275.64	83.06
275.872	89.06
276.104	80.06
276.335	85.06
276.567	104.06
276.799	114.06
277.031	102.06
277.262	101.06
277.494	84.06
277.726	89.06
277.957	89.06
278.189	78.06
278.421	98.06
278.652	84.06
278.884	92.06
279.115	78.06
279.347	88.06
279.579	75.06
279.81	88.06
280.042	107.06
280.273	88.06
280.505	102.06
280.736	82.06
280.968	87.06
281.199	78.06
281.431	94.06
281.662	103.06
281.894	90.06
282.125	86.06
282.356	103.06
282.588	139.06
282.819	113.06
283.051	99.06
283.282	80.06
283.513	97.06
283.745	94.06
283.976	99.06
284.207	99.06
284.439	88.06
284.67	98.06
284.901	96.06
285.132	92.06
285.364	91.06
285.595	90.06
285.826	85.06
286.057	87.06
286.288	90.06
286.52	81.06
286.751	92.06
286.982	89.06
287.213	84.06
287.444	88.06
287.675	79.06
287.906	103.06
288.138	87.06
288.369	94.06
288.6	93.06
288.831	93.06
289.062	95.06
289.293	92.06
289.524	92.06
289.755	103.06
289.986	96.06
290.217	93.06
290.448	89.06
290.679	90.06
290.91	96.06
291.141	86.06
291.371	106.06
291.602	99.06
291.833	90.06
292.064	92.06
292.295	79.06
292.526	80.06
292.757	102.06
292.987	97.06
293.218	89.06
293.449	90.06
293.68	92.06
293.91	90.06
294.141	96.06
294.372	96.06
294.603	86.06
294.833	100.06
295.064	98.06
295.295	87.06
295.525	103.06
295.756	108.06
295.987	127.06
296.217	130.06
296.448	121.06
296.679	101.06
296.909	91.06
297.14	99.06
297.37	89.06
297.601	88.06
297.831	91.06
298.062	99.06
298.292	88.06
298.523	94.06
298.753	86.06
298.984	79.06
299.214	100.06
299.445	91.06
299.675	87.06
299.905	113.06
300.136	99.06
300.366	98.06
300.597	90.06
300.827	85.06
301.057	96.06
301.288	101.06
301.518	105.06
301.748	98.06
301.979	101.06
302.209	88.06
302.439	93.06
302.669	90.06
302.9	87.06
303.13	91.06
303.36	94.06
303.59	104.06
303.82	117.06
304.051	97.06
304.281	98.06
304.511	90.06
304.741	96.06
304.971	85.06
305.201	87.06
305.431	85.06
305.661	88.06
305.891	75.06
306.121	97.06
306.352	102.06
306.582	87.06
306.812	90.06
307.042	94.06
307.272	94.06
307.502	95.06
307.731	95.06
307.961	106.06
308.191	103.06
308.421	102.06
308.651	97.06
308.881	107.06
309.111	103.06
309.341	118.06
309.571	102.06
309.8	102.06
310.03	96.06
310.26	92.06
310.49	93.06
310.72	91.06
310.949	103.06
311.179	104.06
311.409	96.06
311.639	97.06
311.868	88.06
312.098	70.06
312.328	98.06
312.557	100.06
312.787	98.06
313.017	106.06
313.246	102.06
313.476	90.06
313.706	104.06
313.935	104.06
314.165	119.06
314.394	105.06
314.624	90.06
314.853	85.06
315.083	98.06
315.312	91.06
315.542	99.06
315.771	111.06
316.001	98.06
316.23	98.06
316.46	91.06
316.689	89.06
316.919	92.06
317.148	103.06
317.377	86.06
317.607	85.06
317.836	87.06
318.065	89.06
318.295	96.06
318.524	85.06
318.753	94.06
318.983	111.06
319.212	105.06
319.441	126.06
319.67	108.06
319.9	90.06
320.129	95.06
320.358	89.06
320.587	91.06
320.816	105.06
321.046	96.06
321.275	97.06
321.504	95.06
321.733	93.06
321.962	97.06
322.191	111.06
322.42	110.06
322.649	97.06
322.878	110.06
323.108	113.06
323.337	122.06
323.566	138.06
323.795	136.06
324.024	198.06
324.253	350.06
324.482	718.06
324.71	1476.06
324.939	1975.06
325.168	750.06
325.397	219.06
325.626	154.06
325.855	149.06
326.084	130.06
326.313	135.06
326.542	158.06
326.77	214.06
326.999	416.06
327.228	850.06
327.457	1520.06
327.686	1209.06
327.914	346.06
328.143	194.06
328.372	158.06
328.6	124.06
328.829	110.06
329.058	121.06
329.287	119.06
329.515	115.06
329.744	103.06
329.972	127.06
330.201	132.06
330.43	151.06
330.658	132.06
330.887	123.06
331.115	125.06
331.344	113.06
331.572	108.06
331.801	112.06
332.03	97.06
332.258	96.06
332.486	89.06
332.715	103.06
332.943	98.06
333.172	110.06
333.4	110.06
333.629	120.06
333.857	119.06
334.085	116.06
334.314	137.06
334.542	204.06
334.771	183.06
334.999	115.06
335.227	103.06
335.455	106.06
335.684	113.06
335.912	95.06
336.14	91.06
336.369	98.06
336.597	97.06
336.825	91.06
337.053	93.06
337.281	100.06
337.51	93.06
337.738	91.06
337.966	103.06
338.194	107.06
338.422	99.06
338.65	98.06
338.878	89.06
339.106	90.06
339.334	86.06
339.562	93.06
339.79	107.06
340.018	92.06
340.246	82.06
340.474	99.06
340.702	99.06
340.93	103.06
341.158	98.06
341.386	102.06
341.614	82.06
341.842	96.06
342.07	83.06
342.298	95.06
342.526	92.06
342.754	89.06
342.981	110.06
343.209	86.06
343.437	109.06
343.665	101.06
343.893	91.06
344.12	92.06
344.348	102.06
344.576	101.06
344.804	98.06
345.031	100.06
345.259	93.06
345.487	105.06
345.714	100.06
345.942	101.06
346.17	82.06
346.397	90.06
346.625	119.06
346.853	98.06
347.08	91.06
347.308	99.06
347.535	98.06
347.763	98.06
347.99	99.06
348.218	112.06
348.445	103.06
348.673	116.06
348.9	94.06
349.128	112.06
349.355	107.06
349.583	98.06
349.81	99.06
350.037	103.06
350.265	90.06
350.492	93.06
350.72	118.06
350.947	107.06
351.174	120.06
351.402	117.06
351.629	108.06
351.856	89.06
352.083	98.06
352.311	103.06
352.538	104.06
352.765	108.06
352.992	108.06
353.22	121.06
353.447	93.06
353.674	97.06
353.901	95.06
354.128	105.06
354.355	99.06
354.583	103.06
354.81	116.06
355.037	110.06
355.264	116.06
355.491	90.06
355.718	93.06
355.945	95.06
356.172	92.06
356.399	93.06
356.626	90.06
356.853	100.06
357.08	95.06
357.307	103.06
357.534	110.06
357.761	106.06
357.988	107.06
358.215	107.06
358.441	98.06
358.668	101.06
358.895	92.06
359.122	109.06
359.349	104.06
359.576	96.06
359.802	105.06
360.029	108.06
360.256	111.06
360.483	102.06
360.709	102.06
360.936	102.06
361.163	83.06
361.39	106.06
361.616	82.06
361.843	92.06
362.07	101.06
362.296	106.06
362.523	93.06
362.749	88.06
362.976	85.06
363.203	99.06
363.429	92.06
363.656	85.06
363.882	86.06
364.109	103.06
364.335	95.06
364.562	90.06
364.788	90.06
365.015	104.06
365.241	105.06
365.468	103.06
365.694	97.06
365.92	104.06
366.147	90.06
366.373	90.06
366.599	103.06
366.826	95.06
367.052	86.06
367.278	91.06
367.505	92.06
367.731	89.06
367.957	88.06
368.184	91.06
368.41	92.06
368.636	117.06
368.862	106.06
369.089	117.06
369.315	77.06
369.541	102.06
369.767	97.06
369.993	99.06
370.219	98.06
370.445	92.06
370.672	94.06
370.898	90.06
371.124	90.06
371.35	84.06
371.576	101.06
371.802	95.06
372.028	89.06
372.254	88.06
372.48	90.06
372.706	80.06
372.932	88.06
373.158	89.06
373.384	101.06
373.61	82.06
373.835	86.06
374.061	103.06
374.287	104.06
374.513	96.06
374.739	95.06
374.965	97.06
375.191	84.06
375.416	75.06
375.642	83.06
375.868	81.06
376.094	99.06
376.319	96.06
376.545	86.06
376.771	81.06
376.997	92.06
377.222	84.06
377.448	92.06
377.674	84.06
377.899	97.06
378.125	86.06
378.35	76.06
378.576	84.06
378.802	111.06
379.027	92.06
379.253	91.06
379.478	112.06
379.704	98.06
379.929	98.06
380.155	105.06
380.38	96.06
380.606	93.06
380.831	105.06
381.057	100.06
381.282	90.06
381.507	86.06
381.733	93.06
381.958	86.06
382.184	107.06
382.409	95.06
382.634	112.06
382.86	103.06
383.085	103.06
383.31	87.06
383.535	112.06
383.761	103.06
383.986	94.06
384.211	109.06
384.436	105.06
384.662	102.06
384.887	104.06
385.112	112.06
385.337	110.06
385.562	99.06
385.787	106.06
386.013	99.06
386.238	100.06
386.463	108.06
386.688	118.06
386.913	104.06
387.138	121.06
387.363	99.06
387.588	92.06
387.813	96.06
388.038	114.06
388.263	118.06
388.488	108.06
388.713	97.06
388.938	94.06
389.163	93.06
389.387	97.06
389.612	101.06
389.837	97.06
390.062	104.06
390.287	97.06
390.512	98.06
390.736	97.06
390.961	100.06
391.186	86.06
391.411	102.06
391.636	94.06
391.86	87.06
392.085	94.06
392.31	106.06
392.534	87.06
392.759	92.06
392.984	76.06
393.208	79.06
393.433	100.06
393.658	99.06
393.882	107.06
394.107	98.06
394.331	83.06
394.556	104.06
394.78	98.06
395.005	110.06
395.229	72.06
395.454	91.06
395.678	97.06
395.903	94.06
396.127	98.06
396.352	84.06
396.576	77.06
396.801	92.06
397.025	73.06
397.249	80.06
397.474	93.06
397.698	96.06
397.922	94.06
398.147	77.06
398.371	99.06
398.595	86.06
398.82	74.06
399.044	89.06
399.268	102.06
399.492	94.06
399.717	91.06
399.941	103.06
400.165	112.06
400.389	101.06
400.613	91.06
400.837	81.06
401.062	88.06
401.286	73.06
401.51	89.06
401.734	96.06
401.958	93.06
402.182	118.06
402.406	141.06
402.63	113.06
402.854	93.06
403.078	86.06
403.302	95.06
403.526	81.06
403.75	98.06
403.974	89.06
404.198	102.06
404.422	99.06
404.645	100.06
404.869	98.06
405.093	91.06
405.317	96.06
405.541	112.06
405.765	116.06
405.988	105.06
406.212	157.06
406.436	202.06
406.66	134.06
406.883	111.06
407.107	97.06
407.331	100.06
407.555	109.06
407.778	100.06
408.002	82.06
408.226	94.06
408.449	99.06
408.673	92.06
408.896	86.06
409.12	86.06
409.344	81.06
409.567	83.06
409.791	81.06
410.014	88.06
410.238	98.06
410.461	107.06
410.685	96.06
410.908	107.06
411.132	97.06
411.355	103.06
411.578	96.06
411.802	82.06
412.025	85.06
412.249	86.06
412.472	99.06
412.695	102.06
412.919	93.06
413.142	83.06
413.365	98.06
413.589	86.06
413.812	104.06
414.035	84.06
414.258	93.06
414.482	96.06
414.705	100.06
414.928	100.06
415.151	100.06
415.374	103.06
415.597	89.06
415.821	96.06
416.044	102.06
416.267	74.06
416.49	98.06
416.713	103.06
416.936	102.06
417.159	97.06
417.382	101.06
417.605	91.06
417.828	99.06
418.051	89.06
418.274	97.06
418.497	96.06
418.72	90.06
418.943	90.06
419.166	89.06
419.389	90.06
419.611	90.06
419.834	98.06
420.057	98.06
420.28	73.06
420.503	71.06
420.726	87.06
420.948	89.06
421.171	92.06
421.394	87.06
421.617	83.06
421.839	95.06
422.062	84.06
422.285	99.06
422.507	93.06
422.73	110.06
422.953	81.06
423.175	80.06
423.398	87.06
423.621	80.06
423.843	79.06
424.066	84.06
424.288	86.06
424.511	110.06
424.733	100.06
424.956	105.06
425.178	98.06
425.401	115.06
425.623	94.06
425.846	91.06
426.068	104.06
426.291	95.06
426.513	74.06
426.735	79.06
426.958	78.06
427.18	100.06
427.402	126.06
427.625	148.06
427.847	129.06
428.069	116.06
428.292	94.06
428.514	83.06
428.736	102.06
428.958	98.06
429.181	92.06
429.403	91.06
429.625	92.06
429.847	82.06
430.069	96.06
430.292	79.06
430.514	83.06
430.736	92.06
430.958	87.06
431.18	90.06
431.402	83.06
431.624	80.06
431.846	88.06
432.068	88.06
432.29	87.06
432.512	86.06
432.734	92.06
432.956	87.06
433.178	93.06
433.4	92.06
433.622	114.06
433.844	80.06
434.066	108.06
434.287	91.06
434.509	105.06
434.731	91.06
434.953	95.06
435.175	87.06
435.397	93.06
435.618	98.06
435.84	98.06
436.062	122.06
436.284	115.06
436.505	94.06
436.727	95.06
436.949	104.06
437.17	86.06
437.392	89.06
437.614	98.06
437.835	90.06
438.057	107.06
438.278	131.06
438.5	101.06
438.721	123.06
438.943	114.06
439.165	84.06
439.386	106.06
439.608	77.06
439.829	106.06
440.05	104.06
440.272	134.06
440.493	96.06
440.715	86.06
440.936	98.06
441.158	88.06
441.379	89.06
441.6	87.06
441.822	87.06
442.043	100.06
442.264	107.06
442.486	91.06
442.707	90.06
442.928	94.06
443.149	134.06
443.371	134.06
443.592	111.06
443.813	113.06
444.034	106.06
444.255	94.06
444.476	96.06
444.698	90.06
444.919	89.06
445.14	138.06
445.361	118.06
445.582	98.06
445.803	120.06
446.024	145.06
446.245	130.06
446.466	127.06
446.687	101.06
446.908	86.06
447.129	80.06
447.35	78.06
447.571	77.06
447.792	90.06
448.013	102.06
448.234	102.06
448.455	99.06
448.675	112.06
448.896	104.06
449.117	116.06
449.338	100.06
449.559	120.06
449.779	119.06
450	94.06
450.221	86.06
450.442	81.06
450.662	91.06
450.883	91.06
451.104	112.06
451.324	89.06
451.545	96.06
451.766	92.06
451.986	88.06
452.207	90.06
452.428	104.06
452.648	95.06
452.869	115.06
453.089	111.06
453.31	118.06
453.53	83.06
453.751	107.06
453.971	104.06
454.192	116.06
454.412	83.06
454.633	94.06
454.853	86.06
455.073	88.06
455.294	95.06
455.514	94.06
455.734	79.06
455.955	95.06
456.175	86.06
456.395	80.06
456.616	85.06
456.836	87.06
457.056	89.06
457.276	90.06
457.497	85.06
457.717	91.06
457.937	90.06
458.157	80.06
458.377	81.06
458.598	95.06
458.818	133.06
459.038	129.06
459.258	107.06
459.478	100.06
459.698	96.06
459.918	98.06
460.138	98.06
460.358	84.06
460.578	96.06
460.798	86.06
461.018	82.06
461.238	91.06
461.458	89.06
461.678	72.06
461.898	83.06
462.118	94.06
462.338	86.06
462.558	99.06
462.777	85.06
462.997	101.06
463.217	91.06
463.437	90.06
463.657	81.06
463.876	90.06
464.096	91.06
464.316	100.06
464.536	100.06
464.755	88.06
464.975	94.06
465.195	154.06
465.414	142.06
465.634	99.06
465.854	99.06
466.073	81.06
466.293	87.06
466.512	89.06
466.732	105.06
466.951	93.06
467.171	95.06
467.391	95.06
467.61	103.06
467.829	110.06
468.049	115.06
468.268	122.06
468.488	89.06
468.707	91.06
468.927	84.06
469.146	87.06
469.365	97.06
469.585	94.06
469.804	88.06
470.023	92.06
470.243	97.06
470.462	96.06
470.681	115.06
470.901	87.06
471.12	92.06
471.339	96.06
471.558	91.06
471.777	83.06
471.997	98.06
472.216	152.06
472.435	215.06
472.654	121.06
472.873	96.06
473.092	107.06
473.311	103.06
473.53	89.06
473.749	97.06
473.968	106.06
474.187	102.06
474.406	89.06
474.625	106.06
474.844	80.06
475.063	89.06
475.282	90.06
475.501	89.06
475.72	91.06
475.939	86.06
476.158	85.06
476.377	89.06
476.596	99.06
476.814	97.06
477.033	101.06
477.252	88.06
477.471	84.06
477.69	92.06
477.908	96.06
478.127	99.06
478.346	90.06
478.564	105.06
478.783	99.06
479.002	90.06
479.22	92.06
479.439	97.06
479.658	99.06
479.876	97.06
480.095	83.06
480.313	99.06
480.532	107.06
480.751	110.06
480.969	147.06
481.188	327.06
481.406	234.06
481.624	100.06
481.843	90.06
482.061	98.06
482.28	95.06
482.498	92.06
482.717	90.06
482.935	105.06
483.153	92.06
483.372	94.06
483.59	101.06
483.808	92.06
484.027	104.06
484.245	106.06
484.463	101.06
484.681	107.06
484.9	98.06
485.118	81.06
485.336	87.06
485.554	83.06
485.772	95.06
485.99	105.06
486.209	101.06
486.427	114.06
486.645	113.06
486.863	116.06
487.081	98.06
487.299	108.06
487.517	91.06
487.735	90.06
487.953	78.06
488.171	85.06
488.389	92.06
488.607	93.06
488.825	91.06
489.043	85.06
489.261	90.06
489.479	91.06
489.696	95.06
489.914	96.06
490.132	101.06
490.35	99.06
490.568	82.06
490.786	87.06
491.003	83.06
491.221	98.06
491.439	86.06
491.657	91.06
491.874	89.06
492.092	100.06
492.31	84.06
492.527	91.06
492.745	95.06
492.963	94.06
493.18	92.06
493.398	100.06
493.615	92.06
493.833	99.06
494.05	91.06
494.268	99.06
494.485	83.06
494.703	101.06
494.92	94.06
495.138	83.06
495.355	100.06
495.573	100.06
495.79	86.06
496.008	96.06
496.225	80.06
496.442	96.06
496.66	98.06
496.877	84.06
497.094	102.06
497.312	98.06
497.529	110.06
497.746	104.06
497.963	98.06
498.181	92.06
498.398	102.06
498.615	113.06
498.832	111.06
499.049	86.06
499.267	101.06
499.484	94.06
499.701	97.06
499.918	89.06
500.135	81.06
500.352	87.06
500.569	91.06
500.786	97.06
501.003	86.06
501.22	98.06
501.437	104.06
501.654	85.06
501.871	100.06
502.088	92.06
502.305	83.06
502.522	86.06
502.739	95.06
502.956	98.06
503.172	97.06
503.389	100.06
503.606	93.06
503.823	89.06
504.04	103.06
504.256	91.06
504.473	90.06
504.69	93.06
504.907	94.06
505.123	74.06
505.34	78.06
505.557	96.06
505.773	78.06
505.99	99.06
506.207	96.06
506.423	86.06
506.64	96.06
506.856	95.06
507.073	95.06
507.289	100.06
507.506	80.06
507.722	112.06
507.939	104.06
508.155	84.06
508.372	107.06
508.588	93.06
508.805	91.06
509.021	91.06
509.238	97.06
509.454	102.06
509.67	92.06
509.887	101.06
510.103	138.06
510.319	197.06
510.536	636.06
510.752	2020.06
510.968	589.06
511.184	156.06
511.401	104.06
511.617	96.06
511.833	88.06
512.049	94.06
512.265	109.06
512.481	103.06
512.698	97.06
512.914	94.06
513.13	73.06
513.346	98.06
513.562	88.06
513.778	82.06
513.994	87.06
514.21	100.06
514.426	116.06
514.642	127.06
