Data from Circ_2005_H10_HRD10591_00018.txt Node
Date: Wed Jan 03 10:29:54 EST 2024
User: Yrep
Spectrometer: HR+D1059
Trigger mode: 1
Integration Time (sec): 1.000000E-1
Scans to average: 1
Electric dark correction enabled: true
Nonlinearity correction enabled: false
Boxcar width: 0
XAxis mode: Wavelengths
Number of Pixels in Spectrum: 2048
>>>>>Begin Spectral Data<<<<<
223.165	-13.12
223.4	-13.12
223.635	-13.12
223.869	-16.12
224.104	-25.12
224.338	-14.12
224.573	-15.12
224.808	-19.12
225.042	-9.12
225.277	2.88
225.511	-8.12
225.746	4.88
225.98	19.88
226.215	3.88
226.449	9.88
226.683	31.88
226.918	14.88
227.152	31.88
227.387	39.88
227.621	36.88
227.856	29.88
228.09	56.88
228.324	48.88
228.559	62.88
228.793	73.88
229.027	57.88
229.262	58.88
229.496	64.88
229.73	69.88
229.964	81.88
230.199	69.88
230.433	68.88
230.667	55.88
230.901	80.88
231.136	65.88
231.37	72.88
231.604	76.88
231.838	78.88
232.072	89.88
232.306	85.88
232.541	73.88
232.775	74.88
233.009	69.88
233.243	72.88
233.477	57.88
233.711	66.88
233.945	86.88
234.179	95.88
234.413	81.88
234.647	82.88
234.881	90.88
235.115	70.88
235.349	77.88
235.583	79.88
235.817	70.88
236.051	83.88
236.285	71.88
236.519	75.88
236.753	70.88
236.987	76.88
237.221	90.88
237.455	87.88
237.689	66.88
237.922	80.88
238.156	84.88
238.39	88.88
238.624	62.88
238.858	68.88
239.091	76.88
239.325	71.88
239.559	76.88
239.793	70.88
240.027	72.88
240.26	88.88
240.494	64.88
240.728	70.88
240.961	70.88
241.195	85.88
241.429	72.88
241.662	78.88
241.896	77.88
242.13	76.88
242.363	65.88
242.597	60.88
242.83	84.88
243.064	80.88
243.298	60.88
243.531	52.88
243.765	70.88
243.998	71.88
244.232	71.88
244.465	85.88
244.699	79.88
244.932	64.88
245.166	86.88
245.399	72.88
245.633	96.88
245.866	73.88
246.099	73.88
246.333	73.88
246.566	69.88
246.8	83.88
247.033	80.88
247.266	79.88
247.5	82.88
247.733	67.88
247.966	77.88
248.2	80.88
248.433	79.88
248.666	78.88
248.899	75.88
249.133	83.88
249.366	94.88
249.599	88.88
249.832	87.88
250.066	81.88
250.299	76.88
250.532	80.88
250.765	83.88
250.998	78.88
251.231	84.88
251.465	90.88
251.698	76.88
251.931	89.88
252.164	70.88
252.397	74.88
252.63	83.88
252.863	76.88
253.096	83.88
253.329	77.88
253.562	65.88
253.795	81.88
254.028	72.88
254.261	78.88
254.494	79.88
254.727	75.88
254.96	76.88
255.193	71.88
255.426	74.88
255.659	75.88
255.892	72.88
256.124	84.88
256.357	83.88
256.59	85.88
256.823	80.88
257.056	80.88
257.289	75.88
257.521	83.88
257.754	90.88
257.987	68.88
258.22	57.88
258.452	82.88
258.685	81.88
258.918	76.88
259.151	73.88
259.383	73.88
259.616	89.88
259.849	78.88
260.081	75.88
260.314	95.88
260.547	75.88
260.779	80.88
261.012	91.88
261.244	82.88
261.477	79.88
261.71	88.88
261.942	107.88
262.175	109.88
262.407	92.88
262.64	89.88
262.872	87.88
263.105	86.88
263.337	81.88
263.57	80.88
263.802	70.88
264.035	77.88
264.267	77.88
264.499	79.88
264.732	88.88
264.964	67.88
265.197	79.88
265.429	77.88
265.661	83.88
265.894	84.88
266.126	81.88
266.358	76.88
266.591	78.88
266.823	79.88
267.055	79.88
267.287	71.88
267.52	89.88
267.752	76.88
267.984	77.88
268.216	80.88
268.448	89.88
268.681	74.88
268.913	75.88
269.145	91.88
269.377	83.88
269.609	80.88
269.841	95.88
270.073	73.88
270.306	81.88
270.538	80.88
270.77	78.88
271.002	78.88
271.234	92.88
271.466	85.88
271.698	78.88
271.93	74.88
272.162	88.88
272.394	82.88
272.626	86.88
272.858	70.88
273.09	91.88
273.322	92.88
273.553	56.88
273.785	82.88
274.017	82.88
274.249	78.88
274.481	66.88
274.713	86.88
274.945	73.88
275.176	81.88
275.408	77.88
275.64	82.88
275.872	92.88
276.104	84.88
276.335	92.88
276.567	91.88
276.799	110.88
277.031	97.88
277.262	95.88
277.494	77.88
277.726	67.88
277.957	82.88
278.189	80.88
278.421	76.88
278.652	83.88
278.884	86.88
279.115	72.88
279.347	78.88
279.579	95.88
279.81	77.88
280.042	77.88
280.273	90.88
280.505	80.88
280.736	80.88
280.968	72.88
281.199	74.88
281.431	74.88
281.662	74.88
281.894	91.88
282.125	91.88
282.356	121.88
282.588	142.88
282.819	117.88
283.051	99.88
283.282	90.88
283.513	84.88
283.745	81.88
283.976	93.88
284.207	95.88
284.439	91.88
284.67	75.88
284.901	77.88
285.132	77.88
285.364	85.88
285.595	82.88
285.826	87.88
286.057	90.88
286.288	78.88
286.52	89.88
286.751	80.88
286.982	77.88
287.213	94.88
287.444	82.88
287.675	76.88
287.906	86.88
288.138	79.88
288.369	82.88
288.6	75.88
288.831	95.88
289.062	76.88
289.293	77.88
289.524	93.88
289.755	82.88
289.986	86.88
290.217	88.88
290.448	72.88
290.679	87.88
290.91	98.88
291.141	88.88
291.371	90.88
291.602	74.88
291.833	91.88
292.064	78.88
292.295	82.88
292.526	81.88
292.757	90.88
292.987	81.88
293.218	86.88
293.449	89.88
293.68	82.88
293.91	76.88
294.141	87.88
294.372	78.88
294.603	83.88
294.833	77.88
295.064	98.88
295.295	85.88
295.525	77.88
295.756	103.88
295.987	92.88
296.217	154.88
296.448	111.88
296.679	95.88
296.909	90.88
297.14	87.88
297.37	79.88
297.601	69.88
297.831	80.88
298.062	83.88
298.292	90.88
298.523	92.88
298.753	65.88
298.984	87.88
299.214	91.88
299.445	82.88
299.675	91.88
299.905	102.88
300.136	93.88
300.366	70.88
300.597	72.88
300.827	91.88
301.057	86.88
301.288	99.88
301.518	91.88
301.748	80.88
301.979	89.88
302.209	85.88
302.439	73.88
302.669	93.88
302.9	80.88
303.13	68.88
303.36	84.88
303.59	98.88
303.82	106.88
304.051	84.88
304.281	88.88
304.511	86.88
304.741	91.88
304.971	90.88
305.201	81.88
305.431	82.88
305.661	94.88
305.891	76.88
306.121	84.88
306.352	89.88
306.582	98.88
306.812	94.88
307.042	85.88
307.272	72.88
307.502	97.88
307.731	81.88
307.961	81.88
308.191	84.88
308.421	97.88
308.651	81.88
308.881	83.88
309.111	87.88
309.341	86.88
309.571	91.88
309.8	93.88
310.03	95.88
310.26	93.88
310.49	85.88
310.72	95.88
310.949	116.88
311.179	102.88
311.409	92.88
311.639	91.88
311.868	93.88
312.098	90.88
312.328	97.88
312.557	97.88
312.787	101.88
313.017	90.88
313.246	98.88
313.476	86.88
313.706	100.88
313.935	78.88
314.165	91.88
314.394	103.88
314.624	91.88
314.853	94.88
315.083	89.88
315.312	109.88
315.542	81.88
315.771	87.88
316.001	75.88
316.23	84.88
316.46	85.88
316.689	91.88
316.919	92.88
317.148	93.88
317.377	88.88
317.607	91.88
317.836	91.88
318.065	70.88
318.295	82.88
318.524	84.88
318.753	97.88
318.983	97.88
319.212	110.88
319.441	103.88
319.67	94.88
319.9	91.88
320.129	78.88
320.358	94.88
320.587	79.88
320.816	95.88
321.046	92.88
321.275	89.88
321.504	78.88
321.733	93.88
321.962	94.88
322.191	107.88
322.42	100.88
322.649	96.88
322.878	96.88
323.108	111.88
323.337	108.88
323.566	123.88
323.795	151.88
324.024	217.88
324.253	464.88
324.482	982.88
324.71	2058.88
324.939	2746.88
325.168	975.88
325.397	272.88
325.626	142.88
325.855	125.88
326.084	122.88
326.313	131.88
326.542	170.88
326.77	247.88
326.999	546.88
327.228	1131.88
327.457	2108.88
327.686	1642.88
327.914	416.88
328.143	195.88
328.372	144.88
328.6	114.88
328.829	114.88
329.058	125.88
329.287	105.88
329.515	105.88
329.744	97.88
329.972	94.88
330.201	107.88
330.43	99.88
330.658	127.88
330.887	159.88
331.115	107.88
331.344	82.88
331.572	100.88
331.801	93.88
332.03	104.88
332.258	92.88
332.486	91.88
332.715	95.88
332.943	103.88
333.172	94.88
333.4	94.88
333.629	118.88
333.857	111.88
334.085	107.88
334.314	96.88
334.542	110.88
334.771	98.88
334.999	99.88
335.227	91.88
335.455	81.88
335.684	106.88
335.912	96.88
336.14	97.88
336.369	88.88
336.597	95.88
336.825	91.88
337.053	96.88
337.281	98.88
337.51	82.88
337.738	83.88
337.966	86.88
338.194	92.88
338.422	94.88
338.65	91.88
338.878	98.88
339.106	95.88
339.334	92.88
339.562	94.88
339.79	91.88
340.018	86.88
340.246	80.88
340.474	84.88
340.702	92.88
340.93	92.88
341.158	93.88
341.386	92.88
341.614	90.88
341.842	86.88
342.07	94.88
342.298	94.88
342.526	86.88
342.754	85.88
342.981	88.88
343.209	83.88
343.437	95.88
343.665	75.88
343.893	84.88
344.12	84.88
344.348	93.88
344.576	82.88
344.804	94.88
345.031	103.88
345.259	82.88
345.487	95.88
345.714	94.88
345.942	81.88
346.17	93.88
346.397	93.88
346.625	101.88
346.853	95.88
347.08	79.88
347.308	79.88
347.535	83.88
347.763	92.88
347.99	90.88
348.218	86.88
348.445	92.88
348.673	85.88
348.9	111.88
349.128	98.88
349.355	74.88
349.583	87.88
349.81	96.88
350.037	86.88
350.265	92.88
350.492	105.88
350.72	95.88
350.947	91.88
351.174	97.88
351.402	113.88
351.629	107.88
351.856	91.88
352.083	92.88
352.311	110.88
352.538	90.88
352.765	102.88
352.992	102.88
353.22	105.88
353.447	102.88
353.674	100.88
353.901	91.88
354.128	95.88
354.355	94.88
354.583	101.88
354.81	93.88
355.037	95.88
355.264	95.88
355.491	89.88
355.718	91.88
355.945	83.88
356.172	88.88
356.399	81.88
356.626	86.88
356.853	86.88
357.08	88.88
357.307	95.88
357.534	82.88
357.761	94.88
357.988	99.88
358.215	97.88
358.441	101.88
358.668	78.88
358.895	80.88
359.122	91.88
359.349	92.88
359.576	95.88
359.802	104.88
360.029	106.88
360.256	97.88
360.483	92.88
360.709	100.88
360.936	87.88
361.163	86.88
361.39	98.88
361.616	96.88
361.843	84.88
362.07	92.88
362.296	94.88
362.523	72.88
362.749	83.88
362.976	91.88
363.203	90.88
363.429	86.88
363.656	80.88
363.882	86.88
364.109	99.88
364.335	78.88
364.562	90.88
364.788	82.88
365.015	81.88
365.241	95.88
365.468	85.88
365.694	98.88
365.92	100.88
366.147	83.88
366.373	95.88
366.599	88.88
366.826	89.88
367.052	81.88
367.278	84.88
367.505	88.88
367.731	98.88
367.957	93.88
368.184	88.88
368.41	89.88
368.636	106.88
368.862	103.88
369.089	106.88
369.315	82.88
369.541	83.88
369.767	88.88
369.993	84.88
370.219	85.88
370.445	82.88
370.672	73.88
370.898	96.88
371.124	84.88
371.35	81.88
371.576	93.88
371.802	87.88
372.028	101.88
372.254	92.88
372.48	74.88
372.706	87.88
372.932	87.88
373.158	91.88
373.384	82.88
373.61	80.88
373.835	104.88
374.061	78.88
374.287	98.88
374.513	83.88
374.739	82.88
374.965	76.88
375.191	65.88
375.416	82.88
375.642	85.88
375.868	78.88
376.094	90.88
376.319	82.88
376.545	89.88
376.771	97.88
376.997	83.88
377.222	96.88
377.448	92.88
377.674	104.88
377.899	91.88
378.125	84.88
378.35	82.88
378.576	88.88
378.802	76.88
379.027	80.88
379.253	81.88
379.478	103.88
379.704	102.88
379.929	100.88
380.155	95.88
380.38	102.88
380.606	89.88
380.831	87.88
381.057	85.88
381.282	93.88
381.507	108.88
381.733	104.88
381.958	88.88
382.184	98.88
382.409	91.88
382.634	104.88
382.86	98.88
383.085	118.88
383.31	111.88
383.535	96.88
383.761	94.88
383.986	95.88
384.211	87.88
384.436	95.88
384.662	101.88
384.887	114.88
385.112	112.88
385.337	112.88
385.562	100.88
385.787	102.88
386.013	119.88
386.238	111.88
386.463	107.88
386.688	113.88
386.913	104.88
387.138	97.88
387.363	96.88
387.588	118.88
387.813	100.88
388.038	115.88
388.263	130.88
388.488	113.88
388.713	103.88
388.938	100.88
389.163	90.88
389.387	81.88
389.612	95.88
389.837	92.88
390.062	87.88
390.287	85.88
390.512	80.88
390.736	96.88
390.961	76.88
391.186	91.88
391.411	89.88
391.636	100.88
391.86	85.88
392.085	86.88
392.31	94.88
392.534	91.88
392.759	91.88
392.984	90.88
393.208	88.88
393.433	87.88
393.658	99.88
393.882	84.88
394.107	78.88
394.331	77.88
394.556	94.88
394.78	92.88
395.005	80.88
395.229	73.88
395.454	87.88
395.678	81.88
395.903	83.88
396.127	86.88
396.352	76.88
396.576	75.88
396.801	88.88
397.025	101.88
397.249	92.88
397.474	92.88
397.698	82.88
397.922	83.88
398.147	84.88
398.371	79.88
398.595	79.88
398.82	88.88
399.044	94.88
399.268	79.88
399.492	84.88
399.717	75.88
399.941	88.88
400.165	86.88
400.389	94.88
400.613	80.88
400.837	81.88
401.062	87.88
401.286	87.88
401.51	94.88
401.734	94.88
401.958	88.88
402.182	125.88
402.406	154.88
402.63	121.88
402.854	97.88
403.078	66.88
403.302	77.88
403.526	81.88
403.75	92.88
403.974	93.88
404.198	80.88
404.422	82.88
404.645	82.88
404.869	67.88
405.093	90.88
405.317	106.88
405.541	98.88
405.765	93.88
405.988	103.88
406.212	153.88
406.436	217.88
406.66	152.88
406.883	98.88
407.107	94.88
407.331	106.88
407.555	92.88
407.778	100.88
408.002	77.88
408.226	90.88
408.449	82.88
408.673	86.88
408.896	94.88
409.12	90.88
409.344	100.88
409.567	88.88
409.791	83.88
410.014	100.88
410.238	82.88
410.461	80.88
410.685	99.88
410.908	88.88
411.132	96.88
411.355	92.88
411.578	72.88
411.802	76.88
412.025	79.88
412.249	86.88
412.472	98.88
412.695	94.88
412.919	92.88
413.142	84.88
413.365	83.88
413.589	85.88
413.812	92.88
414.035	97.88
414.258	87.88
414.482	81.88
414.705	96.88
414.928	89.88
415.151	90.88
415.374	83.88
415.597	83.88
415.821	79.88
416.044	84.88
416.267	78.88
416.49	95.88
416.713	92.88
416.936	77.88
417.159	76.88
417.382	96.88
417.605	78.88
417.828	76.88
418.051	107.88
418.274	76.88
418.497	67.88
418.72	83.88
418.943	77.88
419.166	93.88
419.389	94.88
419.611	72.88
419.834	76.88
420.057	83.88
420.28	81.88
420.503	100.88
420.726	96.88
420.948	82.88
421.171	83.88
421.394	76.88
421.617	87.88
421.839	100.88
422.062	101.88
422.285	88.88
422.507	82.88
422.73	79.88
422.953	90.88
423.175	89.88
423.398	85.88
423.621	104.88
423.843	92.88
424.066	77.88
424.288	101.88
424.511	92.88
424.733	106.88
424.956	98.88
425.178	84.88
425.401	94.88
425.623	103.88
425.846	89.88
426.068	89.88
426.291	82.88
426.513	94.88
426.735	90.88
426.958	91.88
427.18	97.88
427.402	138.88
427.625	158.88
427.847	135.88
428.069	109.88
428.292	88.88
428.514	89.88
428.736	91.88
428.958	82.88
429.181	60.88
429.403	81.88
429.625	84.88
429.847	98.88
430.069	91.88
430.292	86.88
430.514	76.88
430.736	83.88
430.958	84.88
431.18	71.88
431.402	77.88
431.624	85.88
431.846	78.88
432.068	82.88
432.29	93.88
432.512	98.88
432.734	83.88
432.956	78.88
433.178	90.88
433.4	103.88
433.622	81.88
433.844	79.88
434.066	95.88
434.287	84.88
434.509	90.88
434.731	78.88
434.953	84.88
435.175	77.88
435.397	103.88
435.618	108.88
435.84	111.88
436.062	128.88
436.284	97.88
436.505	88.88
436.727	95.88
436.949	93.88
437.17	88.88
437.392	84.88
437.614	91.88
437.835	105.88
438.057	123.88
438.278	120.88
438.5	95.88
438.721	104.88
438.943	94.88
439.165	78.88
439.386	86.88
439.608	77.88
439.829	94.88
440.05	115.88
440.272	133.88
440.493	96.88
440.715	91.88
440.936	92.88
441.158	93.88
441.379	89.88
441.6	84.88
441.822	96.88
442.043	84.88
442.264	98.88
442.486	118.88
442.707	72.88
442.928	86.88
443.149	142.88
443.371	134.88
443.592	97.88
443.813	107.88
444.034	112.88
444.255	91.88
444.476	88.88
444.698	71.88
444.919	87.88
445.14	126.88
445.361	122.88
445.582	112.88
445.803	140.88
446.024	136.88
446.245	142.88
446.466	103.88
446.687	85.88
446.908	79.88
447.129	75.88
447.35	103.88
447.571	84.88
447.792	85.88
448.013	91.88
448.234	113.88
448.455	102.88
448.675	95.88
448.896	111.88
449.117	87.88
449.338	111.88
449.559	140.88
449.779	129.88
450	96.88
450.221	84.88
450.442	86.88
450.662	105.88
450.883	107.88
451.104	97.88
451.324	91.88
451.545	87.88
451.766	96.88
451.986	76.88
452.207	73.88
452.428	86.88
452.648	91.88
452.869	103.88
453.089	99.88
453.31	123.88
453.53	99.88
453.751	75.88
453.971	91.88
454.192	108.88
454.412	86.88
454.633	97.88
454.853	87.88
455.073	86.88
455.294	88.88
455.514	85.88
455.734	87.88
455.955	86.88
456.175	62.88
456.395	82.88
456.616	71.88
456.836	73.88
457.056	84.88
457.276	98.88
457.497	87.88
457.717	75.88
457.937	80.88
458.157	86.88
458.377	89.88
458.598	106.88
458.818	139.88
459.038	142.88
459.258	95.88
459.478	96.88
459.698	79.88
459.918	89.88
460.138	95.88
460.358	86.88
460.578	75.88
460.798	95.88
461.018	99.88
461.238	91.88
461.458	83.88
461.678	58.88
461.898	78.88
462.118	84.88
462.338	73.88
462.558	75.88
462.777	81.88
462.997	91.88
463.217	83.88
463.437	80.88
463.657	76.88
463.876	85.88
464.096	88.88
464.316	97.88
464.536	96.88
464.755	75.88
464.975	107.88
465.195	157.88
465.414	142.88
465.634	95.88
465.854	85.88
466.073	84.88
466.293	95.88
466.512	74.88
466.732	78.88
466.951	75.88
467.171	84.88
467.391	98.88
467.61	105.88
467.829	100.88
468.049	99.88
468.268	85.88
468.488	80.88
468.707	87.88
468.927	79.88
469.146	66.88
469.365	83.88
469.585	97.88
469.804	90.88
470.023	93.88
470.243	105.88
470.462	94.88
470.681	110.88
470.901	86.88
471.12	103.88
471.339	88.88
471.558	79.88
471.777	71.88
471.997	78.88
472.216	79.88
472.435	91.88
472.654	93.88
472.873	80.88
473.092	83.88
473.311	86.88
473.53	86.88
473.749	81.88
473.968	86.88
474.187	114.88
474.406	94.88
474.625	84.88
474.844	80.88
475.063	91.88
475.282	82.88
475.501	81.88
475.72	73.88
475.939	86.88
476.158	88.88
476.377	90.88
476.596	84.88
476.814	99.88
477.033	89.88
477.252	79.88
477.471	82.88
477.69	81.88
477.908	88.88
478.127	90.88
478.346	89.88
478.564	85.88
478.783	94.88
479.002	87.88
479.22	82.88
479.439	96.88
479.658	104.88
479.876	82.88
480.095	98.88
480.313	93.88
480.532	78.88
480.751	91.88
480.969	101.88
481.188	109.88
481.406	113.88
481.624	91.88
481.843	75.88
482.061	83.88
482.28	95.88
482.498	73.88
482.717	82.88
482.935	82.88
483.153	86.88
483.372	87.88
483.59	90.88
483.808	72.88
484.027	79.88
484.245	88.88
484.463	72.88
484.681	95.88
484.9	77.88
485.118	77.88
485.336	86.88
485.554	95.88
485.772	91.88
485.99	112.88
486.209	112.88
486.427	95.88
486.645	111.88
486.863	105.88
487.081	93.88
487.299	99.88
487.517	77.88
487.735	92.88
487.953	80.88
488.171	99.88
488.389	82.88
488.607	98.88
488.825	76.88
489.043	107.88
489.261	87.88
489.479	93.88
489.696	85.88
489.914	83.88
490.132	78.88
490.35	71.88
490.568	86.88
490.786	88.88
491.003	81.88
491.221	86.88
491.439	89.88
491.657	105.88
491.874	80.88
492.092	91.88
492.31	95.88
492.527	106.88
492.745	94.88
492.963	92.88
493.18	84.88
493.398	97.88
493.615	86.88
493.833	94.88
494.05	86.88
494.268	87.88
494.485	79.88
494.703	76.88
494.92	91.88
495.138	98.88
495.355	80.88
495.573	103.88
495.79	79.88
496.008	84.88
496.225	90.88
496.442	76.88
496.66	91.88
496.877	89.88
497.094	91.88
497.312	81.88
497.529	88.88
497.746	85.88
497.963	81.88
498.181	98.88
498.398	82.88
498.615	105.88
498.832	96.88
499.049	86.88
499.267	82.88
499.484	98.88
499.701	96.88
499.918	91.88
500.135	92.88
500.352	88.88
500.569	78.88
500.786	85.88
501.003	86.88
501.22	91.88
501.437	102.88
501.654	78.88
501.871	113.88
502.088	84.88
502.305	85.88
502.522	83.88
502.739	88.88
502.956	99.88
503.172	76.88
503.389	87.88
503.606	87.88
503.823	110.88
504.04	95.88
504.256	85.88
504.473	88.88
504.69	94.88
504.907	81.88
505.123	82.88
505.34	90.88
505.557	72.88
505.773	86.88
505.99	82.88
506.207	95.88
506.423	94.88
506.64	83.88
506.856	90.88
507.073	78.88
507.289	94.88
507.506	81.88
507.722	106.88
507.939	103.88
508.155	92.88
508.372	92.88
508.588	91.88
508.805	105.88
509.021	88.88
509.238	86.88
509.454	98.88
509.67	95.88
509.887	99.88
510.103	127.88
510.319	220.88
510.536	723.88
510.752	2355.88
510.968	641.88
511.184	159.88
511.401	111.88
511.617	93.88
511.833	93.88
512.049	93.88
512.265	76.88
512.481	85.88
512.698	88.88
512.914	86.88
513.13	102.88
513.346	95.88
513.562	81.88
513.778	91.88
513.994	99.88
514.21	92.88
514.426	115.88
514.642	125.88
514.858	122.88
515.074	159.88
515.29	450.88
515.506	1479.88
515.721	538.88
515.937	154.88
516.153	97.88
516.369	98.88
516.585	82.88
516.801	93.88
517.016	98.88
