Data from Circ_2005_H10_HRD10591_00097.txt Node
Date: Wed Jan 03 10:30:10 EST 2024
User: Yrep
Spectrometer: HR+D1059
Trigger mode: 1
Integration Time (sec): 1.000000E-1
Scans to average: 1
Electric dark correction enabled: true
Nonlinearity correction enabled: false
Boxcar width: 0
XAxis mode: Wavelengths
Number of Pixels in Spectrum: 2048
>>>>>Begin Spectral Data<<<<<
223.165	-4.38
223.4	-4.38
223.635	-4.38
223.869	-16.38
224.104	-30.38
224.338	-7.38
224.573	-18.38
224.808	-7.38
225.042	-26.38
225.277	-2.38
225.511	-13.38
225.746	4.62
225.98	12.62
226.215	4.62
226.449	33.62
226.683	29.62
226.918	16.62
227.152	24.62
227.387	42.62
227.621	33.62
227.856	49.62
228.09	44.62
228.324	42.62
228.559	72.62
228.793	70.62
229.027	66.62
229.262	69.62
229.496	80.62
229.73	90.62
229.964	91.62
230.199	76.62
230.433	79.62
230.667	72.62
230.901	96.62
231.136	70.62
231.37	85.62
231.604	79.62
231.838	71.62
232.072	85.62
232.306	73.62
232.541	78.62
232.775	83.62
233.009	77.62
233.243	76.62
233.477	77.62
233.711	83.62
233.945	86.62
234.179	83.62
234.413	67.62
234.647	72.62
234.881	80.62
235.115	85.62
235.349	88.62
235.583	73.62
235.817	97.62
236.051	93.62
236.285	75.62
236.519	71.62
236.753	74.62
236.987	79.62
237.221	82.62
237.455	79.62
237.689	80.62
237.922	83.62
238.156	82.62
238.39	78.62
238.624	73.62
238.858	76.62
239.091	91.62
239.325	96.62
239.559	87.62
239.793	66.62
240.027	75.62
240.26	81.62
240.494	83.62
240.728	67.62
240.961	77.62
241.195	85.62
241.429	76.62
241.662	80.62
241.896	68.62
242.13	76.62
242.363	84.62
242.597	72.62
242.83	72.62
243.064	76.62
243.298	84.62
243.531	83.62
243.765	78.62
243.998	79.62
244.232	91.62
244.465	81.62
244.699	76.62
244.932	76.62
245.166	80.62
245.399	85.62
245.633	81.62
245.866	74.62
246.099	82.62
246.333	93.62
246.566	88.62
246.8	66.62
247.033	96.62
247.266	72.62
247.5	87.62
247.733	84.62
247.966	77.62
248.2	75.62
248.433	88.62
248.666	71.62
248.899	84.62
249.133	77.62
249.366	94.62
249.599	82.62
249.832	80.62
250.066	89.62
250.299	78.62
250.532	86.62
250.765	82.62
250.998	83.62
251.231	84.62
251.465	81.62
251.698	74.62
251.931	84.62
252.164	86.62
252.397	84.62
252.63	73.62
252.863	88.62
253.096	77.62
253.329	84.62
253.562	93.62
253.795	82.62
254.028	72.62
254.261	78.62
254.494	86.62
254.727	79.62
254.96	67.62
255.193	82.62
255.426	92.62
255.659	79.62
255.892	72.62
256.124	81.62
256.357	79.62
256.59	87.62
256.823	75.62
257.056	86.62
257.289	88.62
257.521	79.62
257.754	97.62
257.987	86.62
258.22	79.62
258.452	88.62
258.685	79.62
258.918	83.62
259.151	72.62
259.383	95.62
259.616	89.62
259.849	70.62
260.081	87.62
260.314	98.62
260.547	86.62
260.779	85.62
261.012	77.62
261.244	90.62
261.477	93.62
261.71	99.62
261.942	108.62
262.175	121.62
262.407	96.62
262.64	88.62
262.872	72.62
263.105	82.62
263.337	88.62
263.57	81.62
263.802	80.62
264.035	92.62
264.267	95.62
264.499	82.62
264.732	93.62
264.964	89.62
265.197	88.62
265.429	78.62
265.661	89.62
265.894	82.62
266.126	80.62
266.358	82.62
266.591	84.62
266.823	67.62
267.055	84.62
267.287	88.62
267.52	82.62
267.752	84.62
267.984	91.62
268.216	96.62
268.448	84.62
268.681	83.62
268.913	89.62
269.145	84.62
269.377	88.62
269.609	84.62
269.841	85.62
270.073	86.62
270.306	99.62
270.538	90.62
270.77	81.62
271.002	78.62
271.234	89.62
271.466	85.62
271.698	78.62
271.93	99.62
272.162	107.62
272.394	89.62
272.626	88.62
272.858	78.62
273.09	77.62
273.322	86.62
273.553	98.62
273.785	81.62
274.017	76.62
274.249	83.62
274.481	75.62
274.713	89.62
274.945	86.62
275.176	77.62
275.408	96.62
275.64	87.62
275.872	89.62
276.104	84.62
276.335	100.62
276.567	99.62
276.799	112.62
277.031	105.62
277.262	95.62
277.494	87.62
277.726	97.62
277.957	94.62
278.189	83.62
278.421	90.62
278.652	87.62
278.884	89.62
279.115	87.62
279.347	91.62
279.579	71.62
279.81	85.62
280.042	95.62
280.273	102.62
280.505	102.62
280.736	88.62
280.968	75.62
281.199	87.62
281.431	79.62
281.662	95.62
281.894	84.62
282.125	99.62
282.356	128.62
282.588	143.62
282.819	118.62
283.051	90.62
283.282	88.62
283.513	100.62
283.745	87.62
283.976	105.62
284.207	83.62
284.439	88.62
284.67	77.62
284.901	89.62
285.132	99.62
285.364	95.62
285.595	90.62
285.826	78.62
286.057	79.62
286.288	83.62
286.52	77.62
286.751	90.62
286.982	90.62
287.213	86.62
287.444	83.62
287.675	97.62
287.906	96.62
288.138	91.62
288.369	90.62
288.6	86.62
288.831	88.62
289.062	92.62
289.293	87.62
289.524	89.62
289.755	89.62
289.986	79.62
290.217	89.62
290.448	90.62
290.679	95.62
290.91	83.62
291.141	83.62
291.371	95.62
291.602	83.62
291.833	83.62
292.064	88.62
292.295	72.62
292.526	95.62
292.757	88.62
292.987	91.62
293.218	89.62
293.449	91.62
293.68	87.62
293.91	84.62
294.141	83.62
294.372	85.62
294.603	92.62
294.833	78.62
295.064	88.62
295.295	99.62
295.525	91.62
295.756	96.62
295.987	112.62
296.217	145.62
296.448	111.62
296.679	93.62
296.909	87.62
297.14	88.62
297.37	100.62
297.601	100.62
297.831	98.62
298.062	89.62
298.292	84.62
298.523	87.62
298.753	89.62
298.984	106.62
299.214	89.62
299.445	104.62
299.675	94.62
299.905	91.62
300.136	103.62
300.366	96.62
300.597	102.62
300.827	95.62
301.057	88.62
301.288	99.62
301.518	89.62
301.748	88.62
301.979	104.62
302.209	94.62
302.439	87.62
302.669	87.62
302.9	81.62
303.13	80.62
303.36	95.62
303.59	89.62
303.82	106.62
304.051	101.62
304.281	88.62
304.511	84.62
304.741	88.62
304.971	83.62
305.201	87.62
305.431	80.62
305.661	88.62
305.891	90.62
306.121	116.62
306.352	102.62
306.582	94.62
306.812	94.62
307.042	87.62
307.272	107.62
307.502	99.62
307.731	102.62
307.961	96.62
308.191	86.62
308.421	89.62
308.651	102.62
308.881	87.62
309.111	95.62
309.341	97.62
309.571	111.62
309.8	97.62
310.03	106.62
310.26	103.62
310.49	93.62
310.72	102.62
310.949	103.62
311.179	86.62
311.409	96.62
311.639	97.62
311.868	93.62
312.098	82.62
312.328	88.62
312.557	99.62
312.787	102.62
313.017	114.62
313.246	102.62
313.476	95.62
313.706	84.62
313.935	94.62
314.165	96.62
314.394	91.62
314.624	77.62
314.853	96.62
315.083	106.62
315.312	99.62
315.542	77.62
315.771	95.62
316.001	98.62
316.23	89.62
316.46	78.62
316.689	73.62
316.919	84.62
317.148	88.62
317.377	97.62
317.607	111.62
317.836	89.62
318.065	94.62
318.295	83.62
318.524	75.62
318.753	76.62
318.983	86.62
319.212	82.62
319.441	89.62
319.67	106.62
319.9	100.62
320.129	100.62
320.358	89.62
320.587	80.62
320.816	101.62
321.046	90.62
321.275	91.62
321.504	84.62
321.733	89.62
321.962	108.62
322.191	100.62
322.42	104.62
322.649	116.62
322.878	119.62
323.108	129.62
323.337	120.62
323.566	127.62
323.795	157.62
324.024	217.62
324.253	395.62
324.482	864.62
324.71	1810.62
324.939	2367.62
325.168	848.62
325.397	244.62
325.626	151.62
325.855	145.62
326.084	125.62
326.313	153.62
326.542	153.62
326.77	234.62
326.999	484.62
327.228	1006.62
327.457	1811.62
327.686	1439.62
327.914	393.62
328.143	225.62
328.372	222.62
328.6	179.62
328.829	123.62
329.058	129.62
329.287	116.62
329.515	116.62
329.744	123.62
329.972	163.62
330.201	267.62
330.43	314.62
330.658	186.62
330.887	149.62
331.115	121.62
331.344	104.62
331.572	110.62
331.801	113.62
332.03	96.62
332.258	106.62
332.486	76.62
332.715	94.62
332.943	91.62
333.172	100.62
333.4	116.62
333.629	93.62
333.857	127.62
334.085	179.62
334.314	269.62
334.542	411.62
334.771	385.62
334.999	156.62
335.227	107.62
335.455	92.62
335.684	102.62
335.912	93.62
336.14	99.62
336.369	112.62
336.597	108.62
336.825	93.62
337.053	98.62
337.281	89.62
337.51	81.62
337.738	95.62
337.966	94.62
338.194	103.62
338.422	107.62
338.65	83.62
338.878	98.62
339.106	83.62
339.334	97.62
339.562	96.62
339.79	99.62
340.018	89.62
340.246	100.62
340.474	102.62
340.702	93.62
340.93	90.62
341.158	107.62
341.386	99.62
341.614	88.62
341.842	93.62
342.07	106.62
342.298	91.62
342.526	91.62
342.754	94.62
342.981	97.62
343.209	98.62
343.437	95.62
343.665	77.62
343.893	98.62
344.12	78.62
344.348	98.62
344.576	76.62
344.804	96.62
345.031	89.62
345.259	99.62
345.487	91.62
345.714	91.62
345.942	86.62
346.17	71.62
346.397	80.62
346.625	99.62
346.853	88.62
347.08	107.62
347.308	86.62
347.535	89.62
347.763	96.62
347.99	104.62
348.218	99.62
348.445	90.62
348.673	92.62
348.9	103.62
349.128	84.62
349.355	95.62
349.583	89.62
349.81	95.62
350.037	87.62
350.265	95.62
350.492	92.62
350.72	96.62
350.947	98.62
351.174	105.62
351.402	115.62
351.629	100.62
351.856	102.62
352.083	95.62
352.311	116.62
352.538	102.62
352.765	103.62
352.992	123.62
353.22	109.62
353.447	110.62
353.674	98.62
353.901	83.62
354.128	90.62
354.355	109.62
354.583	109.62
354.81	102.62
355.037	104.62
355.264	96.62
355.491	86.62
355.718	89.62
355.945	89.62
356.172	94.62
356.399	87.62
356.626	102.62
356.853	110.62
357.08	91.62
357.307	83.62
357.534	87.62
357.761	92.62
357.988	103.62
358.215	96.62
358.441	86.62
358.668	86.62
358.895	75.62
359.122	88.62
359.349	105.62
359.576	92.62
359.802	99.62
360.029	112.62
360.256	110.62
360.483	107.62
360.709	88.62
360.936	99.62
361.163	90.62
361.39	84.62
361.616	98.62
361.843	82.62
362.07	98.62
362.296	92.62
362.523	88.62
362.749	98.62
362.976	89.62
363.203	86.62
363.429	96.62
363.656	99.62
363.882	85.62
364.109	86.62
364.335	81.62
364.562	78.62
364.788	109.62
365.015	89.62
365.241	104.62
365.468	102.62
365.694	96.62
365.92	98.62
366.147	101.62
366.373	92.62
366.599	98.62
366.826	97.62
367.052	93.62
367.278	95.62
367.505	98.62
367.731	98.62
367.957	102.62
368.184	104.62
368.41	94.62
368.636	107.62
368.862	111.62
369.089	107.62
369.315	93.62
369.541	92.62
369.767	88.62
369.993	83.62
370.219	73.62
370.445	107.62
370.672	94.62
370.898	81.62
371.124	98.62
371.35	90.62
371.576	85.62
371.802	87.62
372.028	89.62
372.254	81.62
372.48	80.62
372.706	84.62
372.932	96.62
373.158	88.62
373.384	84.62
373.61	95.62
373.835	97.62
374.061	88.62
374.287	93.62
374.513	91.62
374.739	82.62
374.965	76.62
375.191	100.62
375.416	96.62
375.642	80.62
375.868	96.62
376.094	95.62
376.319	101.62
376.545	89.62
376.771	76.62
376.997	86.62
377.222	94.62
377.448	82.62
377.674	95.62
377.899	83.62
378.125	101.62
378.35	97.62
378.576	98.62
378.802	96.62
379.027	105.62
379.253	92.62
379.478	88.62
379.704	89.62
379.929	97.62
380.155	107.62
380.38	86.62
380.606	101.62
380.831	89.62
381.057	103.62
381.282	82.62
381.507	81.62
381.733	77.62
381.958	91.62
382.184	98.62
382.409	92.62
382.634	93.62
382.86	101.62
383.085	105.62
383.31	94.62
383.535	94.62
383.761	78.62
383.986	107.62
384.211	94.62
384.436	78.62
384.662	92.62
384.887	102.62
385.112	101.62
385.337	116.62
385.562	111.62
385.787	102.62
386.013	104.62
386.238	100.62
386.463	102.62
386.688	112.62
386.913	103.62
387.138	100.62
387.363	95.62
387.588	97.62
387.813	102.62
388.038	96.62
388.263	113.62
388.488	95.62
388.713	97.62
388.938	91.62
389.163	75.62
389.387	92.62
389.612	97.62
389.837	98.62
390.062	88.62
390.287	107.62
390.512	94.62
390.736	105.62
390.961	103.62
391.186	94.62
391.411	81.62
391.636	93.62
391.86	84.62
392.085	96.62
392.31	71.62
392.534	96.62
392.759	90.62
392.984	71.62
393.208	77.62
393.433	85.62
393.658	80.62
393.882	99.62
394.107	67.62
394.331	71.62
394.556	90.62
394.78	85.62
395.005	88.62
395.229	88.62
395.454	89.62
395.678	89.62
395.903	79.62
396.127	91.62
396.352	99.62
396.576	93.62
396.801	94.62
397.025	81.62
397.249	85.62
397.474	87.62
397.698	84.62
397.922	95.62
398.147	83.62
398.371	85.62
398.595	102.62
398.82	95.62
399.044	75.62
399.268	85.62
399.492	87.62
399.717	96.62
399.941	84.62
400.165	93.62
400.389	88.62
400.613	79.62
400.837	74.62
401.062	76.62
401.286	94.62
401.51	84.62
401.734	83.62
401.958	109.62
402.182	125.62
402.406	152.62
402.63	129.62
402.854	83.62
403.078	87.62
403.302	96.62
403.526	93.62
403.75	78.62
403.974	87.62
404.198	84.62
404.422	99.62
404.645	106.62
404.869	93.62
405.093	95.62
405.317	111.62
405.541	108.62
405.765	96.62
405.988	112.62
406.212	154.62
406.436	213.62
406.66	139.62
406.883	108.62
407.107	96.62
407.331	102.62
407.555	95.62
407.778	100.62
408.002	98.62
408.226	89.62
408.449	84.62
408.673	103.62
408.896	87.62
409.12	94.62
409.344	90.62
409.567	89.62
409.791	97.62
410.014	97.62
410.238	104.62
410.461	88.62
410.685	92.62
410.908	87.62
411.132	103.62
411.355	95.62
411.578	101.62
411.802	92.62
412.025	87.62
412.249	90.62
412.472	102.62
412.695	101.62
412.919	110.62
413.142	91.62
413.365	81.62
413.589	94.62
413.812	98.62
414.035	95.62
414.258	103.62
414.482	90.62
414.705	88.62
414.928	104.62
415.151	107.62
415.374	76.62
415.597	83.62
415.821	79.62
416.044	80.62
416.267	102.62
416.49	77.62
416.713	81.62
416.936	80.62
417.159	71.62
417.382	87.62
417.605	77.62
417.828	97.62
418.051	97.62
418.274	76.62
418.497	87.62
418.72	100.62
418.943	87.62
419.166	79.62
419.389	89.62
419.611	83.62
419.834	88.62
420.057	72.62
420.28	76.62
420.503	86.62
420.726	80.62
420.948	96.62
421.171	85.62
421.394	107.62
421.617	94.62
421.839	98.62
422.062	91.62
422.285	99.62
422.507	97.62
422.73	92.62
422.953	108.62
423.175	100.62
423.398	95.62
423.621	78.62
423.843	80.62
424.066	88.62
424.288	82.62
424.511	95.62
424.733	88.62
424.956	99.62
425.178	102.62
425.401	100.62
425.623	98.62
425.846	96.62
426.068	90.62
426.291	92.62
426.513	81.62
426.735	96.62
426.958	79.62
427.18	100.62
427.402	147.62
427.625	177.62
427.847	143.62
428.069	126.62
428.292	90.62
428.514	95.62
428.736	89.62
428.958	81.62
429.181	86.62
429.403	87.62
429.625	93.62
429.847	93.62
430.069	98.62
430.292	88.62
430.514	73.62
430.736	77.62
430.958	85.62
431.18	83.62
431.402	99.62
431.624	87.62
431.846	84.62
432.068	98.62
432.29	83.62
432.512	83.62
432.734	96.62
432.956	93.62
433.178	96.62
433.4	105.62
433.622	107.62
433.844	83.62
434.066	107.62
434.287	97.62
434.509	71.62
434.731	78.62
434.953	102.62
435.175	79.62
435.397	93.62
435.618	87.62
435.84	98.62
436.062	130.62
436.284	116.62
436.505	96.62
436.727	120.62
436.949	86.62
437.17	108.62
437.392	84.62
437.614	82.62
437.835	89.62
438.057	111.62
438.278	100.62
438.5	99.62
438.721	126.62
438.943	98.62
439.165	79.62
439.386	79.62
439.608	88.62
439.829	103.62
440.05	133.62
440.272	139.62
440.493	89.62
440.715	95.62
440.936	95.62
441.158	84.62
441.379	86.62
441.6	98.62
441.822	87.62
442.043	93.62
442.264	95.62
442.486	103.62
442.707	88.62
442.928	102.62
443.149	130.62
443.371	131.62
443.592	97.62
443.813	107.62
444.034	101.62
444.255	91.62
444.476	93.62
444.698	83.62
444.919	75.62
445.14	134.62
445.361	121.62
445.582	109.62
445.803	130.62
446.024	125.62
446.245	150.62
446.466	120.62
446.687	100.62
446.908	80.62
447.129	82.62
447.35	77.62
447.571	89.62
447.792	75.62
448.013	104.62
448.234	96.62
448.455	100.62
448.675	100.62
448.896	127.62
449.117	112.62
449.338	107.62
449.559	115.62
449.779	135.62
450	88.62
450.221	70.62
450.442	90.62
450.662	111.62
450.883	97.62
451.104	97.62
451.324	79.62
451.545	97.62
451.766	104.62
451.986	96.62
452.207	100.62
452.428	93.62
452.648	115.62
452.869	103.62
453.089	112.62
453.31	108.62
453.53	90.62
453.751	96.62
453.971	108.62
454.192	103.62
454.412	91.62
454.633	84.62
454.853	84.62
455.073	93.62
455.294	85.62
455.514	85.62
455.734	116.62
455.955	84.62
456.175	95.62
456.395	70.62
456.616	86.62
456.836	87.62
457.056	95.62
457.276	77.62
457.497	67.62
457.717	100.62
457.937	87.62
458.157	93.62
458.377	81.62
458.598	97.62
458.818	150.62
459.038	158.62
459.258	107.62
459.478	80.62
459.698	77.62
459.918	86.62
460.138	90.62
460.358	64.62
460.578	89.62
460.798	104.62
461.018	83.62
461.238	79.62
461.458	77.62
461.678	84.62
461.898	85.62
462.118	83.62
462.338	87.62
462.558	74.62
462.777	64.62
462.997	88.62
463.217	83.62
463.437	78.62
463.657	94.62
463.876	93.62
464.096	94.62
464.316	88.62
464.536	99.62
464.755	97.62
464.975	98.62
465.195	154.62
465.414	157.62
465.634	94.62
465.854	78.62
466.073	77.62
466.293	87.62
466.512	98.62
466.732	73.62
466.951	98.62
467.171	108.62
467.391	97.62
467.61	102.62
467.829	107.62
468.049	168.62
468.268	215.62
468.488	102.62
468.707	93.62
468.927	93.62
469.146	83.62
469.365	92.62
469.585	96.62
469.804	96.62
470.023	102.62
470.243	92.62
470.462	97.62
470.681	100.62
470.901	101.62
471.12	86.62
471.339	95.62
471.558	99.62
471.777	100.62
471.997	114.62
472.216	263.62
472.435	510.62
472.654	167.62
472.873	100.62
473.092	92.62
473.311	85.62
473.53	88.62
473.749	89.62
473.968	90.62
474.187	107.62
474.406	97.62
474.625	89.62
474.844	85.62
475.063	91.62
475.282	89.62
475.501	83.62
475.72	85.62
475.939	87.62
476.158	90.62
476.377	85.62
476.596	93.62
476.814	97.62
477.033	92.62
477.252	96.62
477.471	98.62
477.69	92.62
477.908	98.62
478.127	91.62
478.346	97.62
478.564	103.62
478.783	83.62
479.002	90.62
479.22	99.62
479.439	92.62
479.658	101.62
479.876	83.62
480.095	91.62
480.313	94.62
480.532	100.62
480.751	136.62
480.969	278.62
481.188	867.62
481.406	527.62
481.624	152.62
481.843	110.62
482.061	80.62
482.28	93.62
482.498	87.62
482.717	88.62
482.935	85.62
483.153	86.62
483.372	95.62
483.59	84.62
483.808	91.62
484.027	88.62
484.245	82.62
484.463	95.62
484.681	119.62
484.9	83.62
485.118	85.62
485.336	98.62
485.554	96.62
485.772	105.62
485.99	113.62
486.209	99.62
486.427	97.62
486.645	102.62
486.863	100.62
487.081	98.62
487.299	95.62
487.517	102.62
487.735	79.62
487.953	95.62
488.171	104.62
488.389	88.62
488.607	107.62
488.825	94.62
489.043	72.62
489.261	89.62
489.479	73.62
489.696	82.62
489.914	71.62
490.132	98.62
490.35	84.62
490.568	95.62
490.786	89.62
491.003	94.62
491.221	82.62
491.439	86.62
491.657	90.62
491.874	93.62
492.092	81.62
492.31	89.62
492.527	83.62
492.745	98.62
492.963	81.62
493.18	90.62
493.398	91.62
493.615	100.62
493.833	101.62
494.05	99.62
494.268	89.62
494.485	104.62
494.703	88.62
494.92	83.62
495.138	98.62
495.355	90.62
495.573	87.62
495.79	76.62
496.008	89.62
496.225	93.62
496.442	88.62
496.66	98.62
496.877	109.62
497.094	98.62
497.312	84.62
497.529	90.62
497.746	95.62
497.963	92.62
498.181	97.62
498.398	113.62
498.615	105.62
498.832	94.62
499.049	88.62
499.267	100.62
499.484	89.62
499.701	95.62
499.918	81.62
500.135	99.62
500.352	94.62
500.569	104.62
500.786	104.62
501.003	100.62
501.22	92.62
501.437	104.62
501.654	90.62
501.871	93.62
502.088	91.62
502.305	96.62
502.522	99.62
502.739	86.62
502.956	80.62
503.172	96.62
503.389	114.62
503.606	100.62
503.823	102.62
504.04	95.62
504.256	86.62
504.473	86.62
504.69	78.62
504.907	92.62
505.123	83.62
505.34	91.62
505.557	102.62
505.773	84.62
505.99	97.62
506.207	83.62
506.423	83.62
506.64	93.62
506.856	91.62
507.073	96.62
507.289	97.62
507.506	95.62
507.722	111.62
507.939	107.62
508.155	91.62
508.372	100.62
508.588	79.62
508.805	109.62
509.021	99.62
509.238	106.62
509.454	97.62
509.67	107.62
509.887	109.62
510.103	150.62
510.319	203.62
510.536	719.62
510.752	2290.62
510.968	665.62
511.184	166.62
511.401	123.62
511.617	89.62
511.833	90.62
512.049	95.62
512.265	85.62
512.481	89.62
512.698	89.62
512.914	85.62
513.13	95.62
513.346	88.62
513.562	82.62
513.778	93.62
513.994	112.62
514.21	112.62
514.426	118.62
514.642	134.62
514.858	129.62
515.074	155.62
515.29	452.62
515.506	1467.62
