Data from Circ_2005_H10_HRD10591_00074.txt Node
Date: Wed Jan 03 10:30:05 EST 2024
User: Yrep
Spectrometer: HR+D1059
Trigger mode: 1
Integration Time (sec): 1.000000E-1
Scans to average: 1
Electric dark correction enabled: true
Nonlinearity correction enabled: false
Boxcar width: 0
XAxis mode: Wavelengths
Number of Pixels in Spectrum: 2048
>>>>>Begin Spectral Data<<<<<
223.165	-14.56
223.4	-14.56
223.635	-14.56
223.869	-37.56
224.104	-18.56
224.338	-35.56
224.573	-20.56
224.808	-1.56
225.042	-6.56
225.277	3.44
225.511	0.44
225.746	6.44
225.98	8.44
226.215	18.44
226.449	16.44
226.683	26.44
226.918	19.44
227.152	35.44
227.387	31.44
227.621	33.44
227.856	35.44
228.09	61.44
228.324	49.44
228.559	49.44
228.793	57.44
229.027	67.44
229.262	57.44
229.496	63.44
229.73	67.44
229.964	85.44
230.199	74.44
230.433	65.44
230.667	82.44
230.901	65.44
231.136	81.44
231.37	77.44
231.604	87.44
231.838	78.44
232.072	72.44
232.306	77.44
232.541	68.44
232.775	64.44
233.009	76.44
233.243	84.44
233.477	77.44
233.711	68.44
233.945	91.44
234.179	69.44
234.413	69.44
234.647	82.44
234.881	74.44
235.115	78.44
235.349	89.44
235.583	79.44
235.817	81.44
236.051	66.44
236.285	76.44
236.519	82.44
236.753	77.44
236.987	79.44
237.221	81.44
237.455	81.44
237.689	84.44
237.922	70.44
238.156	69.44
238.39	80.44
238.624	79.44
238.858	60.44
239.091	62.44
239.325	75.44
239.559	79.44
239.793	68.44
240.027	76.44
240.26	79.44
240.494	81.44
240.728	52.44
240.961	76.44
241.195	78.44
241.429	80.44
241.662	79.44
241.896	51.44
242.13	56.44
242.363	76.44
242.597	77.44
242.83	63.44
243.064	79.44
243.298	65.44
243.531	88.44
243.765	75.44
243.998	76.44
244.232	75.44
244.465	61.44
244.699	66.44
244.932	80.44
245.166	65.44
245.399	91.44
245.633	71.44
245.866	77.44
246.099	70.44
246.333	87.44
246.566	74.44
246.8	71.44
247.033	69.44
247.266	72.44
247.5	69.44
247.733	73.44
247.966	62.44
248.2	80.44
248.433	66.44
248.666	65.44
248.899	74.44
249.133	73.44
249.366	81.44
249.599	101.44
249.832	88.44
250.066	71.44
250.299	77.44
250.532	72.44
250.765	75.44
250.998	76.44
251.231	63.44
251.465	65.44
251.698	69.44
251.931	93.44
252.164	81.44
252.397	67.44
252.63	75.44
252.863	64.44
253.096	66.44
253.329	80.44
253.562	80.44
253.795	74.44
254.028	75.44
254.261	85.44
254.494	82.44
254.727	71.44
254.96	84.44
255.193	84.44
255.426	67.44
255.659	90.44
255.892	89.44
256.124	80.44
256.357	69.44
256.59	82.44
256.823	79.44
257.056	75.44
257.289	84.44
257.521	66.44
257.754	72.44
257.987	71.44
258.22	74.44
258.452	82.44
258.685	75.44
258.918	74.44
259.151	72.44
259.383	77.44
259.616	76.44
259.849	76.44
260.081	82.44
260.314	94.44
260.547	66.44
260.779	73.44
261.012	89.44
261.244	84.44
261.477	92.44
261.71	97.44
261.942	119.44
262.175	111.44
262.407	83.44
262.64	78.44
262.872	85.44
263.105	73.44
263.337	80.44
263.57	76.44
263.802	90.44
264.035	85.44
264.267	81.44
264.499	77.44
264.732	72.44
264.964	71.44
265.197	78.44
265.429	85.44
265.661	80.44
265.894	80.44
266.126	74.44
266.358	69.44
266.591	74.44
266.823	91.44
267.055	78.44
267.287	85.44
267.52	91.44
267.752	83.44
267.984	87.44
268.216	83.44
268.448	86.44
268.681	96.44
268.913	76.44
269.145	82.44
269.377	91.44
269.609	92.44
269.841	81.44
270.073	78.44
270.306	73.44
270.538	73.44
270.77	72.44
271.002	71.44
271.234	82.44
271.466	93.44
271.698	82.44
271.93	78.44
272.162	76.44
272.394	78.44
272.626	68.44
272.858	73.44
273.09	73.44
273.322	78.44
273.553	81.44
273.785	76.44
274.017	84.44
274.249	76.44
274.481	80.44
274.713	76.44
274.945	95.44
275.176	90.44
275.408	85.44
275.64	79.44
275.872	73.44
276.104	69.44
276.335	86.44
276.567	87.44
276.799	98.44
277.031	94.44
277.262	88.44
277.494	76.44
277.726	91.44
277.957	78.44
278.189	84.44
278.421	81.44
278.652	80.44
278.884	84.44
279.115	81.44
279.347	73.44
279.579	81.44
279.81	90.44
280.042	83.44
280.273	91.44
280.505	95.44
280.736	77.44
280.968	69.44
281.199	86.44
281.431	88.44
281.662	89.44
281.894	84.44
282.125	89.44
282.356	106.44
282.588	135.44
282.819	119.44
283.051	94.44
283.282	75.44
283.513	80.44
283.745	80.44
283.976	90.44
284.207	97.44
284.439	93.44
284.67	72.44
284.901	79.44
285.132	75.44
285.364	81.44
285.595	98.44
285.826	86.44
286.057	82.44
286.288	81.44
286.52	66.44
286.751	67.44
286.982	91.44
287.213	88.44
287.444	91.44
287.675	78.44
287.906	68.44
288.138	77.44
288.369	93.44
288.6	89.44
288.831	74.44
289.062	85.44
289.293	84.44
289.524	79.44
289.755	84.44
289.986	73.44
290.217	84.44
290.448	97.44
290.679	83.44
290.91	74.44
291.141	69.44
291.371	73.44
291.602	79.44
291.833	89.44
292.064	81.44
292.295	91.44
292.526	87.44
292.757	82.44
292.987	94.44
293.218	93.44
293.449	81.44
293.68	80.44
293.91	83.44
294.141	80.44
294.372	77.44
294.603	85.44
294.833	68.44
295.064	88.44
295.295	84.44
295.525	89.44
295.756	90.44
295.987	106.44
296.217	125.44
296.448	99.44
296.679	91.44
296.909	94.44
297.14	83.44
297.37	74.44
297.601	93.44
297.831	79.44
298.062	78.44
298.292	95.44
298.523	67.44
298.753	91.44
298.984	91.44
299.214	87.44
299.445	77.44
299.675	90.44
299.905	95.44
300.136	90.44
300.366	85.44
300.597	81.44
300.827	91.44
301.057	90.44
301.288	91.44
301.518	91.44
301.748	78.44
301.979	111.44
302.209	87.44
302.439	80.44
302.669	90.44
302.9	91.44
303.13	90.44
303.36	100.44
303.59	89.44
303.82	104.44
304.051	89.44
304.281	91.44
304.511	94.44
304.741	85.44
304.971	72.44
305.201	83.44
305.431	90.44
305.661	83.44
305.891	94.44
306.121	74.44
306.352	102.44
306.582	92.44
306.812	88.44
307.042	81.44
307.272	89.44
307.502	92.44
307.731	92.44
307.961	89.44
308.191	80.44
308.421	98.44
308.651	82.44
308.881	83.44
309.111	81.44
309.341	87.44
309.571	85.44
309.8	80.44
310.03	89.44
310.26	87.44
310.49	91.44
310.72	97.44
310.949	89.44
311.179	96.44
311.409	83.44
311.639	91.44
311.868	94.44
312.098	95.44
312.328	92.44
312.557	97.44
312.787	104.44
313.017	92.44
313.246	79.44
313.476	69.44
313.706	100.44
313.935	92.44
314.165	99.44
314.394	90.44
314.624	96.44
314.853	102.44
315.083	100.44
315.312	75.44
315.542	88.44
315.771	89.44
316.001	90.44
316.23	76.44
316.46	84.44
316.689	84.44
316.919	83.44
317.148	89.44
317.377	84.44
317.607	99.44
317.836	96.44
318.065	89.44
318.295	85.44
318.524	81.44
318.753	87.44
318.983	84.44
319.212	96.44
319.441	100.44
319.67	89.44
319.9	85.44
320.129	85.44
320.358	76.44
320.587	100.44
320.816	101.44
321.046	101.44
321.275	102.44
321.504	87.44
321.733	90.44
321.962	92.44
322.191	96.44
322.42	104.44
322.649	105.44
322.878	104.44
323.108	99.44
323.337	95.44
323.566	114.44
323.795	149.44
324.024	179.44
324.253	331.44
324.482	707.44
324.71	1440.44
324.939	1903.44
325.168	697.44
325.397	220.44
325.626	146.44
325.855	120.44
326.084	123.44
326.313	112.44
326.542	146.44
326.77	193.44
326.999	389.44
327.228	818.44
327.457	1499.44
327.686	1185.44
327.914	333.44
328.143	185.44
328.372	153.44
328.6	123.44
328.829	109.44
329.058	120.44
329.287	108.44
329.515	99.44
329.744	112.44
329.972	105.44
330.201	153.44
330.43	188.44
330.658	139.44
330.887	127.44
331.115	122.44
331.344	101.44
331.572	96.44
331.801	84.44
332.03	91.44
332.258	84.44
332.486	89.44
332.715	84.44
332.943	91.44
333.172	85.44
333.4	93.44
333.629	98.44
333.857	121.44
334.085	121.44
334.314	161.44
334.542	212.44
334.771	196.44
334.999	108.44
335.227	97.44
335.455	83.44
335.684	85.44
335.912	97.44
336.14	82.44
336.369	90.44
336.597	91.44
336.825	90.44
337.053	88.44
337.281	96.44
337.51	81.44
337.738	84.44
337.966	88.44
338.194	89.44
338.422	85.44
338.65	93.44
338.878	89.44
339.106	101.44
339.334	96.44
339.562	85.44
339.79	91.44
340.018	94.44
340.246	91.44
340.474	84.44
340.702	93.44
340.93	78.44
341.158	76.44
341.386	90.44
341.614	93.44
341.842	95.44
342.07	95.44
342.298	88.44
342.526	71.44
342.754	98.44
342.981	85.44
343.209	73.44
343.437	79.44
343.665	95.44
343.893	77.44
344.12	102.44
344.348	72.44
344.576	76.44
344.804	90.44
345.031	99.44
345.259	86.44
345.487	92.44
345.714	91.44
345.942	93.44
346.17	78.44
346.397	83.44
346.625	81.44
346.853	84.44
347.08	86.44
347.308	97.44
347.535	104.44
347.763	95.44
347.99	93.44
348.218	93.44
348.445	106.44
348.673	77.44
348.9	82.44
349.128	85.44
349.355	88.44
349.583	92.44
349.81	72.44
350.037	78.44
350.265	89.44
350.492	83.44
350.72	83.44
350.947	99.44
351.174	89.44
351.402	104.44
351.629	85.44
351.856	98.44
352.083	97.44
352.311	98.44
352.538	87.44
352.765	111.44
352.992	119.44
353.22	114.44
353.447	105.44
353.674	96.44
353.901	97.44
354.128	96.44
354.355	82.44
354.583	101.44
354.81	116.44
355.037	99.44
355.264	67.44
355.491	93.44
355.718	75.44
355.945	91.44
356.172	85.44
356.399	95.44
356.626	81.44
356.853	75.44
357.08	85.44
357.307	90.44
357.534	76.44
357.761	94.44
357.988	93.44
358.215	82.44
358.441	84.44
358.668	80.44
358.895	87.44
359.122	87.44
359.349	80.44
359.576	82.44
359.802	90.44
360.029	109.44
360.256	106.44
360.483	91.44
360.709	89.44
360.936	90.44
361.163	97.44
361.39	100.44
361.616	101.44
361.843	75.44
362.07	94.44
362.296	85.44
362.523	84.44
362.749	83.44
362.976	85.44
363.203	93.44
363.429	75.44
363.656	98.44
363.882	82.44
364.109	66.44
364.335	78.44
364.562	80.44
364.788	79.44
365.015	99.44
365.241	99.44
365.468	94.44
365.694	98.44
365.92	82.44
366.147	81.44
366.373	86.44
366.599	91.44
366.826	76.44
367.052	87.44
367.278	89.44
367.505	75.44
367.731	85.44
367.957	84.44
368.184	84.44
368.41	84.44
368.636	107.44
368.862	117.44
369.089	89.44
369.315	90.44
369.541	98.44
369.767	91.44
369.993	78.44
370.219	83.44
370.445	81.44
370.672	92.44
370.898	87.44
371.124	107.44
371.35	90.44
371.576	66.44
371.802	74.44
372.028	76.44
372.254	76.44
372.48	79.44
372.706	79.44
372.932	78.44
373.158	86.44
373.384	80.44
373.61	90.44
373.835	84.44
374.061	85.44
374.287	92.44
374.513	80.44
374.739	73.44
374.965	98.44
375.191	92.44
375.416	69.44
375.642	76.44
375.868	92.44
376.094	79.44
376.319	81.44
376.545	85.44
376.771	77.44
376.997	85.44
377.222	95.44
377.448	68.44
377.674	89.44
377.899	102.44
378.125	89.44
378.35	79.44
378.576	76.44
378.802	93.44
379.027	91.44
379.253	76.44
379.478	83.44
379.704	96.44
379.929	88.44
380.155	89.44
380.38	93.44
380.606	105.44
380.831	76.44
381.057	99.44
381.282	84.44
381.507	99.44
381.733	82.44
381.958	92.44
382.184	95.44
382.409	106.44
382.634	104.44
382.86	84.44
383.085	97.44
383.31	100.44
383.535	95.44
383.761	98.44
383.986	118.44
384.211	90.44
384.436	95.44
384.662	94.44
384.887	84.44
385.112	96.44
385.337	92.44
385.562	96.44
385.787	94.44
386.013	108.44
386.238	105.44
386.463	101.44
386.688	96.44
386.913	91.44
387.138	98.44
387.363	91.44
387.588	71.44
387.813	92.44
388.038	90.44
388.263	99.44
388.488	105.44
388.713	111.44
388.938	102.44
389.163	94.44
389.387	85.44
389.612	91.44
389.837	93.44
390.062	96.44
390.287	96.44
390.512	88.44
390.736	95.44
390.961	82.44
391.186	81.44
391.411	92.44
391.636	87.44
391.86	79.44
392.085	80.44
392.31	83.44
392.534	80.44
392.759	91.44
392.984	99.44
393.208	84.44
393.433	90.44
393.658	88.44
393.882	87.44
394.107	88.44
394.331	99.44
394.556	76.44
394.78	84.44
395.005	79.44
395.229	55.44
395.454	77.44
395.678	67.44
395.903	64.44
396.127	82.44
396.352	85.44
396.576	75.44
396.801	89.44
397.025	75.44
397.249	80.44
397.474	88.44
397.698	93.44
397.922	67.44
398.147	92.44
398.371	74.44
398.595	75.44
398.82	83.44
399.044	83.44
399.268	82.44
399.492	73.44
399.717	91.44
399.941	94.44
400.165	88.44
400.389	75.44
400.613	79.44
400.837	74.44
401.062	87.44
401.286	83.44
401.51	87.44
401.734	88.44
401.958	76.44
402.182	108.44
402.406	146.44
402.63	104.44
402.854	97.44
403.078	91.44
403.302	92.44
403.526	84.44
403.75	95.44
403.974	88.44
404.198	82.44
404.422	93.44
404.645	88.44
404.869	92.44
405.093	98.44
405.317	85.44
405.541	87.44
405.765	92.44
405.988	112.44
406.212	155.44
406.436	198.44
406.66	117.44
406.883	92.44
407.107	68.44
407.331	100.44
407.555	79.44
407.778	79.44
408.002	74.44
408.226	83.44
408.449	82.44
408.673	85.44
408.896	78.44
409.12	104.44
409.344	92.44
409.567	81.44
409.791	93.44
410.014	99.44
410.238	97.44
410.461	95.44
410.685	89.44
410.908	100.44
411.132	99.44
411.355	99.44
411.578	81.44
411.802	85.44
412.025	96.44
412.249	86.44
412.472	91.44
412.695	81.44
412.919	93.44
413.142	72.44
413.365	80.44
413.589	102.44
413.812	85.44
414.035	79.44
414.258	94.44
414.482	81.44
414.705	94.44
414.928	85.44
415.151	100.44
415.374	93.44
415.597	79.44
415.821	98.44
416.044	81.44
416.267	80.44
416.49	95.44
416.713	94.44
416.936	98.44
417.159	79.44
417.382	101.44
417.605	102.44
417.828	93.44
418.051	88.44
418.274	71.44
418.497	67.44
418.72	79.44
418.943	74.44
419.166	79.44
419.389	83.44
419.611	83.44
419.834	89.44
420.057	83.44
420.28	84.44
420.503	80.44
420.726	81.44
420.948	90.44
421.171	85.44
421.394	72.44
421.617	91.44
421.839	79.44
422.062	92.44
422.285	79.44
422.507	79.44
422.73	92.44
422.953	83.44
423.175	92.44
423.398	95.44
423.621	93.44
423.843	83.44
424.066	79.44
424.288	86.44
424.511	88.44
424.733	98.44
424.956	92.44
425.178	99.44
425.401	101.44
425.623	83.44
425.846	84.44
426.068	81.44
426.291	99.44
426.513	86.44
426.735	92.44
426.958	102.44
427.18	97.44
427.402	111.44
427.625	150.44
427.847	122.44
428.069	109.44
428.292	91.44
428.514	86.44
428.736	85.44
428.958	84.44
429.181	87.44
429.403	81.44
429.625	68.44
429.847	81.44
430.069	69.44
430.292	78.44
430.514	84.44
430.736	79.44
430.958	69.44
431.18	82.44
431.402	80.44
431.624	72.44
431.846	81.44
432.068	84.44
432.29	87.44
432.512	70.44
432.734	88.44
432.956	82.44
433.178	90.44
433.4	79.44
433.622	102.44
433.844	88.44
434.066	85.44
434.287	84.44
434.509	89.44
434.731	83.44
434.953	80.44
435.175	84.44
435.397	85.44
435.618	79.44
435.84	97.44
436.062	103.44
436.284	91.44
436.505	100.44
436.727	89.44
436.949	82.44
437.17	79.44
437.392	79.44
437.614	73.44
437.835	106.44
438.057	97.44
438.278	81.44
438.5	91.44
438.721	103.44
438.943	88.44
439.165	89.44
439.386	76.44
439.608	90.44
439.829	89.44
440.05	111.44
440.272	145.44
440.493	88.44
440.715	87.44
440.936	91.44
441.158	96.44
441.379	79.44
441.6	86.44
441.822	81.44
442.043	86.44
442.264	91.44
442.486	79.44
442.707	92.44
442.928	106.44
443.149	106.44
443.371	121.44
443.592	85.44
443.813	91.44
444.034	79.44
444.255	78.44
444.476	69.44
444.698	82.44
444.919	80.44
445.14	133.44
445.361	116.44
445.582	103.44
445.803	115.44
446.024	116.44
446.245	117.44
446.466	101.44
446.687	90.44
446.908	95.44
447.129	87.44
447.35	73.44
447.571	80.44
447.792	91.44
448.013	91.44
448.234	89.44
448.455	96.44
448.675	92.44
448.896	105.44
449.117	91.44
449.338	105.44
449.559	126.44
449.779	123.44
450	89.44
450.221	87.44
450.442	79.44
450.662	93.44
450.883	94.44
451.104	82.44
451.324	87.44
451.545	99.44
451.766	85.44
451.986	83.44
452.207	89.44
452.428	81.44
452.648	79.44
452.869	98.44
453.089	107.44
453.31	101.44
453.53	87.44
453.751	82.44
453.971	95.44
454.192	98.44
454.412	93.44
454.633	100.44
454.853	86.44
455.073	80.44
455.294	82.44
455.514	85.44
455.734	79.44
455.955	96.44
456.175	88.44
456.395	82.44
456.616	84.44
456.836	76.44
457.056	70.44
457.276	82.44
457.497	69.44
457.717	79.44
457.937	67.44
458.157	81.44
458.377	85.44
458.598	95.44
458.818	115.44
459.038	132.44
459.258	104.44
459.478	89.44
459.698	95.44
459.918	85.44
460.138	90.44
460.358	82.44
460.578	84.44
460.798	77.44
461.018	72.44
461.238	74.44
461.458	77.44
461.678	87.44
461.898	99.44
462.118	75.44
462.338	80.44
462.558	96.44
462.777	84.44
462.997	74.44
463.217	82.44
463.437	87.44
463.657	81.44
463.876	89.44
464.096	85.44
464.316	84.44
464.536	90.44
464.755	93.44
464.975	112.44
465.195	155.44
465.414	156.44
465.634	98.44
465.854	81.44
466.073	84.44
466.293	95.44
466.512	84.44
466.732	71.44
466.951	69.44
467.171	88.44
467.391	88.44
467.61	89.44
467.829	99.44
468.049	114.44
468.268	135.44
468.488	103.44
468.707	74.44
468.927	94.44
469.146	75.44
469.365	75.44
469.585	85.44
469.804	83.44
470.023	83.44
470.243	81.44
470.462	83.44
470.681	99.44
470.901	89.44
471.12	92.44
471.339	90.44
471.558	92.44
471.777	96.44
471.997	98.44
472.216	160.44
472.435	258.44
472.654	121.44
472.873	97.44
473.092	87.44
473.311	93.44
473.53	82.44
473.749	88.44
473.968	88.44
474.187	92.44
474.406	103.44
474.625	85.44
474.844	98.44
475.063	88.44
475.282	85.44
475.501	89.44
475.72	86.44
475.939	78.44
476.158	100.44
476.377	82.44
476.596	81.44
476.814	87.44
477.033	95.44
477.252	90.44
477.471	75.44
477.69	84.44
477.908	82.44
478.127	85.44
478.346	82.44
478.564	91.44
478.783	82.44
479.002	95.44
479.22	87.44
479.439	98.44
479.658	101.44
479.876	103.44
480.095	106.44
480.313	88.44
480.532	99.44
480.751	97.44
480.969	175.44
481.188	430.44
481.406	295.44
481.624	110.44
481.843	71.44
482.061	92.44
482.28	77.44
482.498	95.44
482.717	90.44
482.935	86.44
483.153	91.44
483.372	94.44
483.59	77.44
483.808	81.44
484.027	93.44
484.245	85.44
484.463	80.44
484.681	88.44
484.9	89.44
485.118	91.44
485.336	75.44
485.554	102.44
485.772	91.44
485.99	94.44
486.209	107.44
486.427	98.44
486.645	95.44
486.863	105.44
487.081	93.44
487.299	87.44
487.517	103.44
487.735	91.44
487.953	84.44
488.171	99.44
488.389	93.44
488.607	96.44
488.825	82.44
489.043	96.44
489.261	99.44
489.479	88.44
489.696	87.44
489.914	92.44
490.132	85.44
490.35	89.44
490.568	86.44
490.786	82.44
491.003	72.44
491.221	81.44
491.439	80.44
491.657	83.44
491.874	87.44
492.092	73.44
492.31	80.44
492.527	85.44
492.745	79.44
492.963	85.44
493.18	92.44
493.398	93.44
493.615	89.44
493.833	92.44
494.05	70.44
494.268	80.44
494.485	76.44
494.703	85.44
494.92	83.44
495.138	82.44
495.355	84.44
495.573	82.44
495.79	98.44
496.008	97.44
496.225	85.44
496.442	73.44
496.66	85.44
496.877	86.44
497.094	91.44
497.312	94.44
497.529	84.44
497.746	85.44
497.963	91.44
498.181	73.44
498.398	100.44
498.615	105.44
498.832	86.44
499.049	96.44
499.267	89.44
499.484	74.44
499.701	98.44
499.918	86.44
500.135	75.44
500.352	82.44
500.569	110.44
500.786	82.44
501.003	94.44
501.22	87.44
501.437	58.44
501.654	83.44
501.871	80.44
502.088	97.44
502.305	97.44
502.522	94.44
502.739	88.44
502.956	74.44
503.172	91.44
503.389	90.44
503.606	93.44
503.823	85.44
504.04	85.44
504.256	83.44
504.473	101.44
504.69	91.44
504.907	98.44
505.123	87.44
505.34	81.44
505.557	84.44
505.773	85.44
505.99	85.44
506.207	97.44
506.423	85.44
506.64	94.44
506.856	89.44
507.073	82.44
507.289	73.44
507.506	101.44
507.722	93.44
507.939	102.44
508.155	96.44
508.372	87.44
508.588	71.44
508.805	93.44
509.021	92.44
509.238	94.44
509.454	94.44
509.67	91.44
509.887	89.44
510.103	121.44
510.319	188.44
510.536	682.44
510.752	2123.44
510.968	604.44
511.184	159.44
511.401	92.44
511.617	89.44
511.833	85.44
512.049	98.44
512.265	94.44
512.481	87.44
512.698	77.44
512.914	92.44
513.13	86.44
513.346	74.44
513.562	87.44
513.778	80.44
513.994	93.44
514.21	100.44
514.426	121.44
514.642	115.44
514.858	114.44
515.074	157.44
515.29	375.44
515.506	1271.44
515.721	474.44
515.937	130.44
516.153	93.44
516.369	105.44
516.585	91.44
516.801	93.44
517.016	88.44
517.232	88.44
517.448	80.44
