Data from Circ_2005_H10_HRD10591_00046.txt Node
Date: Wed Jan 03 10:30:00 EST 2024
User: Yrep
Spectrometer: HR+D1059
Trigger mode: 1
Integration Time (sec): 1.000000E-1
Scans to average: 1
Electric dark correction enabled: true
Nonlinearity correction enabled: false
Boxcar width: 0
XAxis mode: Wavelengths
Number of Pixels in Spectrum: 2048
>>>>>Begin Spectral Data<<<<<
223.165	-10.38
223.4	-10.38
223.635	-10.38
223.869	-8.38
224.104	-22.38
224.338	-12.38
224.573	-6.38
224.808	-28.38
225.042	-9.38
225.277	-23.38
225.511	4.62
225.746	-2.38
225.98	4.62
226.215	26.62
226.449	18.62
226.683	16.62
226.918	27.62
227.152	24.62
227.387	44.62
227.621	36.62
227.856	46.62
228.09	52.62
228.324	54.62
228.559	52.62
228.793	71.62
229.027	73.62
229.262	76.62
229.496	89.62
229.73	86.62
229.964	69.62
230.199	74.62
230.433	89.62
230.667	78.62
230.901	81.62
231.136	83.62
231.37	68.62
231.604	81.62
231.838	90.62
232.072	81.62
232.306	89.62
232.541	92.62
232.775	82.62
233.009	96.62
233.243	82.62
233.477	77.62
233.711	94.62
233.945	92.62
234.179	81.62
234.413	88.62
234.647	80.62
234.881	70.62
235.115	69.62
235.349	84.62
235.583	79.62
235.817	81.62
236.051	94.62
236.285	85.62
236.519	89.62
236.753	84.62
236.987	73.62
237.221	80.62
237.455	97.62
237.689	77.62
237.922	70.62
238.156	71.62
238.39	79.62
238.624	68.62
238.858	81.62
239.091	76.62
239.325	71.62
239.559	83.62
239.793	88.62
240.027	68.62
240.26	77.62
240.494	81.62
240.728	75.62
240.961	80.62
241.195	69.62
241.429	74.62
241.662	85.62
241.896	77.62
242.13	82.62
242.363	80.62
242.597	78.62
242.83	72.62
243.064	74.62
243.298	77.62
243.531	80.62
243.765	72.62
243.998	67.62
244.232	84.62
244.465	90.62
244.699	89.62
244.932	82.62
245.166	101.62
245.399	84.62
245.633	77.62
245.866	86.62
246.099	78.62
246.333	75.62
246.566	91.62
246.8	78.62
247.033	68.62
247.266	69.62
247.5	78.62
247.733	65.62
247.966	74.62
248.2	85.62
248.433	72.62
248.666	84.62
248.899	83.62
249.133	79.62
249.366	101.62
249.599	81.62
249.832	98.62
250.066	83.62
250.299	89.62
250.532	93.62
250.765	96.62
250.998	86.62
251.231	85.62
251.465	66.62
251.698	87.62
251.931	84.62
252.164	78.62
252.397	89.62
252.63	89.62
252.863	79.62
253.096	72.62
253.329	84.62
253.562	80.62
253.795	82.62
254.028	88.62
254.261	69.62
254.494	81.62
254.727	84.62
254.96	82.62
255.193	78.62
255.426	89.62
255.659	78.62
255.892	85.62
256.124	77.62
256.357	76.62
256.59	78.62
256.823	94.62
257.056	103.62
257.289	86.62
257.521	82.62
257.754	78.62
257.987	109.62
258.22	89.62
258.452	76.62
258.685	79.62
258.918	84.62
259.151	92.62
259.383	75.62
259.616	82.62
259.849	73.62
260.081	82.62
260.314	69.62
260.547	101.62
260.779	82.62
261.012	95.62
261.244	71.62
261.477	94.62
261.71	87.62
261.942	112.62
262.175	108.62
262.407	90.62
262.64	83.62
262.872	84.62
263.105	95.62
263.337	82.62
263.57	90.62
263.802	77.62
264.035	85.62
264.267	87.62
264.499	77.62
264.732	89.62
264.964	86.62
265.197	74.62
265.429	84.62
265.661	73.62
265.894	96.62
266.126	91.62
266.358	79.62
266.591	92.62
266.823	96.62
267.055	84.62
267.287	110.62
267.52	73.62
267.752	87.62
267.984	78.62
268.216	87.62
268.448	88.62
268.681	79.62
268.913	89.62
269.145	94.62
269.377	87.62
269.609	88.62
269.841	85.62
270.073	85.62
270.306	69.62
270.538	73.62
270.77	79.62
271.002	97.62
271.234	86.62
271.466	77.62
271.698	89.62
271.93	81.62
272.162	81.62
272.394	86.62
272.626	92.62
272.858	95.62
273.09	92.62
273.322	83.62
273.553	89.62
273.785	86.62
274.017	87.62
274.249	84.62
274.481	85.62
274.713	87.62
274.945	108.62
275.176	86.62
275.408	75.62
275.64	67.62
275.872	72.62
276.104	84.62
276.335	73.62
276.567	101.62
276.799	100.62
277.031	106.62
277.262	95.62
277.494	106.62
277.726	89.62
277.957	83.62
278.189	80.62
278.421	75.62
278.652	94.62
278.884	90.62
279.115	97.62
279.347	73.62
279.579	87.62
279.81	84.62
280.042	78.62
280.273	86.62
280.505	82.62
280.736	81.62
280.968	79.62
281.199	84.62
281.431	93.62
281.662	98.62
281.894	93.62
282.125	94.62
282.356	113.62
282.588	132.62
282.819	103.62
283.051	97.62
283.282	97.62
283.513	99.62
283.745	88.62
283.976	70.62
284.207	74.62
284.439	96.62
284.67	94.62
284.901	93.62
285.132	98.62
285.364	90.62
285.595	89.62
285.826	93.62
286.057	90.62
286.288	82.62
286.52	85.62
286.751	93.62
286.982	75.62
287.213	71.62
287.444	102.62
287.675	84.62
287.906	87.62
288.138	85.62
288.369	81.62
288.6	84.62
288.831	78.62
289.062	97.62
289.293	81.62
289.524	90.62
289.755	93.62
289.986	109.62
290.217	91.62
290.448	90.62
290.679	86.62
290.91	92.62
291.141	87.62
291.371	88.62
291.602	95.62
291.833	81.62
292.064	90.62
292.295	87.62
292.526	85.62
292.757	69.62
292.987	96.62
293.218	92.62
293.449	84.62
293.68	90.62
293.91	82.62
294.141	94.62
294.372	89.62
294.603	95.62
294.833	94.62
295.064	96.62
295.295	86.62
295.525	95.62
295.756	102.62
295.987	100.62
296.217	123.62
296.448	124.62
296.679	81.62
296.909	85.62
297.14	96.62
297.37	90.62
297.601	79.62
297.831	96.62
298.062	89.62
298.292	82.62
298.523	94.62
298.753	90.62
298.984	80.62
299.214	89.62
299.445	87.62
299.675	77.62
299.905	101.62
300.136	79.62
300.366	79.62
300.597	96.62
300.827	95.62
301.057	95.62
301.288	93.62
301.518	92.62
301.748	89.62
301.979	92.62
302.209	87.62
302.439	86.62
302.669	85.62
302.9	93.62
303.13	90.62
303.36	105.62
303.59	98.62
303.82	114.62
304.051	92.62
304.281	96.62
304.511	80.62
304.741	82.62
304.971	82.62
305.201	99.62
305.431	92.62
305.661	74.62
305.891	94.62
306.121	85.62
306.352	102.62
306.582	113.62
306.812	103.62
307.042	92.62
307.272	83.62
307.502	84.62
307.731	94.62
307.961	90.62
308.191	89.62
308.421	89.62
308.651	98.62
308.881	79.62
309.111	81.62
309.341	88.62
309.571	90.62
309.8	95.62
310.03	88.62
310.26	94.62
310.49	97.62
310.72	92.62
310.949	96.62
311.179	103.62
311.409	103.62
311.639	98.62
311.868	105.62
312.098	98.62
312.328	90.62
312.557	89.62
312.787	92.62
313.017	103.62
313.246	87.62
313.476	104.62
313.706	92.62
313.935	111.62
314.165	95.62
314.394	104.62
314.624	108.62
314.853	96.62
315.083	90.62
315.312	112.62
315.542	91.62
315.771	96.62
316.001	95.62
316.23	88.62
316.46	98.62
316.689	90.62
316.919	104.62
317.148	94.62
317.377	91.62
317.607	76.62
317.836	84.62
318.065	77.62
318.295	104.62
318.524	76.62
318.753	89.62
318.983	88.62
319.212	104.62
319.441	97.62
319.67	99.62
319.9	87.62
320.129	91.62
320.358	89.62
320.587	106.62
320.816	102.62
321.046	106.62
321.275	96.62
321.504	100.62
321.733	101.62
321.962	88.62
322.191	99.62
322.42	108.62
322.649	109.62
322.878	104.62
323.108	124.62
323.337	119.62
323.566	128.62
323.795	148.62
324.024	196.62
324.253	355.62
324.482	758.62
324.71	1518.62
324.939	1986.62
325.168	726.62
325.397	239.62
325.626	152.62
325.855	123.62
326.084	117.62
326.313	139.62
326.542	151.62
326.77	233.62
326.999	415.62
327.228	856.62
327.457	1564.62
327.686	1230.62
327.914	342.62
328.143	185.62
328.372	169.62
328.6	107.62
328.829	118.62
329.058	114.62
329.287	99.62
329.515	99.62
329.744	110.62
329.972	110.62
330.201	140.62
330.43	154.62
330.658	113.62
330.887	137.62
331.115	117.62
331.344	108.62
331.572	109.62
331.801	122.62
332.03	100.62
332.258	98.62
332.486	106.62
332.715	98.62
332.943	95.62
333.172	100.62
333.4	82.62
333.629	109.62
333.857	113.62
334.085	107.62
334.314	121.62
334.542	146.62
334.771	152.62
334.999	104.62
335.227	100.62
335.455	93.62
335.684	89.62
335.912	104.62
336.14	90.62
336.369	104.62
336.597	104.62
336.825	104.62
337.053	95.62
337.281	88.62
337.51	89.62
337.738	105.62
337.966	85.62
338.194	90.62
338.422	88.62
338.65	101.62
338.878	95.62
339.106	98.62
339.334	89.62
339.562	87.62
339.79	85.62
340.018	94.62
340.246	97.62
340.474	83.62
340.702	105.62
340.93	85.62
341.158	98.62
341.386	98.62
341.614	109.62
341.842	85.62
342.07	98.62
342.298	94.62
342.526	78.62
342.754	81.62
342.981	81.62
343.209	80.62
343.437	81.62
343.665	79.62
343.893	78.62
344.12	81.62
344.348	87.62
344.576	97.62
344.804	88.62
345.031	97.62
345.259	98.62
345.487	95.62
345.714	94.62
345.942	96.62
346.17	95.62
346.397	95.62
346.625	111.62
346.853	104.62
347.08	94.62
347.308	92.62
347.535	110.62
347.763	107.62
347.99	96.62
348.218	110.62
348.445	103.62
348.673	89.62
348.9	107.62
349.128	100.62
349.355	93.62
349.583	85.62
349.81	95.62
350.037	91.62
350.265	107.62
350.492	103.62
350.72	84.62
350.947	102.62
351.174	106.62
351.402	98.62
351.629	103.62
351.856	100.62
352.083	103.62
352.311	102.62
352.538	113.62
352.765	96.62
352.992	105.62
353.22	101.62
353.447	104.62
353.674	92.62
353.901	101.62
354.128	104.62
354.355	96.62
354.583	96.62
354.81	85.62
355.037	111.62
355.264	100.62
355.491	102.62
355.718	93.62
355.945	104.62
356.172	95.62
356.399	97.62
356.626	94.62
356.853	100.62
357.08	90.62
357.307	89.62
357.534	95.62
357.761	103.62
357.988	102.62
358.215	92.62
358.441	87.62
358.668	86.62
358.895	99.62
359.122	97.62
359.349	89.62
359.576	99.62
359.802	85.62
360.029	112.62
360.256	105.62
360.483	96.62
360.709	93.62
360.936	103.62
361.163	101.62
361.39	93.62
361.616	96.62
361.843	106.62
362.07	100.62
362.296	102.62
362.523	102.62
362.749	96.62
362.976	97.62
363.203	108.62
363.429	103.62
363.656	84.62
363.882	91.62
364.109	92.62
364.335	90.62
364.562	74.62
364.788	100.62
365.015	93.62
365.241	104.62
365.468	112.62
365.694	107.62
365.92	86.62
366.147	94.62
366.373	89.62
366.599	83.62
366.826	79.62
367.052	94.62
367.278	98.62
367.505	90.62
367.731	98.62
367.957	96.62
368.184	102.62
368.41	103.62
368.636	95.62
368.862	109.62
369.089	103.62
369.315	81.62
369.541	86.62
369.767	92.62
369.993	94.62
370.219	101.62
370.445	98.62
370.672	93.62
370.898	90.62
371.124	85.62
371.35	85.62
371.576	89.62
371.802	92.62
372.028	86.62
372.254	87.62
372.48	82.62
372.706	91.62
372.932	85.62
373.158	94.62
373.384	87.62
373.61	96.62
373.835	100.62
374.061	101.62
374.287	97.62
374.513	90.62
374.739	104.62
374.965	86.62
375.191	92.62
375.416	99.62
375.642	86.62
375.868	97.62
376.094	85.62
376.319	95.62
376.545	102.62
376.771	92.62
376.997	90.62
377.222	81.62
377.448	96.62
377.674	78.62
377.899	80.62
378.125	96.62
378.35	96.62
378.576	74.62
378.802	100.62
379.027	101.62
379.253	80.62
379.478	104.62
379.704	92.62
379.929	90.62
380.155	98.62
380.38	97.62
380.606	87.62
380.831	96.62
381.057	108.62
381.282	85.62
381.507	88.62
381.733	101.62
381.958	91.62
382.184	98.62
382.409	109.62
382.634	96.62
382.86	92.62
383.085	97.62
383.31	86.62
383.535	97.62
383.761	119.62
383.986	104.62
384.211	92.62
384.436	101.62
384.662	123.62
384.887	107.62
385.112	98.62
385.337	104.62
385.562	110.62
385.787	109.62
386.013	97.62
386.238	97.62
386.463	103.62
386.688	125.62
386.913	106.62
387.138	117.62
387.363	118.62
387.588	105.62
387.813	118.62
388.038	109.62
388.263	104.62
388.488	119.62
388.713	94.62
388.938	87.62
389.163	100.62
389.387	100.62
389.612	90.62
389.837	87.62
390.062	91.62
390.287	83.62
390.512	88.62
390.736	108.62
390.961	96.62
391.186	94.62
391.411	93.62
391.636	93.62
391.86	88.62
392.085	78.62
392.31	95.62
392.534	104.62
392.759	95.62
392.984	93.62
393.208	93.62
393.433	108.62
393.658	78.62
393.882	90.62
394.107	92.62
394.331	96.62
394.556	82.62
394.78	92.62
395.005	99.62
395.229	85.62
395.454	98.62
395.678	84.62
395.903	94.62
396.127	79.62
396.352	99.62
396.576	87.62
396.801	78.62
397.025	94.62
397.249	103.62
397.474	84.62
397.698	93.62
397.922	84.62
398.147	79.62
398.371	83.62
398.595	77.62
398.82	88.62
399.044	96.62
399.268	89.62
399.492	84.62
399.717	93.62
399.941	84.62
400.165	81.62
400.389	87.62
400.613	77.62
400.837	71.62
401.062	91.62
401.286	96.62
401.51	92.62
401.734	94.62
401.958	101.62
402.182	111.62
402.406	151.62
402.63	104.62
402.854	88.62
403.078	93.62
403.302	108.62
403.526	78.62
403.75	93.62
403.974	96.62
404.198	90.62
404.422	99.62
404.645	80.62
404.869	86.62
405.093	96.62
405.317	98.62
405.541	93.62
405.765	100.62
405.988	116.62
406.212	173.62
406.436	205.62
406.66	131.62
406.883	90.62
407.107	91.62
407.331	92.62
407.555	104.62
407.778	105.62
408.002	83.62
408.226	84.62
408.449	100.62
408.673	103.62
408.896	95.62
409.12	110.62
409.344	95.62
409.567	93.62
409.791	91.62
410.014	106.62
410.238	103.62
410.461	92.62
410.685	86.62
410.908	96.62
411.132	103.62
411.355	102.62
411.578	84.62
411.802	104.62
412.025	94.62
412.249	91.62
412.472	97.62
412.695	97.62
412.919	104.62
413.142	86.62
413.365	84.62
413.589	84.62
413.812	91.62
414.035	96.62
414.258	82.62
414.482	91.62
414.705	101.62
414.928	91.62
415.151	87.62
415.374	97.62
415.597	82.62
415.821	87.62
416.044	89.62
416.267	90.62
416.49	85.62
416.713	103.62
416.936	90.62
417.159	102.62
417.382	89.62
417.605	89.62
417.828	85.62
418.051	99.62
418.274	95.62
418.497	83.62
418.72	101.62
418.943	92.62
419.166	86.62
419.389	88.62
419.611	84.62
419.834	88.62
420.057	92.62
420.28	81.62
420.503	94.62
420.726	79.62
420.948	88.62
421.171	95.62
421.394	93.62
421.617	108.62
421.839	80.62
422.062	89.62
422.285	89.62
422.507	95.62
422.73	108.62
422.953	114.62
423.175	68.62
423.398	91.62
423.621	86.62
423.843	91.62
424.066	91.62
424.288	80.62
424.511	93.62
424.733	104.62
424.956	101.62
425.178	108.62
425.401	98.62
425.623	96.62
425.846	95.62
426.068	84.62
426.291	94.62
426.513	96.62
426.735	90.62
426.958	92.62
427.18	94.62
427.402	112.62
427.625	142.62
427.847	138.62
428.069	92.62
428.292	96.62
428.514	84.62
428.736	82.62
428.958	90.62
429.181	87.62
429.403	92.62
429.625	87.62
429.847	86.62
430.069	103.62
430.292	103.62
430.514	68.62
430.736	91.62
430.958	84.62
431.18	84.62
431.402	87.62
431.624	117.62
431.846	82.62
432.068	88.62
432.29	81.62
432.512	97.62
432.734	89.62
432.956	100.62
433.178	96.62
433.4	94.62
433.622	86.62
433.844	88.62
434.066	91.62
434.287	94.62
434.509	88.62
434.731	74.62
434.953	83.62
435.175	108.62
435.397	96.62
435.618	93.62
435.84	89.62
436.062	113.62
436.284	103.62
436.505	91.62
436.727	82.62
436.949	96.62
437.17	94.62
437.392	97.62
437.614	88.62
437.835	101.62
438.057	121.62
438.278	95.62
438.5	97.62
438.721	125.62
438.943	95.62
439.165	106.62
439.386	93.62
439.608	89.62
439.829	108.62
440.05	114.62
440.272	154.62
440.493	106.62
440.715	81.62
440.936	84.62
441.158	105.62
441.379	87.62
441.6	109.62
441.822	90.62
442.043	87.62
442.264	95.62
442.486	91.62
442.707	91.62
442.928	93.62
443.149	125.62
443.371	130.62
443.592	95.62
443.813	113.62
444.034	107.62
444.255	98.62
444.476	90.62
444.698	92.62
444.919	95.62
445.14	137.62
445.361	130.62
445.582	117.62
445.803	131.62
446.024	134.62
446.245	129.62
446.466	105.62
446.687	90.62
446.908	90.62
447.129	85.62
447.35	86.62
447.571	92.62
447.792	102.62
448.013	115.62
448.234	100.62
448.455	89.62
448.675	114.62
448.896	110.62
449.117	86.62
449.338	94.62
449.559	112.62
449.779	129.62
450	98.62
450.221	89.62
450.442	76.62
450.662	99.62
450.883	108.62
451.104	91.62
451.324	102.62
451.545	89.62
451.766	80.62
451.986	87.62
452.207	96.62
452.428	87.62
452.648	80.62
452.869	91.62
453.089	110.62
453.31	93.62
453.53	77.62
453.751	103.62
453.971	102.62
454.192	111.62
454.412	95.62
454.633	91.62
454.853	73.62
455.073	94.62
455.294	96.62
455.514	104.62
455.734	89.62
455.955	88.62
456.175	85.62
456.395	90.62
456.616	84.62
456.836	87.62
457.056	86.62
457.276	90.62
457.497	91.62
457.717	85.62
457.937	88.62
458.157	90.62
458.377	96.62
458.598	102.62
458.818	144.62
459.038	146.62
459.258	109.62
459.478	76.62
459.698	86.62
459.918	96.62
460.138	79.62
460.358	93.62
460.578	94.62
460.798	102.62
461.018	83.62
461.238	78.62
461.458	87.62
461.678	102.62
461.898	90.62
462.118	80.62
462.338	97.62
462.558	92.62
462.777	93.62
462.997	93.62
463.217	101.62
463.437	83.62
463.657	104.62
463.876	86.62
464.096	97.62
464.316	91.62
464.536	111.62
464.755	91.62
464.975	104.62
465.195	144.62
465.414	158.62
465.634	99.62
465.854	78.62
466.073	85.62
466.293	80.62
466.512	85.62
466.732	95.62
466.951	95.62
467.171	88.62
467.391	97.62
467.61	99.62
467.829	85.62
468.049	107.62
468.268	103.62
468.488	95.62
468.707	91.62
468.927	84.62
469.146	96.62
469.365	95.62
469.585	93.62
469.804	103.62
470.023	92.62
470.243	91.62
470.462	105.62
470.681	100.62
470.901	89.62
471.12	97.62
471.339	98.62
471.558	91.62
471.777	104.62
471.997	107.62
472.216	119.62
472.435	178.62
472.654	101.62
472.873	96.62
473.092	80.62
473.311	73.62
473.53	89.62
473.749	96.62
473.968	108.62
474.187	113.62
474.406	97.62
474.625	89.62
474.844	88.62
475.063	80.62
475.282	80.62
475.501	106.62
475.72	95.62
475.939	107.62
476.158	91.62
476.377	94.62
476.596	83.62
476.814	93.62
477.033	89.62
477.252	83.62
477.471	93.62
477.69	72.62
477.908	90.62
478.127	106.62
478.346	99.62
478.564	90.62
478.783	107.62
479.002	76.62
479.22	95.62
479.439	105.62
479.658	91.62
479.876	94.62
480.095	82.62
480.313	97.62
480.532	89.62
480.751	101.62
480.969	126.62
481.188	258.62
481.406	186.62
481.624	104.62
481.843	87.62
482.061	87.62
482.28	100.62
482.498	78.62
482.717	92.62
482.935	82.62
483.153	82.62
483.372	92.62
483.59	88.62
483.808	91.62
484.027	94.62
484.245	96.62
484.463	75.62
484.681	110.62
484.9	93.62
485.118	94.62
485.336	93.62
485.554	95.62
485.772	105.62
485.99	108.62
486.209	106.62
486.427	114.62
486.645	104.62
486.863	119.62
487.081	107.62
487.299	97.62
487.517	110.62
487.735	89.62
487.953	98.62
488.171	99.62
488.389	113.62
488.607	104.62
488.825	114.62
489.043	81.62
489.261	101.62
489.479	83.62
489.696	84.62
489.914	88.62
490.132	91.62
490.35	97.62
490.568	82.62
490.786	83.62
491.003	95.62
491.221	86.62
491.439	90.62
491.657	112.62
491.874	98.62
492.092	94.62
492.31	95.62
492.527	96.62
492.745	93.62
492.963	84.62
493.18	87.62
493.398	95.62
493.615	100.62
493.833	92.62
494.05	94.62
494.268	102.62
494.485	94.62
494.703	88.62
494.92	99.62
495.138	87.62
495.355	83.62
495.573	100.62
495.79	91.62
496.008	90.62
496.225	100.62
496.442	85.62
496.66	80.62
496.877	96.62
497.094	111.62
497.312	70.62
497.529	92.62
497.746	89.62
497.963	87.62
498.181	91.62
498.398	100.62
498.615	100.62
498.832	114.62
499.049	104.62
499.267	84.62
499.484	77.62
499.701	97.62
499.918	92.62
500.135	94.62
500.352	104.62
500.569	82.62
500.786	81.62
501.003	94.62
501.22	103.62
501.437	96.62
501.654	104.62
501.871	103.62
502.088	104.62
502.305	97.62
502.522	74.62
502.739	102.62
502.956	102.62
503.172	101.62
503.389	91.62
503.606	97.62
503.823	96.62
504.04	100.62
504.256	108.62
504.473	108.62
504.69	95.62
504.907	93.62
505.123	97.62
505.34	104.62
505.557	97.62
505.773	99.62
505.99	96.62
506.207	94.62
506.423	85.62
506.64	94.62
506.856	85.62
507.073	88.62
507.289	87.62
507.506	102.62
507.722	109.62
507.939	98.62
508.155	92.62
508.372	92.62
508.588	100.62
508.805	93.62
509.021	94.62
509.238	79.62
509.454	92.62
509.67	89.62
509.887	98.62
510.103	125.62
510.319	214.62
510.536	659.62
510.752	2125.62
510.968	615.62
511.184	146.62
511.401	103.62
511.617	100.62
511.833	98.62
512.049	96.62
512.265	82.62
512.481	88.62
512.698	111.62
512.914	87.62
513.13	94.62
513.346	88.62
513.562	102.62
513.778	91.62
513.994	109.62
514.21	95.62
514.426	115.62
514.642	137.62
514.858	119.62
515.074	136.62
