Data from Circ_2005_H10_HRD10591_00078.txt Node
Date: Wed Jan 03 10:30:06 EST 2024
User: Yrep
Spectrometer: HR+D1059
Trigger mode: 1
Integration Time (sec): 1.000000E-1
Scans to average: 1
Electric dark correction enabled: true
Nonlinearity correction enabled: false
Boxcar width: 0
XAxis mode: Wavelengths
Number of Pixels in Spectrum: 2048
>>>>>Begin Spectral Data<<<<<
223.165	-8.44
223.4	-8.44
223.635	-8.44
223.869	-18.44
224.104	-22.44
224.338	-10.44
224.573	-27.44
224.808	-11.44
225.042	-8.44
225.277	-14.44
225.511	-6.44
225.746	6.56
225.98	12.56
226.215	11.56
226.449	33.56
226.683	16.56
226.918	15.56
227.152	31.56
227.387	35.56
227.621	47.56
227.856	36.56
228.09	37.56
228.324	56.56
228.559	58.56
228.793	48.56
229.027	57.56
229.262	60.56
229.496	55.56
229.73	65.56
229.964	75.56
230.199	77.56
230.433	60.56
230.667	67.56
230.901	83.56
231.136	82.56
231.37	65.56
231.604	72.56
231.838	71.56
232.072	69.56
232.306	77.56
232.541	67.56
232.775	77.56
233.009	75.56
233.243	63.56
233.477	72.56
233.711	77.56
233.945	78.56
234.179	68.56
234.413	82.56
234.647	84.56
234.881	77.56
235.115	92.56
235.349	78.56
235.583	80.56
235.817	79.56
236.051	84.56
236.285	71.56
236.519	69.56
236.753	80.56
236.987	77.56
237.221	69.56
237.455	67.56
237.689	62.56
237.922	78.56
238.156	72.56
238.39	74.56
238.624	83.56
238.858	75.56
239.091	79.56
239.325	82.56
239.559	75.56
239.793	84.56
240.027	64.56
240.26	58.56
240.494	75.56
240.728	82.56
240.961	66.56
241.195	81.56
241.429	78.56
241.662	77.56
241.896	65.56
242.13	75.56
242.363	76.56
242.597	76.56
242.83	70.56
243.064	83.56
243.298	70.56
243.531	84.56
243.765	81.56
243.998	72.56
244.232	80.56
244.465	89.56
244.699	64.56
244.932	87.56
245.166	78.56
245.399	79.56
245.633	80.56
245.866	62.56
246.099	87.56
246.333	75.56
246.566	83.56
246.8	76.56
247.033	83.56
247.266	74.56
247.5	86.56
247.733	81.56
247.966	63.56
248.2	69.56
248.433	60.56
248.666	82.56
248.899	71.56
249.133	87.56
249.366	105.56
249.599	93.56
249.832	80.56
250.066	93.56
250.299	73.56
250.532	77.56
250.765	80.56
250.998	71.56
251.231	57.56
251.465	76.56
251.698	76.56
251.931	69.56
252.164	59.56
252.397	80.56
252.63	76.56
252.863	83.56
253.096	73.56
253.329	81.56
253.562	75.56
253.795	88.56
254.028	71.56
254.261	76.56
254.494	84.56
254.727	76.56
254.96	83.56
255.193	77.56
255.426	58.56
255.659	77.56
255.892	74.56
256.124	79.56
256.357	76.56
256.59	77.56
256.823	79.56
257.056	83.56
257.289	79.56
257.521	70.56
257.754	92.56
257.987	87.56
258.22	85.56
258.452	57.56
258.685	74.56
258.918	83.56
259.151	83.56
259.383	80.56
259.616	72.56
259.849	85.56
260.081	79.56
260.314	77.56
260.547	66.56
260.779	82.56
261.012	96.56
261.244	84.56
261.477	77.56
261.71	91.56
261.942	90.56
262.175	99.56
262.407	82.56
262.64	85.56
262.872	88.56
263.105	76.56
263.337	78.56
263.57	82.56
263.802	87.56
264.035	73.56
264.267	74.56
264.499	80.56
264.732	96.56
264.964	79.56
265.197	92.56
265.429	62.56
265.661	83.56
265.894	87.56
266.126	73.56
266.358	72.56
266.591	77.56
266.823	73.56
267.055	92.56
267.287	87.56
267.52	84.56
267.752	82.56
267.984	83.56
268.216	71.56
268.448	79.56
268.681	83.56
268.913	84.56
269.145	87.56
269.377	88.56
269.609	83.56
269.841	77.56
270.073	70.56
270.306	87.56
270.538	76.56
270.77	90.56
271.002	63.56
271.234	71.56
271.466	74.56
271.698	85.56
271.93	89.56
272.162	84.56
272.394	84.56
272.626	79.56
272.858	73.56
273.09	80.56
273.322	71.56
273.553	67.56
273.785	75.56
274.017	82.56
274.249	73.56
274.481	81.56
274.713	76.56
274.945	84.56
275.176	82.56
275.408	69.56
275.64	79.56
275.872	87.56
276.104	68.56
276.335	88.56
276.567	83.56
276.799	93.56
277.031	96.56
277.262	92.56
277.494	97.56
277.726	86.56
277.957	75.56
278.189	74.56
278.421	72.56
278.652	73.56
278.884	78.56
279.115	73.56
279.347	91.56
279.579	103.56
279.81	96.56
280.042	87.56
280.273	84.56
280.505	95.56
280.736	79.56
280.968	82.56
281.199	87.56
281.431	94.56
281.662	90.56
281.894	88.56
282.125	108.56
282.356	109.56
282.588	111.56
282.819	104.56
283.051	96.56
283.282	64.56
283.513	79.56
283.745	83.56
283.976	75.56
284.207	86.56
284.439	72.56
284.67	89.56
284.901	74.56
285.132	79.56
285.364	92.56
285.595	69.56
285.826	81.56
286.057	79.56
286.288	77.56
286.52	84.56
286.751	88.56
286.982	83.56
287.213	65.56
287.444	91.56
287.675	82.56
287.906	95.56
288.138	84.56
288.369	83.56
288.6	92.56
288.831	84.56
289.062	88.56
289.293	95.56
289.524	81.56
289.755	96.56
289.986	72.56
290.217	79.56
290.448	68.56
290.679	85.56
290.91	75.56
291.141	87.56
291.371	98.56
291.602	76.56
291.833	82.56
292.064	87.56
292.295	64.56
292.526	89.56
292.757	83.56
292.987	72.56
293.218	85.56
293.449	74.56
293.68	82.56
293.91	85.56
294.141	83.56
294.372	85.56
294.603	90.56
294.833	82.56
295.064	91.56
295.295	73.56
295.525	87.56
295.756	91.56
295.987	115.56
296.217	131.56
296.448	109.56
296.679	91.56
296.909	81.56
297.14	78.56
297.37	93.56
297.601	76.56
297.831	83.56
298.062	88.56
298.292	75.56
298.523	85.56
298.753	83.56
298.984	93.56
299.214	85.56
299.445	87.56
299.675	84.56
299.905	100.56
300.136	81.56
300.366	75.56
300.597	96.56
300.827	82.56
301.057	82.56
301.288	98.56
301.518	80.56
301.748	72.56
301.979	97.56
302.209	84.56
302.439	75.56
302.669	77.56
302.9	97.56
303.13	80.56
303.36	96.56
303.59	90.56
303.82	111.56
304.051	98.56
304.281	91.56
304.511	88.56
304.741	91.56
304.971	71.56
305.201	88.56
305.431	90.56
305.661	95.56
305.891	88.56
306.121	82.56
306.352	81.56
306.582	90.56
306.812	89.56
307.042	84.56
307.272	82.56
307.502	98.56
307.731	85.56
307.961	75.56
308.191	78.56
308.421	91.56
308.651	78.56
308.881	92.56
309.111	82.56
309.341	86.56
309.571	99.56
309.8	91.56
310.03	90.56
310.26	93.56
310.49	95.56
310.72	95.56
310.949	90.56
311.179	79.56
311.409	101.56
311.639	75.56
311.868	95.56
312.098	105.56
312.328	96.56
312.557	101.56
312.787	96.56
313.017	78.56
313.246	95.56
313.476	72.56
313.706	94.56
313.935	96.56
314.165	94.56
314.394	93.56
314.624	96.56
314.853	88.56
315.083	93.56
315.312	95.56
315.542	85.56
315.771	83.56
316.001	83.56
316.23	75.56
316.46	88.56
316.689	82.56
316.919	90.56
317.148	102.56
317.377	88.56
317.607	97.56
317.836	84.56
318.065	92.56
318.295	89.56
318.524	89.56
318.753	90.56
318.983	85.56
319.212	85.56
319.441	92.56
319.67	97.56
319.9	72.56
320.129	82.56
320.358	83.56
320.587	80.56
320.816	107.56
321.046	91.56
321.275	95.56
321.504	87.56
321.733	92.56
321.962	101.56
322.191	100.56
322.42	92.56
322.649	100.56
322.878	101.56
323.108	112.56
323.337	111.56
323.566	121.56
323.795	134.56
324.024	178.56
324.253	377.56
324.482	756.56
324.71	1604.56
324.939	2105.56
325.168	766.56
325.397	232.56
325.626	131.56
325.855	123.56
326.084	125.56
326.313	115.56
326.542	135.56
326.77	231.56
326.999	424.56
327.228	925.56
327.457	1647.56
327.686	1284.56
327.914	371.56
328.143	205.56
328.372	172.56
328.6	143.56
328.829	113.56
329.058	109.56
329.287	123.56
329.515	103.56
329.744	95.56
329.972	119.56
330.201	160.56
330.43	203.56
330.658	157.56
330.887	124.56
331.115	108.56
331.344	100.56
331.572	96.56
331.801	105.56
332.03	90.56
332.258	96.56
332.486	89.56
332.715	85.56
332.943	80.56
333.172	79.56
333.4	86.56
333.629	94.56
333.857	104.56
334.085	134.56
334.314	173.56
334.542	242.56
334.771	229.56
334.999	137.56
335.227	88.56
335.455	103.56
335.684	94.56
335.912	83.56
336.14	89.56
336.369	105.56
336.597	97.56
336.825	79.56
337.053	88.56
337.281	76.56
337.51	77.56
337.738	88.56
337.966	79.56
338.194	93.56
338.422	83.56
338.65	88.56
338.878	89.56
339.106	96.56
339.334	93.56
339.562	80.56
339.79	92.56
340.018	95.56
340.246	87.56
340.474	89.56
340.702	86.56
340.93	87.56
341.158	80.56
341.386	93.56
341.614	93.56
341.842	99.56
342.07	96.56
342.298	90.56
342.526	80.56
342.754	90.56
342.981	97.56
343.209	75.56
343.437	87.56
343.665	92.56
343.893	91.56
344.12	87.56
344.348	90.56
344.576	96.56
344.804	92.56
345.031	85.56
345.259	104.56
345.487	85.56
345.714	99.56
345.942	82.56
346.17	82.56
346.397	88.56
346.625	98.56
346.853	86.56
347.08	87.56
347.308	90.56
347.535	96.56
347.763	101.56
347.99	90.56
348.218	94.56
348.445	95.56
348.673	87.56
348.9	99.56
349.128	90.56
349.355	89.56
349.583	88.56
349.81	103.56
350.037	78.56
350.265	85.56
350.492	95.56
350.72	79.56
350.947	101.56
351.174	100.56
351.402	117.56
351.629	81.56
351.856	97.56
352.083	99.56
352.311	96.56
352.538	94.56
352.765	98.56
352.992	101.56
353.22	100.56
353.447	100.56
353.674	91.56
353.901	85.56
354.128	89.56
354.355	103.56
354.583	94.56
354.81	92.56
355.037	100.56
355.264	93.56
355.491	87.56
355.718	84.56
355.945	87.56
356.172	88.56
356.399	99.56
356.626	90.56
356.853	89.56
357.08	75.56
357.307	86.56
357.534	91.56
357.761	85.56
357.988	85.56
358.215	98.56
358.441	84.56
358.668	82.56
358.895	82.56
359.122	93.56
359.349	90.56
359.576	103.56
359.802	98.56
360.029	97.56
360.256	98.56
360.483	87.56
360.709	88.56
360.936	94.56
361.163	99.56
361.39	81.56
361.616	84.56
361.843	80.56
362.07	97.56
362.296	83.56
362.523	97.56
362.749	86.56
362.976	78.56
363.203	79.56
363.429	81.56
363.656	93.56
363.882	74.56
364.109	67.56
364.335	90.56
364.562	67.56
364.788	92.56
365.015	89.56
365.241	82.56
365.468	84.56
365.694	91.56
365.92	95.56
366.147	78.56
366.373	91.56
366.599	79.56
366.826	92.56
367.052	80.56
367.278	94.56
367.505	91.56
367.731	89.56
367.957	95.56
368.184	82.56
368.41	95.56
368.636	112.56
368.862	100.56
369.089	96.56
369.315	87.56
369.541	78.56
369.767	88.56
369.993	87.56
370.219	82.56
370.445	89.56
370.672	82.56
370.898	82.56
371.124	78.56
371.35	89.56
371.576	76.56
371.802	101.56
372.028	88.56
372.254	80.56
372.48	84.56
372.706	68.56
372.932	72.56
373.158	93.56
373.384	82.56
373.61	94.56
373.835	82.56
374.061	80.56
374.287	82.56
374.513	77.56
374.739	98.56
374.965	97.56
375.191	84.56
375.416	71.56
375.642	95.56
375.868	88.56
376.094	78.56
376.319	83.56
376.545	87.56
376.771	80.56
376.997	98.56
377.222	85.56
377.448	86.56
377.674	93.56
377.899	92.56
378.125	98.56
378.35	88.56
378.576	94.56
378.802	82.56
379.027	96.56
379.253	93.56
379.478	85.56
379.704	90.56
379.929	84.56
380.155	102.56
380.38	74.56
380.606	84.56
380.831	83.56
381.057	87.56
381.282	85.56
381.507	86.56
381.733	93.56
381.958	81.56
382.184	92.56
382.409	98.56
382.634	97.56
382.86	84.56
383.085	85.56
383.31	85.56
383.535	98.56
383.761	104.56
383.986	96.56
384.211	79.56
384.436	97.56
384.662	96.56
384.887	95.56
385.112	112.56
385.337	89.56
385.562	105.56
385.787	92.56
386.013	91.56
386.238	112.56
386.463	106.56
386.688	96.56
386.913	92.56
387.138	90.56
387.363	88.56
387.588	97.56
387.813	96.56
388.038	96.56
388.263	107.56
388.488	101.56
388.713	103.56
388.938	108.56
389.163	97.56
389.387	75.56
389.612	85.56
389.837	87.56
390.062	83.56
390.287	92.56
390.512	82.56
390.736	81.56
390.961	97.56
391.186	87.56
391.411	95.56
391.636	81.56
391.86	97.56
392.085	79.56
392.31	76.56
392.534	82.56
392.759	85.56
392.984	85.56
393.208	91.56
393.433	83.56
393.658	80.56
393.882	82.56
394.107	90.56
394.331	80.56
394.556	78.56
394.78	71.56
395.005	87.56
395.229	93.56
395.454	78.56
395.678	69.56
395.903	92.56
396.127	82.56
396.352	88.56
396.576	80.56
396.801	81.56
397.025	81.56
397.249	78.56
397.474	95.56
397.698	93.56
397.922	81.56
398.147	89.56
398.371	73.56
398.595	84.56
398.82	81.56
399.044	79.56
399.268	82.56
399.492	92.56
399.717	87.56
399.941	92.56
400.165	96.56
400.389	87.56
400.613	93.56
400.837	94.56
401.062	72.56
401.286	82.56
401.51	91.56
401.734	72.56
401.958	97.56
402.182	121.56
402.406	145.56
402.63	122.56
402.854	85.56
403.078	83.56
403.302	95.56
403.526	83.56
403.75	72.56
403.974	83.56
404.198	91.56
404.422	84.56
404.645	97.56
404.869	93.56
405.093	96.56
405.317	110.56
405.541	106.56
405.765	104.56
405.988	98.56
406.212	146.56
406.436	211.56
406.66	116.56
406.883	96.56
407.107	83.56
407.331	82.56
407.555	92.56
407.778	86.56
408.002	88.56
408.226	76.56
408.449	87.56
408.673	79.56
408.896	94.56
409.12	96.56
409.344	85.56
409.567	80.56
409.791	79.56
410.014	89.56
410.238	85.56
410.461	78.56
410.685	94.56
410.908	82.56
411.132	103.56
411.355	87.56
411.578	81.56
411.802	87.56
412.025	79.56
412.249	87.56
412.472	79.56
412.695	102.56
412.919	91.56
413.142	73.56
413.365	66.56
413.589	82.56
413.812	73.56
414.035	86.56
414.258	101.56
414.482	90.56
414.705	92.56
414.928	95.56
415.151	84.56
415.374	81.56
415.597	94.56
415.821	89.56
416.044	91.56
416.267	86.56
416.49	85.56
416.713	75.56
416.936	80.56
417.159	88.56
417.382	72.56
417.605	85.56
417.828	74.56
418.051	73.56
418.274	92.56
418.497	88.56
418.72	77.56
418.943	79.56
419.166	84.56
419.389	90.56
419.611	85.56
419.834	87.56
420.057	90.56
420.28	80.56
420.503	74.56
420.726	78.56
420.948	89.56
421.171	93.56
421.394	82.56
421.617	90.56
421.839	99.56
422.062	80.56
422.285	85.56
422.507	92.56
422.73	109.56
422.953	92.56
423.175	91.56
423.398	89.56
423.621	106.56
423.843	89.56
424.066	72.56
424.288	82.56
424.511	82.56
424.733	90.56
424.956	99.56
425.178	84.56
425.401	101.56
425.623	91.56
425.846	92.56
426.068	88.56
426.291	84.56
426.513	76.56
426.735	91.56
426.958	83.56
427.18	106.56
427.402	140.56
427.625	145.56
427.847	119.56
428.069	113.56
428.292	85.56
428.514	83.56
428.736	82.56
428.958	81.56
429.181	83.56
429.403	70.56
429.625	62.56
429.847	79.56
430.069	91.56
430.292	94.56
430.514	84.56
430.736	75.56
430.958	78.56
431.18	93.56
431.402	89.56
431.624	82.56
431.846	79.56
432.068	80.56
432.29	61.56
432.512	77.56
432.734	88.56
432.956	88.56
433.178	99.56
433.4	86.56
433.622	94.56
433.844	106.56
434.066	87.56
434.287	95.56
434.509	93.56
434.731	95.56
434.953	94.56
435.175	85.56
435.397	69.56
435.618	81.56
435.84	103.56
436.062	110.56
436.284	104.56
436.505	94.56
436.727	103.56
436.949	98.56
437.17	83.56
437.392	91.56
437.614	100.56
437.835	107.56
438.057	100.56
438.278	93.56
438.5	94.56
438.721	113.56
438.943	91.56
439.165	86.56
439.386	91.56
439.608	94.56
439.829	99.56
440.05	104.56
440.272	128.56
440.493	105.56
440.715	90.56
440.936	87.56
441.158	90.56
441.379	85.56
441.6	93.56
441.822	75.56
442.043	89.56
442.264	109.56
442.486	91.56
442.707	86.56
442.928	103.56
443.149	120.56
443.371	105.56
443.592	92.56
443.813	116.56
444.034	98.56
444.255	74.56
444.476	78.56
444.698	83.56
444.919	90.56
445.14	146.56
445.361	115.56
445.582	115.56
445.803	115.56
446.024	111.56
446.245	104.56
446.466	97.56
446.687	89.56
446.908	90.56
447.129	90.56
447.35	76.56
447.571	92.56
447.792	90.56
448.013	93.56
448.234	91.56
448.455	96.56
448.675	105.56
448.896	111.56
449.117	99.56
449.338	103.56
449.559	116.56
449.779	126.56
450	79.56
450.221	77.56
450.442	98.56
450.662	85.56
450.883	102.56
451.104	105.56
451.324	77.56
451.545	79.56
451.766	82.56
451.986	84.56
452.207	80.56
452.428	88.56
452.648	79.56
452.869	119.56
453.089	112.56
453.31	98.56
453.53	96.56
453.751	82.56
453.971	116.56
454.192	94.56
454.412	89.56
454.633	85.56
454.853	76.56
455.073	74.56
455.294	88.56
455.514	79.56
455.734	89.56
455.955	94.56
456.175	79.56
456.395	85.56
456.616	76.56
456.836	78.56
457.056	71.56
457.276	91.56
457.497	62.56
457.717	71.56
457.937	80.56
458.157	71.56
458.377	80.56
458.598	97.56
458.818	117.56
459.038	127.56
459.258	116.56
459.478	80.56
459.698	82.56
459.918	74.56
460.138	70.56
460.358	85.56
460.578	74.56
460.798	73.56
461.018	81.56
461.238	94.56
461.458	72.56
461.678	81.56
461.898	78.56
462.118	91.56
462.338	93.56
462.558	80.56
462.777	78.56
462.997	81.56
463.217	83.56
463.437	73.56
463.657	73.56
463.876	75.56
464.096	90.56
464.316	91.56
464.536	91.56
464.755	82.56
464.975	85.56
465.195	142.56
465.414	135.56
465.634	86.56
465.854	78.56
466.073	88.56
466.293	93.56
466.512	80.56
466.732	88.56
466.951	85.56
467.171	110.56
467.391	95.56
467.61	88.56
467.829	96.56
468.049	115.56
468.268	162.56
468.488	97.56
468.707	88.56
468.927	74.56
469.146	73.56
469.365	85.56
469.585	72.56
469.804	89.56
470.023	101.56
470.243	101.56
470.462	87.56
470.681	85.56
470.901	85.56
471.12	86.56
471.339	84.56
471.558	102.56
471.777	91.56
471.997	101.56
472.216	191.56
472.435	299.56
472.654	140.56
472.873	94.56
473.092	82.56
473.311	77.56
473.53	84.56
473.749	84.56
473.968	103.56
474.187	86.56
474.406	78.56
474.625	92.56
474.844	76.56
475.063	72.56
475.282	78.56
475.501	84.56
475.72	97.56
475.939	88.56
476.158	87.56
476.377	87.56
476.596	77.56
476.814	87.56
477.033	80.56
477.252	102.56
477.471	94.56
477.69	90.56
477.908	81.56
478.127	90.56
478.346	67.56
478.564	67.56
478.783	85.56
479.002	82.56
479.22	74.56
479.439	98.56
479.658	88.56
479.876	92.56
480.095	74.56
480.313	88.56
480.532	95.56
480.751	95.56
480.969	164.56
481.188	485.56
481.406	302.56
481.624	108.56
481.843	90.56
482.061	85.56
482.28	78.56
482.498	84.56
482.717	82.56
482.935	87.56
483.153	85.56
483.372	97.56
483.59	92.56
483.808	86.56
484.027	94.56
484.245	84.56
484.463	93.56
484.681	94.56
484.9	83.56
485.118	94.56
485.336	94.56
485.554	96.56
485.772	83.56
485.99	108.56
486.209	92.56
486.427	109.56
486.645	104.56
486.863	98.56
487.081	96.56
487.299	81.56
487.517	102.56
487.735	96.56
487.953	94.56
488.171	85.56
488.389	104.56
488.607	99.56
488.825	86.56
489.043	83.56
489.261	91.56
489.479	76.56
489.696	88.56
489.914	89.56
490.132	94.56
490.35	94.56
490.568	84.56
490.786	77.56
491.003	91.56
491.221	73.56
491.439	84.56
491.657	84.56
491.874	91.56
492.092	90.56
492.31	85.56
492.527	92.56
492.745	84.56
492.963	91.56
493.18	100.56
493.398	80.56
493.615	89.56
493.833	76.56
494.05	80.56
494.268	84.56
494.485	92.56
494.703	80.56
494.92	89.56
495.138	87.56
495.355	83.56
495.573	76.56
495.79	79.56
496.008	85.56
496.225	93.56
496.442	76.56
496.66	92.56
496.877	99.56
497.094	84.56
497.312	81.56
497.529	90.56
497.746	101.56
497.963	90.56
498.181	85.56
498.398	90.56
498.615	81.56
498.832	90.56
499.049	72.56
499.267	95.56
499.484	81.56
499.701	84.56
499.918	74.56
500.135	102.56
500.352	104.56
500.569	98.56
500.786	80.56
501.003	88.56
501.22	91.56
501.437	88.56
501.654	99.56
501.871	101.56
502.088	82.56
502.305	97.56
502.522	77.56
502.739	89.56
502.956	92.56
503.172	90.56
503.389	106.56
503.606	97.56
503.823	94.56
504.04	82.56
504.256	79.56
504.473	92.56
504.69	80.56
504.907	82.56
505.123	93.56
505.34	82.56
505.557	82.56
505.773	90.56
505.99	91.56
506.207	77.56
506.423	76.56
506.64	82.56
506.856	75.56
507.073	96.56
507.289	92.56
507.506	80.56
507.722	93.56
507.939	113.56
508.155	95.56
508.372	68.56
508.588	87.56
508.805	92.56
509.021	85.56
509.238	98.56
509.454	97.56
509.67	86.56
509.887	107.56
510.103	123.56
510.319	187.56
510.536	683.56
510.752	2123.56
510.968	615.56
511.184	149.56
511.401	116.56
511.617	83.56
511.833	94.56
512.049	91.56
512.265	70.56
512.481	84.56
512.698	81.56
512.914	99.56
513.13	93.56
513.346	87.56
513.562	85.56
513.778	73.56
513.994	103.56
514.21	91.56
514.426	98.56
514.642	125.56
514.858	104.56
515.074	160.56
515.29	400.56
515.506	1282.56
515.721	496.56
515.937	149.56
516.153	104.56
516.369	87.56
516.585	78.56
516.801	98.56
517.016	85.56
517.232	89.56
517.448	97.56
