Data from Circ_2005_H10_HRD10591_00081.txt Node
Date: Wed Jan 03 10:30:07 EST 2024
User: Yrep
Spectrometer: HR+D1059
Trigger mode: 1
Integration Time (sec): 1.000000E-1
Scans to average: 1
Electric dark correction enabled: true
Nonlinearity correction enabled: false
Boxcar width: 0
XAxis mode: Wavelengths
Number of Pixels in Spectrum: 2048
>>>>>Begin Spectral Data<<<<<
223.165	-18.69
223.4	-18.69
223.635	-18.69
223.869	-26.69
224.104	-27.69
224.338	-9.69
224.573	-13.69
224.808	-9.69
225.042	1.31
225.277	3.31
225.511	-12.69
225.746	5.31
225.98	0.31
226.215	7.31
226.449	11.31
226.683	22.31
226.918	30.31
227.152	37.31
227.387	23.31
227.621	39.31
227.856	47.31
228.09	35.31
228.324	34.31
228.559	49.31
228.793	53.31
229.027	51.31
229.262	80.31
229.496	77.31
229.73	71.31
229.964	77.31
230.199	85.31
230.433	71.31
230.667	87.31
230.901	78.31
231.136	84.31
231.37	67.31
231.604	76.31
231.838	83.31
232.072	78.31
232.306	87.31
232.541	96.31
232.775	77.31
233.009	80.31
233.243	83.31
233.477	88.31
233.711	79.31
233.945	99.31
234.179	76.31
234.413	86.31
234.647	71.31
234.881	84.31
235.115	85.31
235.349	82.31
235.583	92.31
235.817	66.31
236.051	79.31
236.285	63.31
236.519	78.31
236.753	85.31
236.987	83.31
237.221	78.31
237.455	87.31
237.689	71.31
237.922	70.31
238.156	75.31
238.39	81.31
238.624	74.31
238.858	75.31
239.091	69.31
239.325	81.31
239.559	81.31
239.793	72.31
240.027	80.31
240.26	70.31
240.494	88.31
240.728	68.31
240.961	74.31
241.195	80.31
241.429	75.31
241.662	65.31
241.896	83.31
242.13	80.31
242.363	70.31
242.597	80.31
242.83	83.31
243.064	88.31
243.298	87.31
243.531	74.31
243.765	72.31
243.998	77.31
244.232	69.31
244.465	78.31
244.699	78.31
244.932	90.31
245.166	84.31
245.399	86.31
245.633	79.31
245.866	72.31
246.099	71.31
246.333	62.31
246.566	80.31
246.8	81.31
247.033	79.31
247.266	66.31
247.5	77.31
247.733	80.31
247.966	96.31
248.2	78.31
248.433	70.31
248.666	89.31
248.899	66.31
249.133	72.31
249.366	91.31
249.599	86.31
249.832	74.31
250.066	84.31
250.299	80.31
250.532	74.31
250.765	92.31
250.998	87.31
251.231	75.31
251.465	82.31
251.698	74.31
251.931	72.31
252.164	95.31
252.397	96.31
252.63	87.31
252.863	72.31
253.096	86.31
253.329	70.31
253.562	85.31
253.795	84.31
254.028	85.31
254.261	70.31
254.494	77.31
254.727	92.31
254.96	79.31
255.193	69.31
255.426	82.31
255.659	85.31
255.892	75.31
256.124	68.31
256.357	75.31
256.59	94.31
256.823	78.31
257.056	78.31
257.289	74.31
257.521	77.31
257.754	84.31
257.987	85.31
258.22	84.31
258.452	78.31
258.685	94.31
258.918	71.31
259.151	83.31
259.383	76.31
259.616	86.31
259.849	85.31
260.081	82.31
260.314	86.31
260.547	71.31
260.779	93.31
261.012	78.31
261.244	88.31
261.477	80.31
261.71	91.31
261.942	111.31
262.175	112.31
262.407	87.31
262.64	67.31
262.872	80.31
263.105	87.31
263.337	89.31
263.57	78.31
263.802	91.31
264.035	88.31
264.267	82.31
264.499	94.31
264.732	93.31
264.964	80.31
265.197	91.31
265.429	80.31
265.661	71.31
265.894	88.31
266.126	74.31
266.358	77.31
266.591	88.31
266.823	92.31
267.055	77.31
267.287	87.31
267.52	81.31
267.752	92.31
267.984	72.31
268.216	74.31
268.448	82.31
268.681	79.31
268.913	77.31
269.145	76.31
269.377	103.31
269.609	86.31
269.841	95.31
270.073	86.31
270.306	74.31
270.538	93.31
270.77	80.31
271.002	83.31
271.234	92.31
271.466	77.31
271.698	79.31
271.93	88.31
272.162	82.31
272.394	83.31
272.626	77.31
272.858	87.31
273.09	89.31
273.322	79.31
273.553	82.31
273.785	94.31
274.017	84.31
274.249	70.31
274.481	97.31
274.713	100.31
274.945	92.31
275.176	89.31
275.408	89.31
275.64	74.31
275.872	70.31
276.104	93.31
276.335	66.31
276.567	83.31
276.799	113.31
277.031	104.31
277.262	98.31
277.494	92.31
277.726	86.31
277.957	82.31
278.189	88.31
278.421	80.31
278.652	94.31
278.884	80.31
279.115	95.31
279.347	79.31
279.579	97.31
279.81	91.31
280.042	94.31
280.273	96.31
280.505	93.31
280.736	87.31
280.968	104.31
281.199	86.31
281.431	72.31
281.662	92.31
281.894	92.31
282.125	94.31
282.356	113.31
282.588	133.31
282.819	123.31
283.051	90.31
283.282	87.31
283.513	98.31
283.745	83.31
283.976	83.31
284.207	80.31
284.439	84.31
284.67	86.31
284.901	110.31
285.132	80.31
285.364	80.31
285.595	86.31
285.826	83.31
286.057	86.31
286.288	74.31
286.52	82.31
286.751	70.31
286.982	88.31
287.213	89.31
287.444	95.31
287.675	74.31
287.906	82.31
288.138	79.31
288.369	79.31
288.6	70.31
288.831	82.31
289.062	88.31
289.293	80.31
289.524	94.31
289.755	88.31
289.986	98.31
290.217	80.31
290.448	83.31
290.679	79.31
290.91	96.31
291.141	97.31
291.371	90.31
291.602	93.31
291.833	71.31
292.064	81.31
292.295	95.31
292.526	74.31
292.757	78.31
292.987	76.31
293.218	104.31
293.449	96.31
293.68	85.31
293.91	77.31
294.141	86.31
294.372	95.31
294.603	83.31
294.833	96.31
295.064	97.31
295.295	83.31
295.525	100.31
295.756	91.31
295.987	118.31
296.217	133.31
296.448	110.31
296.679	88.31
296.909	80.31
297.14	106.31
297.37	91.31
297.601	83.31
297.831	80.31
298.062	92.31
298.292	81.31
298.523	91.31
298.753	90.31
298.984	88.31
299.214	87.31
299.445	83.31
299.675	93.31
299.905	95.31
300.136	86.31
300.366	100.31
300.597	98.31
300.827	79.31
301.057	81.31
301.288	85.31
301.518	93.31
301.748	82.31
301.979	92.31
302.209	81.31
302.439	67.31
302.669	86.31
302.9	98.31
303.13	92.31
303.36	99.31
303.59	99.31
303.82	92.31
304.051	88.31
304.281	100.31
304.511	79.31
304.741	85.31
304.971	81.31
305.201	83.31
305.431	84.31
305.661	103.31
305.891	93.31
306.121	99.31
306.352	95.31
306.582	93.31
306.812	84.31
307.042	93.31
307.272	100.31
307.502	91.31
307.731	88.31
307.961	102.31
308.191	91.31
308.421	92.31
308.651	98.31
308.881	86.31
309.111	85.31
309.341	95.31
309.571	102.31
309.8	108.31
310.03	100.31
310.26	106.31
310.49	92.31
310.72	85.31
310.949	119.31
311.179	104.31
311.409	101.31
311.639	83.31
311.868	96.31
312.098	100.31
312.328	82.31
312.557	84.31
312.787	111.31
313.017	99.31
313.246	93.31
313.476	87.31
313.706	98.31
313.935	92.31
314.165	90.31
314.394	74.31
314.624	99.31
314.853	86.31
315.083	92.31
315.312	87.31
315.542	88.31
315.771	87.31
316.001	83.31
316.23	99.31
316.46	91.31
316.689	93.31
316.919	92.31
317.148	92.31
317.377	88.31
317.607	104.31
317.836	91.31
318.065	87.31
318.295	83.31
318.524	94.31
318.753	88.31
318.983	93.31
319.212	108.31
319.441	112.31
319.67	99.31
319.9	95.31
320.129	87.31
320.358	89.31
320.587	101.31
320.816	85.31
321.046	97.31
321.275	91.31
321.504	104.31
321.733	93.31
321.962	77.31
322.191	90.31
322.42	103.31
322.649	100.31
322.878	106.31
323.108	105.31
323.337	130.31
323.566	134.31
323.795	151.31
324.024	189.31
324.253	353.31
324.482	766.31
324.71	1523.31
324.939	2017.31
325.168	737.31
325.397	239.31
325.626	146.31
325.855	130.31
326.084	126.31
326.313	111.31
326.542	144.31
326.77	219.31
326.999	443.31
327.228	863.31
327.457	1553.31
327.686	1286.31
327.914	368.31
328.143	217.31
328.372	173.31
328.6	131.31
328.829	132.31
329.058	128.31
329.287	126.31
329.515	104.31
329.744	104.31
329.972	136.31
330.201	176.31
330.43	228.31
330.658	149.31
330.887	133.31
331.115	119.31
331.344	104.31
331.572	98.31
331.801	105.31
332.03	100.31
332.258	86.31
332.486	87.31
332.715	103.31
332.943	85.31
333.172	106.31
333.4	110.31
333.629	99.31
333.857	132.31
334.085	137.31
334.314	194.31
334.542	274.31
334.771	280.31
334.999	122.31
335.227	104.31
335.455	106.31
335.684	94.31
335.912	102.31
336.14	75.31
336.369	94.31
336.597	84.31
336.825	96.31
337.053	88.31
337.281	85.31
337.51	85.31
337.738	88.31
337.966	89.31
338.194	94.31
338.422	95.31
338.65	90.31
338.878	96.31
339.106	78.31
339.334	85.31
339.562	79.31
339.79	98.31
340.018	80.31
340.246	100.31
340.474	95.31
340.702	92.31
340.93	87.31
341.158	85.31
341.386	92.31
341.614	89.31
341.842	88.31
342.07	91.31
342.298	86.31
342.526	95.31
342.754	99.31
342.981	87.31
343.209	102.31
343.437	107.31
343.665	86.31
343.893	89.31
344.12	85.31
344.348	85.31
344.576	78.31
344.804	92.31
345.031	98.31
345.259	96.31
345.487	97.31
345.714	85.31
345.942	66.31
346.17	98.31
346.397	95.31
346.625	88.31
346.853	97.31
347.08	100.31
347.308	88.31
347.535	93.31
347.763	92.31
347.99	79.31
348.218	96.31
348.445	96.31
348.673	111.31
348.9	92.31
349.128	103.31
349.355	106.31
349.583	83.31
349.81	92.31
350.037	91.31
350.265	96.31
350.492	108.31
350.72	88.31
350.947	94.31
351.174	93.31
351.402	93.31
351.629	93.31
351.856	88.31
352.083	91.31
352.311	93.31
352.538	112.31
352.765	111.31
352.992	113.31
353.22	115.31
353.447	104.31
353.674	107.31
353.901	89.31
354.128	85.31
354.355	100.31
354.583	95.31
354.81	96.31
355.037	92.31
355.264	103.31
355.491	107.31
355.718	85.31
355.945	86.31
356.172	85.31
356.399	92.31
356.626	95.31
356.853	93.31
357.08	104.31
357.307	91.31
357.534	83.31
357.761	96.31
357.988	101.31
358.215	99.31
358.441	82.31
358.668	78.31
358.895	88.31
359.122	102.31
359.349	85.31
359.576	85.31
359.802	94.31
360.029	112.31
360.256	104.31
360.483	105.31
360.709	85.31
360.936	91.31
361.163	84.31
361.39	118.31
361.616	84.31
361.843	96.31
362.07	93.31
362.296	107.31
362.523	90.31
362.749	72.31
362.976	90.31
363.203	100.31
363.429	82.31
363.656	86.31
363.882	87.31
364.109	82.31
364.335	86.31
364.562	97.31
364.788	70.31
365.015	106.31
365.241	92.31
365.468	98.31
365.694	102.31
365.92	92.31
366.147	82.31
366.373	91.31
366.599	82.31
366.826	85.31
367.052	95.31
367.278	85.31
367.505	87.31
367.731	84.31
367.957	81.31
368.184	93.31
368.41	105.31
368.636	121.31
368.862	121.31
369.089	90.31
369.315	91.31
369.541	51.31
369.767	81.31
369.993	69.31
370.219	93.31
370.445	92.31
370.672	92.31
370.898	92.31
371.124	87.31
371.35	89.31
371.576	94.31
371.802	84.31
372.028	85.31
372.254	91.31
372.48	82.31
372.706	84.31
372.932	96.31
373.158	89.31
373.384	94.31
373.61	88.31
373.835	91.31
374.061	89.31
374.287	82.31
374.513	102.31
374.739	83.31
374.965	87.31
375.191	94.31
375.416	85.31
375.642	86.31
375.868	85.31
376.094	92.31
376.319	87.31
376.545	76.31
376.771	86.31
376.997	75.31
377.222	89.31
377.448	100.31
377.674	82.31
377.899	83.31
378.125	100.31
378.35	96.31
378.576	88.31
378.802	95.31
379.027	86.31
379.253	102.31
379.478	93.31
379.704	88.31
379.929	86.31
380.155	87.31
380.38	89.31
380.606	93.31
380.831	94.31
381.057	86.31
381.282	99.31
381.507	89.31
381.733	95.31
381.958	95.31
382.184	87.31
382.409	100.31
382.634	105.31
382.86	92.31
383.085	108.31
383.31	87.31
383.535	92.31
383.761	90.31
383.986	90.31
384.211	103.31
384.436	91.31
384.662	111.31
384.887	110.31
385.112	108.31
385.337	93.31
385.562	82.31
385.787	100.31
386.013	106.31
386.238	96.31
386.463	108.31
386.688	99.31
386.913	115.31
387.138	91.31
387.363	92.31
387.588	101.31
387.813	93.31
388.038	104.31
388.263	110.31
388.488	97.31
388.713	95.31
388.938	92.31
389.163	95.31
389.387	94.31
389.612	101.31
389.837	92.31
390.062	81.31
390.287	83.31
390.512	90.31
390.736	86.31
390.961	88.31
391.186	99.31
391.411	91.31
391.636	109.31
391.86	85.31
392.085	88.31
392.31	91.31
392.534	95.31
392.759	71.31
392.984	68.31
393.208	94.31
393.433	89.31
393.658	87.31
393.882	88.31
394.107	85.31
394.331	89.31
394.556	94.31
394.78	94.31
395.005	87.31
395.229	73.31
395.454	80.31
395.678	82.31
395.903	77.31
396.127	73.31
396.352	86.31
396.576	79.31
396.801	84.31
397.025	98.31
397.249	95.31
397.474	90.31
397.698	107.31
397.922	80.31
398.147	82.31
398.371	67.31
398.595	86.31
398.82	88.31
399.044	91.31
399.268	99.31
399.492	92.31
399.717	82.31
399.941	81.31
400.165	86.31
400.389	83.31
400.613	87.31
400.837	91.31
401.062	93.31
401.286	97.31
401.51	78.31
401.734	86.31
401.958	109.31
402.182	138.31
402.406	141.31
402.63	118.31
402.854	96.31
403.078	88.31
403.302	75.31
403.526	79.31
403.75	87.31
403.974	72.31
404.198	77.31
404.422	81.31
404.645	94.31
404.869	87.31
405.093	85.31
405.317	103.31
405.541	99.31
405.765	94.31
405.988	118.31
406.212	158.31
406.436	221.31
406.66	130.31
406.883	94.31
407.107	98.31
407.331	101.31
407.555	94.31
407.778	109.31
408.002	93.31
408.226	82.31
408.449	87.31
408.673	86.31
408.896	83.31
409.12	90.31
409.344	84.31
409.567	91.31
409.791	80.31
410.014	100.31
410.238	83.31
410.461	85.31
410.685	92.31
410.908	96.31
411.132	107.31
411.355	102.31
411.578	85.31
411.802	100.31
412.025	82.31
412.249	91.31
412.472	92.31
412.695	93.31
412.919	98.31
413.142	85.31
413.365	79.31
413.589	79.31
413.812	97.31
414.035	91.31
414.258	81.31
414.482	86.31
414.705	94.31
414.928	92.31
415.151	90.31
415.374	82.31
415.597	93.31
415.821	91.31
416.044	85.31
416.267	88.31
416.49	77.31
416.713	87.31
416.936	87.31
417.159	89.31
417.382	92.31
417.605	88.31
417.828	98.31
418.051	98.31
418.274	94.31
418.497	101.31
418.72	96.31
418.943	95.31
419.166	97.31
419.389	98.31
419.611	80.31
419.834	87.31
420.057	84.31
420.28	91.31
420.503	88.31
420.726	79.31
420.948	84.31
421.171	83.31
421.394	106.31
421.617	96.31
421.839	93.31
422.062	90.31
422.285	91.31
422.507	109.31
422.73	101.31
422.953	90.31
423.175	91.31
423.398	87.31
423.621	86.31
423.843	82.31
424.066	86.31
424.288	95.31
424.511	93.31
424.733	91.31
424.956	94.31
425.178	93.31
425.401	107.31
425.623	100.31
425.846	76.31
426.068	99.31
426.291	93.31
426.513	78.31
426.735	91.31
426.958	95.31
427.18	101.31
427.402	126.31
427.625	167.31
427.847	148.31
428.069	125.31
428.292	85.31
428.514	97.31
428.736	90.31
428.958	85.31
429.181	97.31
429.403	97.31
429.625	80.31
429.847	98.31
430.069	83.31
430.292	82.31
430.514	92.31
430.736	98.31
430.958	79.31
431.18	80.31
431.402	82.31
431.624	95.31
431.846	88.31
432.068	68.31
432.29	95.31
432.512	71.31
432.734	77.31
432.956	85.31
433.178	94.31
433.4	81.31
433.622	94.31
433.844	99.31
434.066	85.31
434.287	81.31
434.509	81.31
434.731	100.31
434.953	94.31
435.175	87.31
435.397	78.31
435.618	89.31
435.84	106.31
436.062	122.31
436.284	97.31
436.505	95.31
436.727	88.31
436.949	88.31
437.17	92.31
437.392	87.31
437.614	101.31
437.835	100.31
438.057	101.31
438.278	110.31
438.5	107.31
438.721	113.31
438.943	99.31
439.165	79.31
439.386	85.31
439.608	94.31
439.829	77.31
440.05	106.31
440.272	142.31
440.493	98.31
440.715	89.31
440.936	86.31
441.158	95.31
441.379	81.31
441.6	84.31
441.822	88.31
442.043	92.31
442.264	104.31
442.486	103.31
442.707	99.31
442.928	87.31
443.149	132.31
443.371	125.31
443.592	96.31
443.813	112.31
444.034	113.31
444.255	87.31
444.476	84.31
444.698	91.31
444.919	93.31
445.14	128.31
445.361	122.31
445.582	108.31
445.803	134.31
446.024	130.31
446.245	134.31
446.466	103.31
446.687	79.31
446.908	98.31
447.129	85.31
447.35	94.31
447.571	82.31
447.792	93.31
448.013	97.31
448.234	122.31
448.455	99.31
448.675	91.31
448.896	118.31
449.117	83.31
449.338	100.31
449.559	129.31
449.779	131.31
450	98.31
450.221	86.31
450.442	91.31
450.662	103.31
450.883	95.31
451.104	101.31
451.324	97.31
451.545	88.31
451.766	86.31
451.986	93.31
452.207	88.31
452.428	92.31
452.648	107.31
452.869	102.31
453.089	109.31
453.31	111.31
453.53	89.31
453.751	80.31
453.971	94.31
454.192	102.31
454.412	85.31
454.633	90.31
454.853	101.31
455.073	85.31
455.294	100.31
455.514	91.31
455.734	90.31
455.955	77.31
456.175	86.31
456.395	77.31
456.616	90.31
456.836	86.31
457.056	91.31
457.276	102.31
457.497	79.31
457.717	91.31
457.937	92.31
458.157	82.31
458.377	79.31
458.598	99.31
458.818	142.31
459.038	155.31
459.258	119.31
459.478	95.31
459.698	93.31
459.918	92.31
460.138	80.31
460.358	92.31
460.578	90.31
460.798	98.31
461.018	89.31
461.238	82.31
461.458	91.31
461.678	106.31
461.898	84.31
462.118	93.31
462.338	107.31
462.558	82.31
462.777	75.31
462.997	84.31
463.217	86.31
463.437	92.31
463.657	85.31
463.876	78.31
464.096	78.31
464.316	71.31
464.536	71.31
464.755	102.31
464.975	96.31
465.195	148.31
465.414	150.31
465.634	96.31
465.854	92.31
466.073	87.31
466.293	82.31
466.512	100.31
466.732	86.31
466.951	90.31
467.171	102.31
467.391	90.31
467.61	95.31
467.829	96.31
468.049	135.31
468.268	151.31
468.488	85.31
468.707	87.31
468.927	85.31
469.146	76.31
469.365	78.31
469.585	95.31
469.804	95.31
470.023	82.31
470.243	94.31
470.462	89.31
470.681	98.31
470.901	85.31
471.12	100.31
471.339	102.31
471.558	80.31
471.777	75.31
471.997	101.31
472.216	183.31
472.435	330.31
472.654	142.31
472.873	101.31
473.092	83.31
473.311	93.31
473.53	84.31
473.749	82.31
473.968	97.31
474.187	92.31
474.406	101.31
474.625	90.31
474.844	75.31
475.063	99.31
475.282	94.31
475.501	78.31
475.72	79.31
475.939	82.31
476.158	93.31
476.377	76.31
476.596	77.31
476.814	78.31
477.033	89.31
477.252	90.31
477.471	86.31
477.69	84.31
477.908	94.31
478.127	108.31
478.346	94.31
478.564	84.31
478.783	90.31
479.002	90.31
479.22	93.31
479.439	105.31
479.658	109.31
479.876	88.31
480.095	92.31
480.313	82.31
480.532	111.31
480.751	126.31
480.969	202.31
481.188	552.31
481.406	359.31
481.624	110.31
481.843	91.31
482.061	86.31
482.28	91.31
482.498	88.31
482.717	77.31
482.935	76.31
483.153	82.31
483.372	80.31
483.59	86.31
483.808	87.31
484.027	97.31
484.245	103.31
484.463	92.31
484.681	87.31
484.9	87.31
485.118	93.31
485.336	89.31
485.554	99.31
485.772	113.31
485.99	118.31
486.209	88.31
486.427	98.31
486.645	115.31
486.863	112.31
487.081	98.31
487.299	98.31
487.517	101.31
487.735	94.31
487.953	87.31
488.171	83.31
488.389	85.31
488.607	102.31
488.825	83.31
489.043	92.31
489.261	83.31
489.479	84.31
489.696	77.31
489.914	82.31
490.132	81.31
490.35	83.31
490.568	95.31
490.786	96.31
491.003	95.31
491.221	90.31
491.439	96.31
491.657	85.31
491.874	85.31
492.092	87.31
492.31	107.31
492.527	103.31
492.745	92.31
492.963	91.31
493.18	94.31
493.398	88.31
493.615	97.31
493.833	109.31
494.05	88.31
494.268	91.31
494.485	89.31
494.703	82.31
494.92	72.31
495.138	83.31
495.355	74.31
495.573	103.31
495.79	83.31
496.008	99.31
496.225	79.31
496.442	97.31
496.66	79.31
496.877	82.31
497.094	83.31
497.312	75.31
497.529	92.31
497.746	88.31
497.963	102.31
498.181	98.31
498.398	92.31
498.615	112.31
498.832	102.31
499.049	84.31
499.267	104.31
499.484	95.31
499.701	85.31
499.918	99.31
500.135	99.31
500.352	84.31
500.569	104.31
500.786	92.31
501.003	101.31
501.22	89.31
501.437	88.31
501.654	98.31
501.871	107.31
502.088	92.31
502.305	85.31
502.522	100.31
502.739	82.31
502.956	95.31
503.172	102.31
503.389	99.31
503.606	97.31
503.823	85.31
504.04	91.31
504.256	87.31
504.473	96.31
504.69	82.31
504.907	88.31
505.123	80.31
505.34	91.31
505.557	92.31
505.773	82.31
505.99	74.31
506.207	103.31
506.423	92.31
506.64	82.31
506.856	96.31
507.073	89.31
507.289	89.31
507.506	93.31
507.722	103.31
507.939	105.31
508.155	86.31
508.372	94.31
508.588	84.31
508.805	103.31
509.021	102.31
509.238	98.31
509.454	81.31
509.67	108.31
509.887	107.31
510.103	111.31
510.319	211.31
510.536	714.31
510.752	2277.31
510.968	692.31
511.184	159.31
511.401	103.31
511.617	95.31
511.833	92.31
512.049	99.31
512.265	81.31
512.481	76.31
512.698	80.31
512.914	95.31
513.13	76.31
513.346	97.31
513.562	89.31
513.778	82.31
513.994	91.31
514.21	110.31
514.426	118.31
514.642	128.31
514.858	117.31
515.074	150.31
515.29	428.31
515.506	1426.31
515.721	544.31
515.937	152.31
516.153	106.31
