Data from Circ_2005_H10_HRD10591_00020.txt Node
Date: Wed Jan 03 10:29:55 EST 2024
User: Yrep
Spectrometer: HR+D1059
Trigger mode: 1
Integration Time (sec): 1.000000E-1
Scans to average: 1
Electric dark correction enabled: true
Nonlinearity correction enabled: false
Boxcar width: 0
XAxis mode: Wavelengths
Number of Pixels in Spectrum: 2048
>>>>>Begin Spectral Data<<<<<
223.165	-8.5
223.4	-8.5
223.635	-8.5
223.869	-11.5
224.104	-29.5
224.338	-21.5
224.573	-11.5
224.808	-21.5
225.042	-4.5
225.277	-2.5
225.511	-7.5
225.746	9.5
225.98	7.5
226.215	16.5
226.449	15.5
226.683	20.5
226.918	16.5
227.152	32.5
227.387	24.5
227.621	38.5
227.856	45.5
228.09	51.5
228.324	67.5
228.559	64.5
228.793	57.5
229.027	76.5
229.262	80.5
229.496	80.5
229.73	89.5
229.964	81.5
230.199	92.5
230.433	56.5
230.667	67.5
230.901	78.5
231.136	77.5
231.37	78.5
231.604	72.5
231.838	73.5
232.072	91.5
232.306	77.5
232.541	83.5
232.775	76.5
233.009	83.5
233.243	74.5
233.477	86.5
233.711	68.5
233.945	91.5
234.179	75.5
234.413	73.5
234.647	93.5
234.881	71.5
235.115	84.5
235.349	81.5
235.583	76.5
235.817	64.5
236.051	66.5
236.285	70.5
236.519	79.5
236.753	84.5
236.987	85.5
237.221	83.5
237.455	76.5
237.689	71.5
237.922	72.5
238.156	71.5
238.39	71.5
238.624	72.5
238.858	77.5
239.091	69.5
239.325	72.5
239.559	77.5
239.793	79.5
240.027	77.5
240.26	78.5
240.494	89.5
240.728	75.5
240.961	85.5
241.195	71.5
241.429	64.5
241.662	75.5
241.896	78.5
242.13	93.5
242.363	72.5
242.597	80.5
242.83	81.5
243.064	64.5
243.298	72.5
243.531	71.5
243.765	92.5
243.998	69.5
244.232	77.5
244.465	71.5
244.699	79.5
244.932	87.5
245.166	72.5
245.399	71.5
245.633	77.5
245.866	75.5
246.099	71.5
246.333	71.5
246.566	81.5
246.8	86.5
247.033	87.5
247.266	70.5
247.5	88.5
247.733	82.5
247.966	83.5
248.2	77.5
248.433	85.5
248.666	93.5
248.899	81.5
249.133	95.5
249.366	104.5
249.599	104.5
249.832	85.5
250.066	74.5
250.299	80.5
250.532	61.5
250.765	88.5
250.998	86.5
251.231	79.5
251.465	71.5
251.698	76.5
251.931	86.5
252.164	76.5
252.397	69.5
252.63	77.5
252.863	83.5
253.096	77.5
253.329	77.5
253.562	77.5
253.795	87.5
254.028	83.5
254.261	75.5
254.494	84.5
254.727	83.5
254.96	81.5
255.193	67.5
255.426	78.5
255.659	91.5
255.892	81.5
256.124	87.5
256.357	78.5
256.59	92.5
256.823	84.5
257.056	82.5
257.289	89.5
257.521	80.5
257.754	94.5
257.987	83.5
258.22	92.5
258.452	75.5
258.685	91.5
258.918	83.5
259.151	90.5
259.383	78.5
259.616	86.5
259.849	81.5
260.081	87.5
260.314	71.5
260.547	79.5
260.779	72.5
261.012	87.5
261.244	84.5
261.477	95.5
261.71	90.5
261.942	99.5
262.175	112.5
262.407	79.5
262.64	91.5
262.872	86.5
263.105	82.5
263.337	88.5
263.57	83.5
263.802	76.5
264.035	78.5
264.267	80.5
264.499	83.5
264.732	76.5
264.964	87.5
265.197	82.5
265.429	82.5
265.661	79.5
265.894	83.5
266.126	97.5
266.358	94.5
266.591	86.5
266.823	88.5
267.055	84.5
267.287	73.5
267.52	90.5
267.752	87.5
267.984	83.5
268.216	75.5
268.448	86.5
268.681	76.5
268.913	83.5
269.145	78.5
269.377	91.5
269.609	82.5
269.841	89.5
270.073	91.5
270.306	58.5
270.538	84.5
270.77	95.5
271.002	90.5
271.234	87.5
271.466	95.5
271.698	76.5
271.93	77.5
272.162	102.5
272.394	97.5
272.626	87.5
272.858	93.5
273.09	83.5
273.322	92.5
273.553	84.5
273.785	86.5
274.017	79.5
274.249	88.5
274.481	86.5
274.713	99.5
274.945	86.5
275.176	93.5
275.408	84.5
275.64	103.5
275.872	84.5
276.104	91.5
276.335	98.5
276.567	96.5
276.799	104.5
277.031	100.5
277.262	85.5
277.494	81.5
277.726	81.5
277.957	94.5
278.189	83.5
278.421	85.5
278.652	86.5
278.884	75.5
279.115	98.5
279.347	83.5
279.579	89.5
279.81	100.5
280.042	86.5
280.273	87.5
280.505	99.5
280.736	87.5
280.968	82.5
281.199	91.5
281.431	79.5
281.662	86.5
281.894	97.5
282.125	96.5
282.356	120.5
282.588	145.5
282.819	102.5
283.051	90.5
283.282	84.5
283.513	92.5
283.745	94.5
283.976	98.5
284.207	83.5
284.439	87.5
284.67	94.5
284.901	72.5
285.132	79.5
285.364	90.5
285.595	77.5
285.826	88.5
286.057	92.5
286.288	90.5
286.52	68.5
286.751	68.5
286.982	105.5
287.213	79.5
287.444	85.5
287.675	84.5
287.906	99.5
288.138	89.5
288.369	98.5
288.6	91.5
288.831	97.5
289.062	87.5
289.293	83.5
289.524	98.5
289.755	82.5
289.986	83.5
290.217	93.5
290.448	83.5
290.679	94.5
290.91	81.5
291.141	82.5
291.371	81.5
291.602	91.5
291.833	88.5
292.064	84.5
292.295	96.5
292.526	84.5
292.757	90.5
292.987	96.5
293.218	93.5
293.449	91.5
293.68	82.5
293.91	88.5
294.141	99.5
294.372	87.5
294.603	97.5
294.833	91.5
295.064	84.5
295.295	79.5
295.525	79.5
295.756	100.5
295.987	115.5
296.217	127.5
296.448	121.5
296.679	92.5
296.909	99.5
297.14	99.5
297.37	73.5
297.601	94.5
297.831	88.5
298.062	89.5
298.292	91.5
298.523	73.5
298.753	94.5
298.984	78.5
299.214	94.5
299.445	88.5
299.675	95.5
299.905	75.5
300.136	94.5
300.366	84.5
300.597	80.5
300.827	94.5
301.057	101.5
301.288	103.5
301.518	70.5
301.748	94.5
301.979	101.5
302.209	98.5
302.439	101.5
302.669	94.5
302.9	93.5
303.13	94.5
303.36	100.5
303.59	118.5
303.82	109.5
304.051	85.5
304.281	98.5
304.511	84.5
304.741	85.5
304.971	90.5
305.201	90.5
305.431	82.5
305.661	87.5
305.891	85.5
306.121	89.5
306.352	84.5
306.582	113.5
306.812	109.5
307.042	98.5
307.272	77.5
307.502	92.5
307.731	93.5
307.961	92.5
308.191	89.5
308.421	83.5
308.651	79.5
308.881	101.5
309.111	78.5
309.341	87.5
309.571	97.5
309.8	100.5
310.03	100.5
310.26	92.5
310.49	106.5
310.72	87.5
310.949	108.5
311.179	94.5
311.409	82.5
311.639	91.5
311.868	94.5
312.098	97.5
312.328	92.5
312.557	104.5
312.787	97.5
313.017	105.5
313.246	96.5
313.476	86.5
313.706	79.5
313.935	93.5
314.165	99.5
314.394	104.5
314.624	90.5
314.853	96.5
315.083	99.5
315.312	90.5
315.542	86.5
315.771	83.5
316.001	96.5
316.23	75.5
316.46	93.5
316.689	97.5
316.919	94.5
317.148	92.5
317.377	93.5
317.607	89.5
317.836	100.5
318.065	83.5
318.295	86.5
318.524	96.5
318.753	89.5
318.983	89.5
319.212	97.5
319.441	116.5
319.67	99.5
319.9	88.5
320.129	86.5
320.358	96.5
320.587	92.5
320.816	98.5
321.046	84.5
321.275	100.5
321.504	97.5
321.733	94.5
321.962	89.5
322.191	93.5
322.42	104.5
322.649	109.5
322.878	114.5
323.108	126.5
323.337	116.5
323.566	143.5
323.795	153.5
324.024	208.5
324.253	420.5
324.482	872.5
324.71	1847.5
324.939	2378.5
325.168	856.5
325.397	253.5
325.626	162.5
325.855	136.5
326.084	137.5
326.313	144.5
326.542	160.5
326.77	232.5
326.999	494.5
327.228	1033.5
327.457	1861.5
327.686	1514.5
327.914	405.5
328.143	187.5
328.372	139.5
328.6	117.5
328.829	118.5
329.058	138.5
329.287	133.5
329.515	106.5
329.744	109.5
329.972	94.5
330.201	109.5
330.43	120.5
330.658	139.5
330.887	145.5
331.115	124.5
331.344	102.5
331.572	105.5
331.801	101.5
332.03	107.5
332.258	86.5
332.486	79.5
332.715	82.5
332.943	94.5
333.172	94.5
333.4	110.5
333.629	104.5
333.857	106.5
334.085	96.5
334.314	107.5
334.542	101.5
334.771	110.5
334.999	100.5
335.227	88.5
335.455	97.5
335.684	95.5
335.912	103.5
336.14	97.5
336.369	97.5
336.597	98.5
336.825	102.5
337.053	96.5
337.281	88.5
337.51	87.5
337.738	81.5
337.966	91.5
338.194	105.5
338.422	88.5
338.65	86.5
338.878	91.5
339.106	90.5
339.334	86.5
339.562	103.5
339.79	88.5
340.018	78.5
340.246	87.5
340.474	89.5
340.702	91.5
340.93	85.5
341.158	94.5
341.386	101.5
341.614	91.5
341.842	90.5
342.07	85.5
342.298	105.5
342.526	93.5
342.754	78.5
342.981	92.5
343.209	98.5
343.437	97.5
343.665	95.5
343.893	82.5
344.12	89.5
344.348	86.5
344.576	83.5
344.804	99.5
345.031	95.5
345.259	97.5
345.487	103.5
345.714	101.5
345.942	89.5
346.17	101.5
346.397	85.5
346.625	97.5
346.853	86.5
347.08	100.5
347.308	96.5
347.535	91.5
347.763	89.5
347.99	95.5
348.218	116.5
348.445	96.5
348.673	99.5
348.9	88.5
349.128	96.5
349.355	89.5
349.583	85.5
349.81	77.5
350.037	94.5
350.265	86.5
350.492	99.5
350.72	100.5
350.947	93.5
351.174	95.5
351.402	126.5
351.629	102.5
351.856	108.5
352.083	106.5
352.311	94.5
352.538	110.5
352.765	119.5
352.992	114.5
353.22	115.5
353.447	105.5
353.674	99.5
353.901	93.5
354.128	96.5
354.355	98.5
354.583	109.5
354.81	105.5
355.037	104.5
355.264	99.5
355.491	100.5
355.718	79.5
355.945	98.5
356.172	101.5
356.399	97.5
356.626	95.5
356.853	96.5
357.08	97.5
357.307	95.5
357.534	92.5
357.761	87.5
357.988	83.5
358.215	86.5
358.441	104.5
358.668	104.5
358.895	117.5
359.122	102.5
359.349	87.5
359.576	103.5
359.802	106.5
360.029	106.5
360.256	117.5
360.483	102.5
360.709	88.5
360.936	84.5
361.163	95.5
361.39	91.5
361.616	86.5
361.843	88.5
362.07	84.5
362.296	89.5
362.523	92.5
362.749	85.5
362.976	91.5
363.203	82.5
363.429	96.5
363.656	89.5
363.882	89.5
364.109	93.5
364.335	80.5
364.562	78.5
364.788	94.5
365.015	90.5
365.241	93.5
365.468	107.5
365.694	87.5
365.92	95.5
366.147	94.5
366.373	89.5
366.599	82.5
366.826	98.5
367.052	95.5
367.278	102.5
367.505	92.5
367.731	91.5
367.957	96.5
368.184	100.5
368.41	95.5
368.636	108.5
368.862	125.5
369.089	99.5
369.315	100.5
369.541	86.5
369.767	92.5
369.993	97.5
370.219	94.5
370.445	89.5
370.672	78.5
370.898	92.5
371.124	91.5
371.35	86.5
371.576	83.5
371.802	73.5
372.028	89.5
372.254	99.5
372.48	97.5
372.706	81.5
372.932	96.5
373.158	86.5
373.384	96.5
373.61	104.5
373.835	95.5
374.061	95.5
374.287	89.5
374.513	79.5
374.739	86.5
374.965	83.5
375.191	97.5
375.416	86.5
375.642	87.5
375.868	111.5
376.094	82.5
376.319	88.5
376.545	97.5
376.771	87.5
376.997	92.5
377.222	91.5
377.448	98.5
377.674	92.5
377.899	87.5
378.125	79.5
378.35	85.5
378.576	102.5
378.802	96.5
379.027	86.5
379.253	91.5
379.478	85.5
379.704	95.5
379.929	104.5
380.155	108.5
380.38	96.5
380.606	108.5
380.831	94.5
381.057	88.5
381.282	96.5
381.507	93.5
381.733	88.5
381.958	86.5
382.184	100.5
382.409	100.5
382.634	95.5
382.86	105.5
383.085	102.5
383.31	102.5
383.535	99.5
383.761	103.5
383.986	88.5
384.211	98.5
384.436	104.5
384.662	97.5
384.887	101.5
385.112	103.5
385.337	116.5
385.562	109.5
385.787	114.5
386.013	116.5
386.238	122.5
386.463	98.5
386.688	104.5
386.913	104.5
387.138	107.5
387.363	103.5
387.588	107.5
387.813	107.5
388.038	122.5
388.263	125.5
388.488	126.5
388.713	110.5
388.938	100.5
389.163	85.5
389.387	84.5
389.612	86.5
389.837	102.5
390.062	79.5
390.287	86.5
390.512	96.5
390.736	87.5
390.961	91.5
391.186	102.5
391.411	90.5
391.636	88.5
391.86	90.5
392.085	84.5
392.31	91.5
392.534	86.5
392.759	85.5
392.984	87.5
393.208	93.5
393.433	91.5
393.658	107.5
393.882	85.5
394.107	84.5
394.331	94.5
394.556	77.5
394.78	81.5
395.005	89.5
395.229	84.5
395.454	77.5
395.678	91.5
395.903	97.5
396.127	94.5
396.352	97.5
396.576	71.5
396.801	91.5
397.025	92.5
397.249	94.5
397.474	93.5
397.698	81.5
397.922	83.5
398.147	100.5
398.371	80.5
398.595	86.5
398.82	70.5
399.044	83.5
399.268	93.5
399.492	99.5
399.717	75.5
399.941	85.5
400.165	88.5
400.389	86.5
400.613	92.5
400.837	96.5
401.062	96.5
401.286	84.5
401.51	94.5
401.734	93.5
401.958	103.5
402.182	136.5
402.406	137.5
402.63	111.5
402.854	96.5
403.078	92.5
403.302	89.5
403.526	92.5
403.75	89.5
403.974	77.5
404.198	73.5
404.422	86.5
404.645	94.5
404.869	93.5
405.093	86.5
405.317	103.5
405.541	89.5
405.765	92.5
405.988	112.5
406.212	173.5
406.436	226.5
406.66	143.5
406.883	100.5
407.107	88.5
407.331	97.5
407.555	96.5
407.778	108.5
408.002	94.5
408.226	95.5
408.449	79.5
408.673	89.5
408.896	88.5
409.12	101.5
409.344	99.5
409.567	78.5
409.791	97.5
410.014	96.5
410.238	103.5
410.461	87.5
410.685	95.5
410.908	89.5
411.132	95.5
411.355	101.5
411.578	109.5
411.802	100.5
412.025	90.5
412.249	88.5
412.472	90.5
412.695	110.5
412.919	91.5
413.142	82.5
413.365	84.5
413.589	90.5
413.812	99.5
414.035	101.5
414.258	88.5
414.482	95.5
414.705	96.5
414.928	86.5
415.151	87.5
415.374	84.5
415.597	96.5
415.821	91.5
416.044	99.5
416.267	80.5
416.49	88.5
416.713	83.5
416.936	102.5
417.159	85.5
417.382	82.5
417.605	92.5
417.828	94.5
418.051	92.5
418.274	85.5
418.497	92.5
418.72	78.5
418.943	87.5
419.166	79.5
419.389	94.5
419.611	79.5
419.834	86.5
420.057	79.5
420.28	89.5
420.503	91.5
420.726	95.5
420.948	94.5
421.171	101.5
421.394	105.5
421.617	89.5
421.839	91.5
422.062	80.5
422.285	96.5
422.507	108.5
422.73	108.5
422.953	91.5
423.175	103.5
423.398	97.5
423.621	94.5
423.843	97.5
424.066	93.5
424.288	86.5
424.511	86.5
424.733	110.5
424.956	110.5
425.178	95.5
425.401	107.5
425.623	113.5
425.846	94.5
426.068	90.5
426.291	87.5
426.513	85.5
426.735	86.5
426.958	102.5
427.18	111.5
427.402	127.5
427.625	169.5
427.847	123.5
428.069	108.5
428.292	88.5
428.514	98.5
428.736	93.5
428.958	104.5
429.181	89.5
429.403	81.5
429.625	86.5
429.847	79.5
430.069	105.5
430.292	82.5
430.514	94.5
430.736	86.5
430.958	97.5
431.18	82.5
431.402	84.5
431.624	84.5
431.846	98.5
432.068	87.5
432.29	89.5
432.512	101.5
432.734	83.5
432.956	94.5
433.178	83.5
433.4	106.5
433.622	89.5
433.844	82.5
434.066	96.5
434.287	67.5
434.509	86.5
434.731	85.5
434.953	99.5
435.175	96.5
435.397	90.5
435.618	84.5
435.84	106.5
436.062	125.5
436.284	132.5
436.505	102.5
436.727	109.5
436.949	84.5
437.17	90.5
437.392	88.5
437.614	95.5
437.835	116.5
438.057	113.5
438.278	118.5
438.5	95.5
438.721	116.5
438.943	102.5
439.165	91.5
439.386	91.5
439.608	91.5
439.829	107.5
440.05	132.5
440.272	153.5
440.493	110.5
440.715	105.5
440.936	79.5
441.158	76.5
441.379	103.5
441.6	89.5
441.822	102.5
442.043	94.5
442.264	94.5
442.486	94.5
442.707	94.5
442.928	108.5
443.149	120.5
443.371	133.5
443.592	123.5
443.813	116.5
444.034	105.5
444.255	87.5
444.476	88.5
444.698	87.5
444.919	94.5
445.14	113.5
445.361	130.5
445.582	123.5
445.803	138.5
446.024	153.5
446.245	133.5
446.466	109.5
446.687	87.5
446.908	96.5
447.129	75.5
447.35	91.5
447.571	96.5
447.792	95.5
448.013	92.5
448.234	110.5
448.455	107.5
448.675	118.5
448.896	115.5
449.117	100.5
449.338	119.5
449.559	129.5
449.779	152.5
450	99.5
450.221	85.5
450.442	113.5
450.662	99.5
450.883	104.5
451.104	96.5
451.324	104.5
451.545	89.5
451.766	98.5
451.986	96.5
452.207	85.5
452.428	100.5
452.648	100.5
452.869	101.5
453.089	125.5
453.31	116.5
453.53	99.5
453.751	89.5
453.971	110.5
454.192	114.5
454.412	87.5
454.633	84.5
454.853	84.5
455.073	76.5
455.294	96.5
455.514	84.5
455.734	93.5
455.955	88.5
456.175	77.5
456.395	94.5
456.616	88.5
456.836	83.5
457.056	98.5
457.276	99.5
457.497	96.5
457.717	102.5
457.937	104.5
458.157	91.5
458.377	83.5
458.598	115.5
458.818	158.5
459.038	158.5
459.258	107.5
459.478	106.5
459.698	82.5
459.918	73.5
460.138	87.5
460.358	94.5
460.578	83.5
460.798	75.5
461.018	89.5
461.238	92.5
461.458	92.5
461.678	102.5
461.898	90.5
462.118	86.5
462.338	83.5
462.558	95.5
462.777	79.5
462.997	95.5
463.217	95.5
463.437	89.5
463.657	77.5
463.876	79.5
464.096	82.5
464.316	80.5
464.536	94.5
464.755	105.5
464.975	104.5
465.195	153.5
465.414	179.5
465.634	98.5
465.854	95.5
466.073	76.5
466.293	95.5
466.512	89.5
466.732	80.5
466.951	91.5
467.171	97.5
467.391	100.5
467.61	101.5
467.829	102.5
468.049	77.5
468.268	93.5
468.488	87.5
468.707	87.5
468.927	99.5
469.146	92.5
469.365	96.5
469.585	92.5
469.804	79.5
470.023	84.5
470.243	87.5
470.462	102.5
470.681	104.5
470.901	85.5
471.12	93.5
471.339	71.5
471.558	69.5
471.777	84.5
471.997	101.5
472.216	96.5
472.435	99.5
472.654	86.5
472.873	84.5
473.092	92.5
473.311	85.5
473.53	86.5
473.749	83.5
473.968	86.5
474.187	108.5
474.406	112.5
474.625	89.5
474.844	82.5
475.063	84.5
475.282	84.5
475.501	64.5
475.72	105.5
475.939	89.5
476.158	88.5
476.377	91.5
476.596	89.5
476.814	93.5
477.033	99.5
477.252	100.5
477.471	77.5
477.69	72.5
477.908	83.5
478.127	95.5
478.346	87.5
478.564	85.5
478.783	97.5
479.002	94.5
479.22	84.5
479.439	97.5
479.658	110.5
479.876	103.5
480.095	85.5
480.313	95.5
480.532	76.5
480.751	108.5
480.969	85.5
481.188	132.5
481.406	116.5
481.624	99.5
481.843	96.5
482.061	106.5
482.28	88.5
482.498	77.5
482.717	86.5
482.935	77.5
483.153	89.5
483.372	81.5
483.59	87.5
483.808	89.5
484.027	87.5
484.245	84.5
484.463	87.5
484.681	102.5
484.9	78.5
485.118	82.5
485.336	89.5
485.554	95.5
485.772	96.5
485.99	110.5
486.209	88.5
486.427	113.5
486.645	112.5
486.863	98.5
487.081	103.5
487.299	101.5
487.517	91.5
487.735	84.5
487.953	99.5
488.171	83.5
488.389	89.5
488.607	96.5
488.825	91.5
489.043	94.5
489.261	100.5
489.479	87.5
489.696	86.5
489.914	97.5
490.132	102.5
490.35	107.5
490.568	85.5
490.786	98.5
491.003	104.5
491.221	88.5
491.439	94.5
491.657	92.5
491.874	92.5
492.092	92.5
492.31	104.5
492.527	83.5
492.745	94.5
492.963	80.5
493.18	109.5
493.398	89.5
493.615	100.5
493.833	93.5
494.05	88.5
494.268	95.5
494.485	93.5
494.703	94.5
494.92	89.5
495.138	91.5
495.355	87.5
495.573	100.5
495.79	105.5
496.008	82.5
496.225	98.5
496.442	86.5
496.66	91.5
496.877	92.5
497.094	92.5
497.312	87.5
497.529	101.5
497.746	94.5
497.963	91.5
498.181	85.5
498.398	99.5
498.615	96.5
498.832	107.5
499.049	95.5
499.267	92.5
499.484	93.5
499.701	92.5
499.918	97.5
500.135	83.5
500.352	80.5
500.569	98.5
500.786	87.5
501.003	106.5
501.22	87.5
501.437	85.5
501.654	105.5
501.871	109.5
502.088	96.5
502.305	100.5
502.522	95.5
502.739	83.5
502.956	97.5
503.172	92.5
503.389	96.5
503.606	102.5
503.823	98.5
504.04	92.5
504.256	90.5
504.473	84.5
504.69	93.5
504.907	86.5
505.123	83.5
505.34	63.5
505.557	88.5
505.773	94.5
505.99	87.5
506.207	100.5
506.423	85.5
506.64	81.5
506.856	77.5
507.073	93.5
507.289	91.5
507.506	90.5
507.722	113.5
507.939	107.5
508.155	93.5
508.372	96.5
508.588	85.5
508.805	109.5
509.021	101.5
509.238	87.5
509.454	94.5
509.67	106.5
509.887	113.5
510.103	130.5
510.319	193.5
510.536	688.5
510.752	2219.5
510.968	636.5
511.184	151.5
511.401	119.5
511.617	111.5
511.833	95.5
512.049	84.5
512.265	103.5
512.481	94.5
512.698	94.5
512.914	77.5
513.13	87.5
513.346	97.5
513.562	96.5
513.778	108.5
513.994	96.5
514.21	104.5
514.426	111.5
514.642	124.5
514.858	131.5
515.074	161.5
515.29	420.5
515.506	1417.5
515.721	527.5
515.937	157.5
516.153	106.5
516.369	112.5
516.585	83.5
516.801	104.5
517.016	102.5
517.232	93.5
517.448	103.5
517.664	97.5
517.879	90.5
518.095	103.5
518.311	90.5
518.527	102.5
518.742	80.5
518.958	105.5
519.173	90.5
519.389	89.5
519.605	88.5
519.82	105.5
520.036	103.5
520.251	116.5
520.467	95.5
520.682	101.5
520.898	106.5
521.113	106.5
521.329	146.5
521.544	194.5
521.76	529.5
521.975	2283.5
522.19	1427.5
522.406	303.5
522.621	117.5
522.836	111.5
523.052	81.5
523.267	84.5
523.482	102.5
523.698	109.5
523.913	134.5
524.128	95.5
524.343	83.5
524.559	81.5
524.774	95.5
524.989	101.5
525.204	104.5
525.419	81.5
525.634	103.5
525.849	103.5
526.064	88.5
526.28	99.5
526.495	95.5
526.71	102.5
526.925	92.5
527.14	96.5
527.355	96.5
527.57	102.5
527.785	92.5
527.999	89.5
528.214	102.5
528.429	99.5
528.644	93.5
528.859	95.5
529.074	101.5
529.289	118.5
529.503	167.5
529.718	96.5
529.933	86.5
530.148	84.5
530.363	84.5
530.577	83.5
530.792	96.5
531.007	94.5
531.221	105.5
531.436	88.5
531.651	99.5
531.865	104.5
532.08	104.5
532.295	82.5
532.509	97.5
532.724	97.5
532.938	101.5
533.153	100.5
533.367	89.5
533.582	92.5
533.796	77.5
534.011	94.5
534.225	95.5
534.44	93.5
534.654	97.5
534.868	87.5
