Data from Circ_2005_H10_HRD10591_00050.txt Node
Date: Wed Jan 03 10:30:01 EST 2024
User: Yrep
Spectrometer: HR+D1059
Trigger mode: 1
Integration Time (sec): 1.000000E-1
Scans to average: 1
Electric dark correction enabled: true
Nonlinearity correction enabled: false
Boxcar width: 0
XAxis mode: Wavelengths
Number of Pixels in Spectrum: 2048
>>>>>Begin Spectral Data<<<<<
223.165	-7.12
223.4	-7.12
223.635	-7.12
223.869	-15.12
224.104	-26.12
224.338	-10.12
224.573	-13.12
224.808	-14.12
225.042	-12.12
225.277	-2.12
225.511	-1.12
225.746	-1.12
225.98	12.88
226.215	13.88
226.449	14.88
226.683	20.88
226.918	10.88
227.152	28.88
227.387	36.88
227.621	32.88
227.856	37.88
228.09	28.88
228.324	34.88
228.559	58.88
228.793	47.88
229.027	52.88
229.262	63.88
229.496	66.88
229.73	65.88
229.964	78.88
230.199	80.88
230.433	80.88
230.667	78.88
230.901	64.88
231.136	76.88
231.37	78.88
231.604	76.88
231.838	77.88
232.072	89.88
232.306	87.88
232.541	68.88
232.775	72.88
233.009	85.88
233.243	83.88
233.477	78.88
233.711	91.88
233.945	73.88
234.179	83.88
234.413	80.88
234.647	77.88
234.881	85.88
235.115	72.88
235.349	64.88
235.583	77.88
235.817	89.88
236.051	90.88
236.285	77.88
236.519	78.88
236.753	67.88
236.987	81.88
237.221	84.88
237.455	66.88
237.689	77.88
237.922	74.88
238.156	74.88
238.39	71.88
238.624	87.88
238.858	69.88
239.091	70.88
239.325	74.88
239.559	77.88
239.793	66.88
240.027	81.88
240.26	86.88
240.494	72.88
240.728	85.88
240.961	74.88
241.195	71.88
241.429	81.88
241.662	76.88
241.896	78.88
242.13	57.88
242.363	78.88
242.597	84.88
242.83	79.88
243.064	77.88
243.298	77.88
243.531	80.88
243.765	88.88
243.998	67.88
244.232	78.88
244.465	76.88
244.699	80.88
244.932	64.88
245.166	86.88
245.399	66.88
245.633	73.88
245.866	72.88
246.099	58.88
246.333	77.88
246.566	58.88
246.8	76.88
247.033	73.88
247.266	82.88
247.5	75.88
247.733	61.88
247.966	84.88
248.2	84.88
248.433	64.88
248.666	72.88
248.899	86.88
249.133	78.88
249.366	97.88
249.599	88.88
249.832	76.88
250.066	76.88
250.299	77.88
250.532	84.88
250.765	81.88
250.998	78.88
251.231	71.88
251.465	72.88
251.698	73.88
251.931	70.88
252.164	69.88
252.397	66.88
252.63	69.88
252.863	89.88
253.096	86.88
253.329	76.88
253.562	85.88
253.795	85.88
254.028	82.88
254.261	86.88
254.494	81.88
254.727	86.88
254.96	79.88
255.193	76.88
255.426	93.88
255.659	83.88
255.892	73.88
256.124	73.88
256.357	90.88
256.59	69.88
256.823	83.88
257.056	80.88
257.289	87.88
257.521	65.88
257.754	64.88
257.987	83.88
258.22	82.88
258.452	84.88
258.685	80.88
258.918	85.88
259.151	84.88
259.383	78.88
259.616	84.88
259.849	71.88
260.081	74.88
260.314	74.88
260.547	72.88
260.779	96.88
261.012	78.88
261.244	76.88
261.477	94.88
261.71	84.88
261.942	105.88
262.175	112.88
262.407	84.88
262.64	78.88
262.872	81.88
263.105	90.88
263.337	74.88
263.57	68.88
263.802	91.88
264.035	73.88
264.267	67.88
264.499	76.88
264.732	86.88
264.964	83.88
265.197	83.88
265.429	78.88
265.661	84.88
265.894	82.88
266.126	80.88
266.358	74.88
266.591	82.88
266.823	66.88
267.055	81.88
267.287	87.88
267.52	91.88
267.752	107.88
267.984	87.88
268.216	74.88
268.448	70.88
268.681	76.88
268.913	86.88
269.145	78.88
269.377	76.88
269.609	78.88
269.841	88.88
270.073	82.88
270.306	68.88
270.538	87.88
270.77	82.88
271.002	87.88
271.234	80.88
271.466	90.88
271.698	85.88
271.93	69.88
272.162	84.88
272.394	86.88
272.626	69.88
272.858	81.88
273.09	81.88
273.322	79.88
273.553	81.88
273.785	72.88
274.017	84.88
274.249	76.88
274.481	66.88
274.713	86.88
274.945	86.88
275.176	94.88
275.408	77.88
275.64	86.88
275.872	89.88
276.104	92.88
276.335	88.88
276.567	112.88
276.799	105.88
277.031	99.88
277.262	97.88
277.494	87.88
277.726	72.88
277.957	94.88
278.189	73.88
278.421	90.88
278.652	87.88
278.884	86.88
279.115	81.88
279.347	83.88
279.579	70.88
279.81	68.88
280.042	90.88
280.273	80.88
280.505	92.88
280.736	93.88
280.968	92.88
281.199	86.88
281.431	78.88
281.662	76.88
281.894	87.88
282.125	90.88
282.356	95.88
282.588	127.88
282.819	113.88
283.051	91.88
283.282	79.88
283.513	93.88
283.745	81.88
283.976	84.88
284.207	89.88
284.439	90.88
284.67	91.88
284.901	94.88
285.132	71.88
285.364	80.88
285.595	89.88
285.826	74.88
286.057	86.88
286.288	85.88
286.52	82.88
286.751	78.88
286.982	89.88
287.213	96.88
287.444	77.88
287.675	76.88
287.906	68.88
288.138	75.88
288.369	79.88
288.6	92.88
288.831	101.88
289.062	83.88
289.293	86.88
289.524	84.88
289.755	85.88
289.986	91.88
290.217	85.88
290.448	93.88
290.679	91.88
290.91	80.88
291.141	72.88
291.371	85.88
291.602	82.88
291.833	90.88
292.064	79.88
292.295	88.88
292.526	86.88
292.757	94.88
292.987	80.88
293.218	95.88
293.449	80.88
293.68	90.88
293.91	75.88
294.141	93.88
294.372	100.88
294.603	76.88
294.833	80.88
295.064	92.88
295.295	80.88
295.525	91.88
295.756	87.88
295.987	114.88
296.217	136.88
296.448	116.88
296.679	82.88
296.909	70.88
297.14	89.88
297.37	90.88
297.601	97.88
297.831	82.88
298.062	89.88
298.292	100.88
298.523	83.88
298.753	89.88
298.984	81.88
299.214	85.88
299.445	70.88
299.675	79.88
299.905	82.88
300.136	80.88
300.366	85.88
300.597	89.88
300.827	77.88
301.057	90.88
301.288	110.88
301.518	87.88
301.748	87.88
301.979	99.88
302.209	88.88
302.439	83.88
302.669	85.88
302.9	88.88
303.13	84.88
303.36	100.88
303.59	95.88
303.82	97.88
304.051	75.88
304.281	99.88
304.511	101.88
304.741	85.88
304.971	100.88
305.201	82.88
305.431	81.88
305.661	79.88
305.891	72.88
306.121	98.88
306.352	108.88
306.582	93.88
306.812	82.88
307.042	107.88
307.272	84.88
307.502	92.88
307.731	97.88
307.961	91.88
308.191	87.88
308.421	89.88
308.651	93.88
308.881	108.88
309.111	88.88
309.341	74.88
309.571	85.88
309.8	76.88
310.03	92.88
310.26	99.88
310.49	98.88
310.72	90.88
310.949	91.88
311.179	85.88
311.409	97.88
311.639	93.88
311.868	89.88
312.098	93.88
312.328	94.88
312.557	81.88
312.787	94.88
313.017	92.88
313.246	81.88
313.476	96.88
313.706	91.88
313.935	83.88
314.165	102.88
314.394	81.88
314.624	89.88
314.853	79.88
315.083	80.88
315.312	91.88
315.542	99.88
315.771	92.88
316.001	86.88
316.23	92.88
316.46	77.88
316.689	99.88
316.919	85.88
317.148	96.88
317.377	101.88
317.607	92.88
317.836	77.88
318.065	93.88
318.295	94.88
318.524	97.88
318.753	78.88
318.983	98.88
319.212	89.88
319.441	105.88
319.67	103.88
319.9	82.88
320.129	104.88
320.358	88.88
320.587	91.88
320.816	98.88
321.046	101.88
321.275	86.88
321.504	109.88
321.733	88.88
321.962	108.88
322.191	94.88
322.42	108.88
322.649	98.88
322.878	115.88
323.108	91.88
323.337	113.88
323.566	120.88
323.795	144.88
324.024	210.88
324.253	372.88
324.482	784.88
324.71	1629.88
324.939	2131.88
325.168	796.88
325.397	229.88
325.626	136.88
325.855	122.88
326.084	116.88
326.313	114.88
326.542	155.88
326.77	236.88
326.999	449.88
327.228	886.88
327.457	1670.88
327.686	1325.88
327.914	371.88
328.143	202.88
328.372	165.88
328.6	131.88
328.829	115.88
329.058	111.88
329.287	110.88
329.515	98.88
329.744	122.88
329.972	126.88
330.201	132.88
330.43	149.88
330.658	139.88
330.887	139.88
331.115	114.88
331.344	89.88
331.572	96.88
331.801	101.88
332.03	101.88
332.258	81.88
332.486	85.88
332.715	89.88
332.943	83.88
333.172	79.88
333.4	97.88
333.629	99.88
333.857	120.88
334.085	118.88
334.314	142.88
334.542	177.88
334.771	170.88
334.999	112.88
335.227	105.88
335.455	92.88
335.684	108.88
335.912	103.88
336.14	83.88
336.369	108.88
336.597	114.88
336.825	89.88
337.053	90.88
337.281	90.88
337.51	103.88
337.738	101.88
337.966	76.88
338.194	78.88
338.422	81.88
338.65	82.88
338.878	81.88
339.106	77.88
339.334	95.88
339.562	96.88
339.79	89.88
340.018	92.88
340.246	91.88
340.474	94.88
340.702	90.88
340.93	82.88
341.158	93.88
341.386	97.88
341.614	84.88
341.842	92.88
342.07	96.88
342.298	92.88
342.526	81.88
342.754	82.88
342.981	77.88
343.209	82.88
343.437	83.88
343.665	86.88
343.893	93.88
344.12	84.88
344.348	89.88
344.576	94.88
344.804	85.88
345.031	100.88
345.259	104.88
345.487	97.88
345.714	85.88
345.942	94.88
346.17	83.88
346.397	94.88
346.625	85.88
346.853	96.88
347.08	91.88
347.308	72.88
347.535	80.88
347.763	91.88
347.99	91.88
348.218	107.88
348.445	91.88
348.673	102.88
348.9	95.88
349.128	88.88
349.355	86.88
349.583	89.88
349.81	94.88
350.037	91.88
350.265	109.88
350.492	87.88
350.72	97.88
350.947	100.88
351.174	99.88
351.402	94.88
351.629	91.88
351.856	92.88
352.083	95.88
352.311	105.88
352.538	104.88
352.765	101.88
352.992	113.88
353.22	93.88
353.447	96.88
353.674	86.88
353.901	94.88
354.128	93.88
354.355	86.88
354.583	106.88
354.81	84.88
355.037	90.88
355.264	96.88
355.491	94.88
355.718	83.88
355.945	86.88
356.172	94.88
356.399	98.88
356.626	95.88
356.853	86.88
357.08	103.88
357.307	94.88
357.534	85.88
357.761	105.88
357.988	87.88
358.215	93.88
358.441	84.88
358.668	98.88
358.895	81.88
359.122	91.88
359.349	98.88
359.576	89.88
359.802	94.88
360.029	107.88
360.256	123.88
360.483	99.88
360.709	85.88
360.936	74.88
361.163	76.88
361.39	89.88
361.616	93.88
361.843	85.88
362.07	100.88
362.296	90.88
362.523	69.88
362.749	85.88
362.976	85.88
363.203	93.88
363.429	93.88
363.656	87.88
363.882	74.88
364.109	86.88
364.335	79.88
364.562	80.88
364.788	79.88
365.015	94.88
365.241	91.88
365.468	100.88
365.694	101.88
365.92	86.88
366.147	88.88
366.373	77.88
366.599	72.88
366.826	92.88
367.052	90.88
367.278	83.88
367.505	100.88
367.731	96.88
367.957	95.88
368.184	85.88
368.41	96.88
368.636	97.88
368.862	120.88
369.089	98.88
369.315	101.88
369.541	86.88
369.767	95.88
369.993	88.88
370.219	84.88
370.445	73.88
370.672	104.88
370.898	88.88
371.124	89.88
371.35	75.88
371.576	80.88
371.802	83.88
372.028	77.88
372.254	71.88
372.48	92.88
372.706	94.88
372.932	83.88
373.158	85.88
373.384	91.88
373.61	82.88
373.835	82.88
374.061	86.88
374.287	94.88
374.513	99.88
374.739	84.88
374.965	68.88
375.191	88.88
375.416	85.88
375.642	89.88
375.868	90.88
376.094	81.88
376.319	85.88
376.545	82.88
376.771	90.88
376.997	90.88
377.222	90.88
377.448	94.88
377.674	90.88
377.899	86.88
378.125	81.88
378.35	77.88
378.576	97.88
378.802	79.88
379.027	82.88
379.253	95.88
379.478	79.88
379.704	86.88
379.929	84.88
380.155	102.88
380.38	97.88
380.606	99.88
380.831	95.88
381.057	85.88
381.282	92.88
381.507	91.88
381.733	94.88
381.958	70.88
382.184	82.88
382.409	86.88
382.634	112.88
382.86	103.88
383.085	95.88
383.31	98.88
383.535	115.88
383.761	100.88
383.986	95.88
384.211	95.88
384.436	94.88
384.662	94.88
384.887	103.88
385.112	107.88
385.337	95.88
385.562	107.88
385.787	100.88
386.013	101.88
386.238	101.88
386.463	97.88
386.688	102.88
386.913	105.88
387.138	109.88
387.363	99.88
387.588	104.88
387.813	103.88
388.038	98.88
388.263	109.88
388.488	119.88
388.713	103.88
388.938	96.88
389.163	99.88
389.387	95.88
389.612	89.88
389.837	88.88
390.062	89.88
390.287	84.88
390.512	74.88
390.736	91.88
390.961	92.88
391.186	89.88
391.411	89.88
391.636	88.88
391.86	90.88
392.085	92.88
392.31	75.88
392.534	90.88
392.759	85.88
392.984	82.88
393.208	79.88
393.433	64.88
393.658	84.88
393.882	72.88
394.107	75.88
394.331	74.88
394.556	90.88
394.78	78.88
395.005	82.88
395.229	87.88
395.454	92.88
395.678	97.88
395.903	91.88
396.127	83.88
396.352	83.88
396.576	91.88
396.801	83.88
397.025	70.88
397.249	71.88
397.474	96.88
397.698	82.88
397.922	76.88
398.147	89.88
398.371	80.88
398.595	88.88
398.82	87.88
399.044	92.88
399.268	85.88
399.492	78.88
399.717	76.88
399.941	90.88
400.165	87.88
400.389	98.88
400.613	92.88
400.837	91.88
401.062	97.88
401.286	75.88
401.51	92.88
401.734	86.88
401.958	96.88
402.182	120.88
402.406	153.88
402.63	113.88
402.854	99.88
403.078	94.88
403.302	81.88
403.526	83.88
403.75	87.88
403.974	90.88
404.198	93.88
404.422	80.88
404.645	83.88
404.869	83.88
405.093	86.88
405.317	94.88
405.541	117.88
405.765	101.88
405.988	108.88
406.212	170.88
406.436	221.88
406.66	155.88
406.883	103.88
407.107	101.88
407.331	85.88
407.555	81.88
407.778	85.88
408.002	90.88
408.226	97.88
408.449	77.88
408.673	81.88
408.896	90.88
409.12	97.88
409.344	95.88
409.567	88.88
409.791	106.88
410.014	100.88
410.238	91.88
410.461	93.88
410.685	86.88
410.908	82.88
411.132	92.88
411.355	94.88
411.578	98.88
411.802	84.88
412.025	86.88
412.249	84.88
412.472	89.88
412.695	94.88
412.919	97.88
413.142	78.88
413.365	81.88
413.589	60.88
413.812	72.88
414.035	75.88
414.258	85.88
414.482	89.88
414.705	93.88
414.928	85.88
415.151	81.88
415.374	99.88
415.597	84.88
415.821	92.88
416.044	85.88
416.267	74.88
416.49	77.88
416.713	92.88
416.936	86.88
417.159	91.88
417.382	78.88
417.605	90.88
417.828	91.88
418.051	92.88
418.274	79.88
418.497	80.88
418.72	74.88
418.943	91.88
419.166	89.88
419.389	95.88
419.611	91.88
419.834	87.88
420.057	81.88
420.28	75.88
420.503	78.88
420.726	88.88
420.948	86.88
421.171	108.88
421.394	85.88
421.617	90.88
421.839	80.88
422.062	92.88
422.285	105.88
422.507	105.88
422.73	92.88
422.953	86.88
423.175	80.88
423.398	91.88
423.621	81.88
423.843	88.88
424.066	91.88
424.288	69.88
424.511	88.88
424.733	100.88
424.956	83.88
425.178	96.88
425.401	93.88
425.623	100.88
425.846	89.88
426.068	92.88
426.291	80.88
426.513	83.88
426.735	89.88
426.958	92.88
427.18	104.88
427.402	136.88
427.625	155.88
427.847	128.88
428.069	111.88
428.292	81.88
428.514	68.88
428.736	76.88
428.958	81.88
429.181	90.88
429.403	93.88
429.625	91.88
429.847	89.88
430.069	83.88
430.292	84.88
430.514	90.88
430.736	84.88
430.958	71.88
431.18	69.88
431.402	74.88
431.624	94.88
431.846	82.88
432.068	85.88
432.29	82.88
432.512	80.88
432.734	76.88
432.956	89.88
433.178	100.88
433.4	98.88
433.622	92.88
433.844	89.88
434.066	85.88
434.287	81.88
434.509	89.88
434.731	82.88
434.953	94.88
435.175	96.88
435.397	80.88
435.618	100.88
435.84	91.88
436.062	126.88
436.284	116.88
436.505	115.88
436.727	101.88
436.949	93.88
437.17	91.88
437.392	75.88
437.614	98.88
437.835	93.88
438.057	101.88
438.278	121.88
438.5	90.88
438.721	106.88
438.943	94.88
439.165	96.88
439.386	91.88
439.608	84.88
439.829	85.88
440.05	131.88
440.272	138.88
440.493	88.88
440.715	91.88
440.936	98.88
441.158	87.88
441.379	75.88
441.6	80.88
441.822	93.88
442.043	85.88
442.264	92.88
442.486	89.88
442.707	75.88
442.928	99.88
443.149	124.88
443.371	128.88
443.592	115.88
443.813	105.88
444.034	93.88
444.255	96.88
444.476	94.88
444.698	90.88
444.919	92.88
445.14	121.88
445.361	112.88
445.582	98.88
445.803	118.88
446.024	112.88
446.245	115.88
446.466	91.88
446.687	86.88
446.908	82.88
447.129	86.88
447.35	85.88
447.571	86.88
447.792	94.88
448.013	94.88
448.234	89.88
448.455	76.88
448.675	105.88
448.896	108.88
449.117	102.88
449.338	99.88
449.559	116.88
449.779	129.88
450	87.88
450.221	81.88
450.442	72.88
450.662	86.88
450.883	100.88
451.104	91.88
451.324	89.88
451.545	79.88
451.766	86.88
451.986	93.88
452.207	78.88
452.428	99.88
452.648	98.88
452.869	109.88
453.089	116.88
453.31	99.88
453.53	96.88
453.751	78.88
453.971	102.88
454.192	109.88
454.412	91.88
454.633	86.88
454.853	97.88
455.073	90.88
455.294	92.88
455.514	84.88
455.734	95.88
455.955	75.88
456.175	80.88
456.395	87.88
456.616	86.88
456.836	90.88
457.056	67.88
457.276	83.88
457.497	63.88
457.717	70.88
457.937	84.88
458.157	86.88
458.377	96.88
458.598	99.88
458.818	134.88
459.038	133.88
459.258	107.88
459.478	100.88
459.698	69.88
459.918	86.88
460.138	81.88
460.358	78.88
460.578	78.88
460.798	80.88
461.018	83.88
461.238	72.88
461.458	82.88
461.678	83.88
461.898	86.88
462.118	83.88
462.338	78.88
462.558	77.88
462.777	83.88
462.997	75.88
463.217	85.88
463.437	78.88
463.657	83.88
463.876	83.88
464.096	80.88
464.316	84.88
464.536	88.88
464.755	89.88
464.975	102.88
465.195	158.88
465.414	156.88
465.634	92.88
465.854	81.88
466.073	94.88
466.293	88.88
466.512	83.88
466.732	79.88
466.951	85.88
467.171	88.88
467.391	92.88
467.61	99.88
467.829	92.88
468.049	113.88
468.268	122.88
468.488	91.88
468.707	74.88
468.927	99.88
469.146	84.88
469.365	83.88
469.585	82.88
469.804	102.88
470.023	117.88
470.243	96.88
470.462	102.88
470.681	114.88
470.901	82.88
471.12	79.88
471.339	91.88
471.558	99.88
471.777	90.88
471.997	100.88
472.216	122.88
472.435	209.88
472.654	117.88
472.873	97.88
473.092	88.88
473.311	95.88
473.53	96.88
473.749	86.88
473.968	96.88
474.187	87.88
474.406	100.88
474.625	79.88
474.844	94.88
475.063	83.88
475.282	88.88
475.501	81.88
475.72	84.88
475.939	89.88
476.158	81.88
476.377	69.88
476.596	96.88
476.814	91.88
477.033	95.88
477.252	86.88
477.471	87.88
477.69	96.88
477.908	70.88
478.127	107.88
478.346	76.88
478.564	91.88
478.783	86.88
479.002	92.88
479.22	104.88
479.439	106.88
479.658	95.88
479.876	94.88
480.095	82.88
480.313	79.88
480.532	99.88
480.751	100.88
480.969	134.88
481.188	322.88
481.406	236.88
481.624	110.88
481.843	88.88
482.061	87.88
482.28	94.88
482.498	90.88
482.717	85.88
482.935	95.88
483.153	92.88
483.372	86.88
483.59	88.88
483.808	88.88
484.027	93.88
484.245	88.88
484.463	80.88
484.681	91.88
484.9	94.88
485.118	94.88
485.336	91.88
485.554	88.88
485.772	98.88
485.99	101.88
486.209	98.88
486.427	114.88
486.645	107.88
486.863	98.88
487.081	103.88
487.299	90.88
487.517	88.88
487.735	75.88
487.953	89.88
488.171	108.88
488.389	100.88
488.607	94.88
488.825	97.88
489.043	88.88
489.261	101.88
489.479	83.88
489.696	83.88
489.914	80.88
490.132	86.88
490.35	81.88
490.568	87.88
490.786	100.88
491.003	91.88
491.221	90.88
491.439	90.88
491.657	91.88
491.874	80.88
492.092	94.88
492.31	89.88
492.527	85.88
492.745	77.88
492.963	90.88
493.18	92.88
493.398	86.88
493.615	78.88
493.833	84.88
494.05	83.88
494.268	105.88
494.485	88.88
494.703	92.88
494.92	81.88
495.138	93.88
495.355	84.88
495.573	94.88
495.79	97.88
496.008	96.88
496.225	83.88
496.442	93.88
496.66	83.88
496.877	96.88
497.094	99.88
497.312	93.88
497.529	93.88
497.746	95.88
497.963	83.88
498.181	87.88
498.398	99.88
498.615	93.88
498.832	107.88
499.049	93.88
499.267	81.88
499.484	74.88
499.701	79.88
499.918	92.88
500.135	94.88
500.352	81.88
500.569	98.88
500.786	99.88
501.003	73.88
501.22	82.88
501.437	107.88
501.654	92.88
501.871	110.88
502.088	86.88
502.305	91.88
502.522	80.88
502.739	79.88
502.956	72.88
503.172	84.88
503.389	79.88
503.606	99.88
503.823	110.88
504.04	84.88
504.256	83.88
504.473	94.88
504.69	82.88
504.907	100.88
505.123	81.88
505.34	82.88
505.557	81.88
505.773	88.88
505.99	90.88
506.207	82.88
506.423	87.88
506.64	64.88
506.856	99.88
507.073	91.88
507.289	96.88
507.506	86.88
507.722	106.88
507.939	109.88
508.155	84.88
508.372	87.88
508.588	86.88
508.805	97.88
509.021	106.88
509.238	95.88
509.454	85.88
509.67	101.88
509.887	108.88
510.103	123.88
510.319	203.88
510.536	722.88
510.752	2444.88
510.968	687.88
511.184	168.88
511.401	97.88
511.617	98.88
511.833	92.88
512.049	85.88
512.265	82.88
512.481	93.88
512.698	95.88
512.914	91.88
513.13	102.88
513.346	87.88
513.562	90.88
513.778	80.88
513.994	95.88
514.21	86.88
514.426	112.88
514.642	112.88
514.858	114.88
515.074	163.88
515.29	427.88
515.506	1481.88
515.721	559.88
515.937	139.88
516.153	105.88
516.369	97.88
516.585	86.88
516.801	86.88
