Data from Circ_2005_H10_HRD10591_00008.txt Node
Date: Wed Jan 03 10:29:52 EST 2024
User: Yrep
Spectrometer: HR+D1059
Trigger mode: 1
Integration Time (sec): 1.000000E-1
Scans to average: 1
Electric dark correction enabled: true
Nonlinearity correction enabled: false
Boxcar width: 0
XAxis mode: Wavelengths
Number of Pixels in Spectrum: 2048
>>>>>Begin Spectral Data<<<<<
223.165	-8.19
223.4	-8.19
223.635	-8.19
223.869	-22.19
224.104	-16.19
224.338	-9.19
224.573	-16.19
224.808	-20.19
225.042	-10.19
225.277	8.81
225.511	5.81
225.746	-11.19
225.98	-4.19
226.215	-4.19
226.449	15.81
226.683	24.81
226.918	28.81
227.152	37.81
227.387	33.81
227.621	37.81
227.856	46.81
228.09	50.81
228.324	54.81
228.559	49.81
228.793	44.81
229.027	59.81
229.262	55.81
229.496	71.81
229.73	86.81
229.964	97.81
230.199	71.81
230.433	60.81
230.667	64.81
230.901	78.81
231.136	62.81
231.37	85.81
231.604	95.81
231.838	78.81
232.072	83.81
232.306	93.81
232.541	82.81
232.775	75.81
233.009	71.81
233.243	72.81
233.477	84.81
233.711	94.81
233.945	83.81
234.179	85.81
234.413	82.81
234.647	76.81
234.881	77.81
235.115	69.81
235.349	76.81
235.583	79.81
235.817	65.81
236.051	78.81
236.285	68.81
236.519	78.81
236.753	74.81
236.987	83.81
237.221	76.81
237.455	93.81
237.689	91.81
237.922	95.81
238.156	68.81
238.39	75.81
238.624	66.81
238.858	61.81
239.091	76.81
239.325	72.81
239.559	70.81
239.793	84.81
240.027	81.81
240.26	75.81
240.494	64.81
240.728	91.81
240.961	78.81
241.195	86.81
241.429	82.81
241.662	90.81
241.896	75.81
242.13	77.81
242.363	88.81
242.597	81.81
242.83	81.81
243.064	65.81
243.298	80.81
243.531	65.81
243.765	91.81
243.998	81.81
244.232	76.81
244.465	79.81
244.699	83.81
244.932	73.81
245.166	82.81
245.399	78.81
245.633	79.81
245.866	85.81
246.099	72.81
246.333	74.81
246.566	76.81
246.8	80.81
247.033	78.81
247.266	78.81
247.5	60.81
247.733	77.81
247.966	93.81
248.2	87.81
248.433	73.81
248.666	62.81
248.899	64.81
249.133	59.81
249.366	85.81
249.599	92.81
249.832	86.81
250.066	89.81
250.299	74.81
250.532	70.81
250.765	79.81
250.998	82.81
251.231	72.81
251.465	76.81
251.698	62.81
251.931	59.81
252.164	88.81
252.397	68.81
252.63	80.81
252.863	65.81
253.096	82.81
253.329	82.81
253.562	85.81
253.795	74.81
254.028	78.81
254.261	72.81
254.494	78.81
254.727	79.81
254.96	90.81
255.193	75.81
255.426	87.81
255.659	78.81
255.892	72.81
256.124	81.81
256.357	94.81
256.59	87.81
256.823	76.81
257.056	68.81
257.289	81.81
257.521	78.81
257.754	81.81
257.987	83.81
258.22	78.81
258.452	75.81
258.685	85.81
258.918	75.81
259.151	73.81
259.383	79.81
259.616	83.81
259.849	84.81
260.081	86.81
260.314	70.81
260.547	84.81
260.779	85.81
261.012	77.81
261.244	82.81
261.477	91.81
261.71	84.81
261.942	104.81
262.175	100.81
262.407	84.81
262.64	83.81
262.872	79.81
263.105	65.81
263.337	76.81
263.57	83.81
263.802	88.81
264.035	71.81
264.267	80.81
264.499	93.81
264.732	85.81
264.964	63.81
265.197	91.81
265.429	95.81
265.661	93.81
265.894	92.81
266.126	75.81
266.358	78.81
266.591	85.81
266.823	90.81
267.055	90.81
267.287	90.81
267.52	79.81
267.752	82.81
267.984	69.81
268.216	76.81
268.448	73.81
268.681	63.81
268.913	93.81
269.145	90.81
269.377	76.81
269.609	75.81
269.841	81.81
270.073	85.81
270.306	74.81
270.538	90.81
270.77	85.81
271.002	81.81
271.234	96.81
271.466	82.81
271.698	95.81
271.93	88.81
272.162	97.81
272.394	72.81
272.626	87.81
272.858	80.81
273.09	85.81
273.322	89.81
273.553	94.81
273.785	86.81
274.017	96.81
274.249	98.81
274.481	90.81
274.713	88.81
274.945	85.81
275.176	76.81
275.408	82.81
275.64	91.81
275.872	95.81
276.104	78.81
276.335	94.81
276.567	94.81
276.799	99.81
277.031	95.81
277.262	103.81
277.494	92.81
277.726	83.81
277.957	79.81
278.189	80.81
278.421	93.81
278.652	85.81
278.884	80.81
279.115	91.81
279.347	86.81
279.579	82.81
279.81	83.81
280.042	94.81
280.273	85.81
280.505	98.81
280.736	88.81
280.968	73.81
281.199	76.81
281.431	78.81
281.662	79.81
281.894	87.81
282.125	109.81
282.356	112.81
282.588	121.81
282.819	94.81
283.051	81.81
283.282	87.81
283.513	83.81
283.745	93.81
283.976	83.81
284.207	77.81
284.439	81.81
284.67	93.81
284.901	86.81
285.132	96.81
285.364	84.81
285.595	76.81
285.826	84.81
286.057	100.81
286.288	81.81
286.52	77.81
286.751	80.81
286.982	92.81
287.213	75.81
287.444	80.81
287.675	96.81
287.906	74.81
288.138	88.81
288.369	87.81
288.6	73.81
288.831	80.81
289.062	98.81
289.293	87.81
289.524	93.81
289.755	86.81
289.986	87.81
290.217	87.81
290.448	87.81
290.679	82.81
290.91	73.81
291.141	97.81
291.371	102.81
291.602	82.81
291.833	75.81
292.064	73.81
292.295	80.81
292.526	83.81
292.757	93.81
292.987	99.81
293.218	97.81
293.449	92.81
293.68	84.81
293.91	101.81
294.141	76.81
294.372	82.81
294.603	97.81
294.833	86.81
295.064	73.81
295.295	90.81
295.525	93.81
295.756	81.81
295.987	122.81
296.217	114.81
296.448	124.81
296.679	85.81
296.909	95.81
297.14	90.81
297.37	96.81
297.601	89.81
297.831	85.81
298.062	89.81
298.292	91.81
298.523	83.81
298.753	84.81
298.984	88.81
299.214	81.81
299.445	77.81
299.675	101.81
299.905	101.81
300.136	86.81
300.366	84.81
300.597	82.81
300.827	96.81
301.057	101.81
301.288	94.81
301.518	89.81
301.748	82.81
301.979	101.81
302.209	72.81
302.439	86.81
302.669	75.81
302.9	89.81
303.13	91.81
303.36	89.81
303.59	99.81
303.82	105.81
304.051	95.81
304.281	91.81
304.511	95.81
304.741	79.81
304.971	88.81
305.201	98.81
305.431	85.81
305.661	87.81
305.891	89.81
306.121	89.81
306.352	87.81
306.582	105.81
306.812	97.81
307.042	87.81
307.272	95.81
307.502	94.81
307.731	93.81
307.961	86.81
308.191	77.81
308.421	96.81
308.651	85.81
308.881	86.81
309.111	92.81
309.341	92.81
309.571	105.81
309.8	100.81
310.03	96.81
310.26	85.81
310.49	86.81
310.72	86.81
310.949	86.81
311.179	95.81
311.409	81.81
311.639	82.81
311.868	88.81
312.098	78.81
312.328	102.81
312.557	94.81
312.787	91.81
313.017	98.81
313.246	90.81
313.476	101.81
313.706	87.81
313.935	93.81
314.165	80.81
314.394	92.81
314.624	97.81
314.853	81.81
315.083	74.81
315.312	88.81
315.542	86.81
315.771	81.81
316.001	95.81
316.23	97.81
316.46	75.81
316.689	90.81
316.919	100.81
317.148	90.81
317.377	82.81
317.607	91.81
317.836	92.81
318.065	82.81
318.295	72.81
318.524	85.81
318.753	92.81
318.983	84.81
319.212	101.81
319.441	103.81
319.67	92.81
319.9	105.81
320.129	91.81
320.358	97.81
320.587	102.81
320.816	97.81
321.046	93.81
321.275	83.81
321.504	96.81
321.733	87.81
321.962	100.81
322.191	99.81
322.42	104.81
322.649	107.81
322.878	98.81
323.108	95.81
323.337	117.81
323.566	117.81
323.795	140.81
324.024	197.81
324.253	380.81
324.482	791.81
324.71	1616.81
324.939	2113.81
325.168	783.81
325.397	243.81
325.626	151.81
325.855	126.81
326.084	116.81
326.313	146.81
326.542	147.81
326.77	218.81
326.999	459.81
327.228	913.81
327.457	1652.81
327.686	1341.81
327.914	353.81
328.143	173.81
328.372	122.81
328.6	106.81
328.829	101.81
329.058	108.81
329.287	125.81
329.515	100.81
329.744	86.81
329.972	95.81
330.201	117.81
330.43	116.81
330.658	113.81
330.887	110.81
331.115	124.81
331.344	117.81
331.572	86.81
331.801	94.81
332.03	92.81
332.258	100.81
332.486	87.81
332.715	86.81
332.943	89.81
333.172	93.81
333.4	83.81
333.629	95.81
333.857	98.81
334.085	107.81
334.314	91.81
334.542	102.81
334.771	92.81
334.999	100.81
335.227	98.81
335.455	106.81
335.684	99.81
335.912	100.81
336.14	102.81
336.369	93.81
336.597	100.81
336.825	92.81
337.053	84.81
337.281	99.81
337.51	94.81
337.738	94.81
337.966	76.81
338.194	94.81
338.422	91.81
338.65	94.81
338.878	88.81
339.106	81.81
339.334	87.81
339.562	95.81
339.79	84.81
340.018	83.81
340.246	84.81
340.474	92.81
340.702	99.81
340.93	93.81
341.158	87.81
341.386	99.81
341.614	100.81
341.842	81.81
342.07	83.81
342.298	97.81
342.526	91.81
342.754	96.81
342.981	91.81
343.209	86.81
343.437	95.81
343.665	93.81
343.893	73.81
344.12	92.81
344.348	83.81
344.576	107.81
344.804	90.81
345.031	97.81
345.259	99.81
345.487	101.81
345.714	96.81
345.942	87.81
346.17	87.81
346.397	96.81
346.625	97.81
346.853	91.81
347.08	82.81
347.308	98.81
347.535	95.81
347.763	80.81
347.99	103.81
348.218	93.81
348.445	103.81
348.673	98.81
348.9	92.81
349.128	85.81
349.355	85.81
349.583	97.81
349.81	80.81
350.037	99.81
350.265	89.81
350.492	103.81
350.72	87.81
350.947	99.81
351.174	105.81
351.402	110.81
351.629	90.81
351.856	90.81
352.083	93.81
352.311	102.81
352.538	116.81
352.765	102.81
352.992	113.81
353.22	110.81
353.447	108.81
353.674	94.81
353.901	107.81
354.128	98.81
354.355	94.81
354.583	102.81
354.81	89.81
355.037	101.81
355.264	82.81
355.491	95.81
355.718	78.81
355.945	90.81
356.172	86.81
356.399	99.81
356.626	102.81
356.853	89.81
357.08	102.81
357.307	86.81
357.534	105.81
357.761	81.81
357.988	82.81
358.215	110.81
358.441	101.81
358.668	82.81
358.895	85.81
359.122	95.81
359.349	86.81
359.576	84.81
359.802	94.81
360.029	107.81
360.256	107.81
360.483	101.81
360.709	86.81
360.936	108.81
361.163	98.81
361.39	85.81
361.616	86.81
361.843	103.81
362.07	86.81
362.296	83.81
362.523	86.81
362.749	94.81
362.976	92.81
363.203	70.81
363.429	74.81
363.656	86.81
363.882	103.81
364.109	102.81
364.335	84.81
364.562	80.81
364.788	82.81
365.015	95.81
365.241	92.81
365.468	106.81
365.694	96.81
365.92	89.81
366.147	99.81
366.373	93.81
366.599	80.81
366.826	92.81
367.052	75.81
367.278	72.81
367.505	100.81
367.731	83.81
367.957	83.81
368.184	100.81
368.41	84.81
368.636	109.81
368.862	106.81
369.089	101.81
369.315	93.81
369.541	92.81
369.767	87.81
369.993	97.81
370.219	83.81
370.445	78.81
370.672	110.81
370.898	97.81
371.124	87.81
371.35	79.81
371.576	84.81
371.802	92.81
372.028	81.81
372.254	91.81
372.48	99.81
372.706	82.81
372.932	80.81
373.158	93.81
373.384	69.81
373.61	84.81
373.835	83.81
374.061	83.81
374.287	102.81
374.513	86.81
374.739	76.81
374.965	74.81
375.191	88.81
375.416	81.81
375.642	81.81
375.868	84.81
376.094	93.81
376.319	75.81
376.545	96.81
376.771	85.81
376.997	94.81
377.222	97.81
377.448	83.81
377.674	94.81
377.899	93.81
378.125	84.81
378.35	92.81
378.576	88.81
378.802	90.81
379.027	98.81
379.253	95.81
379.478	94.81
379.704	91.81
379.929	87.81
380.155	95.81
380.38	98.81
380.606	93.81
380.831	112.81
381.057	108.81
381.282	99.81
381.507	107.81
381.733	94.81
381.958	100.81
382.184	107.81
382.409	101.81
382.634	114.81
382.86	112.81
383.085	99.81
383.31	88.81
383.535	116.81
383.761	111.81
383.986	112.81
384.211	94.81
384.436	101.81
384.662	112.81
384.887	113.81
385.112	110.81
385.337	109.81
385.562	114.81
385.787	112.81
386.013	123.81
386.238	114.81
386.463	102.81
386.688	114.81
386.913	114.81
387.138	126.81
387.363	94.81
387.588	93.81
387.813	102.81
388.038	106.81
388.263	131.81
388.488	118.81
388.713	92.81
388.938	94.81
389.163	83.81
389.387	91.81
389.612	98.81
389.837	97.81
390.062	89.81
390.287	90.81
390.512	92.81
390.736	85.81
390.961	98.81
391.186	90.81
391.411	86.81
391.636	83.81
391.86	86.81
392.085	106.81
392.31	99.81
392.534	87.81
392.759	65.81
392.984	69.81
393.208	84.81
393.433	97.81
393.658	99.81
393.882	71.81
394.107	85.81
394.331	85.81
394.556	84.81
394.78	82.81
395.005	89.81
395.229	71.81
395.454	81.81
395.678	86.81
395.903	84.81
396.127	99.81
396.352	85.81
396.576	86.81
396.801	76.81
397.025	83.81
397.249	76.81
397.474	80.81
397.698	82.81
397.922	87.81
398.147	77.81
398.371	82.81
398.595	87.81
398.82	83.81
399.044	81.81
399.268	83.81
399.492	84.81
399.717	81.81
399.941	82.81
400.165	84.81
400.389	85.81
400.613	88.81
400.837	82.81
401.062	91.81
401.286	100.81
401.51	81.81
401.734	83.81
401.958	89.81
402.182	122.81
402.406	146.81
402.63	108.81
402.854	84.81
403.078	86.81
403.302	78.81
403.526	80.81
403.75	89.81
403.974	85.81
404.198	76.81
404.422	85.81
404.645	86.81
404.869	86.81
405.093	79.81
405.317	85.81
405.541	84.81
405.765	80.81
405.988	99.81
406.212	169.81
406.436	219.81
406.66	141.81
406.883	94.81
407.107	82.81
407.331	89.81
407.555	94.81
407.778	86.81
408.002	94.81
408.226	73.81
408.449	75.81
408.673	91.81
408.896	98.81
409.12	83.81
409.344	86.81
409.567	84.81
409.791	90.81
410.014	89.81
410.238	91.81
410.461	86.81
410.685	81.81
410.908	94.81
411.132	95.81
411.355	99.81
411.578	82.81
411.802	99.81
412.025	85.81
412.249	83.81
412.472	72.81
412.695	78.81
412.919	79.81
413.142	85.81
413.365	84.81
413.589	92.81
413.812	89.81
414.035	77.81
414.258	94.81
414.482	76.81
414.705	94.81
414.928	101.81
415.151	94.81
415.374	88.81
415.597	89.81
415.821	90.81
416.044	78.81
416.267	77.81
416.49	81.81
416.713	84.81
416.936	103.81
417.159	94.81
417.382	85.81
417.605	83.81
417.828	83.81
418.051	76.81
418.274	91.81
418.497	92.81
418.72	87.81
418.943	95.81
419.166	100.81
419.389	97.81
419.611	77.81
419.834	86.81
420.057	79.81
420.28	81.81
420.503	90.81
420.726	89.81
420.948	93.81
421.171	91.81
421.394	89.81
421.617	80.81
421.839	80.81
422.062	86.81
422.285	87.81
422.507	81.81
422.73	99.81
422.953	94.81
423.175	96.81
423.398	96.81
423.621	85.81
423.843	87.81
424.066	81.81
424.288	88.81
424.511	98.81
424.733	94.81
424.956	95.81
425.178	100.81
425.401	96.81
425.623	88.81
425.846	81.81
426.068	79.81
426.291	76.81
426.513	94.81
426.735	81.81
426.958	86.81
427.18	99.81
427.402	117.81
427.625	143.81
427.847	115.81
428.069	108.81
428.292	73.81
428.514	94.81
428.736	97.81
428.958	78.81
429.181	79.81
429.403	87.81
429.625	87.81
429.847	79.81
430.069	101.81
430.292	87.81
430.514	82.81
430.736	79.81
430.958	92.81
431.18	78.81
431.402	69.81
431.624	66.81
431.846	75.81
432.068	94.81
432.29	76.81
432.512	86.81
432.734	89.81
432.956	84.81
433.178	85.81
433.4	101.81
433.622	107.81
433.844	93.81
434.066	92.81
434.287	82.81
434.509	82.81
434.731	79.81
434.953	81.81
435.175	94.81
435.397	92.81
435.618	82.81
435.84	95.81
436.062	115.81
436.284	117.81
436.505	102.81
436.727	100.81
436.949	75.81
437.17	102.81
437.392	89.81
437.614	98.81
437.835	84.81
438.057	100.81
438.278	110.81
438.5	100.81
438.721	108.81
438.943	81.81
439.165	82.81
439.386	83.81
439.608	82.81
439.829	94.81
440.05	133.81
440.272	123.81
440.493	102.81
440.715	85.81
440.936	88.81
441.158	84.81
441.379	93.81
441.6	90.81
441.822	85.81
442.043	95.81
442.264	101.81
442.486	92.81
442.707	75.81
442.928	109.81
443.149	120.81
443.371	107.81
443.592	111.81
443.813	97.81
444.034	91.81
444.255	94.81
444.476	82.81
444.698	80.81
444.919	84.81
445.14	123.81
445.361	106.81
445.582	120.81
445.803	137.81
446.024	124.81
446.245	113.81
446.466	115.81
446.687	98.81
446.908	94.81
447.129	85.81
447.35	89.81
447.571	77.81
447.792	72.81
448.013	97.81
448.234	106.81
448.455	101.81
448.675	111.81
448.896	108.81
449.117	92.81
449.338	92.81
449.559	116.81
449.779	124.81
450	89.81
450.221	82.81
450.442	89.81
450.662	91.81
450.883	83.81
451.104	104.81
451.324	93.81
451.545	87.81
451.766	85.81
451.986	97.81
452.207	78.81
452.428	85.81
452.648	81.81
452.869	104.81
453.089	105.81
453.31	115.81
453.53	86.81
453.751	97.81
453.971	103.81
454.192	111.81
454.412	85.81
454.633	79.81
454.853	84.81
455.073	74.81
455.294	93.81
455.514	86.81
455.734	79.81
455.955	86.81
456.175	91.81
456.395	78.81
456.616	83.81
456.836	83.81
457.056	92.81
457.276	81.81
457.497	78.81
457.717	84.81
457.937	86.81
458.157	77.81
458.377	77.81
458.598	95.81
458.818	116.81
459.038	142.81
459.258	105.81
459.478	84.81
459.698	97.81
459.918	79.81
460.138	82.81
460.358	84.81
460.578	86.81
460.798	94.81
461.018	98.81
461.238	95.81
461.458	100.81
461.678	91.81
461.898	81.81
462.118	74.81
462.338	82.81
462.558	95.81
462.777	100.81
462.997	82.81
463.217	92.81
463.437	95.81
463.657	99.81
463.876	83.81
464.096	79.81
464.316	99.81
464.536	79.81
464.755	86.81
464.975	92.81
465.195	151.81
465.414	148.81
465.634	99.81
465.854	81.81
466.073	68.81
466.293	91.81
466.512	65.81
466.732	95.81
466.951	81.81
467.171	87.81
467.391	82.81
467.61	86.81
467.829	80.81
468.049	91.81
468.268	94.81
468.488	83.81
468.707	72.81
468.927	81.81
469.146	94.81
469.365	85.81
469.585	85.81
469.804	87.81
470.023	91.81
470.243	93.81
470.462	92.81
470.681	95.81
470.901	97.81
471.12	85.81
471.339	81.81
471.558	77.81
471.777	87.81
471.997	91.81
472.216	93.81
472.435	104.81
472.654	83.81
472.873	86.81
473.092	77.81
473.311	90.81
473.53	83.81
473.749	80.81
473.968	85.81
474.187	97.81
474.406	89.81
474.625	86.81
474.844	97.81
475.063	84.81
475.282	90.81
475.501	87.81
475.72	90.81
475.939	80.81
476.158	84.81
476.377	87.81
476.596	87.81
476.814	91.81
477.033	69.81
477.252	71.81
477.471	84.81
477.69	98.81
477.908	87.81
478.127	79.81
478.346	86.81
478.564	98.81
478.783	80.81
479.002	84.81
479.22	93.81
479.439	81.81
479.658	107.81
479.876	94.81
480.095	83.81
480.313	102.81
480.532	87.81
480.751	75.81
480.969	74.81
481.188	103.81
481.406	101.81
481.624	80.81
481.843	93.81
482.061	83.81
482.28	87.81
482.498	90.81
482.717	82.81
482.935	60.81
483.153	91.81
483.372	90.81
483.59	85.81
483.808	79.81
484.027	85.81
484.245	92.81
484.463	91.81
484.681	79.81
484.9	93.81
485.118	82.81
485.336	98.81
485.554	82.81
485.772	83.81
485.99	104.81
486.209	109.81
486.427	100.81
486.645	101.81
486.863	109.81
487.081	110.81
487.299	92.81
487.517	86.81
487.735	94.81
487.953	86.81
488.171	94.81
488.389	95.81
488.607	92.81
488.825	81.81
489.043	79.81
489.261	73.81
489.479	95.81
489.696	80.81
489.914	86.81
490.132	98.81
490.35	88.81
490.568	91.81
490.786	83.81
491.003	86.81
491.221	93.81
491.439	86.81
491.657	84.81
491.874	88.81
492.092	79.81
492.31	85.81
492.527	86.81
492.745	68.81
492.963	79.81
493.18	77.81
493.398	91.81
493.615	78.81
493.833	85.81
494.05	78.81
494.268	99.81
494.485	82.81
494.703	73.81
494.92	95.81
495.138	82.81
495.355	86.81
495.573	83.81
495.79	76.81
496.008	89.81
496.225	78.81
496.442	84.81
496.66	90.81
496.877	89.81
497.094	99.81
497.312	81.81
497.529	84.81
497.746	87.81
497.963	97.81
498.181	77.81
498.398	93.81
498.615	104.81
498.832	91.81
499.049	94.81
499.267	85.81
499.484	83.81
499.701	90.81
499.918	94.81
500.135	72.81
500.352	90.81
500.569	67.81
500.786	92.81
501.003	98.81
501.22	94.81
501.437	80.81
501.654	84.81
501.871	83.81
502.088	86.81
502.305	82.81
502.522	82.81
502.739	84.81
502.956	84.81
503.172	96.81
503.389	103.81
503.606	98.81
503.823	88.81
504.04	102.81
504.256	90.81
504.473	86.81
504.69	87.81
504.907	84.81
505.123	89.81
505.34	82.81
505.557	84.81
505.773	83.81
505.99	75.81
506.207	88.81
506.423	88.81
506.64	83.81
506.856	94.81
507.073	94.81
507.289	98.81
507.506	97.81
507.722	114.81
507.939	104.81
508.155	87.81
508.372	86.81
508.588	86.81
508.805	96.81
509.021	85.81
509.238	84.81
509.454	94.81
509.67	91.81
509.887	102.81
510.103	119.81
510.319	201.81
510.536	642.81
510.752	2016.81
510.968	567.81
511.184	131.81
511.401	97.81
511.617	105.81
511.833	77.81
512.049	83.81
512.265	91.81
512.481	101.81
512.698	84.81
512.914	100.81
513.13	103.81
513.346	95.81
513.562	83.81
513.778	86.81
513.994	81.81
514.21	88.81
514.426	105.81
514.642	121.81
514.858	114.81
515.074	145.81
515.29	367.81
515.506	1252.81
515.721	484.81
515.937	118.81
516.153	89.81
516.369	84.81
516.585	88.81
516.801	89.81
