Data from Circ_2005_H10_HRD10591_00025.txt Node
Date: Wed Jan 03 10:29:56 EST 2024
User: Yrep
Spectrometer: HR+D1059
Trigger mode: 1
Integration Time (sec): 1.000000E-1
Scans to average: 1
Electric dark correction enabled: true
Nonlinearity correction enabled: false
Boxcar width: 0
XAxis mode: Wavelengths
Number of Pixels in Spectrum: 2048
>>>>>Begin Spectral Data<<<<<
223.165	-18.69
223.4	-18.69
223.635	-18.69
223.869	-28.69
224.104	-16.69
224.338	-3.69
224.573	-17.69
224.808	-16.69
225.042	-1.69
225.277	-10.69
225.511	0.31
225.746	17.31
225.98	2.31
226.215	7.31
226.449	18.31
226.683	13.31
226.918	17.31
227.152	38.31
227.387	36.31
227.621	33.31
227.856	42.31
228.09	48.31
228.324	45.31
228.559	48.31
228.793	64.31
229.027	68.31
229.262	62.31
229.496	76.31
229.73	81.31
229.964	80.31
230.199	71.31
230.433	76.31
230.667	86.31
230.901	74.31
231.136	72.31
231.37	84.31
231.604	77.31
231.838	94.31
232.072	91.31
232.306	81.31
232.541	94.31
232.775	96.31
233.009	78.31
233.243	87.31
233.477	74.31
233.711	88.31
233.945	81.31
234.179	78.31
234.413	88.31
234.647	89.31
234.881	83.31
235.115	81.31
235.349	85.31
235.583	76.31
235.817	84.31
236.051	84.31
236.285	75.31
236.519	92.31
236.753	76.31
236.987	83.31
237.221	86.31
237.455	84.31
237.689	94.31
237.922	73.31
238.156	76.31
238.39	68.31
238.624	87.31
238.858	63.31
239.091	92.31
239.325	80.31
239.559	85.31
239.793	84.31
240.027	75.31
240.26	73.31
240.494	80.31
240.728	79.31
240.961	68.31
241.195	70.31
241.429	65.31
241.662	75.31
241.896	74.31
242.13	81.31
242.363	86.31
242.597	84.31
242.83	79.31
243.064	73.31
243.298	76.31
243.531	84.31
243.765	83.31
243.998	86.31
244.232	83.31
244.465	93.31
244.699	82.31
244.932	75.31
245.166	90.31
245.399	81.31
245.633	80.31
245.866	94.31
246.099	94.31
246.333	82.31
246.566	84.31
246.8	67.31
247.033	83.31
247.266	66.31
247.5	93.31
247.733	76.31
247.966	69.31
248.2	71.31
248.433	82.31
248.666	77.31
248.899	89.31
249.133	103.31
249.366	109.31
249.599	93.31
249.832	84.31
250.066	72.31
250.299	93.31
250.532	85.31
250.765	84.31
250.998	87.31
251.231	80.31
251.465	71.31
251.698	83.31
251.931	76.31
252.164	80.31
252.397	83.31
252.63	82.31
252.863	68.31
253.096	91.31
253.329	67.31
253.562	77.31
253.795	77.31
254.028	80.31
254.261	84.31
254.494	76.31
254.727	71.31
254.96	65.31
255.193	72.31
255.426	78.31
255.659	94.31
255.892	89.31
256.124	71.31
256.357	88.31
256.59	72.31
256.823	72.31
257.056	82.31
257.289	95.31
257.521	78.31
257.754	86.31
257.987	83.31
258.22	87.31
258.452	96.31
258.685	92.31
258.918	84.31
259.151	68.31
259.383	70.31
259.616	72.31
259.849	91.31
260.081	87.31
260.314	76.31
260.547	86.31
260.779	71.31
261.012	84.31
261.244	87.31
261.477	94.31
261.71	96.31
261.942	103.31
262.175	126.31
262.407	85.31
262.64	86.31
262.872	76.31
263.105	67.31
263.337	74.31
263.57	84.31
263.802	87.31
264.035	84.31
264.267	83.31
264.499	81.31
264.732	84.31
264.964	76.31
265.197	81.31
265.429	78.31
265.661	89.31
265.894	86.31
266.126	91.31
266.358	86.31
266.591	77.31
266.823	85.31
267.055	76.31
267.287	101.31
267.52	73.31
267.752	77.31
267.984	78.31
268.216	69.31
268.448	100.31
268.681	84.31
268.913	82.31
269.145	95.31
269.377	83.31
269.609	90.31
269.841	87.31
270.073	84.31
270.306	101.31
270.538	85.31
270.77	88.31
271.002	85.31
271.234	91.31
271.466	89.31
271.698	93.31
271.93	86.31
272.162	89.31
272.394	81.31
272.626	82.31
272.858	91.31
273.09	81.31
273.322	86.31
273.553	87.31
273.785	86.31
274.017	84.31
274.249	73.31
274.481	79.31
274.713	97.31
274.945	86.31
275.176	88.31
275.408	89.31
275.64	71.31
275.872	91.31
276.104	89.31
276.335	77.31
276.567	92.31
276.799	94.31
277.031	110.31
277.262	89.31
277.494	98.31
277.726	105.31
277.957	89.31
278.189	76.31
278.421	80.31
278.652	88.31
278.884	93.31
279.115	96.31
279.347	102.31
279.579	76.31
279.81	93.31
280.042	87.31
280.273	93.31
280.505	80.31
280.736	89.31
280.968	70.31
281.199	84.31
281.431	84.31
281.662	92.31
281.894	90.31
282.125	90.31
282.356	113.31
282.588	143.31
282.819	124.31
283.051	98.31
283.282	78.31
283.513	87.31
283.745	95.31
283.976	84.31
284.207	83.31
284.439	74.31
284.67	84.31
284.901	89.31
285.132	87.31
285.364	94.31
285.595	84.31
285.826	83.31
286.057	90.31
286.288	82.31
286.52	79.31
286.751	79.31
286.982	84.31
287.213	81.31
287.444	87.31
287.675	87.31
287.906	80.31
288.138	86.31
288.369	95.31
288.6	104.31
288.831	81.31
289.062	82.31
289.293	85.31
289.524	99.31
289.755	82.31
289.986	100.31
290.217	105.31
290.448	82.31
290.679	82.31
290.91	86.31
291.141	91.31
291.371	80.31
291.602	84.31
291.833	102.31
292.064	83.31
292.295	80.31
292.526	85.31
292.757	81.31
292.987	94.31
293.218	88.31
293.449	100.31
293.68	93.31
293.91	85.31
294.141	87.31
294.372	102.31
294.603	84.31
294.833	81.31
295.064	73.31
295.295	78.31
295.525	84.31
295.756	100.31
295.987	116.31
296.217	143.31
296.448	115.31
296.679	98.31
296.909	100.31
297.14	87.31
297.37	96.31
297.601	99.31
297.831	83.31
298.062	87.31
298.292	88.31
298.523	84.31
298.753	88.31
298.984	96.31
299.214	80.31
299.445	111.31
299.675	81.31
299.905	93.31
300.136	88.31
300.366	89.31
300.597	95.31
300.827	86.31
301.057	105.31
301.288	111.31
301.518	94.31
301.748	80.31
301.979	98.31
302.209	97.31
302.439	94.31
302.669	95.31
302.9	85.31
303.13	93.31
303.36	90.31
303.59	103.31
303.82	108.31
304.051	108.31
304.281	96.31
304.511	92.31
304.741	97.31
304.971	81.31
305.201	70.31
305.431	90.31
305.661	94.31
305.891	92.31
306.121	78.31
306.352	97.31
306.582	106.31
306.812	96.31
307.042	87.31
307.272	84.31
307.502	80.31
307.731	93.31
307.961	91.31
308.191	86.31
308.421	94.31
308.651	89.31
308.881	97.31
309.111	82.31
309.341	95.31
309.571	95.31
309.8	100.31
310.03	100.31
310.26	100.31
310.49	97.31
310.72	89.31
310.949	98.31
311.179	96.31
311.409	96.31
311.639	98.31
311.868	101.31
312.098	95.31
312.328	94.31
312.557	99.31
312.787	118.31
313.017	99.31
313.246	96.31
313.476	84.31
313.706	96.31
313.935	101.31
314.165	95.31
314.394	100.31
314.624	104.31
314.853	95.31
315.083	90.31
315.312	100.31
315.542	92.31
315.771	95.31
316.001	105.31
316.23	90.31
316.46	89.31
316.689	106.31
316.919	81.31
317.148	93.31
317.377	102.31
317.607	87.31
317.836	84.31
318.065	87.31
318.295	90.31
318.524	97.31
318.753	89.31
318.983	85.31
319.212	102.31
319.441	119.31
319.67	106.31
319.9	100.31
320.129	86.31
320.358	110.31
320.587	96.31
320.816	103.31
321.046	100.31
321.275	97.31
321.504	94.31
321.733	94.31
321.962	100.31
322.191	103.31
322.42	106.31
322.649	114.31
322.878	105.31
323.108	124.31
323.337	119.31
323.566	124.31
323.795	143.31
324.024	212.31
324.253	404.31
324.482	826.31
324.71	1766.31
324.939	2361.31
325.168	836.31
325.397	252.31
325.626	163.31
325.855	133.31
326.084	136.31
326.313	126.31
326.542	144.31
326.77	226.31
326.999	479.31
327.228	999.31
327.457	1832.31
327.686	1410.31
327.914	386.31
328.143	186.31
328.372	158.31
328.6	125.31
328.829	106.31
329.058	128.31
329.287	125.31
329.515	113.31
329.744	104.31
329.972	90.31
330.201	109.31
330.43	137.31
330.658	121.31
330.887	136.31
331.115	125.31
331.344	97.31
331.572	113.31
331.801	96.31
332.03	106.31
332.258	91.31
332.486	99.31
332.715	98.31
332.943	90.31
333.172	91.31
333.4	97.31
333.629	93.31
333.857	127.31
334.085	120.31
334.314	91.31
334.542	124.31
334.771	100.31
334.999	96.31
335.227	104.31
335.455	97.31
335.684	101.31
335.912	103.31
336.14	106.31
336.369	100.31
336.597	101.31
336.825	107.31
337.053	109.31
337.281	90.31
337.51	101.31
337.738	88.31
337.966	99.31
338.194	106.31
338.422	98.31
338.65	94.31
338.878	88.31
339.106	98.31
339.334	102.31
339.562	83.31
339.79	89.31
340.018	94.31
340.246	95.31
340.474	93.31
340.702	90.31
340.93	90.31
341.158	86.31
341.386	97.31
341.614	107.31
341.842	99.31
342.07	90.31
342.298	95.31
342.526	76.31
342.754	87.31
342.981	102.31
343.209	81.31
343.437	103.31
343.665	109.31
343.893	93.31
344.12	95.31
344.348	88.31
344.576	87.31
344.804	93.31
345.031	102.31
345.259	105.31
345.487	89.31
345.714	107.31
345.942	85.31
346.17	99.31
346.397	87.31
346.625	90.31
346.853	97.31
347.08	95.31
347.308	95.31
347.535	89.31
347.763	96.31
347.99	98.31
348.218	110.31
348.445	102.31
348.673	105.31
348.9	94.31
349.128	80.31
349.355	89.31
349.583	93.31
349.81	88.31
350.037	94.31
350.265	92.31
350.492	114.31
350.72	105.31
350.947	93.31
351.174	98.31
351.402	109.31
351.629	98.31
351.856	89.31
352.083	102.31
352.311	97.31
352.538	102.31
352.765	108.31
352.992	115.31
353.22	103.31
353.447	105.31
353.674	105.31
353.901	101.31
354.128	85.31
354.355	99.31
354.583	98.31
354.81	95.31
355.037	91.31
355.264	87.31
355.491	92.31
355.718	95.31
355.945	101.31
356.172	102.31
356.399	89.31
356.626	88.31
356.853	104.31
357.08	94.31
357.307	88.31
357.534	100.31
357.761	109.31
357.988	94.31
358.215	106.31
358.441	104.31
358.668	99.31
358.895	96.31
359.122	74.31
359.349	96.31
359.576	88.31
359.802	105.31
360.029	102.31
360.256	106.31
360.483	99.31
360.709	78.31
360.936	95.31
361.163	98.31
361.39	92.31
361.616	103.31
361.843	84.31
362.07	92.31
362.296	93.31
362.523	93.31
362.749	94.31
362.976	84.31
363.203	84.31
363.429	97.31
363.656	82.31
363.882	94.31
364.109	85.31
364.335	91.31
364.562	84.31
364.788	101.31
365.015	87.31
365.241	94.31
365.468	101.31
365.694	101.31
365.92	85.31
366.147	103.31
366.373	86.31
366.599	88.31
366.826	86.31
367.052	82.31
367.278	100.31
367.505	101.31
367.731	83.31
367.957	94.31
368.184	100.31
368.41	111.31
368.636	101.31
368.862	115.31
369.089	113.31
369.315	94.31
369.541	81.31
369.767	102.31
369.993	103.31
370.219	88.31
370.445	80.31
370.672	92.31
370.898	100.31
371.124	104.31
371.35	98.31
371.576	85.31
371.802	90.31
372.028	91.31
372.254	84.31
372.48	99.31
372.706	89.31
372.932	84.31
373.158	82.31
373.384	87.31
373.61	104.31
373.835	97.31
374.061	95.31
374.287	96.31
374.513	88.31
374.739	97.31
374.965	109.31
375.191	90.31
375.416	92.31
375.642	91.31
375.868	90.31
376.094	89.31
376.319	100.31
376.545	92.31
376.771	90.31
376.997	93.31
377.222	99.31
377.448	82.31
377.674	94.31
377.899	87.31
378.125	84.31
378.35	93.31
378.576	81.31
378.802	82.31
379.027	91.31
379.253	82.31
379.478	92.31
379.704	79.31
379.929	83.31
380.155	89.31
380.38	99.31
380.606	101.31
380.831	99.31
381.057	114.31
381.282	96.31
381.507	98.31
381.733	107.31
381.958	93.31
382.184	100.31
382.409	109.31
382.634	97.31
382.86	115.31
383.085	105.31
383.31	100.31
383.535	111.31
383.761	109.31
383.986	99.31
384.211	105.31
384.436	100.31
384.662	97.31
384.887	94.31
385.112	112.31
385.337	98.31
385.562	118.31
385.787	96.31
386.013	134.31
386.238	122.31
386.463	92.31
386.688	97.31
386.913	103.31
387.138	110.31
387.363	103.31
387.588	106.31
387.813	102.31
388.038	113.31
388.263	120.31
388.488	98.31
388.713	81.31
388.938	92.31
389.163	88.31
389.387	109.31
389.612	101.31
389.837	86.31
390.062	98.31
390.287	92.31
390.512	99.31
390.736	92.31
390.961	94.31
391.186	82.31
391.411	84.31
391.636	87.31
391.86	91.31
392.085	92.31
392.31	101.31
392.534	89.31
392.759	94.31
392.984	84.31
393.208	72.31
393.433	81.31
393.658	75.31
393.882	93.31
394.107	101.31
394.331	100.31
394.556	90.31
394.78	93.31
395.005	94.31
395.229	82.31
395.454	79.31
395.678	86.31
395.903	84.31
396.127	92.31
396.352	83.31
396.576	89.31
396.801	90.31
397.025	89.31
397.249	80.31
397.474	95.31
397.698	86.31
397.922	93.31
398.147	86.31
398.371	85.31
398.595	104.31
398.82	77.31
399.044	86.31
399.268	103.31
399.492	90.31
399.717	95.31
399.941	94.31
400.165	99.31
400.389	81.31
400.613	77.31
400.837	91.31
401.062	105.31
401.286	91.31
401.51	86.31
401.734	90.31
401.958	103.31
402.182	115.31
402.406	162.31
402.63	111.31
402.854	111.31
403.078	85.31
403.302	77.31
403.526	90.31
403.75	93.31
403.974	88.31
404.198	84.31
404.422	88.31
404.645	90.31
404.869	96.31
405.093	90.31
405.317	98.31
405.541	106.31
405.765	108.31
405.988	126.31
406.212	160.31
406.436	217.31
406.66	140.31
406.883	100.31
407.107	98.31
407.331	97.31
407.555	111.31
407.778	98.31
408.002	92.31
408.226	95.31
408.449	80.31
408.673	82.31
408.896	79.31
409.12	85.31
409.344	88.31
409.567	80.31
409.791	88.31
410.014	95.31
410.238	101.31
410.461	87.31
410.685	80.31
410.908	102.31
411.132	109.31
411.355	87.31
411.578	84.31
411.802	79.31
412.025	79.31
412.249	93.31
412.472	92.31
412.695	97.31
412.919	98.31
413.142	94.31
413.365	93.31
413.589	83.31
413.812	99.31
414.035	87.31
414.258	96.31
414.482	88.31
414.705	93.31
414.928	85.31
415.151	78.31
415.374	93.31
415.597	89.31
415.821	96.31
416.044	95.31
416.267	87.31
416.49	68.31
416.713	97.31
416.936	87.31
417.159	92.31
417.382	88.31
417.605	102.31
417.828	93.31
418.051	82.31
418.274	80.31
418.497	81.31
418.72	89.31
418.943	91.31
419.166	101.31
419.389	93.31
419.611	84.31
419.834	97.31
420.057	86.31
420.28	93.31
420.503	68.31
420.726	80.31
420.948	92.31
421.171	116.31
421.394	105.31
421.617	91.31
421.839	86.31
422.062	94.31
422.285	110.31
422.507	104.31
422.73	94.31
422.953	85.31
423.175	90.31
423.398	81.31
423.621	77.31
423.843	93.31
424.066	85.31
424.288	86.31
424.511	90.31
424.733	92.31
424.956	97.31
425.178	100.31
425.401	108.31
425.623	86.31
425.846	76.31
426.068	84.31
426.291	93.31
426.513	84.31
426.735	96.31
426.958	88.31
427.18	108.31
427.402	135.31
427.625	166.31
427.847	141.31
428.069	103.31
428.292	84.31
428.514	76.31
428.736	77.31
428.958	86.31
429.181	89.31
429.403	90.31
429.625	91.31
429.847	85.31
430.069	100.31
430.292	88.31
430.514	80.31
430.736	83.31
430.958	92.31
431.18	78.31
431.402	95.31
431.624	99.31
431.846	105.31
432.068	99.31
432.29	82.31
432.512	90.31
432.734	96.31
432.956	80.31
433.178	105.31
433.4	90.31
433.622	85.31
433.844	88.31
434.066	82.31
434.287	91.31
434.509	92.31
434.731	94.31
434.953	93.31
435.175	99.31
435.397	93.31
435.618	112.31
435.84	100.31
436.062	120.31
436.284	120.31
436.505	110.31
436.727	108.31
436.949	101.31
437.17	87.31
437.392	83.31
437.614	102.31
437.835	103.31
438.057	118.31
438.278	103.31
438.5	98.31
438.721	109.31
438.943	90.31
439.165	97.31
439.386	104.31
439.608	100.31
439.829	111.31
440.05	115.31
440.272	134.31
440.493	103.31
440.715	87.31
440.936	88.31
441.158	93.31
441.379	95.31
441.6	101.31
441.822	92.31
442.043	94.31
442.264	108.31
442.486	101.31
442.707	94.31
442.928	94.31
443.149	112.31
443.371	132.31
443.592	96.31
443.813	114.31
444.034	116.31
444.255	96.31
444.476	86.31
444.698	100.31
444.919	92.31
445.14	134.31
445.361	122.31
445.582	115.31
445.803	152.31
446.024	134.31
446.245	140.31
446.466	109.31
446.687	97.31
446.908	93.31
447.129	70.31
447.35	82.31
447.571	87.31
447.792	92.31
448.013	89.31
448.234	110.31
448.455	110.31
448.675	112.31
448.896	119.31
449.117	112.31
449.338	100.31
449.559	125.31
449.779	119.31
450	91.31
450.221	93.31
450.442	85.31
450.662	103.31
450.883	111.31
451.104	101.31
451.324	80.31
451.545	83.31
451.766	103.31
451.986	77.31
452.207	93.31
452.428	93.31
452.648	90.31
452.869	102.31
453.089	116.31
453.31	122.31
453.53	83.31
453.751	99.31
453.971	121.31
454.192	112.31
454.412	96.31
454.633	90.31
454.853	96.31
455.073	95.31
455.294	104.31
455.514	90.31
455.734	98.31
455.955	81.31
456.175	79.31
456.395	79.31
456.616	93.31
456.836	80.31
457.056	87.31
457.276	96.31
457.497	81.31
457.717	78.31
457.937	95.31
458.157	99.31
458.377	103.31
458.598	108.31
458.818	146.31
459.038	160.31
459.258	121.31
459.478	97.31
459.698	79.31
459.918	107.31
460.138	88.31
460.358	75.31
460.578	88.31
460.798	90.31
461.018	93.31
461.238	87.31
461.458	94.31
461.678	104.31
461.898	86.31
462.118	90.31
462.338	78.31
462.558	85.31
462.777	84.31
462.997	87.31
463.217	85.31
463.437	89.31
463.657	85.31
463.876	102.31
464.096	93.31
464.316	96.31
464.536	84.31
464.755	85.31
464.975	113.31
465.195	144.31
465.414	159.31
465.634	88.31
465.854	96.31
466.073	74.31
466.293	89.31
466.512	90.31
466.732	89.31
466.951	83.31
467.171	89.31
467.391	93.31
467.61	108.31
467.829	97.31
468.049	97.31
468.268	89.31
468.488	73.31
468.707	72.31
468.927	82.31
469.146	80.31
469.365	111.31
469.585	89.31
469.804	94.31
470.023	92.31
470.243	91.31
470.462	95.31
470.681	108.31
470.901	96.31
471.12	84.31
471.339	81.31
471.558	93.31
471.777	84.31
471.997	78.31
472.216	109.31
472.435	112.31
472.654	89.31
472.873	73.31
473.092	95.31
473.311	93.31
473.53	84.31
473.749	90.31
473.968	96.31
474.187	98.31
474.406	98.31
474.625	80.31
474.844	82.31
475.063	77.31
475.282	95.31
475.501	78.31
475.72	95.31
475.939	87.31
476.158	87.31
476.377	91.31
476.596	90.31
476.814	97.31
477.033	92.31
477.252	86.31
477.471	84.31
477.69	98.31
477.908	89.31
478.127	78.31
478.346	81.31
478.564	88.31
478.783	105.31
479.002	102.31
479.22	98.31
479.439	95.31
479.658	93.31
479.876	94.31
480.095	79.31
480.313	92.31
480.532	96.31
480.751	94.31
480.969	107.31
481.188	144.31
481.406	118.31
481.624	87.31
481.843	88.31
482.061	71.31
482.28	86.31
482.498	94.31
482.717	80.31
482.935	94.31
483.153	108.31
483.372	70.31
483.59	72.31
483.808	87.31
484.027	86.31
484.245	95.31
484.463	98.31
484.681	106.31
484.9	104.31
485.118	93.31
485.336	100.31
485.554	92.31
485.772	89.31
485.99	94.31
486.209	100.31
486.427	111.31
486.645	113.31
486.863	105.31
487.081	105.31
487.299	91.31
487.517	87.31
487.735	85.31
487.953	95.31
488.171	86.31
488.389	101.31
488.607	100.31
488.825	89.31
489.043	90.31
489.261	92.31
489.479	96.31
489.696	88.31
489.914	102.31
490.132	87.31
490.35	87.31
490.568	89.31
490.786	100.31
491.003	79.31
491.221	104.31
491.439	101.31
491.657	93.31
491.874	87.31
492.092	84.31
492.31	103.31
492.527	111.31
492.745	95.31
492.963	90.31
493.18	81.31
493.398	72.31
493.615	96.31
493.833	87.31
494.05	89.31
494.268	96.31
494.485	95.31
494.703	96.31
494.92	96.31
495.138	74.31
495.355	93.31
495.573	91.31
495.79	92.31
496.008	93.31
496.225	97.31
496.442	87.31
496.66	98.31
496.877	93.31
497.094	89.31
497.312	72.31
497.529	90.31
497.746	82.31
497.963	100.31
498.181	94.31
498.398	102.31
498.615	120.31
498.832	104.31
499.049	94.31
499.267	104.31
499.484	96.31
499.701	88.31
499.918	101.31
500.135	94.31
500.352	78.31
500.569	101.31
500.786	97.31
501.003	81.31
501.22	88.31
501.437	103.31
501.654	97.31
501.871	103.31
502.088	85.31
502.305	96.31
502.522	98.31
502.739	80.31
502.956	89.31
503.172	94.31
503.389	92.31
503.606	94.31
503.823	85.31
504.04	98.31
504.256	84.31
504.473	83.31
504.69	82.31
504.907	116.31
505.123	104.31
505.34	88.31
505.557	90.31
505.773	93.31
505.99	94.31
506.207	100.31
506.423	91.31
506.64	84.31
506.856	85.31
507.073	82.31
507.289	90.31
507.506	93.31
507.722	112.31
507.939	90.31
508.155	90.31
508.372	103.31
508.588	103.31
508.805	81.31
509.021	100.31
509.238	120.31
509.454	108.31
509.67	120.31
509.887	104.31
510.103	129.31
510.319	215.31
510.536	726.31
510.752	2391.31
510.968	653.31
511.184	153.31
511.401	97.31
511.617	97.31
511.833	79.31
512.049	103.31
512.265	85.31
512.481	90.31
512.698	82.31
512.914	85.31
513.13	97.31
513.346	93.31
513.562	102.31
513.778	106.31
513.994	105.31
514.21	120.31
514.426	116.31
514.642	132.31
514.858	125.31
515.074	167.31
515.29	425.31
