Data from Circ_2005_H10_HRD10591_00058.txt Node
Date: Wed Jan 03 10:30:02 EST 2024
User: Yrep
Spectrometer: HR+D1059
Trigger mode: 1
Integration Time (sec): 1.000000E-1
Scans to average: 1
Electric dark correction enabled: true
Nonlinearity correction enabled: false
Boxcar width: 0
XAxis mode: Wavelengths
Number of Pixels in Spectrum: 2048
>>>>>Begin Spectral Data<<<<<
223.165	-12.31
223.4	-12.31
223.635	-12.31
223.869	-25.31
224.104	-25.31
224.338	-13.31
224.573	-11.31
224.808	-8.31
225.042	-16.31
225.277	-0.31
225.511	-6.31
225.746	3.69
225.98	12.69
226.215	27.69
226.449	13.69
226.683	21.69
226.918	13.69
227.152	25.69
227.387	43.69
227.621	25.69
227.856	43.69
228.09	39.69
228.324	42.69
228.559	40.69
228.793	61.69
229.027	59.69
229.262	59.69
229.496	61.69
229.73	78.69
229.964	77.69
230.199	83.69
230.433	69.69
230.667	80.69
230.901	79.69
231.136	76.69
231.37	79.69
231.604	71.69
231.838	77.69
232.072	81.69
232.306	85.69
232.541	81.69
232.775	79.69
233.009	73.69
233.243	71.69
233.477	65.69
233.711	80.69
233.945	77.69
234.179	90.69
234.413	77.69
234.647	81.69
234.881	78.69
235.115	84.69
235.349	87.69
235.583	64.69
235.817	80.69
236.051	88.69
236.285	71.69
236.519	68.69
236.753	76.69
236.987	77.69
237.221	70.69
237.455	75.69
237.689	77.69
237.922	83.69
238.156	84.69
238.39	60.69
238.624	84.69
238.858	63.69
239.091	72.69
239.325	77.69
239.559	73.69
239.793	68.69
240.027	76.69
240.26	70.69
240.494	81.69
240.728	79.69
240.961	68.69
241.195	86.69
241.429	70.69
241.662	71.69
241.896	70.69
242.13	68.69
242.363	73.69
242.597	66.69
242.83	78.69
243.064	77.69
243.298	78.69
243.531	67.69
243.765	64.69
243.998	80.69
244.232	76.69
244.465	92.69
244.699	69.69
244.932	76.69
245.166	79.69
245.399	64.69
245.633	72.69
245.866	73.69
246.099	68.69
246.333	83.69
246.566	95.69
246.8	74.69
247.033	75.69
247.266	74.69
247.5	64.69
247.733	80.69
247.966	66.69
248.2	66.69
248.433	72.69
248.666	77.69
248.899	89.69
249.133	90.69
249.366	97.69
249.599	99.69
249.832	75.69
250.066	81.69
250.299	69.69
250.532	79.69
250.765	67.69
250.998	79.69
251.231	71.69
251.465	74.69
251.698	79.69
251.931	68.69
252.164	73.69
252.397	71.69
252.63	75.69
252.863	94.69
253.096	79.69
253.329	89.69
253.562	84.69
253.795	79.69
254.028	66.69
254.261	72.69
254.494	83.69
254.727	80.69
254.96	79.69
255.193	88.69
255.426	77.69
255.659	84.69
255.892	77.69
256.124	75.69
256.357	77.69
256.59	78.69
256.823	90.69
257.056	96.69
257.289	79.69
257.521	64.69
257.754	78.69
257.987	68.69
258.22	82.69
258.452	87.69
258.685	80.69
258.918	66.69
259.151	79.69
259.383	86.69
259.616	88.69
259.849	65.69
260.081	76.69
260.314	73.69
260.547	79.69
260.779	72.69
261.012	79.69
261.244	84.69
261.477	87.69
261.71	75.69
261.942	93.69
262.175	97.69
262.407	100.69
262.64	72.69
262.872	76.69
263.105	60.69
263.337	92.69
263.57	78.69
263.802	86.69
264.035	76.69
264.267	71.69
264.499	84.69
264.732	77.69
264.964	72.69
265.197	83.69
265.429	78.69
265.661	72.69
265.894	70.69
266.126	84.69
266.358	89.69
266.591	79.69
266.823	76.69
267.055	82.69
267.287	73.69
267.52	91.69
267.752	85.69
267.984	75.69
268.216	91.69
268.448	78.69
268.681	97.69
268.913	84.69
269.145	67.69
269.377	74.69
269.609	89.69
269.841	90.69
270.073	78.69
270.306	78.69
270.538	92.69
270.77	77.69
271.002	68.69
271.234	75.69
271.466	76.69
271.698	73.69
271.93	76.69
272.162	64.69
272.394	75.69
272.626	72.69
272.858	91.69
273.09	83.69
273.322	76.69
273.553	87.69
273.785	81.69
274.017	88.69
274.249	76.69
274.481	72.69
274.713	71.69
274.945	85.69
275.176	81.69
275.408	96.69
275.64	88.69
275.872	92.69
276.104	91.69
276.335	87.69
276.567	96.69
276.799	111.69
277.031	106.69
277.262	81.69
277.494	80.69
277.726	96.69
277.957	71.69
278.189	82.69
278.421	76.69
278.652	87.69
278.884	85.69
279.115	87.69
279.347	71.69
279.579	76.69
279.81	96.69
280.042	81.69
280.273	96.69
280.505	76.69
280.736	87.69
280.968	73.69
281.199	86.69
281.431	90.69
281.662	90.69
281.894	85.69
282.125	89.69
282.356	108.69
282.588	133.69
282.819	100.69
283.051	89.69
283.282	68.69
283.513	85.69
283.745	73.69
283.976	69.69
284.207	73.69
284.439	86.69
284.67	83.69
284.901	86.69
285.132	96.69
285.364	85.69
285.595	93.69
285.826	74.69
286.057	88.69
286.288	84.69
286.52	84.69
286.751	73.69
286.982	76.69
287.213	84.69
287.444	80.69
287.675	77.69
287.906	81.69
288.138	83.69
288.369	85.69
288.6	91.69
288.831	71.69
289.062	82.69
289.293	101.69
289.524	87.69
289.755	89.69
289.986	87.69
290.217	94.69
290.448	76.69
290.679	69.69
290.91	80.69
291.141	76.69
291.371	70.69
291.602	79.69
291.833	87.69
292.064	81.69
292.295	87.69
292.526	101.69
292.757	85.69
292.987	74.69
293.218	78.69
293.449	91.69
293.68	89.69
293.91	86.69
294.141	89.69
294.372	84.69
294.603	90.69
294.833	81.69
295.064	85.69
295.295	76.69
295.525	88.69
295.756	107.69
295.987	107.69
296.217	109.69
296.448	101.69
296.679	84.69
296.909	90.69
297.14	101.69
297.37	89.69
297.601	83.69
297.831	101.69
298.062	84.69
298.292	83.69
298.523	78.69
298.753	96.69
298.984	84.69
299.214	87.69
299.445	95.69
299.675	99.69
299.905	87.69
300.136	80.69
300.366	65.69
300.597	93.69
300.827	101.69
301.057	97.69
301.288	114.69
301.518	96.69
301.748	89.69
301.979	85.69
302.209	83.69
302.439	87.69
302.669	88.69
302.9	91.69
303.13	82.69
303.36	91.69
303.59	100.69
303.82	104.69
304.051	91.69
304.281	97.69
304.511	83.69
304.741	81.69
304.971	82.69
305.201	87.69
305.431	74.69
305.661	83.69
305.891	68.69
306.121	79.69
306.352	93.69
306.582	98.69
306.812	95.69
307.042	85.69
307.272	87.69
307.502	95.69
307.731	96.69
307.961	84.69
308.191	81.69
308.421	80.69
308.651	82.69
308.881	78.69
309.111	93.69
309.341	85.69
309.571	101.69
309.8	96.69
310.03	92.69
310.26	82.69
310.49	89.69
310.72	93.69
310.949	98.69
311.179	98.69
311.409	104.69
311.639	83.69
311.868	76.69
312.098	81.69
312.328	100.69
312.557	92.69
312.787	99.69
313.017	94.69
313.246	96.69
313.476	85.69
313.706	90.69
313.935	99.69
314.165	105.69
314.394	81.69
314.624	91.69
314.853	88.69
315.083	95.69
315.312	90.69
315.542	77.69
315.771	88.69
316.001	80.69
316.23	78.69
316.46	84.69
316.689	98.69
316.919	84.69
317.148	92.69
317.377	91.69
317.607	79.69
317.836	96.69
318.065	82.69
318.295	86.69
318.524	84.69
318.753	89.69
318.983	105.69
319.212	95.69
319.441	94.69
319.67	95.69
319.9	92.69
320.129	75.69
320.358	85.69
320.587	77.69
320.816	85.69
321.046	98.69
321.275	94.69
321.504	93.69
321.733	97.69
321.962	89.69
322.191	84.69
322.42	97.69
322.649	84.69
322.878	105.69
323.108	104.69
323.337	112.69
323.566	126.69
323.795	142.69
324.024	181.69
324.253	337.69
324.482	742.69
324.71	1466.69
324.939	1919.69
325.168	708.69
325.397	216.69
325.626	138.69
325.855	104.69
326.084	119.69
326.313	121.69
326.542	144.69
326.77	207.69
326.999	408.69
327.228	820.69
327.457	1515.69
327.686	1186.69
327.914	332.69
328.143	190.69
328.372	148.69
328.6	116.69
328.829	114.69
329.058	107.69
329.287	110.69
329.515	107.69
329.744	97.69
329.972	109.69
330.201	135.69
330.43	152.69
330.658	123.69
330.887	114.69
331.115	97.69
331.344	103.69
331.572	88.69
331.801	89.69
332.03	88.69
332.258	79.69
332.486	88.69
332.715	106.69
332.943	108.69
333.172	81.69
333.4	91.69
333.629	91.69
333.857	105.69
334.085	108.69
334.314	141.69
334.542	165.69
334.771	178.69
334.999	102.69
335.227	86.69
335.455	94.69
335.684	101.69
335.912	98.69
336.14	102.69
336.369	80.69
336.597	111.69
336.825	101.69
337.053	85.69
337.281	81.69
337.51	88.69
337.738	83.69
337.966	90.69
338.194	91.69
338.422	83.69
338.65	99.69
338.878	89.69
339.106	81.69
339.334	82.69
339.562	88.69
339.79	81.69
340.018	80.69
340.246	90.69
340.474	95.69
340.702	83.69
340.93	86.69
341.158	82.69
341.386	84.69
341.614	103.69
341.842	84.69
342.07	88.69
342.298	88.69
342.526	82.69
342.754	95.69
342.981	82.69
343.209	89.69
343.437	91.69
343.665	85.69
343.893	74.69
344.12	88.69
344.348	89.69
344.576	96.69
344.804	86.69
345.031	85.69
345.259	95.69
345.487	91.69
345.714	103.69
345.942	69.69
346.17	96.69
346.397	90.69
346.625	90.69
346.853	97.69
347.08	84.69
347.308	104.69
347.535	106.69
347.763	95.69
347.99	97.69
348.218	91.69
348.445	85.69
348.673	106.69
348.9	104.69
349.128	94.69
349.355	80.69
349.583	91.69
349.81	92.69
350.037	79.69
350.265	95.69
350.492	82.69
350.72	77.69
350.947	102.69
351.174	98.69
351.402	93.69
351.629	95.69
351.856	89.69
352.083	92.69
352.311	98.69
352.538	95.69
352.765	112.69
352.992	116.69
353.22	117.69
353.447	78.69
353.674	97.69
353.901	93.69
354.128	88.69
354.355	75.69
354.583	100.69
354.81	108.69
355.037	89.69
355.264	96.69
355.491	77.69
355.718	105.69
355.945	93.69
356.172	91.69
356.399	97.69
356.626	95.69
356.853	90.69
357.08	95.69
357.307	87.69
357.534	76.69
357.761	71.69
357.988	82.69
358.215	90.69
358.441	93.69
358.668	84.69
358.895	83.69
359.122	77.69
359.349	79.69
359.576	77.69
359.802	83.69
360.029	116.69
360.256	97.69
360.483	102.69
360.709	80.69
360.936	88.69
361.163	82.69
361.39	95.69
361.616	90.69
361.843	84.69
362.07	88.69
362.296	90.69
362.523	85.69
362.749	95.69
362.976	67.69
363.203	90.69
363.429	78.69
363.656	95.69
363.882	94.69
364.109	87.69
364.335	93.69
364.562	84.69
364.788	95.69
365.015	86.69
365.241	96.69
365.468	98.69
365.694	105.69
365.92	91.69
366.147	79.69
366.373	90.69
366.599	93.69
366.826	83.69
367.052	93.69
367.278	77.69
367.505	96.69
367.731	89.69
367.957	80.69
368.184	93.69
368.41	97.69
368.636	105.69
368.862	106.69
369.089	93.69
369.315	92.69
369.541	67.69
369.767	89.69
369.993	78.69
370.219	90.69
370.445	78.69
370.672	73.69
370.898	84.69
371.124	77.69
371.35	84.69
371.576	81.69
371.802	76.69
372.028	70.69
372.254	79.69
372.48	79.69
372.706	90.69
372.932	67.69
373.158	83.69
373.384	88.69
373.61	89.69
373.835	91.69
374.061	88.69
374.287	84.69
374.513	96.69
374.739	84.69
374.965	73.69
375.191	96.69
375.416	82.69
375.642	85.69
375.868	76.69
376.094	81.69
376.319	77.69
376.545	82.69
376.771	79.69
376.997	81.69
377.222	89.69
377.448	78.69
377.674	85.69
377.899	90.69
378.125	90.69
378.35	90.69
378.576	92.69
378.802	88.69
379.027	71.69
379.253	93.69
379.478	96.69
379.704	90.69
379.929	100.69
380.155	97.69
380.38	94.69
380.606	96.69
380.831	84.69
381.057	91.69
381.282	84.69
381.507	87.69
381.733	88.69
381.958	80.69
382.184	91.69
382.409	95.69
382.634	80.69
382.86	101.69
383.085	94.69
383.31	90.69
383.535	93.69
383.761	93.69
383.986	86.69
384.211	79.69
384.436	92.69
384.662	110.69
384.887	96.69
385.112	109.69
385.337	110.69
385.562	96.69
385.787	114.69
386.013	105.69
386.238	101.69
386.463	108.69
386.688	106.69
386.913	99.69
387.138	97.69
387.363	94.69
387.588	101.69
387.813	91.69
388.038	105.69
388.263	97.69
388.488	110.69
388.713	89.69
388.938	85.69
389.163	102.69
389.387	98.69
389.612	94.69
389.837	89.69
390.062	85.69
390.287	79.69
390.512	86.69
390.736	90.69
390.961	87.69
391.186	78.69
391.411	98.69
391.636	76.69
391.86	73.69
392.085	75.69
392.31	80.69
392.534	79.69
392.759	92.69
392.984	93.69
393.208	95.69
393.433	79.69
393.658	90.69
393.882	88.69
394.107	86.69
394.331	87.69
394.556	79.69
394.78	83.69
395.005	94.69
395.229	75.69
395.454	84.69
395.678	83.69
395.903	85.69
396.127	79.69
396.352	66.69
396.576	88.69
396.801	89.69
397.025	60.69
397.249	80.69
397.474	81.69
397.698	91.69
397.922	72.69
398.147	81.69
398.371	76.69
398.595	81.69
398.82	79.69
399.044	71.69
399.268	83.69
399.492	78.69
399.717	87.69
399.941	80.69
400.165	81.69
400.389	83.69
400.613	72.69
400.837	91.69
401.062	74.69
401.286	70.69
401.51	79.69
401.734	74.69
401.958	95.69
402.182	123.69
402.406	155.69
402.63	85.69
402.854	79.69
403.078	78.69
403.302	104.69
403.526	91.69
403.75	103.69
403.974	79.69
404.198	77.69
404.422	74.69
404.645	79.69
404.869	81.69
405.093	88.69
405.317	102.69
405.541	104.69
405.765	96.69
405.988	109.69
406.212	158.69
406.436	200.69
406.66	112.69
406.883	95.69
407.107	87.69
407.331	94.69
407.555	98.69
407.778	96.69
408.002	93.69
408.226	86.69
408.449	96.69
408.673	75.69
408.896	95.69
409.12	76.69
409.344	93.69
409.567	83.69
409.791	82.69
410.014	91.69
410.238	93.69
410.461	102.69
410.685	93.69
410.908	94.69
411.132	106.69
411.355	75.69
411.578	78.69
411.802	105.69
412.025	87.69
412.249	95.69
412.472	89.69
412.695	90.69
412.919	90.69
413.142	100.69
413.365	97.69
413.589	91.69
413.812	104.69
414.035	94.69
414.258	67.69
414.482	80.69
414.705	89.69
414.928	88.69
415.151	103.69
415.374	90.69
415.597	98.69
415.821	79.69
416.044	89.69
416.267	73.69
416.49	99.69
416.713	85.69
416.936	93.69
417.159	97.69
417.382	84.69
417.605	83.69
417.828	91.69
418.051	91.69
418.274	77.69
418.497	88.69
418.72	85.69
418.943	86.69
419.166	75.69
419.389	89.69
419.611	85.69
419.834	88.69
420.057	73.69
420.28	77.69
420.503	82.69
420.726	72.69
420.948	79.69
421.171	75.69
421.394	96.69
421.617	99.69
421.839	102.69
422.062	78.69
422.285	88.69
422.507	90.69
422.73	100.69
422.953	91.69
423.175	84.69
423.398	77.69
423.621	99.69
423.843	84.69
424.066	84.69
424.288	85.69
424.511	99.69
424.733	96.69
424.956	94.69
425.178	97.69
425.401	92.69
425.623	92.69
425.846	79.69
426.068	80.69
426.291	89.69
426.513	82.69
426.735	85.69
426.958	81.69
427.18	103.69
427.402	112.69
427.625	167.69
427.847	123.69
428.069	101.69
428.292	81.69
428.514	91.69
428.736	91.69
428.958	100.69
429.181	74.69
429.403	79.69
429.625	85.69
429.847	84.69
430.069	95.69
430.292	92.69
430.514	83.69
430.736	78.69
430.958	87.69
431.18	93.69
431.402	75.69
431.624	71.69
431.846	77.69
432.068	69.69
432.29	77.69
432.512	98.69
432.734	80.69
432.956	92.69
433.178	92.69
433.4	87.69
433.622	67.69
433.844	88.69
434.066	85.69
434.287	84.69
434.509	83.69
434.731	83.69
434.953	71.69
435.175	96.69
435.397	78.69
435.618	89.69
435.84	102.69
436.062	99.69
436.284	119.69
436.505	99.69
436.727	91.69
436.949	81.69
437.17	77.69
437.392	80.69
437.614	85.69
437.835	85.69
438.057	101.69
438.278	98.69
438.5	113.69
438.721	112.69
438.943	96.69
439.165	92.69
439.386	84.69
439.608	89.69
439.829	72.69
440.05	111.69
440.272	122.69
440.493	104.69
440.715	84.69
440.936	80.69
441.158	80.69
441.379	82.69
441.6	86.69
441.822	83.69
442.043	90.69
442.264	85.69
442.486	97.69
442.707	90.69
442.928	87.69
443.149	107.69
443.371	115.69
443.592	105.69
443.813	106.69
444.034	95.69
444.255	85.69
444.476	83.69
444.698	91.69
444.919	94.69
445.14	133.69
445.361	123.69
445.582	102.69
445.803	121.69
446.024	118.69
446.245	119.69
446.466	96.69
446.687	85.69
446.908	76.69
447.129	85.69
447.35	83.69
447.571	84.69
447.792	90.69
448.013	93.69
448.234	99.69
448.455	85.69
448.675	102.69
448.896	99.69
449.117	87.69
449.338	90.69
449.559	104.69
449.779	117.69
450	79.69
450.221	88.69
450.442	97.69
450.662	76.69
450.883	84.69
451.104	104.69
451.324	78.69
451.545	76.69
451.766	98.69
451.986	88.69
452.207	100.69
452.428	101.69
452.648	95.69
452.869	104.69
453.089	117.69
453.31	87.69
453.53	85.69
453.751	80.69
453.971	95.69
454.192	92.69
454.412	86.69
454.633	75.69
454.853	77.69
455.073	71.69
455.294	81.69
455.514	102.69
455.734	88.69
455.955	85.69
456.175	94.69
456.395	88.69
456.616	84.69
456.836	80.69
457.056	90.69
457.276	80.69
457.497	75.69
457.717	87.69
457.937	83.69
458.157	79.69
458.377	75.69
458.598	93.69
458.818	144.69
459.038	139.69
459.258	98.69
459.478	86.69
459.698	101.69
459.918	80.69
460.138	85.69
460.358	78.69
460.578	75.69
460.798	88.69
461.018	92.69
461.238	94.69
461.458	96.69
461.678	80.69
461.898	96.69
462.118	85.69
462.338	76.69
462.558	78.69
462.777	72.69
462.997	75.69
463.217	78.69
463.437	66.69
463.657	70.69
463.876	82.69
464.096	84.69
464.316	81.69
464.536	80.69
464.755	92.69
464.975	95.69
465.195	129.69
465.414	147.69
465.634	82.69
465.854	74.69
466.073	99.69
466.293	81.69
466.512	77.69
466.732	84.69
466.951	88.69
467.171	77.69
467.391	88.69
467.61	95.69
467.829	98.69
468.049	90.69
468.268	106.69
468.488	83.69
468.707	103.69
468.927	82.69
469.146	93.69
469.365	81.69
469.585	79.69
469.804	84.69
470.023	90.69
470.243	82.69
470.462	89.69
470.681	97.69
470.901	85.69
471.12	92.69
471.339	87.69
471.558	84.69
471.777	83.69
471.997	86.69
472.216	129.69
472.435	191.69
472.654	107.69
472.873	82.69
473.092	85.69
473.311	89.69
473.53	83.69
473.749	89.69
473.968	89.69
474.187	85.69
474.406	75.69
474.625	81.69
474.844	94.69
475.063	90.69
475.282	79.69
475.501	71.69
475.72	83.69
475.939	89.69
476.158	88.69
476.377	89.69
476.596	100.69
476.814	82.69
477.033	89.69
477.252	90.69
477.471	73.69
477.69	93.69
477.908	84.69
478.127	74.69
478.346	80.69
478.564	87.69
478.783	95.69
479.002	84.69
479.22	85.69
479.439	96.69
479.658	98.69
479.876	98.69
480.095	103.69
480.313	87.69
480.532	83.69
480.751	111.69
480.969	159.69
481.188	300.69
481.406	215.69
481.624	91.69
481.843	85.69
482.061	93.69
482.28	84.69
482.498	96.69
482.717	93.69
482.935	93.69
483.153	77.69
483.372	87.69
483.59	73.69
483.808	82.69
484.027	89.69
484.245	95.69
484.463	80.69
484.681	88.69
484.9	89.69
485.118	90.69
485.336	110.69
485.554	106.69
485.772	104.69
485.99	104.69
486.209	113.69
486.427	85.69
486.645	88.69
486.863	95.69
487.081	95.69
487.299	92.69
487.517	103.69
487.735	85.69
487.953	94.69
488.171	95.69
488.389	91.69
488.607	104.69
488.825	105.69
489.043	92.69
489.261	80.69
489.479	92.69
489.696	97.69
489.914	84.69
490.132	86.69
490.35	81.69
490.568	85.69
490.786	85.69
491.003	88.69
491.221	93.69
491.439	107.69
491.657	79.69
491.874	85.69
492.092	90.69
492.31	82.69
492.527	90.69
492.745	81.69
492.963	73.69
493.18	96.69
493.398	85.69
493.615	85.69
493.833	90.69
494.05	76.69
494.268	80.69
494.485	75.69
494.703	93.69
494.92	87.69
495.138	92.69
495.355	85.69
495.573	93.69
495.79	81.69
496.008	88.69
496.225	89.69
496.442	85.69
496.66	97.69
496.877	86.69
497.094	83.69
497.312	88.69
497.529	77.69
497.746	66.69
497.963	79.69
498.181	85.69
498.398	96.69
498.615	102.69
498.832	94.69
499.049	84.69
499.267	96.69
499.484	97.69
499.701	76.69
499.918	93.69
500.135	71.69
500.352	88.69
500.569	105.69
500.786	90.69
501.003	82.69
501.22	81.69
501.437	85.69
501.654	75.69
501.871	92.69
502.088	85.69
502.305	77.69
502.522	84.69
502.739	87.69
502.956	84.69
503.172	87.69
503.389	100.69
503.606	97.69
503.823	87.69
504.04	85.69
504.256	75.69
504.473	69.69
504.69	89.69
504.907	95.69
505.123	77.69
505.34	80.69
505.557	85.69
505.773	78.69
505.99	81.69
506.207	101.69
506.423	80.69
506.64	80.69
506.856	92.69
507.073	84.69
507.289	99.69
507.506	99.69
507.722	104.69
507.939	93.69
508.155	80.69
508.372	84.69
508.588	91.69
508.805	89.69
509.021	83.69
509.238	90.69
509.454	96.69
509.67	97.69
509.887	107.69
510.103	121.69
510.319	201.69
510.536	661.69
510.752	1982.69
510.968	574.69
511.184	148.69
511.401	105.69
511.617	99.69
511.833	82.69
512.049	84.69
512.265	96.69
512.481	84.69
512.698	85.69
512.914	87.69
513.13	87.69
513.346	79.69
513.562	98.69
513.778	82.69
513.994	71.69
514.21	91.69
514.426	89.69
514.642	120.69
514.858	109.69
515.074	155.69
515.29	383.69
515.506	1227.69
515.721	464.69
515.937	136.69
516.153	97.69
516.369	86.69
516.585	80.69
516.801	77.69
517.016	86.69
517.232	104.69
