Data from Circ_2005_H10_HRD10591_00027.txt Node
Date: Wed Jan 03 10:29:56 EST 2024
User: Yrep
Spectrometer: HR+D1059
Trigger mode: 1
Integration Time (sec): 1.000000E-1
Scans to average: 1
Electric dark correction enabled: true
Nonlinearity correction enabled: false
Boxcar width: 0
XAxis mode: Wavelengths
Number of Pixels in Spectrum: 2048
>>>>>Begin Spectral Data<<<<<
223.165	-25.25
223.4	-25.25
223.635	-25.25
223.869	-21.25
224.104	-11.25
224.338	-4.25
224.573	-29.25
224.808	-14.25
225.042	-10.25
225.277	-5.25
225.511	-2.25
225.746	-3.25
225.98	6.75
226.215	5.75
226.449	18.75
226.683	32.75
226.918	29.75
227.152	32.75
227.387	44.75
227.621	24.75
227.856	37.75
228.09	44.75
228.324	64.75
228.559	55.75
228.793	61.75
229.027	64.75
229.262	55.75
229.496	52.75
229.73	71.75
229.964	64.75
230.199	70.75
230.433	73.75
230.667	71.75
230.901	77.75
231.136	70.75
231.37	86.75
231.604	84.75
231.838	68.75
232.072	68.75
232.306	75.75
232.541	77.75
232.775	63.75
233.009	72.75
233.243	83.75
233.477	70.75
233.711	81.75
233.945	75.75
234.179	86.75
234.413	78.75
234.647	76.75
234.881	69.75
235.115	64.75
235.349	68.75
235.583	73.75
235.817	69.75
236.051	74.75
236.285	81.75
236.519	75.75
236.753	80.75
236.987	89.75
237.221	98.75
237.455	84.75
237.689	74.75
237.922	73.75
238.156	72.75
238.39	87.75
238.624	75.75
238.858	88.75
239.091	78.75
239.325	75.75
239.559	62.75
239.793	85.75
240.027	74.75
240.26	71.75
240.494	83.75
240.728	52.75
240.961	80.75
241.195	77.75
241.429	73.75
241.662	60.75
241.896	75.75
242.13	76.75
242.363	77.75
242.597	68.75
242.83	77.75
243.064	84.75
243.298	73.75
243.531	69.75
243.765	78.75
243.998	83.75
244.232	74.75
244.465	85.75
244.699	86.75
244.932	86.75
245.166	75.75
245.399	72.75
245.633	77.75
245.866	77.75
246.099	81.75
246.333	69.75
246.566	67.75
246.8	61.75
247.033	92.75
247.266	85.75
247.5	85.75
247.733	78.75
247.966	77.75
248.2	77.75
248.433	71.75
248.666	87.75
248.899	59.75
249.133	85.75
249.366	94.75
249.599	80.75
249.832	71.75
250.066	79.75
250.299	76.75
250.532	81.75
250.765	85.75
250.998	92.75
251.231	69.75
251.465	98.75
251.698	84.75
251.931	79.75
252.164	85.75
252.397	82.75
252.63	86.75
252.863	82.75
253.096	92.75
253.329	75.75
253.562	84.75
253.795	77.75
254.028	75.75
254.261	78.75
254.494	78.75
254.727	83.75
254.96	84.75
255.193	80.75
255.426	68.75
255.659	81.75
255.892	84.75
256.124	73.75
256.357	75.75
256.59	71.75
256.823	79.75
257.056	84.75
257.289	71.75
257.521	79.75
257.754	83.75
257.987	80.75
258.22	89.75
258.452	89.75
258.685	90.75
258.918	76.75
259.151	67.75
259.383	63.75
259.616	89.75
259.849	86.75
260.081	87.75
260.314	83.75
260.547	92.75
260.779	74.75
261.012	90.75
261.244	84.75
261.477	88.75
261.71	82.75
261.942	102.75
262.175	104.75
262.407	78.75
262.64	80.75
262.872	85.75
263.105	89.75
263.337	67.75
263.57	68.75
263.802	75.75
264.035	84.75
264.267	87.75
264.499	76.75
264.732	86.75
264.964	82.75
265.197	84.75
265.429	92.75
265.661	90.75
265.894	81.75
266.126	81.75
266.358	91.75
266.591	99.75
266.823	82.75
267.055	87.75
267.287	80.75
267.52	89.75
267.752	85.75
267.984	81.75
268.216	79.75
268.448	72.75
268.681	75.75
268.913	89.75
269.145	89.75
269.377	81.75
269.609	78.75
269.841	70.75
270.073	74.75
270.306	80.75
270.538	82.75
270.77	83.75
271.002	74.75
271.234	90.75
271.466	87.75
271.698	95.75
271.93	85.75
272.162	73.75
272.394	62.75
272.626	77.75
272.858	96.75
273.09	83.75
273.322	85.75
273.553	77.75
273.785	81.75
274.017	77.75
274.249	85.75
274.481	86.75
274.713	68.75
274.945	86.75
275.176	77.75
275.408	84.75
275.64	78.75
275.872	73.75
276.104	85.75
276.335	73.75
276.567	103.75
276.799	94.75
277.031	106.75
277.262	76.75
277.494	95.75
277.726	77.75
277.957	77.75
278.189	81.75
278.421	80.75
278.652	86.75
278.884	83.75
279.115	63.75
279.347	82.75
279.579	81.75
279.81	81.75
280.042	92.75
280.273	89.75
280.505	82.75
280.736	93.75
280.968	84.75
281.199	87.75
281.431	91.75
281.662	83.75
281.894	94.75
282.125	95.75
282.356	105.75
282.588	123.75
282.819	122.75
283.051	84.75
283.282	84.75
283.513	92.75
283.745	84.75
283.976	86.75
284.207	82.75
284.439	86.75
284.67	98.75
284.901	79.75
285.132	86.75
285.364	90.75
285.595	76.75
285.826	101.75
286.057	89.75
286.288	86.75
286.52	84.75
286.751	86.75
286.982	89.75
287.213	83.75
287.444	90.75
287.675	85.75
287.906	78.75
288.138	92.75
288.369	83.75
288.6	86.75
288.831	92.75
289.062	79.75
289.293	83.75
289.524	77.75
289.755	83.75
289.986	67.75
290.217	79.75
290.448	88.75
290.679	91.75
290.91	81.75
291.141	84.75
291.371	93.75
291.602	90.75
291.833	87.75
292.064	83.75
292.295	76.75
292.526	95.75
292.757	79.75
292.987	108.75
293.218	89.75
293.449	98.75
293.68	77.75
293.91	86.75
294.141	81.75
294.372	95.75
294.603	81.75
294.833	84.75
295.064	82.75
295.295	93.75
295.525	93.75
295.756	103.75
295.987	102.75
296.217	125.75
296.448	115.75
296.679	89.75
296.909	92.75
297.14	81.75
297.37	83.75
297.601	90.75
297.831	87.75
298.062	87.75
298.292	89.75
298.523	96.75
298.753	104.75
298.984	91.75
299.214	86.75
299.445	103.75
299.675	77.75
299.905	93.75
300.136	94.75
300.366	95.75
300.597	103.75
300.827	96.75
301.057	100.75
301.288	91.75
301.518	90.75
301.748	80.75
301.979	91.75
302.209	104.75
302.439	86.75
302.669	73.75
302.9	89.75
303.13	87.75
303.36	101.75
303.59	89.75
303.82	109.75
304.051	82.75
304.281	89.75
304.511	96.75
304.741	90.75
304.971	81.75
305.201	85.75
305.431	99.75
305.661	95.75
305.891	81.75
306.121	98.75
306.352	88.75
306.582	100.75
306.812	95.75
307.042	89.75
307.272	87.75
307.502	91.75
307.731	84.75
307.961	78.75
308.191	81.75
308.421	100.75
308.651	86.75
308.881	103.75
309.111	87.75
309.341	100.75
309.571	89.75
309.8	75.75
310.03	95.75
310.26	93.75
310.49	87.75
310.72	93.75
310.949	87.75
311.179	85.75
311.409	83.75
311.639	101.75
311.868	81.75
312.098	110.75
312.328	91.75
312.557	93.75
312.787	88.75
313.017	97.75
313.246	94.75
313.476	98.75
313.706	96.75
313.935	90.75
314.165	81.75
314.394	103.75
314.624	92.75
314.853	106.75
315.083	105.75
315.312	88.75
315.542	89.75
315.771	95.75
316.001	89.75
316.23	91.75
316.46	80.75
316.689	89.75
316.919	82.75
317.148	90.75
317.377	95.75
317.607	85.75
317.836	91.75
318.065	91.75
318.295	90.75
318.524	87.75
318.753	92.75
318.983	98.75
319.212	101.75
319.441	94.75
319.67	96.75
319.9	75.75
320.129	93.75
320.358	91.75
320.587	105.75
320.816	93.75
321.046	91.75
321.275	104.75
321.504	106.75
321.733	96.75
321.962	94.75
322.191	93.75
322.42	93.75
322.649	111.75
322.878	100.75
323.108	110.75
323.337	122.75
323.566	130.75
323.795	159.75
324.024	199.75
324.253	390.75
324.482	829.75
324.71	1727.75
324.939	2275.75
325.168	820.75
325.397	240.75
325.626	146.75
325.855	124.75
326.084	127.75
326.313	118.75
326.542	147.75
326.77	235.75
326.999	469.75
327.228	973.75
327.457	1758.75
327.686	1384.75
327.914	367.75
328.143	187.75
328.372	148.75
328.6	113.75
328.829	125.75
329.058	118.75
329.287	132.75
329.515	116.75
329.744	93.75
329.972	101.75
330.201	113.75
330.43	107.75
330.658	129.75
330.887	150.75
331.115	127.75
331.344	98.75
331.572	100.75
331.801	91.75
332.03	82.75
332.258	98.75
332.486	90.75
332.715	83.75
332.943	86.75
333.172	95.75
333.4	90.75
333.629	96.75
333.857	116.75
334.085	107.75
334.314	105.75
334.542	110.75
334.771	106.75
334.999	102.75
335.227	94.75
335.455	85.75
335.684	81.75
335.912	93.75
336.14	97.75
336.369	91.75
336.597	95.75
336.825	113.75
337.053	100.75
337.281	101.75
337.51	83.75
337.738	89.75
337.966	75.75
338.194	81.75
338.422	93.75
338.65	91.75
338.878	112.75
339.106	84.75
339.334	79.75
339.562	93.75
339.79	83.75
340.018	90.75
340.246	84.75
340.474	90.75
340.702	98.75
340.93	98.75
341.158	97.75
341.386	85.75
341.614	100.75
341.842	86.75
342.07	84.75
342.298	86.75
342.526	94.75
342.754	102.75
342.981	90.75
343.209	87.75
343.437	93.75
343.665	91.75
343.893	101.75
344.12	81.75
344.348	109.75
344.576	82.75
344.804	118.75
345.031	101.75
345.259	86.75
345.487	91.75
345.714	90.75
345.942	78.75
346.17	99.75
346.397	100.75
346.625	91.75
346.853	86.75
347.08	77.75
347.308	85.75
347.535	89.75
347.763	105.75
347.99	93.75
348.218	104.75
348.445	99.75
348.673	80.75
348.9	102.75
349.128	105.75
349.355	111.75
349.583	93.75
349.81	83.75
350.037	103.75
350.265	104.75
350.492	123.75
350.72	91.75
350.947	95.75
351.174	101.75
351.402	107.75
351.629	113.75
351.856	108.75
352.083	112.75
352.311	103.75
352.538	91.75
352.765	103.75
352.992	104.75
353.22	106.75
353.447	105.75
353.674	95.75
353.901	86.75
354.128	95.75
354.355	102.75
354.583	103.75
354.81	101.75
355.037	94.75
355.264	96.75
355.491	95.75
355.718	74.75
355.945	97.75
356.172	91.75
356.399	103.75
356.626	98.75
356.853	105.75
357.08	103.75
357.307	71.75
357.534	91.75
357.761	96.75
357.988	98.75
358.215	91.75
358.441	85.75
358.668	90.75
358.895	98.75
359.122	87.75
359.349	82.75
359.576	86.75
359.802	93.75
360.029	109.75
360.256	107.75
360.483	115.75
360.709	78.75
360.936	97.75
361.163	85.75
361.39	91.75
361.616	101.75
361.843	91.75
362.07	99.75
362.296	97.75
362.523	107.75
362.749	87.75
362.976	84.75
363.203	81.75
363.429	89.75
363.656	100.75
363.882	80.75
364.109	94.75
364.335	84.75
364.562	105.75
364.788	92.75
365.015	95.75
365.241	80.75
365.468	102.75
365.694	101.75
365.92	94.75
366.147	86.75
366.373	79.75
366.599	77.75
366.826	87.75
367.052	78.75
367.278	105.75
367.505	101.75
367.731	99.75
367.957	93.75
368.184	77.75
368.41	102.75
368.636	109.75
368.862	112.75
369.089	102.75
369.315	90.75
369.541	85.75
369.767	78.75
369.993	93.75
370.219	89.75
370.445	88.75
370.672	84.75
370.898	86.75
371.124	90.75
371.35	78.75
371.576	90.75
371.802	82.75
372.028	96.75
372.254	93.75
372.48	94.75
372.706	84.75
372.932	87.75
373.158	86.75
373.384	87.75
373.61	83.75
373.835	84.75
374.061	75.75
374.287	105.75
374.513	84.75
374.739	85.75
374.965	86.75
375.191	85.75
375.416	84.75
375.642	89.75
375.868	100.75
376.094	103.75
376.319	104.75
376.545	93.75
376.771	83.75
376.997	98.75
377.222	91.75
377.448	98.75
377.674	84.75
377.899	83.75
378.125	92.75
378.35	92.75
378.576	87.75
378.802	97.75
379.027	87.75
379.253	87.75
379.478	93.75
379.704	99.75
379.929	99.75
380.155	87.75
380.38	84.75
380.606	92.75
380.831	90.75
381.057	101.75
381.282	87.75
381.507	98.75
381.733	103.75
381.958	93.75
382.184	104.75
382.409	95.75
382.634	107.75
382.86	87.75
383.085	113.75
383.31	89.75
383.535	101.75
383.761	101.75
383.986	93.75
384.211	107.75
384.436	106.75
384.662	101.75
384.887	88.75
385.112	96.75
385.337	108.75
385.562	113.75
385.787	111.75
386.013	97.75
386.238	117.75
386.463	95.75
386.688	105.75
386.913	93.75
387.138	105.75
387.363	116.75
387.588	99.75
387.813	102.75
388.038	115.75
388.263	109.75
388.488	114.75
388.713	90.75
388.938	77.75
389.163	89.75
389.387	91.75
389.612	100.75
389.837	89.75
390.062	100.75
390.287	84.75
390.512	99.75
390.736	83.75
390.961	96.75
391.186	82.75
391.411	98.75
391.636	94.75
391.86	84.75
392.085	85.75
392.31	81.75
392.534	83.75
392.759	85.75
392.984	72.75
393.208	94.75
393.433	77.75
393.658	81.75
393.882	97.75
394.107	73.75
394.331	80.75
394.556	87.75
394.78	96.75
395.005	81.75
395.229	98.75
395.454	89.75
395.678	96.75
395.903	79.75
396.127	90.75
396.352	78.75
396.576	79.75
396.801	71.75
397.025	70.75
397.249	80.75
397.474	81.75
397.698	85.75
397.922	90.75
398.147	91.75
398.371	80.75
398.595	87.75
398.82	78.75
399.044	95.75
399.268	79.75
399.492	86.75
399.717	77.75
399.941	81.75
400.165	88.75
400.389	81.75
400.613	82.75
400.837	80.75
401.062	86.75
401.286	89.75
401.51	93.75
401.734	97.75
401.958	101.75
402.182	101.75
402.406	131.75
402.63	130.75
402.854	90.75
403.078	86.75
403.302	74.75
403.526	75.75
403.75	81.75
403.974	83.75
404.198	86.75
404.422	93.75
404.645	79.75
404.869	91.75
405.093	86.75
405.317	93.75
405.541	94.75
405.765	78.75
405.988	108.75
406.212	154.75
406.436	206.75
406.66	123.75
406.883	93.75
407.107	90.75
407.331	91.75
407.555	77.75
407.778	100.75
408.002	94.75
408.226	84.75
408.449	94.75
408.673	84.75
408.896	86.75
409.12	92.75
409.344	84.75
409.567	96.75
409.791	100.75
410.014	105.75
410.238	76.75
410.461	89.75
410.685	106.75
410.908	91.75
411.132	100.75
411.355	106.75
411.578	95.75
411.802	77.75
412.025	84.75
412.249	94.75
412.472	84.75
412.695	103.75
412.919	77.75
413.142	89.75
413.365	100.75
413.589	90.75
413.812	94.75
414.035	84.75
414.258	85.75
414.482	90.75
414.705	92.75
414.928	88.75
415.151	102.75
415.374	92.75
415.597	97.75
415.821	84.75
416.044	86.75
416.267	90.75
416.49	85.75
416.713	73.75
416.936	92.75
417.159	89.75
417.382	88.75
417.605	105.75
417.828	102.75
418.051	81.75
418.274	95.75
418.497	82.75
418.72	72.75
418.943	84.75
419.166	96.75
419.389	76.75
419.611	80.75
419.834	81.75
420.057	74.75
420.28	86.75
420.503	86.75
420.726	100.75
420.948	93.75
421.171	101.75
421.394	87.75
421.617	84.75
421.839	93.75
422.062	86.75
422.285	91.75
422.507	101.75
422.73	93.75
422.953	91.75
423.175	84.75
423.398	92.75
423.621	97.75
423.843	84.75
424.066	86.75
424.288	84.75
424.511	96.75
424.733	98.75
424.956	86.75
425.178	100.75
425.401	93.75
425.623	99.75
425.846	87.75
426.068	93.75
426.291	91.75
426.513	89.75
426.735	88.75
426.958	88.75
427.18	103.75
427.402	141.75
427.625	157.75
427.847	128.75
428.069	92.75
428.292	80.75
428.514	89.75
428.736	89.75
428.958	97.75
429.181	100.75
429.403	87.75
429.625	93.75
429.847	107.75
430.069	91.75
430.292	103.75
430.514	85.75
430.736	84.75
430.958	78.75
431.18	99.75
431.402	88.75
431.624	76.75
431.846	95.75
432.068	85.75
432.29	95.75
432.512	91.75
432.734	94.75
432.956	77.75
433.178	86.75
433.4	90.75
433.622	83.75
433.844	99.75
434.066	90.75
434.287	96.75
434.509	88.75
434.731	91.75
434.953	75.75
435.175	84.75
435.397	89.75
435.618	98.75
435.84	102.75
436.062	125.75
436.284	123.75
436.505	111.75
436.727	100.75
436.949	89.75
437.17	77.75
437.392	95.75
437.614	109.75
437.835	99.75
438.057	108.75
438.278	99.75
438.5	108.75
438.721	115.75
438.943	109.75
439.165	89.75
439.386	85.75
439.608	89.75
439.829	103.75
440.05	113.75
440.272	117.75
440.493	95.75
440.715	74.75
440.936	75.75
441.158	76.75
441.379	77.75
441.6	77.75
441.822	81.75
442.043	96.75
442.264	93.75
442.486	108.75
442.707	98.75
442.928	85.75
443.149	124.75
443.371	128.75
443.592	113.75
443.813	109.75
444.034	110.75
444.255	73.75
444.476	103.75
444.698	97.75
444.919	97.75
445.14	134.75
445.361	114.75
445.582	122.75
445.803	113.75
446.024	125.75
446.245	126.75
446.466	116.75
446.687	86.75
446.908	79.75
447.129	85.75
447.35	71.75
447.571	84.75
447.792	91.75
448.013	94.75
448.234	99.75
448.455	103.75
448.675	104.75
448.896	92.75
449.117	99.75
449.338	96.75
449.559	122.75
449.779	127.75
450	79.75
450.221	90.75
450.442	83.75
450.662	81.75
450.883	90.75
451.104	109.75
451.324	77.75
451.545	91.75
451.766	98.75
451.986	74.75
452.207	85.75
452.428	63.75
452.648	89.75
452.869	99.75
453.089	108.75
453.31	113.75
453.53	89.75
453.751	88.75
453.971	89.75
454.192	110.75
454.412	83.75
454.633	82.75
454.853	84.75
455.073	85.75
455.294	85.75
455.514	106.75
455.734	103.75
455.955	90.75
456.175	89.75
456.395	72.75
456.616	93.75
456.836	90.75
457.056	86.75
457.276	82.75
457.497	58.75
457.717	77.75
457.937	77.75
458.157	70.75
458.377	84.75
458.598	90.75
458.818	132.75
459.038	147.75
459.258	98.75
459.478	99.75
459.698	91.75
459.918	85.75
460.138	89.75
460.358	78.75
460.578	82.75
460.798	82.75
461.018	85.75
461.238	83.75
461.458	89.75
461.678	77.75
461.898	92.75
462.118	78.75
462.338	84.75
462.558	73.75
462.777	60.75
462.997	94.75
463.217	83.75
463.437	85.75
463.657	79.75
463.876	84.75
464.096	105.75
464.316	82.75
464.536	86.75
464.755	83.75
464.975	112.75
465.195	154.75
465.414	145.75
465.634	107.75
465.854	90.75
466.073	93.75
466.293	86.75
466.512	88.75
466.732	89.75
466.951	83.75
467.171	85.75
467.391	54.75
467.61	96.75
467.829	85.75
468.049	84.75
468.268	97.75
468.488	86.75
468.707	88.75
468.927	77.75
469.146	70.75
469.365	92.75
469.585	97.75
469.804	90.75
470.023	89.75
470.243	92.75
470.462	89.75
470.681	92.75
470.901	91.75
471.12	93.75
471.339	85.75
471.558	90.75
471.777	94.75
471.997	90.75
472.216	93.75
472.435	117.75
472.654	82.75
472.873	81.75
473.092	78.75
473.311	85.75
473.53	91.75
473.749	77.75
473.968	83.75
474.187	91.75
474.406	108.75
474.625	87.75
474.844	82.75
475.063	86.75
475.282	85.75
475.501	79.75
475.72	83.75
475.939	92.75
476.158	89.75
476.377	102.75
476.596	76.75
476.814	97.75
477.033	94.75
477.252	73.75
477.471	92.75
477.69	81.75
477.908	87.75
478.127	83.75
478.346	78.75
478.564	75.75
478.783	91.75
479.002	86.75
479.22	82.75
479.439	109.75
479.658	89.75
479.876	86.75
480.095	91.75
480.313	92.75
480.532	94.75
480.751	80.75
480.969	101.75
481.188	131.75
481.406	121.75
481.624	93.75
481.843	80.75
482.061	97.75
482.28	89.75
482.498	97.75
482.717	87.75
482.935	94.75
483.153	90.75
483.372	93.75
483.59	102.75
483.808	79.75
484.027	94.75
484.245	82.75
484.463	76.75
484.681	85.75
484.9	86.75
485.118	82.75
485.336	89.75
485.554	103.75
485.772	100.75
485.99	103.75
486.209	92.75
486.427	97.75
486.645	110.75
486.863	109.75
487.081	109.75
487.299	100.75
487.517	86.75
487.735	83.75
487.953	88.75
488.171	92.75
488.389	90.75
488.607	99.75
488.825	83.75
489.043	94.75
489.261	82.75
489.479	95.75
489.696	89.75
489.914	86.75
490.132	72.75
490.35	88.75
490.568	86.75
490.786	89.75
491.003	91.75
491.221	79.75
491.439	86.75
491.657	81.75
491.874	79.75
492.092	91.75
492.31	94.75
492.527	83.75
492.745	79.75
492.963	92.75
493.18	86.75
493.398	96.75
493.615	73.75
493.833	97.75
494.05	94.75
494.268	96.75
494.485	89.75
494.703	85.75
494.92	88.75
495.138	82.75
495.355	81.75
495.573	82.75
495.79	75.75
496.008	99.75
496.225	89.75
496.442	92.75
496.66	83.75
496.877	95.75
497.094	98.75
497.312	93.75
497.529	93.75
497.746	97.75
497.963	81.75
498.181	77.75
498.398	86.75
498.615	104.75
498.832	93.75
499.049	83.75
499.267	91.75
499.484	85.75
499.701	80.75
499.918	90.75
500.135	93.75
500.352	75.75
500.569	87.75
500.786	95.75
501.003	101.75
501.22	97.75
501.437	96.75
501.654	75.75
501.871	98.75
502.088	84.75
502.305	96.75
502.522	82.75
502.739	90.75
502.956	77.75
503.172	84.75
503.389	80.75
503.606	89.75
503.823	73.75
504.04	82.75
504.256	83.75
504.473	91.75
504.69	84.75
504.907	87.75
505.123	86.75
505.34	83.75
505.557	74.75
505.773	90.75
505.99	83.75
506.207	77.75
506.423	85.75
506.64	90.75
506.856	87.75
507.073	89.75
507.289	106.75
507.506	89.75
507.722	92.75
507.939	83.75
508.155	98.75
508.372	85.75
508.588	93.75
508.805	95.75
509.021	100.75
509.238	93.75
509.454	95.75
509.67	89.75
509.887	105.75
510.103	129.75
510.319	198.75
510.536	678.75
510.752	2092.75
510.968	616.75
511.184	152.75
511.401	102.75
511.617	105.75
511.833	89.75
512.049	91.75
512.265	88.75
512.481	93.75
512.698	70.75
512.914	93.75
513.13	107.75
513.346	98.75
513.562	101.75
513.778	105.75
513.994	93.75
514.21	96.75
514.426	90.75
514.642	127.75
514.858	121.75
515.074	162.75
515.29	391.75
515.506	1274.75
515.721	476.75
515.937	142.75
516.153	84.75
516.369	92.75
