Data from Circ_2005_H10_HRD10591_00075.txt Node
Date: Wed Jan 03 10:30:06 EST 2024
User: Yrep
Spectrometer: HR+D1059
Trigger mode: 1
Integration Time (sec): 1.000000E-1
Scans to average: 1
Electric dark correction enabled: true
Nonlinearity correction enabled: false
Boxcar width: 0
XAxis mode: Wavelengths
Number of Pixels in Spectrum: 2048
>>>>>Begin Spectral Data<<<<<
223.165	-14.12
223.4	-14.12
223.635	-14.12
223.869	-10.12
224.104	-12.12
224.338	-11.12
224.573	-23.12
224.808	-12.12
225.042	-6.12
225.277	-5.12
225.511	-13.12
225.746	-5.12
225.98	2.88
226.215	12.88
226.449	10.88
226.683	21.88
226.918	32.88
227.152	30.88
227.387	33.88
227.621	45.88
227.856	38.88
228.09	43.88
228.324	52.88
228.559	52.88
228.793	76.88
229.027	65.88
229.262	81.88
229.496	79.88
229.73	85.88
229.964	79.88
230.199	85.88
230.433	63.88
230.667	75.88
230.901	73.88
231.136	81.88
231.37	76.88
231.604	74.88
231.838	70.88
232.072	70.88
232.306	89.88
232.541	82.88
232.775	60.88
233.009	84.88
233.243	88.88
233.477	82.88
233.711	90.88
233.945	94.88
234.179	89.88
234.413	78.88
234.647	76.88
234.881	74.88
235.115	84.88
235.349	86.88
235.583	76.88
235.817	75.88
236.051	90.88
236.285	90.88
236.519	77.88
236.753	62.88
236.987	86.88
237.221	82.88
237.455	83.88
237.689	76.88
237.922	88.88
238.156	78.88
238.39	82.88
238.624	78.88
238.858	77.88
239.091	91.88
239.325	87.88
239.559	94.88
239.793	99.88
240.027	78.88
240.26	83.88
240.494	79.88
240.728	84.88
240.961	78.88
241.195	85.88
241.429	89.88
241.662	69.88
241.896	71.88
242.13	79.88
242.363	99.88
242.597	82.88
242.83	72.88
243.064	88.88
243.298	69.88
243.531	91.88
243.765	81.88
243.998	76.88
244.232	84.88
244.465	87.88
244.699	79.88
244.932	81.88
245.166	86.88
245.399	78.88
245.633	80.88
245.866	78.88
246.099	75.88
246.333	79.88
246.566	80.88
246.8	88.88
247.033	78.88
247.266	81.88
247.5	83.88
247.733	70.88
247.966	83.88
248.2	80.88
248.433	87.88
248.666	82.88
248.899	89.88
249.133	76.88
249.366	100.88
249.599	97.88
249.832	88.88
250.066	95.88
250.299	83.88
250.532	92.88
250.765	94.88
250.998	73.88
251.231	82.88
251.465	86.88
251.698	76.88
251.931	92.88
252.164	89.88
252.397	94.88
252.63	85.88
252.863	93.88
253.096	80.88
253.329	91.88
253.562	82.88
253.795	95.88
254.028	71.88
254.261	80.88
254.494	87.88
254.727	90.88
254.96	81.88
255.193	80.88
255.426	81.88
255.659	76.88
255.892	81.88
256.124	75.88
256.357	87.88
256.59	75.88
256.823	94.88
257.056	88.88
257.289	83.88
257.521	84.88
257.754	93.88
257.987	71.88
258.22	87.88
258.452	73.88
258.685	86.88
258.918	96.88
259.151	70.88
259.383	78.88
259.616	77.88
259.849	85.88
260.081	87.88
260.314	84.88
260.547	63.88
260.779	97.88
261.012	71.88
261.244	85.88
261.477	91.88
261.71	96.88
261.942	110.88
262.175	102.88
262.407	93.88
262.64	80.88
262.872	74.88
263.105	81.88
263.337	99.88
263.57	84.88
263.802	89.88
264.035	89.88
264.267	92.88
264.499	87.88
264.732	83.88
264.964	80.88
265.197	73.88
265.429	77.88
265.661	90.88
265.894	84.88
266.126	79.88
266.358	72.88
266.591	83.88
266.823	93.88
267.055	93.88
267.287	95.88
267.52	85.88
267.752	78.88
267.984	88.88
268.216	88.88
268.448	84.88
268.681	72.88
268.913	88.88
269.145	82.88
269.377	78.88
269.609	97.88
269.841	97.88
270.073	103.88
270.306	86.88
270.538	88.88
270.77	89.88
271.002	85.88
271.234	77.88
271.466	87.88
271.698	82.88
271.93	76.88
272.162	76.88
272.394	87.88
272.626	84.88
272.858	87.88
273.09	98.88
273.322	72.88
273.553	86.88
273.785	93.88
274.017	86.88
274.249	74.88
274.481	96.88
274.713	82.88
274.945	76.88
275.176	96.88
275.408	80.88
275.64	97.88
275.872	73.88
276.104	87.88
276.335	78.88
276.567	106.88
276.799	114.88
277.031	98.88
277.262	100.88
277.494	92.88
277.726	78.88
277.957	83.88
278.189	84.88
278.421	79.88
278.652	77.88
278.884	91.88
279.115	65.88
279.347	85.88
279.579	105.88
279.81	93.88
280.042	101.88
280.273	98.88
280.505	103.88
280.736	96.88
280.968	78.88
281.199	97.88
281.431	83.88
281.662	69.88
281.894	87.88
282.125	101.88
282.356	126.88
282.588	132.88
282.819	119.88
283.051	100.88
283.282	93.88
283.513	98.88
283.745	97.88
283.976	89.88
284.207	80.88
284.439	80.88
284.67	85.88
284.901	86.88
285.132	93.88
285.364	76.88
285.595	76.88
285.826	90.88
286.057	93.88
286.288	73.88
286.52	78.88
286.751	91.88
286.982	89.88
287.213	76.88
287.444	88.88
287.675	63.88
287.906	74.88
288.138	93.88
288.369	100.88
288.6	93.88
288.831	79.88
289.062	95.88
289.293	82.88
289.524	87.88
289.755	90.88
289.986	88.88
290.217	104.88
290.448	84.88
290.679	84.88
290.91	84.88
291.141	97.88
291.371	90.88
291.602	84.88
291.833	65.88
292.064	86.88
292.295	91.88
292.526	72.88
292.757	98.88
292.987	80.88
293.218	80.88
293.449	90.88
293.68	94.88
293.91	96.88
294.141	88.88
294.372	93.88
294.603	79.88
294.833	96.88
295.064	83.88
295.295	96.88
295.525	93.88
295.756	93.88
295.987	111.88
296.217	134.88
296.448	132.88
296.679	87.88
296.909	82.88
297.14	101.88
297.37	88.88
297.601	97.88
297.831	100.88
298.062	87.88
298.292	96.88
298.523	82.88
298.753	94.88
298.984	90.88
299.214	97.88
299.445	80.88
299.675	87.88
299.905	82.88
300.136	96.88
300.366	74.88
300.597	86.88
300.827	97.88
301.057	82.88
301.288	99.88
301.518	93.88
301.748	90.88
301.979	99.88
302.209	96.88
302.439	96.88
302.669	99.88
302.9	97.88
303.13	106.88
303.36	82.88
303.59	99.88
303.82	124.88
304.051	107.88
304.281	101.88
304.511	89.88
304.741	88.88
304.971	86.88
305.201	101.88
305.431	95.88
305.661	96.88
305.891	94.88
306.121	100.88
306.352	105.88
306.582	89.88
306.812	107.88
307.042	102.88
307.272	104.88
307.502	113.88
307.731	91.88
307.961	87.88
308.191	93.88
308.421	93.88
308.651	103.88
308.881	90.88
309.111	105.88
309.341	107.88
309.571	101.88
309.8	101.88
310.03	116.88
310.26	87.88
310.49	101.88
310.72	94.88
310.949	110.88
311.179	100.88
311.409	98.88
311.639	96.88
311.868	97.88
312.098	88.88
312.328	93.88
312.557	101.88
312.787	103.88
313.017	96.88
313.246	100.88
313.476	105.88
313.706	107.88
313.935	92.88
314.165	95.88
314.394	109.88
314.624	91.88
314.853	104.88
315.083	68.88
315.312	82.88
315.542	86.88
315.771	87.88
316.001	93.88
316.23	99.88
316.46	81.88
316.689	80.88
316.919	82.88
317.148	95.88
317.377	97.88
317.607	108.88
317.836	93.88
318.065	98.88
318.295	105.88
318.524	95.88
318.753	94.88
318.983	104.88
319.212	100.88
319.441	94.88
319.67	102.88
319.9	98.88
320.129	88.88
320.358	107.88
320.587	109.88
320.816	99.88
321.046	97.88
321.275	90.88
321.504	96.88
321.733	95.88
321.962	83.88
322.191	98.88
322.42	98.88
322.649	115.88
322.878	117.88
323.108	116.88
323.337	129.88
323.566	134.88
323.795	145.88
324.024	200.88
324.253	356.88
324.482	753.88
324.71	1519.88
324.939	2002.88
325.168	750.88
325.397	227.88
325.626	140.88
325.855	115.88
326.084	130.88
326.313	134.88
326.542	140.88
326.77	224.88
326.999	426.88
327.228	856.88
327.457	1537.88
327.686	1238.88
327.914	355.88
328.143	196.88
328.372	178.88
328.6	134.88
328.829	106.88
329.058	114.88
329.287	125.88
329.515	120.88
329.744	113.88
329.972	121.88
330.201	178.88
330.43	208.88
330.658	161.88
330.887	144.88
331.115	120.88
331.344	86.88
331.572	109.88
331.801	84.88
332.03	91.88
332.258	99.88
332.486	80.88
332.715	88.88
332.943	98.88
333.172	108.88
333.4	87.88
333.629	103.88
333.857	113.88
334.085	132.88
334.314	167.88
334.542	233.88
334.771	228.88
334.999	130.88
335.227	102.88
335.455	92.88
335.684	90.88
335.912	96.88
336.14	91.88
336.369	102.88
336.597	101.88
336.825	97.88
337.053	100.88
337.281	99.88
337.51	86.88
337.738	85.88
337.966	87.88
338.194	87.88
338.422	85.88
338.65	114.88
338.878	109.88
339.106	105.88
339.334	101.88
339.562	95.88
339.79	102.88
340.018	83.88
340.246	94.88
340.474	101.88
340.702	85.88
340.93	96.88
341.158	96.88
341.386	100.88
341.614	104.88
341.842	87.88
342.07	94.88
342.298	95.88
342.526	92.88
342.754	92.88
342.981	83.88
343.209	94.88
343.437	99.88
343.665	93.88
343.893	96.88
344.12	114.88
344.348	92.88
344.576	80.88
344.804	99.88
345.031	93.88
345.259	103.88
345.487	96.88
345.714	89.88
345.942	89.88
346.17	93.88
346.397	92.88
346.625	77.88
346.853	89.88
347.08	83.88
347.308	95.88
347.535	101.88
347.763	100.88
347.99	96.88
348.218	97.88
348.445	109.88
348.673	120.88
348.9	112.88
349.128	102.88
349.355	92.88
349.583	90.88
349.81	83.88
350.037	96.88
350.265	104.88
350.492	93.88
350.72	98.88
350.947	96.88
351.174	105.88
351.402	109.88
351.629	114.88
351.856	94.88
352.083	98.88
352.311	98.88
352.538	103.88
352.765	94.88
352.992	113.88
353.22	114.88
353.447	109.88
353.674	103.88
353.901	104.88
354.128	94.88
354.355	99.88
354.583	100.88
354.81	98.88
355.037	93.88
355.264	101.88
355.491	85.88
355.718	85.88
355.945	93.88
356.172	99.88
356.399	100.88
356.626	107.88
356.853	88.88
357.08	96.88
357.307	95.88
357.534	102.88
357.761	83.88
357.988	87.88
358.215	81.88
358.441	89.88
358.668	90.88
358.895	86.88
359.122	90.88
359.349	86.88
359.576	86.88
359.802	112.88
360.029	119.88
360.256	101.88
360.483	97.88
360.709	89.88
360.936	101.88
361.163	95.88
361.39	103.88
361.616	91.88
361.843	75.88
362.07	106.88
362.296	106.88
362.523	88.88
362.749	87.88
362.976	108.88
363.203	87.88
363.429	83.88
363.656	92.88
363.882	102.88
364.109	89.88
364.335	102.88
364.562	89.88
364.788	99.88
365.015	105.88
365.241	96.88
365.468	97.88
365.694	115.88
365.92	94.88
366.147	82.88
366.373	90.88
366.599	84.88
366.826	72.88
367.052	88.88
367.278	102.88
367.505	90.88
367.731	99.88
367.957	81.88
368.184	96.88
368.41	104.88
368.636	93.88
368.862	113.88
369.089	93.88
369.315	101.88
369.541	107.88
369.767	91.88
369.993	103.88
370.219	102.88
370.445	94.88
370.672	95.88
370.898	84.88
371.124	88.88
371.35	92.88
371.576	93.88
371.802	84.88
372.028	94.88
372.254	97.88
372.48	80.88
372.706	102.88
372.932	90.88
373.158	88.88
373.384	97.88
373.61	86.88
373.835	90.88
374.061	96.88
374.287	101.88
374.513	96.88
374.739	88.88
374.965	86.88
375.191	91.88
375.416	89.88
375.642	97.88
375.868	100.88
376.094	107.88
376.319	98.88
376.545	86.88
376.771	85.88
376.997	87.88
377.222	89.88
377.448	95.88
377.674	86.88
377.899	82.88
378.125	81.88
378.35	98.88
378.576	99.88
378.802	96.88
379.027	98.88
379.253	87.88
379.478	94.88
379.704	90.88
379.929	94.88
380.155	111.88
380.38	98.88
380.606	92.88
380.831	85.88
381.057	97.88
381.282	74.88
381.507	98.88
381.733	91.88
381.958	97.88
382.184	102.88
382.409	98.88
382.634	101.88
382.86	108.88
383.085	104.88
383.31	99.88
383.535	113.88
383.761	99.88
383.986	101.88
384.211	100.88
384.436	115.88
384.662	94.88
384.887	92.88
385.112	101.88
385.337	109.88
385.562	104.88
385.787	100.88
386.013	107.88
386.238	117.88
386.463	112.88
386.688	113.88
386.913	93.88
387.138	116.88
387.363	114.88
387.588	108.88
387.813	95.88
388.038	100.88
388.263	117.88
388.488	107.88
388.713	104.88
388.938	101.88
389.163	97.88
389.387	86.88
389.612	94.88
389.837	87.88
390.062	99.88
390.287	93.88
390.512	87.88
390.736	84.88
390.961	88.88
391.186	94.88
391.411	89.88
391.636	69.88
391.86	86.88
392.085	98.88
392.31	104.88
392.534	87.88
392.759	86.88
392.984	69.88
393.208	86.88
393.433	92.88
393.658	84.88
393.882	92.88
394.107	94.88
394.331	91.88
394.556	96.88
394.78	96.88
395.005	93.88
395.229	76.88
395.454	87.88
395.678	74.88
395.903	86.88
396.127	100.88
396.352	96.88
396.576	102.88
396.801	94.88
397.025	96.88
397.249	84.88
397.474	86.88
397.698	85.88
397.922	86.88
398.147	86.88
398.371	94.88
398.595	96.88
398.82	82.88
399.044	91.88
399.268	84.88
399.492	99.88
399.717	101.88
399.941	80.88
400.165	101.88
400.389	90.88
400.613	79.88
400.837	95.88
401.062	100.88
401.286	90.88
401.51	96.88
401.734	84.88
401.958	87.88
402.182	120.88
402.406	153.88
402.63	111.88
402.854	88.88
403.078	88.88
403.302	90.88
403.526	92.88
403.75	99.88
403.974	85.88
404.198	98.88
404.422	86.88
404.645	80.88
404.869	90.88
405.093	87.88
405.317	103.88
405.541	108.88
405.765	99.88
405.988	97.88
406.212	154.88
406.436	200.88
406.66	141.88
406.883	89.88
407.107	101.88
407.331	86.88
407.555	100.88
407.778	109.88
408.002	104.88
408.226	84.88
408.449	104.88
408.673	99.88
408.896	101.88
409.12	90.88
409.344	95.88
409.567	80.88
409.791	72.88
410.014	92.88
410.238	113.88
410.461	84.88
410.685	98.88
410.908	101.88
411.132	98.88
411.355	101.88
411.578	102.88
411.802	91.88
412.025	86.88
412.249	91.88
412.472	90.88
412.695	104.88
412.919	97.88
413.142	96.88
413.365	88.88
413.589	94.88
413.812	93.88
414.035	93.88
414.258	78.88
414.482	92.88
414.705	88.88
414.928	73.88
415.151	86.88
415.374	89.88
415.597	97.88
415.821	85.88
416.044	85.88
416.267	82.88
416.49	104.88
416.713	102.88
416.936	64.88
417.159	76.88
417.382	94.88
417.605	72.88
417.828	96.88
418.051	90.88
418.274	80.88
418.497	96.88
418.72	91.88
418.943	97.88
419.166	69.88
419.389	82.88
419.611	98.88
419.834	96.88
420.057	84.88
420.28	82.88
420.503	84.88
420.726	75.88
420.948	103.88
421.171	96.88
421.394	96.88
421.617	81.88
421.839	95.88
422.062	95.88
422.285	96.88
422.507	90.88
422.73	98.88
422.953	103.88
423.175	92.88
423.398	101.88
423.621	78.88
423.843	90.88
424.066	89.88
424.288	88.88
424.511	90.88
424.733	105.88
424.956	104.88
425.178	89.88
425.401	87.88
425.623	94.88
425.846	84.88
426.068	96.88
426.291	94.88
426.513	89.88
426.735	95.88
426.958	87.88
427.18	89.88
427.402	111.88
427.625	147.88
427.847	129.88
428.069	135.88
428.292	84.88
428.514	98.88
428.736	93.88
428.958	80.88
429.181	80.88
429.403	84.88
429.625	85.88
429.847	77.88
430.069	85.88
430.292	86.88
430.514	81.88
430.736	79.88
430.958	74.88
431.18	91.88
431.402	92.88
431.624	88.88
431.846	98.88
432.068	79.88
432.29	79.88
432.512	88.88
432.734	86.88
432.956	87.88
433.178	88.88
433.4	104.88
433.622	88.88
433.844	91.88
434.066	84.88
434.287	89.88
434.509	94.88
434.731	88.88
434.953	85.88
435.175	90.88
435.397	95.88
435.618	94.88
435.84	105.88
436.062	109.88
436.284	114.88
436.505	103.88
436.727	103.88
436.949	103.88
437.17	96.88
437.392	65.88
437.614	99.88
437.835	96.88
438.057	104.88
438.278	112.88
438.5	96.88
438.721	102.88
438.943	93.88
439.165	77.88
439.386	84.88
439.608	94.88
439.829	96.88
440.05	108.88
440.272	120.88
440.493	89.88
440.715	97.88
440.936	88.88
441.158	75.88
441.379	96.88
441.6	87.88
441.822	110.88
442.043	93.88
442.264	107.88
442.486	103.88
442.707	88.88
442.928	114.88
443.149	113.88
443.371	120.88
443.592	100.88
443.813	110.88
444.034	104.88
444.255	90.88
444.476	82.88
444.698	82.88
444.919	82.88
445.14	141.88
445.361	114.88
445.582	115.88
445.803	121.88
446.024	125.88
446.245	117.88
446.466	122.88
446.687	103.88
446.908	90.88
447.129	95.88
447.35	94.88
447.571	86.88
447.792	93.88
448.013	110.88
448.234	85.88
448.455	103.88
448.675	126.88
448.896	106.88
449.117	116.88
449.338	124.88
449.559	114.88
449.779	124.88
450	95.88
450.221	86.88
450.442	84.88
450.662	100.88
450.883	92.88
451.104	107.88
451.324	81.88
451.545	88.88
451.766	90.88
451.986	90.88
452.207	91.88
452.428	112.88
452.648	96.88
452.869	105.88
453.089	101.88
453.31	122.88
453.53	103.88
453.751	96.88
453.971	114.88
454.192	110.88
454.412	89.88
454.633	84.88
454.853	93.88
455.073	89.88
455.294	92.88
455.514	93.88
455.734	99.88
455.955	84.88
456.175	89.88
456.395	84.88
456.616	109.88
456.836	87.88
457.056	108.88
457.276	87.88
457.497	86.88
457.717	85.88
457.937	98.88
458.157	98.88
458.377	86.88
458.598	99.88
458.818	146.88
459.038	150.88
459.258	114.88
459.478	96.88
459.698	83.88
459.918	85.88
460.138	79.88
460.358	64.88
460.578	82.88
460.798	84.88
461.018	95.88
461.238	85.88
461.458	94.88
461.678	91.88
461.898	89.88
462.118	80.88
462.338	85.88
462.558	98.88
462.777	83.88
462.997	76.88
463.217	79.88
463.437	90.88
463.657	90.88
463.876	94.88
464.096	86.88
464.316	106.88
464.536	86.88
464.755	92.88
464.975	114.88
465.195	166.88
465.414	159.88
465.634	99.88
465.854	83.88
466.073	102.88
466.293	90.88
466.512	92.88
466.732	94.88
466.951	91.88
467.171	92.88
467.391	97.88
467.61	104.88
467.829	110.88
468.049	121.88
468.268	158.88
468.488	84.88
468.707	99.88
468.927	93.88
469.146	82.88
469.365	86.88
469.585	81.88
469.804	84.88
470.023	93.88
470.243	94.88
470.462	98.88
470.681	102.88
470.901	84.88
471.12	100.88
471.339	109.88
471.558	78.88
471.777	89.88
471.997	109.88
472.216	175.88
472.435	294.88
472.654	142.88
472.873	91.88
473.092	90.88
473.311	74.88
473.53	100.88
473.749	96.88
473.968	88.88
474.187	98.88
474.406	111.88
474.625	97.88
474.844	90.88
475.063	81.88
475.282	83.88
475.501	76.88
475.72	69.88
475.939	91.88
476.158	80.88
476.377	90.88
476.596	81.88
476.814	94.88
477.033	105.88
477.252	93.88
477.471	83.88
477.69	96.88
477.908	81.88
478.127	99.88
478.346	91.88
478.564	94.88
478.783	89.88
479.002	76.88
479.22	96.88
479.439	103.88
479.658	96.88
479.876	102.88
480.095	84.88
480.313	92.88
480.532	89.88
480.751	114.88
480.969	183.88
481.188	474.88
481.406	314.88
481.624	116.88
481.843	96.88
482.061	90.88
482.28	95.88
482.498	89.88
482.717	86.88
482.935	88.88
483.153	70.88
483.372	92.88
483.59	86.88
483.808	90.88
484.027	88.88
484.245	97.88
484.463	94.88
484.681	98.88
484.9	89.88
485.118	89.88
485.336	99.88
485.554	80.88
485.772	91.88
485.99	96.88
486.209	117.88
486.427	117.88
486.645	114.88
486.863	123.88
487.081	96.88
487.299	97.88
487.517	87.88
487.735	96.88
487.953	93.88
488.171	103.88
488.389	87.88
488.607	96.88
488.825	88.88
489.043	84.88
489.261	88.88
489.479	92.88
489.696	96.88
489.914	89.88
490.132	96.88
490.35	107.88
490.568	97.88
490.786	93.88
491.003	88.88
491.221	97.88
491.439	80.88
491.657	92.88
491.874	103.88
492.092	105.88
492.31	76.88
492.527	89.88
492.745	89.88
492.963	93.88
493.18	82.88
493.398	85.88
493.615	99.88
493.833	85.88
494.05	100.88
494.268	85.88
494.485	85.88
494.703	95.88
494.92	89.88
495.138	97.88
495.355	100.88
495.573	90.88
495.79	97.88
496.008	95.88
496.225	86.88
496.442	94.88
496.66	89.88
496.877	84.88
497.094	95.88
497.312	90.88
497.529	104.88
497.746	97.88
497.963	77.88
498.181	90.88
498.398	94.88
498.615	107.88
498.832	98.88
499.049	94.88
499.267	71.88
499.484	84.88
499.701	84.88
499.918	103.88
500.135	88.88
500.352	89.88
500.569	92.88
500.786	90.88
501.003	83.88
501.22	81.88
501.437	90.88
501.654	80.88
501.871	111.88
502.088	99.88
502.305	100.88
502.522	96.88
502.739	88.88
502.956	102.88
503.172	93.88
503.389	91.88
503.606	106.88
503.823	97.88
504.04	81.88
504.256	89.88
504.473	95.88
504.69	90.88
504.907	98.88
505.123	83.88
505.34	97.88
505.557	95.88
505.773	96.88
505.99	97.88
506.207	97.88
506.423	90.88
506.64	88.88
506.856	85.88
507.073	94.88
507.289	87.88
507.506	95.88
507.722	115.88
507.939	103.88
508.155	101.88
508.372	101.88
508.588	85.88
508.805	100.88
509.021	105.88
509.238	97.88
509.454	82.88
509.67	101.88
509.887	106.88
510.103	127.88
510.319	190.88
510.536	691.88
510.752	2238.88
510.968	636.88
511.184	147.88
511.401	97.88
511.617	105.88
511.833	96.88
512.049	106.88
512.265	77.88
512.481	96.88
512.698	95.88
512.914	93.88
513.13	91.88
513.346	89.88
513.562	102.88
513.778	95.88
513.994	97.88
514.21	95.88
514.426	112.88
514.642	135.88
514.858	117.88
515.074	155.88
515.29	394.88
