Data from Circ_2005_H10_HRD10591_00017.txt Node
Date: Wed Jan 03 10:29:54 EST 2024
User: Yrep
Spectrometer: HR+D1059
Trigger mode: 1
Integration Time (sec): 1.000000E-1
Scans to average: 1
Electric dark correction enabled: true
Nonlinearity correction enabled: false
Boxcar width: 0
XAxis mode: Wavelengths
Number of Pixels in Spectrum: 2048
>>>>>Begin Spectral Data<<<<<
223.165	-16.75
223.4	-16.75
223.635	-16.75
223.869	-18.75
224.104	-28.75
224.338	-8.75
224.573	-6.75
224.808	-16.75
225.042	-2.75
225.277	2.25
225.511	-13.75
225.746	2.25
225.98	8.25
226.215	10.25
226.449	1.25
226.683	18.25
226.918	28.25
227.152	42.25
227.387	45.25
227.621	48.25
227.856	30.25
228.09	38.25
228.324	55.25
228.559	68.25
228.793	169.25
229.027	462.25
229.262	536.25
229.496	655.25
229.73	869.25
229.964	864.25
230.199	547.25
230.433	493.25
230.667	475.25
230.901	464.25
231.136	454.25
231.37	463.25
231.604	457.25
231.838	473.25
232.072	471.25
232.306	471.25
232.541	480.25
232.775	478.25
233.009	484.25
233.243	465.25
233.477	513.25
233.711	494.25
233.945	485.25
234.179	520.25
234.413	518.25
234.647	519.25
234.881	548.25
235.115	541.25
235.349	562.25
235.583	565.25
235.817	610.25
236.051	633.25
236.285	612.25
236.519	638.25
236.753	731.25
236.987	968.25
237.221	1503.25
237.455	1589.25
237.689	920.25
237.922	750.25
238.156	740.25
238.39	686.25
238.624	661.25
238.858	660.25
239.091	662.25
239.325	677.25
239.559	677.25
239.793	713.25
240.027	771.25
240.26	958.25
240.494	1015.25
240.728	1017.25
240.961	932.25
241.195	838.25
241.429	778.25
241.662	777.25
241.896	779.25
242.13	778.25
242.363	729.25
242.597	805.25
242.83	806.25
243.064	830.25
243.298	825.25
243.531	840.25
243.765	850.25
243.998	863.25
244.232	859.25
244.465	892.25
244.699	909.25
244.932	887.25
245.166	910.25
245.399	915.25
245.633	896.25
245.866	919.25
246.099	908.25
246.333	932.25
246.566	968.25
246.8	986.25
247.033	998.25
247.266	1044.25
247.5	1110.25
247.733	1164.25
247.966	1153.25
248.2	1126.25
248.433	1180.25
248.666	1262.25
248.899	1397.25
249.133	1495.25
249.366	1455.25
249.599	1346.25
249.832	1212.25
250.066	1221.25
250.299	1283.25
250.532	1368.25
250.765	1566.25
250.998	1754.25
251.231	1644.25
251.465	1469.25
251.698	1425.25
251.931	1404.25
252.164	1408.25
252.397	1442.25
252.63	1439.25
252.863	1602.25
253.096	1732.25
253.329	1777.25
253.562	1650.25
253.795	1582.25
254.028	1556.25
254.261	1681.25
254.494	1890.25
254.727	2233.25
254.96	2318.25
255.193	1986.25
255.426	1772.25
255.659	1669.25
255.892	1619.25
256.124	1605.25
256.357	1576.25
256.59	1550.25
256.823	1545.25
257.056	1504.25
257.289	1548.25
257.521	1572.25
257.754	1562.25
257.987	1547.25
258.22	1503.25
258.452	1554.25
258.685	1554.25
258.918	1576.25
259.151	1609.25
259.383	1721.25
259.616	1759.25
259.849	1822.25
260.081	1991.25
260.314	2216.25
260.547	2076.25
260.779	1857.25
261.012	1810.25
261.244	1754.25
261.477	1708.25
261.71	1754.25
261.942	1820.25
262.175	1832.25
262.407	1752.25
262.64	1668.25
262.872	1684.25
263.105	1669.25
263.337	1674.25
263.57	1715.25
263.802	1692.25
264.035	1693.25
264.267	1708.25
264.499	1682.25
264.732	1707.25
264.964	1730.25
265.197	1720.25
265.429	1737.25
265.661	1726.25
265.894	1745.25
266.126	1734.25
266.358	1793.25
266.591	1832.25
266.823	1900.25
267.055	1952.25
267.287	1936.25
267.52	1853.25
267.752	1887.25
267.984	1898.25
268.216	1899.25
268.448	1973.25
268.681	2020.25
268.913	2226.25
269.145	2418.25
269.377	2441.25
269.609	2306.25
269.841	2311.25
270.073	2440.25
270.306	2773.25
270.538	2961.25
270.77	2763.25
271.002	2592.25
271.234	2551.25
271.466	2726.25
271.698	2830.25
271.93	2846.25
272.162	2856.25
272.394	2709.25
272.626	2561.25
272.858	2423.25
273.09	2353.25
273.322	2324.25
273.553	2282.25
273.785	2300.25
274.017	2285.25
274.249	2297.25
274.481	2315.25
274.713	2299.25
274.945	2350.25
275.176	2346.25
275.408	2306.25
275.64	2317.25
275.872	2272.25
276.104	2343.25
276.335	2351.25
276.567	2477.25
276.799	2660.25
277.031	2896.25
277.262	3030.25
277.494	2860.25
277.726	2636.25
277.957	2479.25
278.189	2479.25
278.421	2442.25
278.652	2417.25
278.884	2405.25
279.115	2446.25
279.347	2441.25
279.579	2467.25
279.81	2446.25
280.042	2429.25
280.273	2389.25
280.505	2468.25
280.736	2466.25
280.968	2462.25
281.199	2465.25
281.431	2469.25
281.662	2482.25
281.894	2516.25
282.125	2557.25
282.356	2799.25
282.588	2936.25
282.819	2774.25
283.051	2584.25
283.282	2556.25
283.513	2609.25
283.745	2662.25
283.976	2736.25
284.207	2704.25
284.439	2652.25
284.67	2628.25
284.901	2673.25
285.132	2669.25
285.364	2672.25
285.595	2671.25
285.826	2688.25
286.057	2698.25
286.288	2688.25
286.52	2732.25
286.751	2749.25
286.982	2785.25
287.213	2720.25
287.444	2774.25
287.675	2863.25
287.906	3000.25
288.138	2999.25
288.369	2968.25
288.6	2983.25
288.831	2881.25
289.062	2898.25
289.293	2877.25
289.524	2821.25
289.755	2846.25
289.986	2825.25
290.217	2828.25
290.448	2801.25
290.679	2848.25
290.91	2872.25
291.141	2824.25
291.371	2780.25
291.602	2848.25
291.833	2833.25
292.064	2863.25
292.295	2866.25
292.526	2897.25
292.757	2880.25
292.987	2829.25
293.218	2814.25
293.449	2918.25
293.68	2890.25
293.91	2890.25
294.141	2877.25
294.372	2885.25
294.603	2886.25
294.833	2935.25
295.064	2946.25
295.295	2944.25
295.525	2994.25
295.756	2978.25
295.987	3146.25
296.217	3333.25
296.448	3216.25
296.679	3011.25
296.909	2970.25
297.14	3012.25
297.37	3071.25
297.601	3087.25
297.831	3062.25
298.062	3148.25
298.292	3140.25
298.523	3157.25
298.753	3176.25
298.984	3149.25
299.214	3136.25
299.445	3183.25
299.675	3182.25
299.905	3247.25
300.136	3238.25
300.366	3162.25
300.597	3183.25
300.827	3299.25
301.057	3397.25
301.288	3483.25
301.518	3398.25
301.748	3447.25
301.979	3474.25
302.209	3428.25
302.439	3510.25
302.669	3442.25
302.9	3358.25
303.13	3362.25
303.36	3368.25
303.59	3447.25
303.82	3449.25
304.051	3427.25
304.281	3372.25
304.511	3313.25
304.741	3350.25
304.971	3372.25
305.201	3364.25
305.431	3309.25
305.661	3312.25
305.891	3319.25
306.121	3360.25
306.352	3444.25
306.582	3383.25
306.812	3237.25
307.042	3327.25
307.272	3332.25
307.502	3351.25
307.731	3385.25
307.961	3316.25
308.191	3294.25
308.421	3350.25
308.651	3348.25
308.881	3344.25
309.111	3443.25
309.341	3455.25
309.571	3557.25
309.8	3687.25
310.03	3715.25
310.26	3730.25
310.49	3767.25
310.72	3870.25
310.949	3958.25
311.179	3886.25
311.409	3802.25
311.639	3777.25
311.868	3805.25
312.098	3814.25
312.328	3943.25
312.557	4066.25
312.787	4147.25
313.017	3930.25
313.246	3892.25
313.476	3854.25
313.706	3909.25
313.935	4044.25
314.165	4078.25
314.394	4114.25
314.624	4061.25
314.853	3969.25
315.083	3878.25
315.312	3846.25
315.542	3817.25
315.771	3772.25
316.001	3746.25
316.23	3798.25
316.46	3798.25
316.689	3804.25
316.919	3878.25
317.148	3923.25
317.377	3866.25
317.607	3876.25
317.836	3872.25
318.065	3747.25
318.295	3855.25
318.524	3785.25
318.753	3720.25
318.983	3737.25
319.212	3753.25
319.441	3909.25
319.67	3851.25
319.9	3801.25
320.129	3710.25
320.358	3804.25
320.587	3850.25
320.816	3990.25
321.046	4044.25
321.275	3922.25
321.504	3991.25
321.733	3943.25
321.962	4088.25
322.191	4134.25
322.42	4310.25
322.649	4389.25
322.878	4496.25
323.108	4658.25
323.337	4828.25
323.566	5056.25
323.795	5421.25
324.024	6188.25
324.253	8313.25
324.482	12643.25
324.71	15610.25
324.939	15610.25
325.168	14231.25
325.397	7295.25
325.626	5679.25
325.855	5150.25
326.084	5075.25
326.313	5088.25
326.542	5272.25
326.77	6100.25
326.999	8046.25
327.228	11947.25
327.457	15477.25
327.686	14767.25
327.914	8166.25
328.143	6350.25
328.372	5889.25
328.6	5664.25
328.829	5617.25
329.058	5797.25
329.287	5652.25
329.515	5272.25
329.744	5008.25
329.972	5056.25
330.201	5262.25
330.43	5521.25
330.658	5839.25
330.887	6292.25
331.115	5700.25
331.344	5210.25
331.572	5098.25
331.801	5184.25
332.03	5223.25
332.258	5091.25
332.486	5108.25
332.715	5108.25
332.943	5352.25
333.172	5399.25
333.4	5528.25
333.629	5617.25
333.857	5721.25
334.085	5616.25
334.314	5690.25
334.542	5698.25
334.771	5617.25
334.999	5391.25
335.227	5382.25
335.455	5344.25
335.684	5186.25
335.912	5085.25
336.14	5028.25
336.369	5054.25
336.597	5160.25
336.825	5042.25
337.053	4964.25
337.281	4908.25
337.51	4865.25
337.738	4823.25
337.966	4785.25
338.194	4780.25
338.422	4732.25
338.65	4652.25
338.878	4642.25
339.106	4634.25
339.334	4557.25
339.562	4516.25
339.79	4552.25
340.018	4493.25
340.246	4517.25
340.474	4559.25
340.702	4534.25
340.93	4524.25
341.158	4572.25
341.386	4538.25
341.614	4576.25
341.842	4485.25
342.07	4425.25
342.298	4459.25
342.526	4376.25
342.754	4333.25
342.981	4333.25
343.209	4463.25
343.437	4715.25
343.665	4992.25
343.893	5209.25
344.12	5173.25
344.348	5046.25
344.576	4880.25
344.804	4915.25
345.031	4815.25
345.259	4784.25
345.487	4632.25
345.714	4510.25
345.942	4373.25
346.17	4346.25
346.397	4352.25
346.625	4329.25
346.853	4288.25
347.08	4304.25
347.308	4410.25
347.535	4468.25
347.763	4498.25
347.99	4470.25
348.218	4475.25
348.445	4484.25
348.673	4460.25
348.9	4329.25
349.128	4222.25
349.355	4192.25
349.583	4160.25
349.81	4137.25
350.037	4179.25
350.265	4160.25
350.492	4182.25
350.72	4266.25
350.947	4226.25
351.174	4290.25
351.402	4343.25
351.629	4322.25
351.856	4329.25
352.083	4405.25
352.311	4396.25
352.538	4400.25
352.765	4466.25
352.992	4318.25
353.22	4302.25
353.447	4209.25
353.674	4165.25
353.901	4066.25
354.128	4090.25
354.355	4046.25
354.583	4095.25
354.81	4025.25
355.037	4017.25
355.264	4026.25
355.491	4034.25
355.718	4008.25
355.945	4019.25
356.172	3961.25
356.399	4063.25
356.626	4051.25
356.853	3989.25
357.08	4021.25
357.307	3997.25
357.534	4038.25
357.761	4065.25
357.988	4049.25
358.215	4041.25
358.441	4076.25
358.668	4103.25
358.895	4150.25
359.122	4172.25
359.349	4241.25
359.576	4446.25
359.802	4674.25
360.029	4922.25
360.256	4844.25
360.483	4563.25
360.709	4330.25
360.936	4310.25
361.163	4408.25
361.39	4330.25
361.616	4366.25
361.843	4290.25
362.07	4358.25
362.296	4351.25
362.523	4263.25
362.749	4295.25
362.976	4242.25
363.203	4202.25
363.429	4189.25
363.656	4165.25
363.882	4170.25
364.109	4101.25
364.335	4131.25
364.562	4081.25
364.788	4081.25
365.015	4136.25
365.241	4123.25
365.468	4223.25
365.694	4208.25
365.92	4190.25
366.147	4115.25
366.373	4178.25
366.599	4105.25
366.826	4066.25
367.052	4054.25
367.278	4142.25
367.505	4207.25
367.731	4248.25
367.957	4152.25
368.184	4242.25
368.41	4276.25
368.636	4367.25
368.862	4394.25
369.089	4260.25
369.315	4220.25
369.541	4161.25
369.767	4235.25
369.993	4324.25
370.219	4237.25
370.445	4251.25
370.672	4328.25
370.898	4277.25
371.124	4333.25
371.35	4337.25
371.576	4360.25
371.802	4284.25
372.028	4376.25
372.254	4396.25
372.48	4369.25
372.706	4482.25
372.932	4536.25
373.158	4489.25
373.384	4430.25
373.61	4414.25
373.835	4500.25
374.061	4462.25
374.287	4520.25
374.513	4608.25
374.739	4687.25
374.965	4821.25
375.191	4756.25
375.416	4767.25
375.642	4580.25
375.868	4516.25
376.094	4522.25
376.319	4507.25
376.545	4405.25
376.771	4410.25
376.997	4455.25
377.222	4384.25
377.448	4385.25
377.674	4317.25
377.899	4288.25
378.125	4335.25
378.35	4371.25
378.576	4291.25
378.802	4290.25
379.027	4324.25
379.253	4355.25
379.478	4341.25
379.704	4296.25
379.929	4392.25
380.155	4320.25
380.38	4403.25
380.606	4351.25
380.831	4363.25
381.057	4407.25
381.282	4460.25
381.507	4448.25
381.733	4462.25
381.958	4464.25
382.184	4545.25
382.409	4535.25
382.634	4638.25
382.86	4624.25
383.085	4693.25
383.31	4794.25
383.535	4785.25
383.761	4786.25
383.986	4958.25
384.211	5004.25
384.436	5180.25
384.662	5158.25
384.887	5245.25
385.112	5214.25
385.337	5254.25
385.562	5271.25
385.787	5309.25
386.013	5393.25
386.238	5442.25
386.463	5388.25
386.688	5419.25
386.913	5216.25
387.138	5215.25
387.363	5187.25
387.588	5180.25
387.813	5197.25
388.038	5226.25
388.263	5304.25
388.488	5299.25
388.713	5258.25
388.938	5183.25
389.163	5155.25
389.387	5182.25
389.612	5110.25
389.837	5090.25
390.062	5122.25
390.287	5109.25
390.512	5150.25
390.736	5176.25
390.961	5298.25
391.186	5391.25
391.411	5514.25
391.636	5629.25
391.86	5809.25
392.085	5857.25
392.31	5738.25
392.534	5615.25
392.759	5528.25
392.984	5496.25
393.208	5412.25
393.433	5397.25
393.658	5406.25
393.882	5408.25
394.107	5478.25
394.331	5498.25
394.556	5415.25
394.78	5501.25
395.005	5560.25
395.229	5557.25
395.454	5729.25
395.678	5835.25
395.903	5855.25
396.127	5926.25
396.352	5770.25
396.576	5592.25
396.801	5431.25
397.025	5550.25
397.249	5703.25
397.474	5814.25
397.698	5833.25
397.922	5984.25
398.147	6051.25
398.371	6138.25
398.595	6309.25
398.82	6648.25
399.044	7216.25
399.268	7956.25
399.492	8992.25
399.717	9711.25
399.941	9321.25
400.165	8812.25
400.389	8143.25
400.613	7352.25
400.837	6908.25
401.062	6656.25
401.286	6553.25
401.51	6616.25
401.734	6542.25
401.958	6636.25
402.182	6791.25
402.406	6872.25
402.63	6974.25
402.854	7072.25
403.078	7195.25
403.302	7216.25
403.526	7405.25
403.75	7344.25
403.974	7490.25
404.198	7495.25
404.422	7527.25
404.645	7435.25
404.869	7388.25
405.093	7588.25
405.317	7764.25
405.541	7741.25
405.765	7346.25
405.988	7243.25
406.212	7424.25
406.436	7731.25
406.66	7868.25
406.883	7876.25
407.107	8379.25
407.331	8974.25
407.555	9447.25
407.778	9122.25
408.002	8371.25
408.226	7944.25
408.449	7874.25
408.673	7701.25
408.896	7883.25
409.12	8032.25
409.344	7573.25
409.567	7200.25
409.791	7153.25
410.014	7140.25
410.238	6999.25
410.461	7132.25
410.685	7144.25
410.908	7209.25
411.132	7460.25
411.355	7435.25
411.578	7062.25
411.802	6861.25
412.025	6756.25
412.249	6919.25
412.472	7012.25
412.695	6930.25
412.919	6676.25
413.142	6544.25
413.365	6546.25
413.589	6549.25
413.812	6393.25
414.035	6280.25
414.258	6380.25
414.482	6476.25
414.705	6513.25
414.928	6387.25
415.151	6426.25
415.374	6434.25
415.597	6283.25
415.821	6282.25
416.044	6324.25
416.267	6316.25
416.49	6162.25
416.713	6259.25
416.936	6372.25
417.159	6385.25
417.382	6453.25
417.605	6359.25
417.828	6542.25
418.051	6702.25
418.274	6570.25
418.497	6417.25
418.72	6575.25
418.943	6494.25
419.166	6948.25
419.389	7303.25
419.611	7105.25
419.834	6910.25
420.057	6807.25
420.28	6720.25
420.503	6463.25
420.726	6557.25
420.948	6695.25
421.171	7199.25
421.394	7133.25
421.617	6656.25
421.839	6600.25
422.062	6660.25
422.285	6887.25
422.507	7564.25
422.73	8037.25
422.953	7439.25
423.175	7076.25
423.398	7097.25
423.621	7124.25
423.843	7323.25
424.066	7335.25
424.288	7177.25
424.511	7441.25
424.733	8045.25
424.956	8401.25
425.178	7968.25
425.401	8132.25
425.623	7892.25
425.846	6875.25
426.068	6754.25
426.291	6703.25
426.513	6634.25
426.735	6744.25
426.958	7200.25
427.18	8091.25
427.402	9277.25
427.625	9411.25
427.847	7973.25
428.069	6972.25
428.292	6594.25
428.514	6140.25
428.736	6060.25
428.958	6081.25
429.181	5840.25
429.403	5888.25
429.625	6164.25
429.847	6456.25
430.069	6967.25
430.292	6540.25
430.514	5897.25
430.736	5938.25
430.958	5874.25
431.18	5764.25
431.402	5660.25
431.624	5670.25
431.846	5732.25
432.068	5763.25
432.29	5841.25
432.512	5828.25
432.734	5906.25
432.956	5774.25
433.178	5888.25
433.4	5998.25
433.622	5793.25
433.844	5878.25
434.066	5865.25
434.287	5885.25
434.509	6181.25
434.731	6353.25
434.953	6585.25
435.175	6715.25
435.397	6882.25
435.618	6767.25
435.84	7112.25
436.062	8026.25
436.284	7976.25
436.505	6718.25
436.727	6395.25
436.949	6102.25
437.17	5899.25
437.392	5875.25
437.614	6125.25
437.835	6618.25
438.057	7681.25
438.278	8273.25
438.5	8179.25
438.721	9052.25
438.943	7826.25
439.165	6627.25
439.386	6320.25
439.608	6413.25
439.829	6573.25
440.05	6926.25
440.272	7383.25
440.493	6709.25
440.715	6300.25
440.936	6206.25
441.158	6282.25
441.379	6396.25
441.6	6748.25
441.822	6974.25
442.043	7482.25
442.264	8293.25
442.486	7966.25
442.707	7052.25
442.928	6927.25
443.149	7138.25
443.371	7294.25
443.592	7924.25
443.813	9029.25
444.034	8876.25
444.255	7639.25
444.476	7437.25
444.698	7532.25
444.919	7692.25
445.14	7618.25
445.361	7441.25
445.582	7695.25
445.803	8376.25
446.024	9057.25
446.245	8686.25
446.466	7753.25
446.687	6703.25
446.908	6263.25
447.129	5977.25
447.35	5831.25
447.571	5768.25
447.792	5692.25
448.013	5792.25
448.234	6083.25
448.455	6752.25
448.675	8048.25
448.896	8433.25
449.117	6975.25
449.338	7174.25
449.559	8630.25
449.779	8757.25
450	6721.25
450.221	5937.25
450.442	5696.25
450.662	5577.25
450.883	5735.25
451.104	5823.25
451.324	5676.25
451.545	5469.25
451.766	5353.25
451.986	5253.25
452.207	5132.25
452.428	5172.25
452.648	5196.25
452.869	5266.25
453.089	5376.25
453.31	5400.25
453.53	5199.25
453.751	5151.25
453.971	5193.25
454.192	5371.25
454.412	5116.25
454.633	5032.25
454.853	4996.25
455.073	5065.25
455.294	5512.25
455.514	6065.25
455.734	5519.25
455.955	4848.25
456.175	4789.25
456.395	4717.25
456.616	4718.25
456.836	4685.25
457.056	4682.25
457.276	4652.25
457.497	4808.25
457.717	4766.25
457.937	4839.25
458.157	4895.25
458.377	5101.25
458.598	5437.25
458.818	6242.25
459.038	7152.25
459.258	6924.25
459.478	6072.25
459.698	6005.25
459.918	6014.25
460.138	6192.25
460.358	6364.25
460.578	6389.25
460.798	6453.25
461.018	6423.25
461.238	6335.25
461.458	6333.25
461.678	6180.25
461.898	6392.25
462.118	6411.25
462.338	6798.25
462.558	6906.25
462.777	7118.25
462.997	7767.25
463.217	8170.25
463.437	7877.25
463.657	7422.25
463.876	7227.25
464.096	7281.25
464.316	7171.25
464.536	7301.25
464.755	7137.25
464.975	7109.25
465.195	7299.25
465.414	7445.25
465.634	6546.25
465.854	6095.25
466.073	5791.25
466.293	5649.25
466.512	5410.25
466.732	5333.25
466.951	5349.25
467.171	5341.25
467.391	5429.25
467.61	5442.25
467.829	5406.25
468.049	5288.25
468.268	5169.25
468.488	5094.25
468.707	5064.25
468.927	5067.25
469.146	5069.25
469.365	5171.25
469.585	5132.25
469.804	5384.25
470.023	5564.25
470.243	5513.25
470.462	5694.25
470.681	5815.25
470.901	5583.25
471.12	5431.25
471.339	5385.25
471.558	5424.25
471.777	5220.25
471.997	5148.25
472.216	5134.25
472.435	5229.25
472.654	5084.25
472.873	5026.25
473.092	5045.25
473.311	5034.25
473.53	5082.25
473.749	5238.25
473.968	5835.25
474.187	6952.25
474.406	6428.25
474.625	5402.25
474.844	5121.25
475.063	5153.25
475.282	5110.25
475.501	5184.25
475.72	5246.25
475.939	5291.25
476.158	5229.25
476.377	5294.25
476.596	5319.25
476.814	5436.25
477.033	5543.25
477.252	5589.25
477.471	5632.25
477.69	5718.25
477.908	5798.25
478.127	6035.25
478.346	5997.25
478.564	6197.25
478.783	6242.25
479.002	6376.25
479.22	6417.25
479.439	6521.25
479.658	6701.25
479.876	6810.25
480.095	6998.25
480.313	7434.25
480.532	7170.25
480.751	6961.25
480.969	6951.25
481.188	6907.25
481.406	6800.25
481.624	6551.25
481.843	6324.25
482.061	6252.25
482.28	6036.25
482.498	6033.25
482.717	5936.25
482.935	5958.25
483.153	6007.25
483.372	5992.25
483.59	5895.25
483.808	5919.25
484.027	5978.25
484.245	6083.25
484.463	6080.25
484.681	6145.25
484.9	6175.25
485.118	6206.25
485.336	6297.25
485.554	6374.25
485.772	6443.25
485.99	6422.25
486.209	6485.25
486.427	6415.25
486.645	6553.25
486.863	6682.25
487.081	6553.25
487.299	6530.25
487.517	6450.25
487.735	6419.25
487.953	6391.25
