Data from Circ_2005_H10_HRD10591_00087.txt Node
Date: Wed Jan 03 10:30:08 EST 2024
User: Yrep
Spectrometer: HR+D1059
Trigger mode: 1
Integration Time (sec): 1.000000E-1
Scans to average: 1
Electric dark correction enabled: true
Nonlinearity correction enabled: false
Boxcar width: 0
XAxis mode: Wavelengths
Number of Pixels in Spectrum: 2048
>>>>>Begin Spectral Data<<<<<
223.165	-13.75
223.4	-13.75
223.635	-13.75
223.869	-20.75
224.104	-11.75
224.338	-8.75
224.573	-15.75
224.808	-12.75
225.042	-19.75
225.277	-16.75
225.511	-11.75
225.746	7.25
225.98	9.25
226.215	6.25
226.449	34.25
226.683	21.25
226.918	23.25
227.152	30.25
227.387	42.25
227.621	32.25
227.856	39.25
228.09	38.25
228.324	62.25
228.559	61.25
228.793	45.25
229.027	69.25
229.262	58.25
229.496	66.25
229.73	92.25
229.964	88.25
230.199	72.25
230.433	81.25
230.667	88.25
230.901	78.25
231.136	87.25
231.37	90.25
231.604	88.25
231.838	87.25
232.072	88.25
232.306	91.25
232.541	72.25
232.775	88.25
233.009	75.25
233.243	80.25
233.477	101.25
233.711	97.25
233.945	77.25
234.179	79.25
234.413	82.25
234.647	90.25
234.881	79.25
235.115	91.25
235.349	82.25
235.583	80.25
235.817	85.25
236.051	87.25
236.285	73.25
236.519	69.25
236.753	77.25
236.987	77.25
237.221	92.25
237.455	93.25
237.689	73.25
237.922	91.25
238.156	92.25
238.39	82.25
238.624	82.25
238.858	74.25
239.091	61.25
239.325	68.25
239.559	77.25
239.793	78.25
240.027	89.25
240.26	83.25
240.494	88.25
240.728	81.25
240.961	86.25
241.195	67.25
241.429	79.25
241.662	73.25
241.896	75.25
242.13	80.25
242.363	75.25
242.597	78.25
242.83	87.25
243.064	80.25
243.298	81.25
243.531	77.25
243.765	72.25
243.998	81.25
244.232	69.25
244.465	88.25
244.699	79.25
244.932	86.25
245.166	80.25
245.399	77.25
245.633	69.25
245.866	82.25
246.099	84.25
246.333	80.25
246.566	70.25
246.8	74.25
247.033	71.25
247.266	86.25
247.5	82.25
247.733	72.25
247.966	82.25
248.2	85.25
248.433	78.25
248.666	87.25
248.899	82.25
249.133	89.25
249.366	97.25
249.599	91.25
249.832	81.25
250.066	82.25
250.299	81.25
250.532	86.25
250.765	89.25
250.998	90.25
251.231	91.25
251.465	74.25
251.698	92.25
251.931	89.25
252.164	74.25
252.397	88.25
252.63	82.25
252.863	87.25
253.096	73.25
253.329	82.25
253.562	86.25
253.795	90.25
254.028	75.25
254.261	83.25
254.494	88.25
254.727	82.25
254.96	85.25
255.193	88.25
255.426	83.25
255.659	85.25
255.892	81.25
256.124	73.25
256.357	82.25
256.59	76.25
256.823	73.25
257.056	74.25
257.289	78.25
257.521	85.25
257.754	79.25
257.987	86.25
258.22	81.25
258.452	100.25
258.685	79.25
258.918	75.25
259.151	71.25
259.383	88.25
259.616	82.25
259.849	80.25
260.081	81.25
260.314	76.25
260.547	77.25
260.779	79.25
261.012	82.25
261.244	84.25
261.477	90.25
261.71	86.25
261.942	106.25
262.175	105.25
262.407	86.25
262.64	97.25
262.872	86.25
263.105	101.25
263.337	86.25
263.57	79.25
263.802	89.25
264.035	91.25
264.267	82.25
264.499	80.25
264.732	78.25
264.964	81.25
265.197	82.25
265.429	98.25
265.661	86.25
265.894	90.25
266.126	95.25
266.358	85.25
266.591	91.25
266.823	65.25
267.055	88.25
267.287	79.25
267.52	86.25
267.752	88.25
267.984	86.25
268.216	86.25
268.448	86.25
268.681	86.25
268.913	81.25
269.145	86.25
269.377	89.25
269.609	93.25
269.841	91.25
270.073	85.25
270.306	85.25
270.538	79.25
270.77	82.25
271.002	83.25
271.234	76.25
271.466	98.25
271.698	77.25
271.93	80.25
272.162	96.25
272.394	92.25
272.626	86.25
272.858	82.25
273.09	102.25
273.322	87.25
273.553	86.25
273.785	82.25
274.017	102.25
274.249	95.25
274.481	87.25
274.713	76.25
274.945	80.25
275.176	85.25
275.408	91.25
275.64	90.25
275.872	82.25
276.104	94.25
276.335	79.25
276.567	100.25
276.799	101.25
277.031	114.25
277.262	109.25
277.494	89.25
277.726	93.25
277.957	94.25
278.189	91.25
278.421	103.25
278.652	85.25
278.884	105.25
279.115	102.25
279.347	88.25
279.579	102.25
279.81	87.25
280.042	99.25
280.273	99.25
280.505	92.25
280.736	90.25
280.968	87.25
281.199	86.25
281.431	92.25
281.662	87.25
281.894	90.25
282.125	100.25
282.356	132.25
282.588	137.25
282.819	117.25
283.051	78.25
283.282	85.25
283.513	90.25
283.745	88.25
283.976	82.25
284.207	94.25
284.439	87.25
284.67	90.25
284.901	75.25
285.132	99.25
285.364	89.25
285.595	84.25
285.826	91.25
286.057	94.25
286.288	98.25
286.52	87.25
286.751	82.25
286.982	90.25
287.213	95.25
287.444	84.25
287.675	74.25
287.906	93.25
288.138	71.25
288.369	98.25
288.6	92.25
288.831	88.25
289.062	87.25
289.293	85.25
289.524	87.25
289.755	86.25
289.986	86.25
290.217	87.25
290.448	86.25
290.679	84.25
290.91	95.25
291.141	89.25
291.371	85.25
291.602	98.25
291.833	86.25
292.064	76.25
292.295	80.25
292.526	80.25
292.757	98.25
292.987	79.25
293.218	81.25
293.449	84.25
293.68	84.25
293.91	87.25
294.141	96.25
294.372	102.25
294.603	93.25
294.833	93.25
295.064	90.25
295.295	86.25
295.525	94.25
295.756	101.25
295.987	106.25
296.217	126.25
296.448	117.25
296.679	102.25
296.909	99.25
297.14	97.25
297.37	84.25
297.601	89.25
297.831	94.25
298.062	89.25
298.292	89.25
298.523	95.25
298.753	88.25
298.984	86.25
299.214	105.25
299.445	90.25
299.675	90.25
299.905	98.25
300.136	87.25
300.366	93.25
300.597	88.25
300.827	92.25
301.057	95.25
301.288	97.25
301.518	99.25
301.748	101.25
301.979	90.25
302.209	77.25
302.439	76.25
302.669	99.25
302.9	81.25
303.13	97.25
303.36	87.25
303.59	100.25
303.82	101.25
304.051	92.25
304.281	94.25
304.511	91.25
304.741	92.25
304.971	91.25
305.201	88.25
305.431	85.25
305.661	90.25
305.891	84.25
306.121	99.25
306.352	105.25
306.582	103.25
306.812	102.25
307.042	110.25
307.272	104.25
307.502	87.25
307.731	97.25
307.961	100.25
308.191	105.25
308.421	89.25
308.651	84.25
308.881	84.25
309.111	99.25
309.341	95.25
309.571	98.25
309.8	101.25
310.03	90.25
310.26	95.25
310.49	104.25
310.72	108.25
310.949	105.25
311.179	93.25
311.409	86.25
311.639	89.25
311.868	107.25
312.098	101.25
312.328	104.25
312.557	93.25
312.787	82.25
313.017	100.25
313.246	104.25
313.476	79.25
313.706	86.25
313.935	90.25
314.165	95.25
314.394	91.25
314.624	98.25
314.853	89.25
315.083	104.25
315.312	97.25
315.542	102.25
315.771	102.25
316.001	83.25
316.23	89.25
316.46	103.25
316.689	95.25
316.919	107.25
317.148	91.25
317.377	99.25
317.607	71.25
317.836	94.25
318.065	103.25
318.295	92.25
318.524	93.25
318.753	86.25
318.983	100.25
319.212	105.25
319.441	105.25
319.67	103.25
319.9	103.25
320.129	103.25
320.358	102.25
320.587	84.25
320.816	93.25
321.046	98.25
321.275	93.25
321.504	111.25
321.733	85.25
321.962	86.25
322.191	93.25
322.42	104.25
322.649	109.25
322.878	97.25
323.108	101.25
323.337	106.25
323.566	131.25
323.795	142.25
324.024	189.25
324.253	360.25
324.482	717.25
324.71	1427.25
324.939	1806.25
325.168	709.25
325.397	219.25
325.626	147.25
325.855	111.25
326.084	110.25
326.313	135.25
326.542	146.25
326.77	213.25
326.999	406.25
327.228	799.25
327.457	1447.25
327.686	1160.25
327.914	344.25
328.143	202.25
328.372	178.25
328.6	133.25
328.829	109.25
329.058	112.25
329.287	117.25
329.515	101.25
329.744	102.25
329.972	141.25
330.201	170.25
330.43	207.25
330.658	157.25
330.887	138.25
331.115	114.25
331.344	99.25
331.572	104.25
331.801	98.25
332.03	104.25
332.258	98.25
332.486	113.25
332.715	100.25
332.943	87.25
333.172	104.25
333.4	89.25
333.629	113.25
333.857	107.25
334.085	122.25
334.314	174.25
334.542	255.25
334.771	231.25
334.999	129.25
335.227	96.25
335.455	93.25
335.684	97.25
335.912	83.25
336.14	96.25
336.369	106.25
336.597	89.25
336.825	105.25
337.053	94.25
337.281	97.25
337.51	91.25
337.738	86.25
337.966	101.25
338.194	106.25
338.422	103.25
338.65	102.25
338.878	105.25
339.106	98.25
339.334	95.25
339.562	94.25
339.79	89.25
340.018	90.25
340.246	85.25
340.474	111.25
340.702	102.25
340.93	107.25
341.158	95.25
341.386	98.25
341.614	96.25
341.842	91.25
342.07	90.25
342.298	91.25
342.526	89.25
342.754	88.25
342.981	93.25
343.209	95.25
343.437	96.25
343.665	83.25
343.893	95.25
344.12	91.25
344.348	93.25
344.576	85.25
344.804	95.25
345.031	94.25
345.259	94.25
345.487	94.25
345.714	97.25
345.942	95.25
346.17	89.25
346.397	109.25
346.625	100.25
346.853	98.25
347.08	80.25
347.308	88.25
347.535	98.25
347.763	78.25
347.99	87.25
348.218	97.25
348.445	93.25
348.673	104.25
348.9	107.25
349.128	92.25
349.355	93.25
349.583	89.25
349.81	92.25
350.037	93.25
350.265	94.25
350.492	86.25
350.72	99.25
350.947	98.25
351.174	126.25
351.402	104.25
351.629	100.25
351.856	117.25
352.083	98.25
352.311	95.25
352.538	99.25
352.765	103.25
352.992	109.25
353.22	122.25
353.447	106.25
353.674	103.25
353.901	94.25
354.128	101.25
354.355	93.25
354.583	90.25
354.81	101.25
355.037	101.25
355.264	106.25
355.491	98.25
355.718	86.25
355.945	98.25
356.172	101.25
356.399	115.25
356.626	101.25
356.853	83.25
357.08	102.25
357.307	102.25
357.534	86.25
357.761	83.25
357.988	104.25
358.215	94.25
358.441	95.25
358.668	99.25
358.895	89.25
359.122	89.25
359.349	87.25
359.576	75.25
359.802	102.25
360.029	102.25
360.256	112.25
360.483	96.25
360.709	83.25
360.936	100.25
361.163	99.25
361.39	93.25
361.616	99.25
361.843	96.25
362.07	92.25
362.296	91.25
362.523	112.25
362.749	89.25
362.976	90.25
363.203	101.25
363.429	91.25
363.656	83.25
363.882	91.25
364.109	98.25
364.335	109.25
364.562	88.25
364.788	94.25
365.015	94.25
365.241	103.25
365.468	114.25
365.694	111.25
365.92	89.25
366.147	82.25
366.373	96.25
366.599	73.25
366.826	85.25
367.052	86.25
367.278	90.25
367.505	83.25
367.731	97.25
367.957	99.25
368.184	86.25
368.41	102.25
368.636	99.25
368.862	115.25
369.089	82.25
369.315	87.25
369.541	83.25
369.767	90.25
369.993	95.25
370.219	96.25
370.445	92.25
370.672	103.25
370.898	90.25
371.124	88.25
371.35	106.25
371.576	92.25
371.802	96.25
372.028	88.25
372.254	89.25
372.48	78.25
372.706	90.25
372.932	86.25
373.158	87.25
373.384	90.25
373.61	95.25
373.835	97.25
374.061	97.25
374.287	96.25
374.513	90.25
374.739	75.25
374.965	86.25
375.191	95.25
375.416	90.25
375.642	92.25
375.868	105.25
376.094	87.25
376.319	96.25
376.545	95.25
376.771	84.25
376.997	87.25
377.222	101.25
377.448	91.25
377.674	109.25
377.899	95.25
378.125	81.25
378.35	82.25
378.576	95.25
378.802	103.25
379.027	75.25
379.253	95.25
379.478	89.25
379.704	90.25
379.929	91.25
380.155	105.25
380.38	95.25
380.606	112.25
380.831	92.25
381.057	98.25
381.282	80.25
381.507	104.25
381.733	103.25
381.958	94.25
382.184	97.25
382.409	92.25
382.634	90.25
382.86	83.25
383.085	104.25
383.31	108.25
383.535	111.25
383.761	99.25
383.986	89.25
384.211	89.25
384.436	96.25
384.662	104.25
384.887	114.25
385.112	99.25
385.337	120.25
385.562	107.25
385.787	99.25
386.013	112.25
386.238	104.25
386.463	103.25
386.688	101.25
386.913	104.25
387.138	106.25
387.363	98.25
387.588	87.25
387.813	97.25
388.038	90.25
388.263	106.25
388.488	114.25
388.713	100.25
388.938	98.25
389.163	89.25
389.387	86.25
389.612	94.25
389.837	86.25
390.062	92.25
390.287	103.25
390.512	99.25
390.736	91.25
390.961	98.25
391.186	103.25
391.411	104.25
391.636	83.25
391.86	69.25
392.085	87.25
392.31	102.25
392.534	96.25
392.759	91.25
392.984	90.25
393.208	84.25
393.433	90.25
393.658	94.25
393.882	79.25
394.107	100.25
394.331	88.25
394.556	90.25
394.78	86.25
395.005	100.25
395.229	91.25
395.454	88.25
395.678	80.25
395.903	89.25
396.127	87.25
396.352	84.25
396.576	93.25
396.801	90.25
397.025	98.25
397.249	80.25
397.474	80.25
397.698	90.25
397.922	87.25
398.147	88.25
398.371	94.25
398.595	88.25
398.82	86.25
399.044	101.25
399.268	91.25
399.492	95.25
399.717	104.25
399.941	103.25
400.165	85.25
400.389	90.25
400.613	89.25
400.837	88.25
401.062	103.25
401.286	89.25
401.51	90.25
401.734	95.25
401.958	100.25
402.182	117.25
402.406	154.25
402.63	115.25
402.854	89.25
403.078	88.25
403.302	91.25
403.526	101.25
403.75	76.25
403.974	103.25
404.198	91.25
404.422	102.25
404.645	85.25
404.869	104.25
405.093	95.25
405.317	101.25
405.541	91.25
405.765	101.25
405.988	120.25
406.212	153.25
406.436	200.25
406.66	131.25
406.883	102.25
407.107	98.25
407.331	81.25
407.555	97.25
407.778	103.25
408.002	91.25
408.226	95.25
408.449	88.25
408.673	97.25
408.896	86.25
409.12	104.25
409.344	111.25
409.567	101.25
409.791	80.25
410.014	98.25
410.238	100.25
410.461	100.25
410.685	106.25
410.908	105.25
411.132	99.25
411.355	97.25
411.578	90.25
411.802	95.25
412.025	98.25
412.249	87.25
412.472	97.25
412.695	100.25
412.919	105.25
413.142	94.25
413.365	95.25
413.589	80.25
413.812	95.25
414.035	88.25
414.258	94.25
414.482	96.25
414.705	101.25
414.928	87.25
415.151	100.25
415.374	79.25
415.597	84.25
415.821	81.25
416.044	87.25
416.267	95.25
416.49	97.25
416.713	110.25
416.936	94.25
417.159	91.25
417.382	83.25
417.605	100.25
417.828	99.25
418.051	99.25
418.274	91.25
418.497	85.25
418.72	96.25
418.943	80.25
419.166	91.25
419.389	85.25
419.611	103.25
419.834	80.25
420.057	84.25
420.28	85.25
420.503	101.25
420.726	91.25
420.948	93.25
421.171	84.25
421.394	94.25
421.617	78.25
421.839	85.25
422.062	82.25
422.285	104.25
422.507	104.25
422.73	108.25
422.953	89.25
423.175	90.25
423.398	89.25
423.621	96.25
423.843	78.25
424.066	82.25
424.288	94.25
424.511	96.25
424.733	121.25
424.956	95.25
425.178	106.25
425.401	95.25
425.623	86.25
425.846	104.25
426.068	98.25
426.291	93.25
426.513	88.25
426.735	97.25
426.958	91.25
427.18	99.25
427.402	132.25
427.625	149.25
427.847	139.25
428.069	125.25
428.292	105.25
428.514	81.25
428.736	98.25
428.958	81.25
429.181	75.25
429.403	84.25
429.625	93.25
429.847	90.25
430.069	87.25
430.292	82.25
430.514	89.25
430.736	92.25
430.958	98.25
431.18	71.25
431.402	91.25
431.624	86.25
431.846	100.25
432.068	85.25
432.29	101.25
432.512	83.25
432.734	97.25
432.956	91.25
433.178	97.25
433.4	107.25
433.622	93.25
433.844	97.25
434.066	87.25
434.287	99.25
434.509	85.25
434.731	82.25
434.953	88.25
435.175	71.25
435.397	80.25
435.618	86.25
435.84	106.25
436.062	120.25
436.284	115.25
436.505	86.25
436.727	99.25
436.949	96.25
437.17	83.25
437.392	98.25
437.614	88.25
437.835	101.25
438.057	94.25
438.278	114.25
438.5	107.25
438.721	110.25
438.943	109.25
439.165	85.25
439.386	87.25
439.608	96.25
439.829	87.25
440.05	117.25
440.272	108.25
440.493	103.25
440.715	75.25
440.936	93.25
441.158	97.25
441.379	93.25
441.6	85.25
441.822	87.25
442.043	96.25
442.264	80.25
442.486	104.25
442.707	91.25
442.928	102.25
443.149	116.25
443.371	118.25
443.592	105.25
443.813	110.25
444.034	98.25
444.255	94.25
444.476	91.25
444.698	93.25
444.919	85.25
445.14	135.25
445.361	120.25
445.582	108.25
445.803	122.25
446.024	127.25
446.245	126.25
446.466	107.25
446.687	98.25
446.908	89.25
447.129	92.25
447.35	102.25
447.571	86.25
447.792	86.25
448.013	87.25
448.234	100.25
448.455	102.25
448.675	108.25
448.896	120.25
449.117	106.25
449.338	96.25
449.559	122.25
449.779	123.25
450	95.25
450.221	81.25
450.442	71.25
450.662	95.25
450.883	106.25
451.104	101.25
451.324	100.25
451.545	94.25
451.766	92.25
451.986	86.25
452.207	94.25
452.428	91.25
452.648	108.25
452.869	114.25
453.089	103.25
453.31	94.25
453.53	78.25
453.751	90.25
453.971	89.25
454.192	94.25
454.412	99.25
454.633	90.25
454.853	66.25
455.073	85.25
455.294	97.25
455.514	101.25
455.734	99.25
455.955	98.25
456.175	82.25
456.395	77.25
456.616	87.25
456.836	81.25
457.056	102.25
457.276	79.25
457.497	78.25
457.717	88.25
457.937	94.25
458.157	92.25
458.377	79.25
458.598	105.25
458.818	123.25
459.038	132.25
459.258	110.25
459.478	83.25
459.698	91.25
459.918	86.25
460.138	97.25
460.358	89.25
460.578	81.25
460.798	100.25
461.018	87.25
461.238	78.25
461.458	94.25
461.678	95.25
461.898	95.25
462.118	82.25
462.338	94.25
462.558	89.25
462.777	89.25
462.997	97.25
463.217	91.25
463.437	88.25
463.657	95.25
463.876	95.25
464.096	76.25
464.316	100.25
464.536	95.25
464.755	106.25
464.975	105.25
465.195	144.25
465.414	147.25
465.634	95.25
465.854	99.25
466.073	81.25
466.293	91.25
466.512	91.25
466.732	89.25
466.951	78.25
467.171	89.25
467.391	96.25
467.61	100.25
467.829	110.25
468.049	123.25
468.268	143.25
468.488	115.25
468.707	91.25
468.927	101.25
469.146	82.25
469.365	89.25
469.585	97.25
469.804	97.25
470.023	96.25
470.243	78.25
470.462	98.25
470.681	107.25
470.901	84.25
471.12	85.25
471.339	92.25
471.558	93.25
471.777	87.25
471.997	118.25
472.216	198.25
472.435	307.25
472.654	134.25
472.873	88.25
473.092	98.25
473.311	97.25
473.53	99.25
473.749	80.25
473.968	90.25
474.187	100.25
474.406	106.25
474.625	96.25
474.844	89.25
475.063	80.25
475.282	83.25
475.501	88.25
475.72	99.25
475.939	84.25
476.158	101.25
476.377	89.25
476.596	93.25
476.814	102.25
477.033	88.25
477.252	93.25
477.471	90.25
477.69	92.25
477.908	105.25
478.127	90.25
478.346	105.25
478.564	86.25
478.783	103.25
479.002	85.25
479.22	90.25
479.439	112.25
479.658	105.25
479.876	87.25
480.095	98.25
480.313	86.25
480.532	97.25
480.751	114.25
480.969	186.25
481.188	515.25
481.406	325.25
481.624	115.25
481.843	90.25
482.061	91.25
482.28	94.25
482.498	87.25
482.717	88.25
482.935	94.25
483.153	101.25
483.372	90.25
483.59	94.25
483.808	77.25
484.027	102.25
484.245	81.25
484.463	100.25
484.681	88.25
484.9	100.25
485.118	93.25
485.336	95.25
485.554	86.25
485.772	100.25
485.99	110.25
486.209	105.25
486.427	99.25
486.645	113.25
486.863	105.25
487.081	93.25
487.299	107.25
487.517	103.25
487.735	114.25
487.953	106.25
488.171	97.25
488.389	92.25
488.607	101.25
488.825	83.25
489.043	98.25
489.261	82.25
489.479	80.25
489.696	85.25
489.914	82.25
490.132	88.25
490.35	78.25
490.568	92.25
490.786	95.25
491.003	101.25
491.221	104.25
491.439	106.25
491.657	90.25
491.874	81.25
492.092	91.25
492.31	94.25
492.527	82.25
492.745	99.25
492.963	97.25
493.18	97.25
493.398	99.25
493.615	97.25
493.833	90.25
494.05	89.25
494.268	86.25
494.485	87.25
494.703	85.25
494.92	88.25
495.138	74.25
495.355	97.25
495.573	96.25
495.79	91.25
496.008	106.25
496.225	91.25
496.442	93.25
496.66	96.25
496.877	90.25
497.094	89.25
497.312	87.25
497.529	81.25
497.746	89.25
497.963	107.25
498.181	91.25
498.398	106.25
498.615	119.25
498.832	103.25
499.049	81.25
499.267	91.25
499.484	95.25
499.701	97.25
499.918	93.25
500.135	88.25
500.352	92.25
500.569	103.25
500.786	98.25
501.003	103.25
501.22	98.25
501.437	101.25
501.654	101.25
501.871	95.25
502.088	103.25
502.305	102.25
502.522	97.25
502.739	84.25
502.956	85.25
503.172	94.25
503.389	99.25
503.606	96.25
503.823	81.25
504.04	94.25
504.256	88.25
504.473	92.25
504.69	95.25
504.907	97.25
505.123	86.25
505.34	100.25
505.557	85.25
505.773	104.25
505.99	99.25
506.207	92.25
506.423	99.25
506.64	87.25
506.856	95.25
507.073	85.25
507.289	90.25
507.506	95.25
507.722	112.25
507.939	105.25
508.155	104.25
508.372	104.25
508.588	91.25
508.805	91.25
509.021	100.25
509.238	104.25
509.454	103.25
509.67	116.25
509.887	116.25
510.103	140.25
510.319	217.25
510.536	646.25
510.752	1955.25
510.968	590.25
511.184	150.25
511.401	107.25
511.617	97.25
511.833	86.25
512.049	77.25
512.265	89.25
512.481	90.25
512.698	92.25
512.914	88.25
513.13	97.25
513.346	85.25
513.562	97.25
513.778	96.25
513.994	93.25
514.21	97.25
514.426	114.25
514.642	125.25
514.858	117.25
