Data from Circ_2005_H10_HRD10591_00067.txt Node
Date: Wed Jan 03 10:30:04 EST 2024
User: Yrep
Spectrometer: HR+D1059
Trigger mode: 1
Integration Time (sec): 1.000000E-1
Scans to average: 1
Electric dark correction enabled: true
Nonlinearity correction enabled: false
Boxcar width: 0
XAxis mode: Wavelengths
Number of Pixels in Spectrum: 2048
>>>>>Begin Spectral Data<<<<<
223.165	-21.06
223.4	-21.06
223.635	-21.06
223.869	-18.06
224.104	-19.06
224.338	-29.06
224.573	-9.06
224.808	-9.06
225.042	-12.06
225.277	-4.06
225.511	0.94
225.746	0.94
225.98	7.94
226.215	-1.06
226.449	26.94
226.683	18.94
226.918	30.94
227.152	35.94
227.387	39.94
227.621	44.94
227.856	46.94
228.09	54.94
228.324	46.94
228.559	66.94
228.793	51.94
229.027	58.94
229.262	84.94
229.496	60.94
229.73	89.94
229.964	74.94
230.199	72.94
230.433	82.94
230.667	67.94
230.901	64.94
231.136	80.94
231.37	64.94
231.604	81.94
231.838	79.94
232.072	82.94
232.306	84.94
232.541	70.94
232.775	82.94
233.009	86.94
233.243	88.94
233.477	63.94
233.711	82.94
233.945	80.94
234.179	73.94
234.413	81.94
234.647	85.94
234.881	84.94
235.115	86.94
235.349	72.94
235.583	88.94
235.817	69.94
236.051	78.94
236.285	79.94
236.519	85.94
236.753	85.94
236.987	92.94
237.221	81.94
237.455	83.94
237.689	70.94
237.922	70.94
238.156	70.94
238.39	79.94
238.624	79.94
238.858	83.94
239.091	87.94
239.325	87.94
239.559	77.94
239.793	71.94
240.027	90.94
240.26	56.94
240.494	83.94
240.728	65.94
240.961	76.94
241.195	82.94
241.429	78.94
241.662	73.94
241.896	78.94
242.13	70.94
242.363	81.94
242.597	82.94
242.83	87.94
243.064	71.94
243.298	90.94
243.531	70.94
243.765	84.94
243.998	55.94
244.232	83.94
244.465	76.94
244.699	83.94
244.932	86.94
245.166	77.94
245.399	51.94
245.633	71.94
245.866	79.94
246.099	93.94
246.333	74.94
246.566	75.94
246.8	64.94
247.033	74.94
247.266	78.94
247.5	69.94
247.733	87.94
247.966	72.94
248.2	67.94
248.433	72.94
248.666	90.94
248.899	83.94
249.133	82.94
249.366	89.94
249.599	98.94
249.832	92.94
250.066	77.94
250.299	80.94
250.532	69.94
250.765	92.94
250.998	72.94
251.231	80.94
251.465	87.94
251.698	77.94
251.931	58.94
252.164	79.94
252.397	83.94
252.63	95.94
252.863	92.94
253.096	76.94
253.329	84.94
253.562	75.94
253.795	75.94
254.028	72.94
254.261	72.94
254.494	82.94
254.727	76.94
254.96	85.94
255.193	74.94
255.426	69.94
255.659	71.94
255.892	79.94
256.124	83.94
256.357	82.94
256.59	80.94
256.823	72.94
257.056	76.94
257.289	89.94
257.521	90.94
257.754	71.94
257.987	83.94
258.22	92.94
258.452	85.94
258.685	86.94
258.918	63.94
259.151	76.94
259.383	76.94
259.616	74.94
259.849	85.94
260.081	87.94
260.314	88.94
260.547	95.94
260.779	90.94
261.012	82.94
261.244	83.94
261.477	94.94
261.71	90.94
261.942	115.94
262.175	108.94
262.407	81.94
262.64	92.94
262.872	102.94
263.105	79.94
263.337	93.94
263.57	89.94
263.802	87.94
264.035	88.94
264.267	84.94
264.499	89.94
264.732	76.94
264.964	69.94
265.197	85.94
265.429	92.94
265.661	84.94
265.894	86.94
266.126	89.94
266.358	82.94
266.591	97.94
266.823	94.94
267.055	80.94
267.287	88.94
267.52	74.94
267.752	77.94
267.984	78.94
268.216	83.94
268.448	88.94
268.681	85.94
268.913	97.94
269.145	80.94
269.377	90.94
269.609	73.94
269.841	81.94
270.073	79.94
270.306	85.94
270.538	91.94
270.77	87.94
271.002	82.94
271.234	86.94
271.466	83.94
271.698	98.94
271.93	85.94
272.162	77.94
272.394	79.94
272.626	83.94
272.858	77.94
273.09	86.94
273.322	77.94
273.553	83.94
273.785	84.94
274.017	81.94
274.249	83.94
274.481	74.94
274.713	84.94
274.945	90.94
275.176	81.94
275.408	76.94
275.64	87.94
275.872	83.94
276.104	94.94
276.335	80.94
276.567	98.94
276.799	94.94
277.031	109.94
277.262	100.94
277.494	88.94
277.726	94.94
277.957	99.94
278.189	80.94
278.421	90.94
278.652	79.94
278.884	88.94
279.115	96.94
279.347	88.94
279.579	81.94
279.81	91.94
280.042	85.94
280.273	93.94
280.505	89.94
280.736	92.94
280.968	78.94
281.199	87.94
281.431	95.94
281.662	96.94
281.894	89.94
282.125	92.94
282.356	103.94
282.588	145.94
282.819	114.94
283.051	88.94
283.282	91.94
283.513	83.94
283.745	92.94
283.976	79.94
284.207	96.94
284.439	85.94
284.67	92.94
284.901	103.94
285.132	84.94
285.364	92.94
285.595	94.94
285.826	88.94
286.057	96.94
286.288	89.94
286.52	86.94
286.751	56.94
286.982	92.94
287.213	85.94
287.444	90.94
287.675	93.94
287.906	78.94
288.138	76.94
288.369	88.94
288.6	84.94
288.831	92.94
289.062	96.94
289.293	99.94
289.524	76.94
289.755	83.94
289.986	83.94
290.217	87.94
290.448	98.94
290.679	92.94
290.91	74.94
291.141	75.94
291.371	95.94
291.602	85.94
291.833	86.94
292.064	82.94
292.295	94.94
292.526	85.94
292.757	79.94
292.987	93.94
293.218	94.94
293.449	86.94
293.68	89.94
293.91	86.94
294.141	88.94
294.372	76.94
294.603	81.94
294.833	93.94
295.064	87.94
295.295	79.94
295.525	104.94
295.756	94.94
295.987	122.94
296.217	138.94
296.448	115.94
296.679	102.94
296.909	95.94
297.14	85.94
297.37	80.94
297.601	83.94
297.831	88.94
298.062	83.94
298.292	88.94
298.523	70.94
298.753	78.94
298.984	88.94
299.214	92.94
299.445	84.94
299.675	78.94
299.905	95.94
300.136	103.94
300.366	86.94
300.597	92.94
300.827	86.94
301.057	96.94
301.288	106.94
301.518	92.94
301.748	88.94
301.979	95.94
302.209	92.94
302.439	85.94
302.669	85.94
302.9	82.94
303.13	95.94
303.36	73.94
303.59	101.94
303.82	103.94
304.051	90.94
304.281	85.94
304.511	96.94
304.741	88.94
304.971	83.94
305.201	88.94
305.431	88.94
305.661	92.94
305.891	103.94
306.121	95.94
306.352	102.94
306.582	119.94
306.812	97.94
307.042	102.94
307.272	102.94
307.502	102.94
307.731	86.94
307.961	84.94
308.191	85.94
308.421	93.94
308.651	97.94
308.881	81.94
309.111	92.94
309.341	93.94
309.571	101.94
309.8	87.94
310.03	112.94
310.26	97.94
310.49	102.94
310.72	110.94
310.949	101.94
311.179	106.94
311.409	102.94
311.639	98.94
311.868	85.94
312.098	94.94
312.328	97.94
312.557	114.94
312.787	96.94
313.017	97.94
313.246	82.94
313.476	81.94
313.706	90.94
313.935	94.94
314.165	87.94
314.394	92.94
314.624	110.94
314.853	101.94
315.083	90.94
315.312	91.94
315.542	92.94
315.771	87.94
316.001	76.94
316.23	101.94
316.46	84.94
316.689	94.94
316.919	94.94
317.148	88.94
317.377	85.94
317.607	93.94
317.836	88.94
318.065	85.94
318.295	89.94
318.524	99.94
318.753	94.94
318.983	91.94
319.212	95.94
319.441	108.94
319.67	103.94
319.9	93.94
320.129	92.94
320.358	94.94
320.587	97.94
320.816	112.94
321.046	96.94
321.275	94.94
321.504	78.94
321.733	105.94
321.962	88.94
322.191	100.94
322.42	91.94
322.649	110.94
322.878	104.94
323.108	114.94
323.337	121.94
323.566	119.94
323.795	152.94
324.024	189.94
324.253	368.94
324.482	833.94
324.71	1667.94
324.939	2181.94
325.168	827.94
325.397	242.94
325.626	142.94
325.855	134.94
326.084	126.94
326.313	140.94
326.542	150.94
326.77	236.94
326.999	477.94
327.228	940.94
327.457	1714.94
327.686	1344.94
327.914	359.94
328.143	204.94
328.372	176.94
328.6	124.94
328.829	116.94
329.058	109.94
329.287	125.94
329.515	131.94
329.744	117.94
329.972	123.94
330.201	165.94
330.43	218.94
330.658	156.94
330.887	155.94
331.115	110.94
331.344	121.94
331.572	99.94
331.801	101.94
332.03	99.94
332.258	87.94
332.486	92.94
332.715	88.94
332.943	105.94
333.172	106.94
333.4	107.94
333.629	119.94
333.857	94.94
334.085	151.94
334.314	171.94
334.542	243.94
334.771	232.94
334.999	128.94
335.227	101.94
335.455	94.94
335.684	94.94
335.912	81.94
336.14	94.94
336.369	116.94
336.597	113.94
336.825	92.94
337.053	98.94
337.281	87.94
337.51	94.94
337.738	104.94
337.966	101.94
338.194	107.94
338.422	95.94
338.65	94.94
338.878	88.94
339.106	93.94
339.334	86.94
339.562	91.94
339.79	92.94
340.018	80.94
340.246	98.94
340.474	95.94
340.702	78.94
340.93	98.94
341.158	88.94
341.386	97.94
341.614	107.94
341.842	100.94
342.07	99.94
342.298	88.94
342.526	84.94
342.754	98.94
342.981	75.94
343.209	99.94
343.437	95.94
343.665	96.94
343.893	85.94
344.12	90.94
344.348	86.94
344.576	88.94
344.804	86.94
345.031	114.94
345.259	97.94
345.487	87.94
345.714	82.94
345.942	91.94
346.17	87.94
346.397	100.94
346.625	104.94
346.853	91.94
347.08	98.94
347.308	93.94
347.535	95.94
347.763	92.94
347.99	86.94
348.218	102.94
348.445	99.94
348.673	92.94
348.9	89.94
349.128	95.94
349.355	98.94
349.583	104.94
349.81	92.94
350.037	99.94
350.265	100.94
350.492	102.94
350.72	91.94
350.947	108.94
351.174	107.94
351.402	112.94
351.629	109.94
351.856	113.94
352.083	99.94
352.311	104.94
352.538	111.94
352.765	102.94
352.992	124.94
353.22	113.94
353.447	106.94
353.674	90.94
353.901	90.94
354.128	94.94
354.355	83.94
354.583	96.94
354.81	89.94
355.037	114.94
355.264	104.94
355.491	73.94
355.718	98.94
355.945	88.94
356.172	95.94
356.399	95.94
356.626	101.94
356.853	80.94
357.08	92.94
357.307	109.94
357.534	97.94
357.761	88.94
357.988	93.94
358.215	92.94
358.441	76.94
358.668	93.94
358.895	90.94
359.122	87.94
359.349	91.94
359.576	81.94
359.802	112.94
360.029	103.94
360.256	99.94
360.483	103.94
360.709	79.94
360.936	98.94
361.163	94.94
361.39	101.94
361.616	99.94
361.843	94.94
362.07	101.94
362.296	98.94
362.523	86.94
362.749	81.94
362.976	99.94
363.203	100.94
363.429	99.94
363.656	93.94
363.882	88.94
364.109	94.94
364.335	94.94
364.562	100.94
364.788	83.94
365.015	92.94
365.241	92.94
365.468	100.94
365.694	93.94
365.92	96.94
366.147	101.94
366.373	98.94
366.599	98.94
366.826	81.94
367.052	91.94
367.278	89.94
367.505	108.94
367.731	104.94
367.957	80.94
368.184	92.94
368.41	108.94
368.636	112.94
368.862	111.94
369.089	107.94
369.315	82.94
369.541	92.94
369.767	83.94
369.993	91.94
370.219	93.94
370.445	108.94
370.672	87.94
370.898	97.94
371.124	84.94
371.35	79.94
371.576	100.94
371.802	88.94
372.028	95.94
372.254	94.94
372.48	102.94
372.706	96.94
372.932	86.94
373.158	85.94
373.384	91.94
373.61	87.94
373.835	96.94
374.061	101.94
374.287	91.94
374.513	93.94
374.739	97.94
374.965	94.94
375.191	102.94
375.416	101.94
375.642	88.94
375.868	99.94
376.094	97.94
376.319	88.94
376.545	95.94
376.771	80.94
376.997	87.94
377.222	88.94
377.448	86.94
377.674	76.94
377.899	91.94
378.125	90.94
378.35	114.94
378.576	96.94
378.802	78.94
379.027	96.94
379.253	90.94
379.478	99.94
379.704	88.94
379.929	87.94
380.155	102.94
380.38	98.94
380.606	94.94
380.831	101.94
381.057	85.94
381.282	101.94
381.507	93.94
381.733	94.94
381.958	99.94
382.184	95.94
382.409	105.94
382.634	95.94
382.86	95.94
383.085	91.94
383.31	100.94
383.535	90.94
383.761	93.94
383.986	92.94
384.211	92.94
384.436	85.94
384.662	99.94
384.887	106.94
385.112	100.94
385.337	105.94
385.562	100.94
385.787	110.94
386.013	114.94
386.238	109.94
386.463	112.94
386.688	105.94
386.913	108.94
387.138	104.94
387.363	100.94
387.588	100.94
387.813	95.94
388.038	113.94
388.263	118.94
388.488	106.94
388.713	94.94
388.938	104.94
389.163	92.94
389.387	88.94
389.612	93.94
389.837	96.94
390.062	87.94
390.287	89.94
390.512	91.94
390.736	101.94
390.961	104.94
391.186	97.94
391.411	84.94
391.636	88.94
391.86	87.94
392.085	81.94
392.31	86.94
392.534	84.94
392.759	95.94
392.984	86.94
393.208	87.94
393.433	105.94
393.658	83.94
393.882	90.94
394.107	82.94
394.331	78.94
394.556	87.94
394.78	90.94
395.005	86.94
395.229	95.94
395.454	94.94
395.678	83.94
395.903	89.94
396.127	92.94
396.352	77.94
396.576	85.94
396.801	86.94
397.025	91.94
397.249	99.94
397.474	96.94
397.698	93.94
397.922	93.94
398.147	91.94
398.371	82.94
398.595	88.94
398.82	91.94
399.044	87.94
399.268	83.94
399.492	96.94
399.717	85.94
399.941	86.94
400.165	108.94
400.389	90.94
400.613	79.94
400.837	91.94
401.062	86.94
401.286	94.94
401.51	96.94
401.734	91.94
401.958	107.94
402.182	123.94
402.406	162.94
402.63	114.94
402.854	103.94
403.078	88.94
403.302	100.94
403.526	104.94
403.75	69.94
403.974	81.94
404.198	90.94
404.422	92.94
404.645	93.94
404.869	106.94
405.093	101.94
405.317	90.94
405.541	99.94
405.765	91.94
405.988	110.94
406.212	175.94
406.436	216.94
406.66	119.94
406.883	101.94
407.107	101.94
407.331	85.94
407.555	98.94
407.778	99.94
408.002	97.94
408.226	86.94
408.449	90.94
408.673	105.94
408.896	80.94
409.12	101.94
409.344	83.94
409.567	102.94
409.791	83.94
410.014	102.94
410.238	91.94
410.461	95.94
410.685	94.94
410.908	99.94
411.132	100.94
411.355	84.94
411.578	95.94
411.802	88.94
412.025	70.94
412.249	96.94
412.472	87.94
412.695	101.94
412.919	87.94
413.142	100.94
413.365	86.94
413.589	91.94
413.812	88.94
414.035	83.94
414.258	87.94
414.482	93.94
414.705	84.94
414.928	83.94
415.151	91.94
415.374	96.94
415.597	87.94
415.821	98.94
416.044	88.94
416.267	90.94
416.49	93.94
416.713	85.94
416.936	96.94
417.159	77.94
417.382	92.94
417.605	83.94
417.828	87.94
418.051	92.94
418.274	85.94
418.497	87.94
418.72	90.94
418.943	85.94
419.166	94.94
419.389	87.94
419.611	87.94
419.834	90.94
420.057	87.94
420.28	84.94
420.503	90.94
420.726	82.94
420.948	90.94
421.171	104.94
421.394	95.94
421.617	88.94
421.839	96.94
422.062	82.94
422.285	96.94
422.507	98.94
422.73	97.94
422.953	95.94
423.175	95.94
423.398	77.94
423.621	89.94
423.843	94.94
424.066	93.94
424.288	81.94
424.511	76.94
424.733	109.94
424.956	100.94
425.178	99.94
425.401	100.94
425.623	112.94
425.846	93.94
426.068	78.94
426.291	98.94
426.513	91.94
426.735	90.94
426.958	98.94
427.18	96.94
427.402	141.94
427.625	141.94
427.847	141.94
428.069	138.94
428.292	103.94
428.514	87.94
428.736	85.94
428.958	94.94
429.181	90.94
429.403	83.94
429.625	96.94
429.847	89.94
430.069	105.94
430.292	90.94
430.514	82.94
430.736	75.94
430.958	82.94
431.18	76.94
431.402	91.94
431.624	86.94
431.846	88.94
432.068	91.94
432.29	98.94
432.512	93.94
432.734	107.94
432.956	90.94
433.178	107.94
433.4	107.94
433.622	85.94
433.844	87.94
434.066	85.94
434.287	87.94
434.509	88.94
434.731	92.94
434.953	81.94
435.175	82.94
435.397	78.94
435.618	97.94
435.84	104.94
436.062	116.94
436.284	118.94
436.505	98.94
436.727	107.94
436.949	71.94
437.17	79.94
437.392	94.94
437.614	85.94
437.835	108.94
438.057	99.94
438.278	100.94
438.5	115.94
438.721	118.94
438.943	109.94
439.165	95.94
439.386	93.94
439.608	95.94
439.829	95.94
440.05	119.94
440.272	140.94
440.493	93.94
440.715	93.94
440.936	78.94
441.158	69.94
441.379	68.94
441.6	96.94
441.822	107.94
442.043	98.94
442.264	104.94
442.486	101.94
442.707	95.94
442.928	89.94
443.149	127.94
443.371	128.94
443.592	100.94
443.813	114.94
444.034	122.94
444.255	86.94
444.476	84.94
444.698	74.94
444.919	83.94
445.14	141.94
445.361	108.94
445.582	104.94
445.803	146.94
446.024	128.94
446.245	126.94
446.466	107.94
446.687	99.94
446.908	94.94
447.129	94.94
447.35	89.94
447.571	79.94
447.792	88.94
448.013	92.94
448.234	95.94
448.455	107.94
448.675	112.94
448.896	108.94
449.117	98.94
449.338	112.94
449.559	128.94
449.779	115.94
450	100.94
450.221	83.94
450.442	90.94
450.662	90.94
450.883	93.94
451.104	123.94
451.324	95.94
451.545	83.94
451.766	84.94
451.986	66.94
452.207	77.94
452.428	94.94
452.648	102.94
452.869	97.94
453.089	101.94
453.31	115.94
453.53	103.94
453.751	87.94
453.971	109.94
454.192	110.94
454.412	102.94
454.633	87.94
454.853	91.94
455.073	94.94
455.294	87.94
455.514	85.94
455.734	92.94
455.955	81.94
456.175	80.94
456.395	102.94
456.616	91.94
456.836	92.94
457.056	83.94
457.276	86.94
457.497	76.94
457.717	87.94
457.937	90.94
458.157	85.94
458.377	93.94
458.598	126.94
458.818	144.94
459.038	168.94
459.258	127.94
459.478	101.94
459.698	92.94
459.918	91.94
460.138	75.94
460.358	91.94
460.578	96.94
460.798	86.94
461.018	88.94
461.238	91.94
461.458	88.94
461.678	80.94
461.898	99.94
462.118	85.94
462.338	78.94
462.558	76.94
462.777	93.94
462.997	87.94
463.217	95.94
463.437	84.94
463.657	98.94
463.876	69.94
464.096	88.94
464.316	105.94
464.536	91.94
464.755	97.94
464.975	102.94
465.195	153.94
465.414	135.94
465.634	77.94
465.854	86.94
466.073	78.94
466.293	80.94
466.512	85.94
466.732	92.94
466.951	74.94
467.171	71.94
467.391	96.94
467.61	83.94
467.829	96.94
468.049	124.94
468.268	151.94
468.488	92.94
468.707	78.94
468.927	78.94
469.146	97.94
469.365	78.94
469.585	83.94
469.804	86.94
470.023	91.94
470.243	92.94
470.462	92.94
470.681	113.94
470.901	82.94
471.12	74.94
471.339	96.94
471.558	90.94
471.777	107.94
471.997	114.94
472.216	175.94
472.435	307.94
472.654	129.94
472.873	84.94
473.092	76.94
473.311	96.94
473.53	86.94
473.749	89.94
473.968	104.94
474.187	96.94
474.406	94.94
474.625	91.94
474.844	103.94
475.063	85.94
475.282	94.94
475.501	83.94
475.72	97.94
475.939	85.94
476.158	100.94
476.377	83.94
476.596	101.94
476.814	86.94
477.033	83.94
477.252	89.94
477.471	94.94
477.69	95.94
477.908	96.94
478.127	86.94
478.346	97.94
478.564	92.94
478.783	100.94
479.002	91.94
479.22	97.94
479.439	101.94
479.658	85.94
479.876	87.94
480.095	104.94
480.313	110.94
480.532	82.94
480.751	114.94
480.969	179.94
481.188	475.94
481.406	342.94
481.624	122.94
481.843	84.94
482.061	98.94
482.28	84.94
482.498	86.94
482.717	97.94
482.935	99.94
483.153	86.94
483.372	96.94
483.59	83.94
483.808	86.94
484.027	93.94
484.245	84.94
484.463	96.94
484.681	90.94
484.9	83.94
485.118	99.94
485.336	106.94
485.554	84.94
485.772	80.94
485.99	89.94
486.209	89.94
486.427	100.94
486.645	101.94
486.863	112.94
487.081	97.94
487.299	102.94
487.517	97.94
487.735	91.94
487.953	82.94
488.171	100.94
488.389	98.94
488.607	101.94
488.825	93.94
489.043	86.94
489.261	88.94
489.479	95.94
489.696	94.94
489.914	101.94
490.132	90.94
490.35	92.94
490.568	97.94
490.786	87.94
491.003	82.94
491.221	94.94
491.439	76.94
491.657	92.94
491.874	90.94
492.092	93.94
492.31	88.94
492.527	83.94
492.745	82.94
492.963	93.94
493.18	83.94
493.398	100.94
493.615	99.94
493.833	90.94
494.05	89.94
494.268	81.94
494.485	91.94
494.703	93.94
494.92	92.94
495.138	101.94
495.355	92.94
495.573	103.94
495.79	98.94
496.008	86.94
496.225	81.94
496.442	78.94
496.66	95.94
496.877	94.94
497.094	85.94
497.312	87.94
497.529	86.94
497.746	72.94
497.963	92.94
498.181	82.94
498.398	88.94
498.615	103.94
498.832	98.94
499.049	106.94
499.267	85.94
499.484	90.94
499.701	89.94
499.918	99.94
500.135	92.94
500.352	90.94
500.569	88.94
500.786	90.94
501.003	93.94
501.22	95.94
501.437	95.94
501.654	93.94
501.871	111.94
502.088	106.94
502.305	94.94
502.522	83.94
502.739	78.94
502.956	102.94
503.172	91.94
503.389	100.94
503.606	103.94
503.823	100.94
504.04	94.94
504.256	93.94
504.473	93.94
504.69	91.94
504.907	86.94
505.123	79.94
505.34	82.94
505.557	98.94
505.773	86.94
505.99	92.94
506.207	87.94
506.423	92.94
506.64	80.94
506.856	86.94
507.073	93.94
507.289	92.94
507.506	101.94
507.722	105.94
507.939	98.94
508.155	96.94
508.372	82.94
508.588	87.94
508.805	97.94
509.021	100.94
509.238	106.94
509.454	93.94
509.67	85.94
509.887	103.94
510.103	130.94
510.319	188.94
510.536	702.94
510.752	2236.94
510.968	648.94
511.184	156.94
511.401	94.94
511.617	106.94
511.833	92.94
512.049	105.94
512.265	100.94
512.481	102.94
512.698	88.94
512.914	87.94
513.13	94.94
513.346	80.94
513.562	97.94
513.778	90.94
513.994	99.94
514.21	102.94
514.426	101.94
514.642	131.94
514.858	117.94
515.074	148.94
515.29	434.94
515.506	1388.94
