Data from Circ_2005_H10_HRD10591_00042.txt Node
Date: Wed Jan 03 10:29:59 EST 2024
User: Yrep
Spectrometer: HR+D1059
Trigger mode: 1
Integration Time (sec): 1.000000E-1
Scans to average: 1
Electric dark correction enabled: true
Nonlinearity correction enabled: false
Boxcar width: 0
XAxis mode: Wavelengths
Number of Pixels in Spectrum: 2048
>>>>>Begin Spectral Data<<<<<
223.165	-13.56
223.4	-13.56
223.635	-13.56
223.869	-17.56
224.104	-23.56
224.338	3.44
224.573	-25.56
224.808	-14.56
225.042	5.44
225.277	-5.56
225.511	8.44
225.746	-8.56
225.98	2.44
226.215	8.44
226.449	12.44
226.683	26.44
226.918	11.44
227.152	30.44
227.387	25.44
227.621	25.44
227.856	45.44
228.09	62.44
228.324	37.44
228.559	50.44
228.793	58.44
229.027	58.44
229.262	50.44
229.496	91.44
229.73	77.44
229.964	88.44
230.199	68.44
230.433	70.44
230.667	80.44
230.901	81.44
231.136	81.44
231.37	78.44
231.604	81.44
231.838	91.44
232.072	71.44
232.306	78.44
232.541	70.44
232.775	80.44
233.009	66.44
233.243	91.44
233.477	88.44
233.711	68.44
233.945	81.44
234.179	60.44
234.413	88.44
234.647	75.44
234.881	79.44
235.115	77.44
235.349	69.44
235.583	71.44
235.817	80.44
236.051	79.44
236.285	61.44
236.519	84.44
236.753	78.44
236.987	75.44
237.221	75.44
237.455	86.44
237.689	77.44
237.922	85.44
238.156	75.44
238.39	77.44
238.624	57.44
238.858	65.44
239.091	73.44
239.325	65.44
239.559	90.44
239.793	82.44
240.027	87.44
240.26	74.44
240.494	91.44
240.728	77.44
240.961	67.44
241.195	94.44
241.429	72.44
241.662	89.44
241.896	83.44
242.13	67.44
242.363	73.44
242.597	80.44
242.83	75.44
243.064	80.44
243.298	61.44
243.531	72.44
243.765	83.44
243.998	78.44
244.232	65.44
244.465	74.44
244.699	74.44
244.932	82.44
245.166	69.44
245.399	61.44
245.633	72.44
245.866	76.44
246.099	61.44
246.333	75.44
246.566	70.44
246.8	66.44
247.033	63.44
247.266	72.44
247.5	70.44
247.733	62.44
247.966	78.44
248.2	82.44
248.433	80.44
248.666	85.44
248.899	67.44
249.133	72.44
249.366	90.44
249.599	85.44
249.832	79.44
250.066	69.44
250.299	72.44
250.532	66.44
250.765	78.44
250.998	78.44
251.231	86.44
251.465	82.44
251.698	73.44
251.931	63.44
252.164	78.44
252.397	79.44
252.63	66.44
252.863	79.44
253.096	73.44
253.329	91.44
253.562	73.44
253.795	70.44
254.028	69.44
254.261	83.44
254.494	93.44
254.727	91.44
254.96	80.44
255.193	85.44
255.426	78.44
255.659	66.44
255.892	92.44
256.124	77.44
256.357	72.44
256.59	64.44
256.823	93.44
257.056	87.44
257.289	75.44
257.521	78.44
257.754	77.44
257.987	91.44
258.22	83.44
258.452	85.44
258.685	75.44
258.918	66.44
259.151	82.44
259.383	80.44
259.616	67.44
259.849	77.44
260.081	107.44
260.314	78.44
260.547	81.44
260.779	82.44
261.012	89.44
261.244	79.44
261.477	84.44
261.71	77.44
261.942	94.44
262.175	117.44
262.407	87.44
262.64	65.44
262.872	76.44
263.105	89.44
263.337	96.44
263.57	69.44
263.802	86.44
264.035	67.44
264.267	76.44
264.499	77.44
264.732	74.44
264.964	72.44
265.197	72.44
265.429	84.44
265.661	78.44
265.894	81.44
266.126	84.44
266.358	70.44
266.591	78.44
266.823	72.44
267.055	80.44
267.287	82.44
267.52	86.44
267.752	82.44
267.984	84.44
268.216	90.44
268.448	85.44
268.681	85.44
268.913	82.44
269.145	97.44
269.377	79.44
269.609	80.44
269.841	93.44
270.073	87.44
270.306	84.44
270.538	77.44
270.77	67.44
271.002	81.44
271.234	88.44
271.466	85.44
271.698	85.44
271.93	84.44
272.162	76.44
272.394	81.44
272.626	67.44
272.858	86.44
273.09	94.44
273.322	80.44
273.553	75.44
273.785	85.44
274.017	72.44
274.249	73.44
274.481	87.44
274.713	86.44
274.945	82.44
275.176	64.44
275.408	87.44
275.64	78.44
275.872	83.44
276.104	87.44
276.335	71.44
276.567	101.44
276.799	109.44
277.031	97.44
277.262	82.44
277.494	92.44
277.726	75.44
277.957	94.44
278.189	72.44
278.421	76.44
278.652	86.44
278.884	85.44
279.115	91.44
279.347	82.44
279.579	85.44
279.81	76.44
280.042	84.44
280.273	81.44
280.505	87.44
280.736	89.44
280.968	76.44
281.199	77.44
281.431	87.44
281.662	82.44
281.894	91.44
282.125	90.44
282.356	104.44
282.588	130.44
282.819	115.44
283.051	88.44
283.282	87.44
283.513	88.44
283.745	86.44
283.976	70.44
284.207	88.44
284.439	85.44
284.67	75.44
284.901	91.44
285.132	78.44
285.364	88.44
285.595	84.44
285.826	84.44
286.057	81.44
286.288	105.44
286.52	84.44
286.751	83.44
286.982	76.44
287.213	82.44
287.444	86.44
287.675	76.44
287.906	83.44
288.138	86.44
288.369	106.44
288.6	85.44
288.831	85.44
289.062	97.44
289.293	78.44
289.524	81.44
289.755	84.44
289.986	77.44
290.217	89.44
290.448	78.44
290.679	81.44
290.91	84.44
291.141	68.44
291.371	73.44
291.602	79.44
291.833	83.44
292.064	84.44
292.295	87.44
292.526	82.44
292.757	94.44
292.987	89.44
293.218	85.44
293.449	85.44
293.68	89.44
293.91	88.44
294.141	75.44
294.372	92.44
294.603	93.44
294.833	85.44
295.064	82.44
295.295	83.44
295.525	97.44
295.756	96.44
295.987	121.44
296.217	144.44
296.448	129.44
296.679	93.44
296.909	97.44
297.14	90.44
297.37	79.44
297.601	84.44
297.831	82.44
298.062	69.44
298.292	92.44
298.523	88.44
298.753	81.44
298.984	82.44
299.214	90.44
299.445	94.44
299.675	82.44
299.905	80.44
300.136	84.44
300.366	90.44
300.597	84.44
300.827	88.44
301.057	97.44
301.288	106.44
301.518	95.44
301.748	82.44
301.979	95.44
302.209	94.44
302.439	64.44
302.669	83.44
302.9	82.44
303.13	97.44
303.36	84.44
303.59	93.44
303.82	80.44
304.051	90.44
304.281	80.44
304.511	89.44
304.741	81.44
304.971	73.44
305.201	79.44
305.431	89.44
305.661	85.44
305.891	91.44
306.121	86.44
306.352	110.44
306.582	94.44
306.812	85.44
307.042	81.44
307.272	93.44
307.502	85.44
307.731	96.44
307.961	93.44
308.191	79.44
308.421	88.44
308.651	80.44
308.881	96.44
309.111	89.44
309.341	93.44
309.571	102.44
309.8	104.44
310.03	86.44
310.26	98.44
310.49	94.44
310.72	99.44
310.949	102.44
311.179	95.44
311.409	107.44
311.639	110.44
311.868	92.44
312.098	85.44
312.328	90.44
312.557	106.44
312.787	95.44
313.017	92.44
313.246	86.44
313.476	85.44
313.706	90.44
313.935	86.44
314.165	109.44
314.394	93.44
314.624	98.44
314.853	96.44
315.083	89.44
315.312	78.44
315.542	84.44
315.771	96.44
316.001	84.44
316.23	91.44
316.46	88.44
316.689	80.44
316.919	92.44
317.148	95.44
317.377	102.44
317.607	97.44
317.836	83.44
318.065	91.44
318.295	83.44
318.524	93.44
318.753	89.44
318.983	85.44
319.212	102.44
319.441	88.44
319.67	120.44
319.9	77.44
320.129	78.44
320.358	89.44
320.587	91.44
320.816	94.44
321.046	82.44
321.275	97.44
321.504	104.44
321.733	102.44
321.962	70.44
322.191	83.44
322.42	87.44
322.649	102.44
322.878	101.44
323.108	108.44
323.337	138.44
323.566	133.44
323.795	168.44
324.024	214.44
324.253	384.44
324.482	840.44
324.71	1698.44
324.939	2218.44
325.168	826.44
325.397	264.44
325.626	136.44
325.855	118.44
326.084	114.44
326.313	115.44
326.542	163.44
326.77	230.44
326.999	450.44
327.228	956.44
327.457	1690.44
327.686	1320.44
327.914	355.44
328.143	182.44
328.372	156.44
328.6	110.44
328.829	124.44
329.058	117.44
329.287	124.44
329.515	97.44
329.744	104.44
329.972	98.44
330.201	126.44
330.43	151.44
330.658	133.44
330.887	144.44
331.115	120.44
331.344	103.44
331.572	103.44
331.801	108.44
332.03	84.44
332.258	98.44
332.486	96.44
332.715	99.44
332.943	93.44
333.172	97.44
333.4	102.44
333.629	97.44
333.857	95.44
334.085	115.44
334.314	121.44
334.542	156.44
334.771	131.44
334.999	109.44
335.227	108.44
335.455	92.44
335.684	90.44
335.912	110.44
336.14	91.44
336.369	96.44
336.597	88.44
336.825	84.44
337.053	79.44
337.281	96.44
337.51	84.44
337.738	98.44
337.966	109.44
338.194	83.44
338.422	78.44
338.65	104.44
338.878	99.44
339.106	98.44
339.334	98.44
339.562	78.44
339.79	89.44
340.018	96.44
340.246	92.44
340.474	87.44
340.702	95.44
340.93	74.44
341.158	93.44
341.386	101.44
341.614	102.44
341.842	95.44
342.07	80.44
342.298	86.44
342.526	86.44
342.754	99.44
342.981	87.44
343.209	78.44
343.437	96.44
343.665	87.44
343.893	83.44
344.12	101.44
344.348	106.44
344.576	81.44
344.804	91.44
345.031	92.44
345.259	114.44
345.487	97.44
345.714	95.44
345.942	87.44
346.17	86.44
346.397	83.44
346.625	95.44
346.853	85.44
347.08	83.44
347.308	94.44
347.535	97.44
347.763	90.44
347.99	90.44
348.218	93.44
348.445	95.44
348.673	85.44
348.9	90.44
349.128	92.44
349.355	107.44
349.583	103.44
349.81	86.44
350.037	84.44
350.265	99.44
350.492	86.44
350.72	97.44
350.947	90.44
351.174	106.44
351.402	96.44
351.629	109.44
351.856	93.44
352.083	90.44
352.311	99.44
352.538	99.44
352.765	86.44
352.992	115.44
353.22	110.44
353.447	92.44
353.674	97.44
353.901	86.44
354.128	89.44
354.355	92.44
354.583	96.44
354.81	94.44
355.037	91.44
355.264	94.44
355.491	93.44
355.718	76.44
355.945	96.44
356.172	102.44
356.399	93.44
356.626	88.44
356.853	98.44
357.08	91.44
357.307	88.44
357.534	95.44
357.761	89.44
357.988	83.44
358.215	85.44
358.441	96.44
358.668	89.44
358.895	90.44
359.122	82.44
359.349	90.44
359.576	81.44
359.802	92.44
360.029	100.44
360.256	98.44
360.483	116.44
360.709	86.44
360.936	97.44
361.163	104.44
361.39	101.44
361.616	91.44
361.843	94.44
362.07	100.44
362.296	101.44
362.523	94.44
362.749	76.44
362.976	85.44
363.203	93.44
363.429	81.44
363.656	77.44
363.882	73.44
364.109	80.44
364.335	90.44
364.562	87.44
364.788	90.44
365.015	86.44
365.241	96.44
365.468	106.44
365.694	100.44
365.92	87.44
366.147	92.44
366.373	80.44
366.599	84.44
366.826	81.44
367.052	78.44
367.278	81.44
367.505	74.44
367.731	84.44
367.957	79.44
368.184	82.44
368.41	95.44
368.636	113.44
368.862	118.44
369.089	97.44
369.315	92.44
369.541	75.44
369.767	74.44
369.993	91.44
370.219	91.44
370.445	84.44
370.672	106.44
370.898	73.44
371.124	86.44
371.35	81.44
371.576	83.44
371.802	75.44
372.028	81.44
372.254	76.44
372.48	91.44
372.706	83.44
372.932	88.44
373.158	90.44
373.384	90.44
373.61	68.44
373.835	97.44
374.061	86.44
374.287	93.44
374.513	84.44
374.739	91.44
374.965	96.44
375.191	77.44
375.416	93.44
375.642	83.44
375.868	79.44
376.094	88.44
376.319	84.44
376.545	80.44
376.771	83.44
376.997	93.44
377.222	91.44
377.448	89.44
377.674	97.44
377.899	81.44
378.125	79.44
378.35	104.44
378.576	88.44
378.802	86.44
379.027	94.44
379.253	110.44
379.478	92.44
379.704	83.44
379.929	69.44
380.155	92.44
380.38	82.44
380.606	92.44
380.831	104.44
381.057	94.44
381.282	98.44
381.507	94.44
381.733	75.44
381.958	94.44
382.184	103.44
382.409	94.44
382.634	95.44
382.86	102.44
383.085	91.44
383.31	91.44
383.535	99.44
383.761	100.44
383.986	97.44
384.211	100.44
384.436	107.44
384.662	98.44
384.887	104.44
385.112	98.44
385.337	115.44
385.562	87.44
385.787	105.44
386.013	106.44
386.238	107.44
386.463	108.44
386.688	94.44
386.913	100.44
387.138	117.44
387.363	102.44
387.588	106.44
387.813	94.44
388.038	100.44
388.263	116.44
388.488	117.44
388.713	94.44
388.938	84.44
389.163	90.44
389.387	92.44
389.612	94.44
389.837	89.44
390.062	84.44
390.287	90.44
390.512	82.44
390.736	88.44
390.961	91.44
391.186	86.44
391.411	92.44
391.636	85.44
391.86	84.44
392.085	85.44
392.31	84.44
392.534	80.44
392.759	76.44
392.984	91.44
393.208	88.44
393.433	82.44
393.658	95.44
393.882	89.44
394.107	93.44
394.331	69.44
394.556	88.44
394.78	84.44
395.005	96.44
395.229	82.44
395.454	85.44
395.678	92.44
395.903	90.44
396.127	69.44
396.352	97.44
396.576	80.44
396.801	86.44
397.025	82.44
397.249	98.44
397.474	93.44
397.698	83.44
397.922	86.44
398.147	74.44
398.371	91.44
398.595	84.44
398.82	81.44
399.044	79.44
399.268	80.44
399.492	99.44
399.717	79.44
399.941	85.44
400.165	95.44
400.389	92.44
400.613	92.44
400.837	97.44
401.062	86.44
401.286	87.44
401.51	86.44
401.734	82.44
401.958	99.44
402.182	113.44
402.406	151.44
402.63	136.44
402.854	89.44
403.078	80.44
403.302	83.44
403.526	95.44
403.75	91.44
403.974	86.44
404.198	99.44
404.422	79.44
404.645	82.44
404.869	91.44
405.093	94.44
405.317	90.44
405.541	108.44
405.765	101.44
405.988	114.44
406.212	169.44
406.436	241.44
406.66	153.44
406.883	97.44
407.107	102.44
407.331	91.44
407.555	92.44
407.778	97.44
408.002	90.44
408.226	66.44
408.449	95.44
408.673	97.44
408.896	77.44
409.12	99.44
409.344	86.44
409.567	87.44
409.791	95.44
410.014	76.44
410.238	78.44
410.461	84.44
410.685	85.44
410.908	94.44
411.132	101.44
411.355	104.44
411.578	78.44
411.802	79.44
412.025	80.44
412.249	93.44
412.472	85.44
412.695	99.44
412.919	91.44
413.142	80.44
413.365	79.44
413.589	77.44
413.812	83.44
414.035	92.44
414.258	85.44
414.482	82.44
414.705	91.44
414.928	92.44
415.151	92.44
415.374	100.44
415.597	86.44
415.821	89.44
416.044	90.44
416.267	91.44
416.49	88.44
416.713	78.44
416.936	100.44
417.159	89.44
417.382	89.44
417.605	91.44
417.828	88.44
418.051	92.44
418.274	89.44
418.497	81.44
418.72	82.44
418.943	89.44
419.166	76.44
419.389	88.44
419.611	79.44
419.834	70.44
420.057	98.44
420.28	88.44
420.503	77.44
420.726	89.44
420.948	87.44
421.171	88.44
421.394	80.44
421.617	84.44
421.839	72.44
422.062	80.44
422.285	82.44
422.507	94.44
422.73	109.44
422.953	77.44
423.175	89.44
423.398	85.44
423.621	88.44
423.843	84.44
424.066	94.44
424.288	94.44
424.511	74.44
424.733	84.44
424.956	116.44
425.178	97.44
425.401	99.44
425.623	92.44
425.846	76.44
426.068	82.44
426.291	95.44
426.513	89.44
426.735	95.44
426.958	92.44
427.18	107.44
427.402	141.44
427.625	156.44
427.847	126.44
428.069	117.44
428.292	97.44
428.514	83.44
428.736	80.44
428.958	71.44
429.181	75.44
429.403	83.44
429.625	90.44
429.847	83.44
430.069	102.44
430.292	95.44
430.514	78.44
430.736	91.44
430.958	94.44
431.18	75.44
431.402	83.44
431.624	72.44
431.846	83.44
432.068	82.44
432.29	86.44
432.512	90.44
432.734	83.44
432.956	93.44
433.178	94.44
433.4	89.44
433.622	106.44
433.844	92.44
434.066	90.44
434.287	89.44
434.509	73.44
434.731	77.44
434.953	84.44
435.175	79.44
435.397	81.44
435.618	90.44
435.84	98.44
436.062	125.44
436.284	108.44
436.505	105.44
436.727	88.44
436.949	97.44
437.17	86.44
437.392	83.44
437.614	95.44
437.835	110.44
438.057	111.44
438.278	99.44
438.5	95.44
438.721	123.44
438.943	92.44
439.165	102.44
439.386	84.44
439.608	94.44
439.829	84.44
440.05	107.44
440.272	134.44
440.493	96.44
440.715	76.44
440.936	94.44
441.158	94.44
441.379	87.44
441.6	86.44
441.822	85.44
442.043	95.44
442.264	92.44
442.486	94.44
442.707	105.44
442.928	102.44
443.149	121.44
443.371	126.44
443.592	110.44
443.813	126.44
444.034	95.44
444.255	110.44
444.476	78.44
444.698	82.44
444.919	86.44
445.14	125.44
445.361	116.44
445.582	105.44
445.803	145.44
446.024	127.44
446.245	129.44
446.466	108.44
446.687	92.44
446.908	76.44
447.129	80.44
447.35	94.44
447.571	90.44
447.792	83.44
448.013	91.44
448.234	104.44
448.455	102.44
448.675	95.44
448.896	115.44
449.117	106.44
449.338	105.44
449.559	129.44
449.779	140.44
450	102.44
450.221	97.44
450.442	81.44
450.662	90.44
450.883	110.44
451.104	102.44
451.324	90.44
451.545	85.44
451.766	81.44
451.986	100.44
452.207	88.44
452.428	83.44
452.648	95.44
452.869	109.44
453.089	113.44
453.31	111.44
453.53	94.44
453.751	85.44
453.971	115.44
454.192	101.44
454.412	83.44
454.633	85.44
454.853	92.44
455.073	77.44
455.294	85.44
455.514	101.44
455.734	72.44
455.955	71.44
456.175	91.44
456.395	91.44
456.616	85.44
456.836	81.44
457.056	64.44
457.276	72.44
457.497	82.44
457.717	88.44
457.937	88.44
458.157	69.44
458.377	79.44
458.598	97.44
458.818	149.44
459.038	143.44
459.258	110.44
459.478	86.44
459.698	79.44
459.918	79.44
460.138	81.44
460.358	88.44
460.578	81.44
460.798	95.44
461.018	80.44
461.238	106.44
461.458	89.44
461.678	94.44
461.898	89.44
462.118	90.44
462.338	91.44
462.558	93.44
462.777	83.44
462.997	74.44
463.217	74.44
463.437	91.44
463.657	76.44
463.876	84.44
464.096	80.44
464.316	83.44
464.536	92.44
464.755	110.44
464.975	95.44
465.195	154.44
465.414	154.44
465.634	101.44
465.854	83.44
466.073	77.44
466.293	88.44
466.512	79.44
466.732	93.44
466.951	85.44
467.171	80.44
467.391	97.44
467.61	99.44
467.829	91.44
468.049	99.44
468.268	111.44
468.488	79.44
468.707	92.44
468.927	87.44
469.146	80.44
469.365	69.44
469.585	93.44
469.804	78.44
470.023	89.44
470.243	100.44
470.462	92.44
470.681	106.44
470.901	78.44
471.12	82.44
471.339	88.44
471.558	89.44
471.777	78.44
471.997	105.44
472.216	107.44
472.435	170.44
472.654	109.44
472.873	96.44
473.092	77.44
473.311	83.44
473.53	87.44
473.749	85.44
473.968	99.44
474.187	101.44
474.406	86.44
474.625	86.44
474.844	86.44
475.063	82.44
475.282	82.44
475.501	93.44
475.72	88.44
475.939	91.44
476.158	89.44
476.377	83.44
476.596	96.44
476.814	83.44
477.033	89.44
477.252	82.44
477.471	79.44
477.69	92.44
477.908	81.44
478.127	80.44
478.346	68.44
478.564	101.44
478.783	102.44
479.002	98.44
479.22	86.44
479.439	86.44
479.658	97.44
479.876	88.44
480.095	88.44
480.313	92.44
480.532	81.44
480.751	85.44
480.969	123.44
481.188	243.44
481.406	186.44
481.624	88.44
481.843	81.44
482.061	86.44
482.28	75.44
482.498	72.44
482.717	85.44
482.935	85.44
483.153	85.44
483.372	97.44
483.59	94.44
483.808	76.44
484.027	82.44
484.245	91.44
484.463	101.44
484.681	100.44
484.9	86.44
485.118	78.44
485.336	89.44
485.554	92.44
485.772	101.44
485.99	101.44
486.209	103.44
486.427	113.44
486.645	113.44
486.863	112.44
487.081	110.44
487.299	89.44
487.517	96.44
487.735	94.44
487.953	97.44
488.171	95.44
488.389	96.44
488.607	96.44
488.825	83.44
489.043	90.44
489.261	96.44
489.479	64.44
489.696	88.44
489.914	89.44
490.132	99.44
490.35	80.44
490.568	76.44
490.786	86.44
491.003	84.44
491.221	78.44
491.439	84.44
491.657	90.44
491.874	75.44
492.092	93.44
492.31	89.44
492.527	85.44
492.745	91.44
492.963	90.44
493.18	92.44
493.398	97.44
493.615	98.44
493.833	100.44
494.05	91.44
494.268	89.44
494.485	94.44
494.703	84.44
494.92	85.44
495.138	80.44
495.355	81.44
495.573	82.44
495.79	81.44
496.008	90.44
496.225	100.44
496.442	75.44
496.66	87.44
496.877	99.44
497.094	82.44
497.312	88.44
497.529	84.44
497.746	80.44
497.963	77.44
498.181	91.44
498.398	101.44
498.615	95.44
498.832	101.44
499.049	97.44
499.267	103.44
499.484	85.44
499.701	76.44
499.918	85.44
500.135	93.44
500.352	92.44
500.569	83.44
500.786	95.44
501.003	86.44
501.22	77.44
501.437	94.44
501.654	92.44
501.871	108.44
502.088	103.44
502.305	88.44
502.522	89.44
502.739	79.44
502.956	91.44
503.172	104.44
503.389	103.44
503.606	89.44
503.823	92.44
504.04	91.44
504.256	93.44
504.473	98.44
504.69	92.44
504.907	105.44
505.123	80.44
505.34	92.44
505.557	76.44
505.773	87.44
505.99	88.44
506.207	100.44
506.423	94.44
506.64	83.44
506.856	96.44
507.073	82.44
507.289	93.44
507.506	91.44
507.722	103.44
507.939	103.44
508.155	92.44
508.372	83.44
508.588	93.44
508.805	90.44
509.021	83.44
509.238	104.44
509.454	113.44
509.67	97.44
509.887	101.44
510.103	128.44
510.319	202.44
510.536	762.44
510.752	2444.44
510.968	696.44
511.184	147.44
511.401	113.44
511.617	89.44
511.833	89.44
512.049	93.44
512.265	89.44
512.481	88.44
512.698	85.44
512.914	88.44
513.13	85.44
513.346	87.44
513.562	94.44
513.778	100.44
513.994	97.44
514.21	116.44
514.426	114.44
514.642	131.44
514.858	120.44
515.074	170.44
515.29	493.44
515.506	1504.44
515.721	554.44
515.937	162.44
516.153	121.44
516.369	93.44
516.585	99.44
