Data from Circ_2005_H10_HRD10591_00077.txt Node
Date: Wed Jan 03 10:30:06 EST 2024
User: Yrep
Spectrometer: HR+D1059
Trigger mode: 1
Integration Time (sec): 1.000000E-1
Scans to average: 1
Electric dark correction enabled: true
Nonlinearity correction enabled: false
Boxcar width: 0
XAxis mode: Wavelengths
Number of Pixels in Spectrum: 2048
>>>>>Begin Spectral Data<<<<<
223.165	-11.75
223.4	-11.75
223.635	-11.75
223.869	-22.75
224.104	-12.75
224.338	0.25
224.573	-17.75
224.808	-21.75
225.042	-17.75
225.277	-10.75
225.511	-3.75
225.746	19.25
225.98	-0.75
226.215	7.25
226.449	17.25
226.683	25.25
226.918	23.25
227.152	27.25
227.387	29.25
227.621	36.25
227.856	46.25
228.09	70.25
228.324	50.25
228.559	75.25
228.793	66.25
229.027	60.25
229.262	38.25
229.496	85.25
229.73	78.25
229.964	86.25
230.199	57.25
230.433	70.25
230.667	80.25
230.901	85.25
231.136	79.25
231.37	81.25
231.604	77.25
231.838	84.25
232.072	88.25
232.306	75.25
232.541	80.25
232.775	84.25
233.009	85.25
233.243	80.25
233.477	80.25
233.711	71.25
233.945	80.25
234.179	81.25
234.413	55.25
234.647	81.25
234.881	80.25
235.115	76.25
235.349	84.25
235.583	78.25
235.817	78.25
236.051	73.25
236.285	77.25
236.519	77.25
236.753	86.25
236.987	83.25
237.221	92.25
237.455	89.25
237.689	94.25
237.922	83.25
238.156	83.25
238.39	73.25
238.624	83.25
238.858	80.25
239.091	77.25
239.325	77.25
239.559	87.25
239.793	69.25
240.027	78.25
240.26	89.25
240.494	81.25
240.728	82.25
240.961	86.25
241.195	76.25
241.429	79.25
241.662	65.25
241.896	78.25
242.13	76.25
242.363	87.25
242.597	77.25
242.83	66.25
243.064	77.25
243.298	83.25
243.531	79.25
243.765	74.25
243.998	81.25
244.232	72.25
244.465	80.25
244.699	95.25
244.932	88.25
245.166	73.25
245.399	71.25
245.633	78.25
245.866	86.25
246.099	86.25
246.333	80.25
246.566	78.25
246.8	78.25
247.033	86.25
247.266	92.25
247.5	87.25
247.733	77.25
247.966	85.25
248.2	83.25
248.433	75.25
248.666	75.25
248.899	82.25
249.133	88.25
249.366	109.25
249.599	92.25
249.832	99.25
250.066	83.25
250.299	80.25
250.532	87.25
250.765	92.25
250.998	89.25
251.231	79.25
251.465	89.25
251.698	80.25
251.931	80.25
252.164	87.25
252.397	88.25
252.63	94.25
252.863	71.25
253.096	87.25
253.329	74.25
253.562	81.25
253.795	83.25
254.028	86.25
254.261	88.25
254.494	82.25
254.727	83.25
254.96	76.25
255.193	84.25
255.426	79.25
255.659	70.25
255.892	73.25
256.124	86.25
256.357	67.25
256.59	66.25
256.823	87.25
257.056	82.25
257.289	68.25
257.521	75.25
257.754	74.25
257.987	87.25
258.22	93.25
258.452	78.25
258.685	73.25
258.918	79.25
259.151	82.25
259.383	78.25
259.616	93.25
259.849	84.25
260.081	94.25
260.314	89.25
260.547	80.25
260.779	82.25
261.012	88.25
261.244	95.25
261.477	96.25
261.71	99.25
261.942	110.25
262.175	122.25
262.407	91.25
262.64	87.25
262.872	77.25
263.105	76.25
263.337	82.25
263.57	102.25
263.802	91.25
264.035	87.25
264.267	81.25
264.499	86.25
264.732	81.25
264.964	79.25
265.197	94.25
265.429	80.25
265.661	73.25
265.894	85.25
266.126	74.25
266.358	70.25
266.591	91.25
266.823	85.25
267.055	83.25
267.287	82.25
267.52	89.25
267.752	92.25
267.984	75.25
268.216	87.25
268.448	84.25
268.681	77.25
268.913	72.25
269.145	95.25
269.377	82.25
269.609	90.25
269.841	78.25
270.073	77.25
270.306	78.25
270.538	85.25
270.77	81.25
271.002	75.25
271.234	88.25
271.466	86.25
271.698	80.25
271.93	73.25
272.162	85.25
272.394	97.25
272.626	82.25
272.858	72.25
273.09	90.25
273.322	82.25
273.553	88.25
273.785	85.25
274.017	72.25
274.249	98.25
274.481	91.25
274.713	76.25
274.945	84.25
275.176	79.25
275.408	75.25
275.64	93.25
275.872	92.25
276.104	84.25
276.335	95.25
276.567	99.25
276.799	110.25
277.031	93.25
277.262	102.25
277.494	86.25
277.726	95.25
277.957	75.25
278.189	82.25
278.421	72.25
278.652	80.25
278.884	91.25
279.115	88.25
279.347	79.25
279.579	84.25
279.81	99.25
280.042	87.25
280.273	91.25
280.505	89.25
280.736	86.25
280.968	96.25
281.199	87.25
281.431	77.25
281.662	86.25
281.894	81.25
282.125	83.25
282.356	117.25
282.588	110.25
282.819	110.25
283.051	100.25
283.282	99.25
283.513	94.25
283.745	104.25
283.976	90.25
284.207	92.25
284.439	82.25
284.67	87.25
284.901	83.25
285.132	91.25
285.364	87.25
285.595	89.25
285.826	89.25
286.057	76.25
286.288	86.25
286.52	91.25
286.751	89.25
286.982	73.25
287.213	92.25
287.444	88.25
287.675	79.25
287.906	83.25
288.138	84.25
288.369	88.25
288.6	94.25
288.831	85.25
289.062	82.25
289.293	84.25
289.524	89.25
289.755	62.25
289.986	83.25
290.217	93.25
290.448	76.25
290.679	100.25
290.91	89.25
291.141	77.25
291.371	85.25
291.602	88.25
291.833	76.25
292.064	90.25
292.295	92.25
292.526	83.25
292.757	93.25
292.987	95.25
293.218	85.25
293.449	77.25
293.68	90.25
293.91	93.25
294.141	92.25
294.372	83.25
294.603	84.25
294.833	93.25
295.064	92.25
295.295	96.25
295.525	96.25
295.756	109.25
295.987	110.25
296.217	119.25
296.448	120.25
296.679	82.25
296.909	96.25
297.14	99.25
297.37	92.25
297.601	78.25
297.831	91.25
298.062	104.25
298.292	81.25
298.523	85.25
298.753	101.25
298.984	87.25
299.214	80.25
299.445	85.25
299.675	97.25
299.905	97.25
300.136	92.25
300.366	100.25
300.597	99.25
300.827	96.25
301.057	98.25
301.288	90.25
301.518	92.25
301.748	79.25
301.979	100.25
302.209	94.25
302.439	85.25
302.669	71.25
302.9	98.25
303.13	93.25
303.36	79.25
303.59	94.25
303.82	110.25
304.051	106.25
304.281	91.25
304.511	99.25
304.741	85.25
304.971	80.25
305.201	102.25
305.431	91.25
305.661	86.25
305.891	88.25
306.121	76.25
306.352	99.25
306.582	103.25
306.812	95.25
307.042	95.25
307.272	92.25
307.502	105.25
307.731	101.25
307.961	96.25
308.191	87.25
308.421	103.25
308.651	84.25
308.881	90.25
309.111	90.25
309.341	75.25
309.571	96.25
309.8	79.25
310.03	98.25
310.26	91.25
310.49	90.25
310.72	102.25
310.949	84.25
311.179	101.25
311.409	91.25
311.639	103.25
311.868	90.25
312.098	89.25
312.328	83.25
312.557	104.25
312.787	97.25
313.017	101.25
313.246	96.25
313.476	87.25
313.706	84.25
313.935	99.25
314.165	86.25
314.394	97.25
314.624	91.25
314.853	95.25
315.083	78.25
315.312	93.25
315.542	84.25
315.771	93.25
316.001	93.25
316.23	88.25
316.46	86.25
316.689	96.25
316.919	99.25
317.148	87.25
317.377	93.25
317.607	104.25
317.836	92.25
318.065	86.25
318.295	89.25
318.524	88.25
318.753	79.25
318.983	101.25
319.212	113.25
319.441	103.25
319.67	114.25
319.9	106.25
320.129	94.25
320.358	109.25
320.587	93.25
320.816	76.25
321.046	94.25
321.275	106.25
321.504	81.25
321.733	85.25
321.962	92.25
322.191	101.25
322.42	113.25
322.649	97.25
322.878	99.25
323.108	114.25
323.337	123.25
323.566	117.25
323.795	137.25
324.024	185.25
324.253	361.25
324.482	739.25
324.71	1500.25
324.939	1979.25
325.168	727.25
325.397	217.25
325.626	139.25
325.855	112.25
326.084	123.25
326.313	115.25
326.542	148.25
326.77	222.25
326.999	422.25
327.228	892.25
327.457	1527.25
327.686	1249.25
327.914	345.25
328.143	183.25
328.372	181.25
328.6	125.25
328.829	123.25
329.058	115.25
329.287	108.25
329.515	102.25
329.744	113.25
329.972	130.25
330.201	161.25
330.43	219.25
330.658	147.25
330.887	148.25
331.115	107.25
331.344	95.25
331.572	108.25
331.801	97.25
332.03	102.25
332.258	99.25
332.486	93.25
332.715	94.25
332.943	95.25
333.172	92.25
333.4	101.25
333.629	118.25
333.857	110.25
334.085	132.25
334.314	167.25
334.542	246.25
334.771	216.25
334.999	120.25
335.227	86.25
335.455	93.25
335.684	97.25
335.912	99.25
336.14	95.25
336.369	81.25
336.597	87.25
336.825	88.25
337.053	88.25
337.281	99.25
337.51	85.25
337.738	89.25
337.966	89.25
338.194	104.25
338.422	98.25
338.65	98.25
338.878	92.25
339.106	102.25
339.334	83.25
339.562	83.25
339.79	97.25
340.018	99.25
340.246	99.25
340.474	99.25
340.702	103.25
340.93	101.25
341.158	99.25
341.386	95.25
341.614	99.25
341.842	92.25
342.07	90.25
342.298	88.25
342.526	84.25
342.754	98.25
342.981	93.25
343.209	78.25
343.437	84.25
343.665	86.25
343.893	92.25
344.12	92.25
344.348	85.25
344.576	93.25
344.804	101.25
345.031	96.25
345.259	87.25
345.487	96.25
345.714	81.25
345.942	93.25
346.17	78.25
346.397	93.25
346.625	95.25
346.853	101.25
347.08	91.25
347.308	83.25
347.535	99.25
347.763	95.25
347.99	96.25
348.218	92.25
348.445	92.25
348.673	93.25
348.9	98.25
349.128	95.25
349.355	92.25
349.583	92.25
349.81	94.25
350.037	93.25
350.265	94.25
350.492	93.25
350.72	97.25
350.947	97.25
351.174	105.25
351.402	101.25
351.629	89.25
351.856	114.25
352.083	91.25
352.311	103.25
352.538	103.25
352.765	106.25
352.992	108.25
353.22	111.25
353.447	101.25
353.674	100.25
353.901	102.25
354.128	99.25
354.355	89.25
354.583	100.25
354.81	89.25
355.037	94.25
355.264	86.25
355.491	102.25
355.718	82.25
355.945	98.25
356.172	87.25
356.399	85.25
356.626	99.25
356.853	92.25
357.08	99.25
357.307	96.25
357.534	88.25
357.761	87.25
357.988	95.25
358.215	92.25
358.441	84.25
358.668	96.25
358.895	89.25
359.122	85.25
359.349	94.25
359.576	80.25
359.802	92.25
360.029	102.25
360.256	96.25
360.483	106.25
360.709	96.25
360.936	93.25
361.163	95.25
361.39	95.25
361.616	83.25
361.843	98.25
362.07	82.25
362.296	101.25
362.523	92.25
362.749	88.25
362.976	102.25
363.203	98.25
363.429	88.25
363.656	81.25
363.882	92.25
364.109	77.25
364.335	81.25
364.562	89.25
364.788	91.25
365.015	96.25
365.241	89.25
365.468	96.25
365.694	107.25
365.92	99.25
366.147	88.25
366.373	79.25
366.599	104.25
366.826	95.25
367.052	92.25
367.278	98.25
367.505	92.25
367.731	83.25
367.957	79.25
368.184	102.25
368.41	98.25
368.636	110.25
368.862	115.25
369.089	116.25
369.315	80.25
369.541	84.25
369.767	95.25
369.993	81.25
370.219	84.25
370.445	77.25
370.672	87.25
370.898	76.25
371.124	78.25
371.35	89.25
371.576	95.25
371.802	87.25
372.028	89.25
372.254	87.25
372.48	77.25
372.706	76.25
372.932	85.25
373.158	83.25
373.384	87.25
373.61	86.25
373.835	85.25
374.061	93.25
374.287	94.25
374.513	84.25
374.739	95.25
374.965	81.25
375.191	92.25
375.416	77.25
375.642	105.25
375.868	86.25
376.094	89.25
376.319	84.25
376.545	91.25
376.771	87.25
376.997	89.25
377.222	65.25
377.448	80.25
377.674	97.25
377.899	92.25
378.125	96.25
378.35	93.25
378.576	95.25
378.802	87.25
379.027	82.25
379.253	91.25
379.478	86.25
379.704	80.25
379.929	102.25
380.155	110.25
380.38	104.25
380.606	93.25
380.831	95.25
381.057	98.25
381.282	97.25
381.507	92.25
381.733	92.25
381.958	87.25
382.184	86.25
382.409	85.25
382.634	106.25
382.86	106.25
383.085	87.25
383.31	101.25
383.535	96.25
383.761	96.25
383.986	88.25
384.211	93.25
384.436	109.25
384.662	94.25
384.887	96.25
385.112	123.25
385.337	93.25
385.562	100.25
385.787	99.25
386.013	104.25
386.238	112.25
386.463	109.25
386.688	112.25
386.913	101.25
387.138	113.25
387.363	101.25
387.588	100.25
387.813	84.25
388.038	106.25
388.263	96.25
388.488	100.25
388.713	103.25
388.938	88.25
389.163	95.25
389.387	96.25
389.612	101.25
389.837	89.25
390.062	99.25
390.287	78.25
390.512	87.25
390.736	82.25
390.961	92.25
391.186	94.25
391.411	80.25
391.636	71.25
391.86	72.25
392.085	78.25
392.31	76.25
392.534	83.25
392.759	85.25
392.984	88.25
393.208	81.25
393.433	78.25
393.658	85.25
393.882	80.25
394.107	78.25
394.331	77.25
394.556	96.25
394.78	102.25
395.005	93.25
395.229	75.25
395.454	85.25
395.678	84.25
395.903	85.25
396.127	96.25
396.352	80.25
396.576	88.25
396.801	91.25
397.025	70.25
397.249	90.25
397.474	88.25
397.698	93.25
397.922	90.25
398.147	85.25
398.371	85.25
398.595	67.25
398.82	97.25
399.044	91.25
399.268	83.25
399.492	87.25
399.717	78.25
399.941	84.25
400.165	96.25
400.389	80.25
400.613	84.25
400.837	84.25
401.062	82.25
401.286	79.25
401.51	88.25
401.734	76.25
401.958	92.25
402.182	110.25
402.406	131.25
402.63	110.25
402.854	89.25
403.078	91.25
403.302	80.25
403.526	79.25
403.75	89.25
403.974	95.25
404.198	91.25
404.422	90.25
404.645	85.25
404.869	98.25
405.093	87.25
405.317	98.25
405.541	102.25
405.765	105.25
405.988	111.25
406.212	138.25
406.436	211.25
406.66	119.25
406.883	104.25
407.107	96.25
407.331	79.25
407.555	84.25
407.778	93.25
408.002	83.25
408.226	88.25
408.449	75.25
408.673	103.25
408.896	88.25
409.12	85.25
409.344	89.25
409.567	85.25
409.791	107.25
410.014	99.25
410.238	79.25
410.461	97.25
410.685	96.25
410.908	86.25
411.132	100.25
411.355	82.25
411.578	104.25
411.802	89.25
412.025	77.25
412.249	93.25
412.472	111.25
412.695	102.25
412.919	89.25
413.142	87.25
413.365	90.25
413.589	93.25
413.812	95.25
414.035	85.25
414.258	96.25
414.482	95.25
414.705	88.25
414.928	90.25
415.151	97.25
415.374	98.25
415.597	89.25
415.821	86.25
416.044	83.25
416.267	83.25
416.49	75.25
416.713	83.25
416.936	88.25
417.159	102.25
417.382	97.25
417.605	87.25
417.828	76.25
418.051	89.25
418.274	72.25
418.497	85.25
418.72	88.25
418.943	81.25
419.166	92.25
419.389	83.25
419.611	96.25
419.834	83.25
420.057	90.25
420.28	91.25
420.503	76.25
420.726	85.25
420.948	80.25
421.171	83.25
421.394	87.25
421.617	104.25
421.839	83.25
422.062	70.25
422.285	85.25
422.507	83.25
422.73	98.25
422.953	96.25
423.175	86.25
423.398	79.25
423.621	101.25
423.843	94.25
424.066	94.25
424.288	93.25
424.511	81.25
424.733	92.25
424.956	107.25
425.178	84.25
425.401	95.25
425.623	90.25
425.846	73.25
426.068	83.25
426.291	102.25
426.513	80.25
426.735	92.25
426.958	91.25
427.18	108.25
427.402	126.25
427.625	147.25
427.847	138.25
428.069	130.25
428.292	96.25
428.514	84.25
428.736	99.25
428.958	86.25
429.181	79.25
429.403	95.25
429.625	88.25
429.847	89.25
430.069	93.25
430.292	86.25
430.514	81.25
430.736	102.25
430.958	94.25
431.18	92.25
431.402	80.25
431.624	105.25
431.846	83.25
432.068	87.25
432.29	72.25
432.512	89.25
432.734	75.25
432.956	79.25
433.178	85.25
433.4	89.25
433.622	87.25
433.844	94.25
434.066	89.25
434.287	78.25
434.509	90.25
434.731	92.25
434.953	88.25
435.175	83.25
435.397	91.25
435.618	83.25
435.84	100.25
436.062	108.25
436.284	92.25
436.505	94.25
436.727	100.25
436.949	91.25
437.17	70.25
437.392	82.25
437.614	95.25
437.835	100.25
438.057	97.25
438.278	107.25
438.5	89.25
438.721	124.25
438.943	111.25
439.165	84.25
439.386	85.25
439.608	94.25
439.829	101.25
440.05	101.25
440.272	128.25
440.493	95.25
440.715	84.25
440.936	87.25
441.158	94.25
441.379	86.25
441.6	103.25
441.822	97.25
442.043	91.25
442.264	91.25
442.486	95.25
442.707	96.25
442.928	93.25
443.149	132.25
443.371	120.25
443.592	91.25
443.813	118.25
444.034	83.25
444.255	98.25
444.476	86.25
444.698	81.25
444.919	84.25
445.14	142.25
445.361	128.25
445.582	96.25
445.803	136.25
446.024	124.25
446.245	115.25
446.466	105.25
446.687	97.25
446.908	94.25
447.129	90.25
447.35	81.25
447.571	71.25
447.792	100.25
448.013	87.25
448.234	93.25
448.455	95.25
448.675	104.25
448.896	98.25
449.117	75.25
449.338	112.25
449.559	125.25
449.779	104.25
450	75.25
450.221	77.25
450.442	86.25
450.662	97.25
450.883	106.25
451.104	98.25
451.324	80.25
451.545	87.25
451.766	92.25
451.986	82.25
452.207	84.25
452.428	88.25
452.648	104.25
452.869	100.25
453.089	110.25
453.31	106.25
453.53	96.25
453.751	93.25
453.971	104.25
454.192	99.25
454.412	85.25
454.633	92.25
454.853	83.25
455.073	80.25
455.294	79.25
455.514	101.25
455.734	82.25
455.955	82.25
456.175	89.25
456.395	94.25
456.616	85.25
456.836	83.25
457.056	73.25
457.276	79.25
457.497	72.25
457.717	90.25
457.937	91.25
458.157	85.25
458.377	90.25
458.598	98.25
458.818	134.25
459.038	145.25
459.258	108.25
459.478	85.25
459.698	88.25
459.918	102.25
460.138	89.25
460.358	83.25
460.578	91.25
460.798	80.25
461.018	73.25
461.238	98.25
461.458	86.25
461.678	79.25
461.898	93.25
462.118	85.25
462.338	85.25
462.558	86.25
462.777	93.25
462.997	79.25
463.217	76.25
463.437	102.25
463.657	77.25
463.876	80.25
464.096	87.25
464.316	99.25
464.536	98.25
464.755	79.25
464.975	110.25
465.195	127.25
465.414	152.25
465.634	95.25
465.854	96.25
466.073	86.25
466.293	99.25
466.512	85.25
466.732	74.25
466.951	91.25
467.171	102.25
467.391	98.25
467.61	115.25
467.829	107.25
468.049	128.25
468.268	151.25
468.488	104.25
468.707	95.25
468.927	88.25
469.146	81.25
469.365	74.25
469.585	94.25
469.804	95.25
470.023	94.25
470.243	96.25
470.462	95.25
470.681	106.25
470.901	82.25
471.12	85.25
471.339	100.25
471.558	96.25
471.777	105.25
471.997	110.25
472.216	199.25
472.435	305.25
472.654	131.25
472.873	93.25
473.092	87.25
473.311	82.25
473.53	83.25
473.749	83.25
473.968	96.25
474.187	102.25
474.406	97.25
474.625	73.25
474.844	88.25
475.063	97.25
475.282	96.25
475.501	89.25
475.72	91.25
475.939	81.25
476.158	93.25
476.377	86.25
476.596	88.25
476.814	101.25
477.033	74.25
477.252	84.25
477.471	93.25
477.69	99.25
477.908	87.25
478.127	92.25
478.346	83.25
478.564	94.25
478.783	106.25
479.002	96.25
479.22	107.25
479.439	109.25
479.658	105.25
479.876	105.25
480.095	96.25
480.313	88.25
480.532	91.25
480.751	111.25
480.969	188.25
481.188	495.25
481.406	330.25
481.624	116.25
481.843	102.25
482.061	95.25
482.28	89.25
482.498	77.25
482.717	94.25
482.935	102.25
483.153	88.25
483.372	83.25
483.59	88.25
483.808	81.25
484.027	86.25
484.245	83.25
484.463	99.25
484.681	93.25
484.9	88.25
485.118	80.25
485.336	96.25
485.554	94.25
485.772	105.25
485.99	99.25
486.209	99.25
486.427	103.25
486.645	108.25
486.863	110.25
487.081	99.25
487.299	106.25
487.517	102.25
487.735	91.25
487.953	103.25
488.171	110.25
488.389	90.25
488.607	86.25
488.825	88.25
489.043	84.25
489.261	84.25
489.479	86.25
489.696	81.25
489.914	77.25
490.132	77.25
490.35	88.25
490.568	99.25
490.786	91.25
491.003	87.25
491.221	82.25
491.439	95.25
491.657	85.25
491.874	77.25
492.092	97.25
492.31	98.25
492.527	90.25
492.745	98.25
492.963	99.25
493.18	82.25
493.398	100.25
493.615	92.25
493.833	92.25
494.05	81.25
494.268	84.25
494.485	91.25
494.703	76.25
494.92	101.25
495.138	79.25
495.355	90.25
495.573	89.25
495.79	81.25
496.008	92.25
496.225	94.25
496.442	92.25
496.66	94.25
496.877	84.25
497.094	75.25
497.312	81.25
497.529	83.25
497.746	89.25
497.963	91.25
498.181	93.25
498.398	105.25
498.615	96.25
498.832	95.25
499.049	97.25
499.267	85.25
499.484	95.25
499.701	91.25
499.918	88.25
500.135	88.25
500.352	94.25
500.569	100.25
500.786	82.25
501.003	80.25
501.22	94.25
501.437	103.25
501.654	88.25
501.871	115.25
502.088	87.25
502.305	96.25
502.522	73.25
502.739	87.25
502.956	85.25
503.172	99.25
503.389	96.25
503.606	101.25
503.823	96.25
504.04	100.25
504.256	105.25
504.473	75.25
504.69	82.25
504.907	100.25
505.123	102.25
505.34	83.25
505.557	97.25
505.773	97.25
505.99	105.25
506.207	84.25
506.423	100.25
506.64	97.25
506.856	89.25
507.073	96.25
507.289	81.25
507.506	103.25
507.722	104.25
507.939	95.25
508.155	93.25
508.372	102.25
508.588	96.25
508.805	97.25
509.021	80.25
509.238	112.25
509.454	96.25
509.67	88.25
509.887	113.25
510.103	119.25
510.319	207.25
510.536	665.25
510.752	2079.25
510.968	605.25
511.184	151.25
511.401	114.25
511.617	89.25
511.833	95.25
512.049	92.25
512.265	85.25
512.481	94.25
512.698	87.25
512.914	93.25
513.13	102.25
513.346	85.25
513.562	95.25
513.778	93.25
513.994	95.25
514.21	111.25
514.426	98.25
514.642	126.25
514.858	127.25
515.074	146.25
515.29	360.25
515.506	1250.25
515.721	466.25
515.937	148.25
516.153	108.25
