Data from Circ_2005_H10_HRD10591_00012.txt Node
Date: Wed Jan 03 10:29:53 EST 2024
User: Yrep
Spectrometer: HR+D1059
Trigger mode: 1
Integration Time (sec): 1.000000E-1
Scans to average: 1
Electric dark correction enabled: true
Nonlinearity correction enabled: false
Boxcar width: 0
XAxis mode: Wavelengths
Number of Pixels in Spectrum: 2048
>>>>>Begin Spectral Data<<<<<
223.165	-29.75
223.4	-29.75
223.635	-29.75
223.869	-21.75
224.104	-18.75
224.338	-2.75
224.573	-17.75
224.808	-23.75
225.042	-13.75
225.277	-4.75
225.511	-0.75
225.746	15.25
225.98	6.25
226.215	8.25
226.449	27.25
226.683	26.25
226.918	24.25
227.152	26.25
227.387	39.25
227.621	39.25
227.856	45.25
228.09	38.25
228.324	57.25
228.559	62.25
228.793	60.25
229.027	56.25
229.262	69.25
229.496	69.25
229.73	79.25
229.964	67.25
230.199	76.25
230.433	85.25
230.667	84.25
230.901	79.25
231.136	66.25
231.37	96.25
231.604	87.25
231.838	101.25
232.072	85.25
232.306	81.25
232.541	82.25
232.775	77.25
233.009	82.25
233.243	82.25
233.477	80.25
233.711	94.25
233.945	76.25
234.179	83.25
234.413	75.25
234.647	71.25
234.881	67.25
235.115	74.25
235.349	85.25
235.583	59.25
235.817	69.25
236.051	71.25
236.285	73.25
236.519	85.25
236.753	83.25
236.987	73.25
237.221	74.25
237.455	70.25
237.689	87.25
237.922	86.25
238.156	74.25
238.39	82.25
238.624	78.25
238.858	93.25
239.091	82.25
239.325	89.25
239.559	79.25
239.793	95.25
240.027	101.25
240.26	71.25
240.494	87.25
240.728	78.25
240.961	73.25
241.195	82.25
241.429	69.25
241.662	91.25
241.896	77.25
242.13	73.25
242.363	73.25
242.597	73.25
242.83	85.25
243.064	82.25
243.298	83.25
243.531	82.25
243.765	87.25
243.998	85.25
244.232	81.25
244.465	73.25
244.699	82.25
244.932	92.25
245.166	63.25
245.399	69.25
245.633	75.25
245.866	88.25
246.099	80.25
246.333	83.25
246.566	83.25
246.8	80.25
247.033	71.25
247.266	59.25
247.5	70.25
247.733	85.25
247.966	88.25
248.2	73.25
248.433	81.25
248.666	86.25
248.899	79.25
249.133	90.25
249.366	102.25
249.599	89.25
249.832	73.25
250.066	88.25
250.299	82.25
250.532	85.25
250.765	69.25
250.998	77.25
251.231	75.25
251.465	77.25
251.698	81.25
251.931	96.25
252.164	80.25
252.397	91.25
252.63	95.25
252.863	80.25
253.096	86.25
253.329	88.25
253.562	70.25
253.795	73.25
254.028	77.25
254.261	85.25
254.494	87.25
254.727	87.25
254.96	85.25
255.193	73.25
255.426	87.25
255.659	80.25
255.892	82.25
256.124	84.25
256.357	86.25
256.59	78.25
256.823	90.25
257.056	91.25
257.289	85.25
257.521	86.25
257.754	80.25
257.987	84.25
258.22	78.25
258.452	90.25
258.685	91.25
258.918	74.25
259.151	87.25
259.383	66.25
259.616	81.25
259.849	78.25
260.081	73.25
260.314	90.25
260.547	86.25
260.779	86.25
261.012	79.25
261.244	74.25
261.477	86.25
261.71	87.25
261.942	96.25
262.175	104.25
262.407	82.25
262.64	82.25
262.872	86.25
263.105	81.25
263.337	89.25
263.57	81.25
263.802	93.25
264.035	76.25
264.267	77.25
264.499	79.25
264.732	87.25
264.964	85.25
265.197	88.25
265.429	83.25
265.661	79.25
265.894	77.25
266.126	91.25
266.358	80.25
266.591	90.25
266.823	96.25
267.055	79.25
267.287	86.25
267.52	73.25
267.752	95.25
267.984	79.25
268.216	74.25
268.448	91.25
268.681	92.25
268.913	87.25
269.145	79.25
269.377	87.25
269.609	82.25
269.841	82.25
270.073	89.25
270.306	74.25
270.538	81.25
270.77	78.25
271.002	96.25
271.234	90.25
271.466	94.25
271.698	89.25
271.93	99.25
272.162	85.25
272.394	81.25
272.626	97.25
272.858	78.25
273.09	86.25
273.322	95.25
273.553	90.25
273.785	102.25
274.017	83.25
274.249	74.25
274.481	109.25
274.713	83.25
274.945	86.25
275.176	95.25
275.408	81.25
275.64	89.25
275.872	88.25
276.104	80.25
276.335	95.25
276.567	86.25
276.799	96.25
277.031	90.25
277.262	106.25
277.494	98.25
277.726	98.25
277.957	86.25
278.189	94.25
278.421	98.25
278.652	81.25
278.884	75.25
279.115	77.25
279.347	90.25
279.579	90.25
279.81	84.25
280.042	83.25
280.273	87.25
280.505	86.25
280.736	92.25
280.968	92.25
281.199	90.25
281.431	82.25
281.662	85.25
281.894	93.25
282.125	99.25
282.356	112.25
282.588	137.25
282.819	110.25
283.051	78.25
283.282	90.25
283.513	87.25
283.745	96.25
283.976	91.25
284.207	96.25
284.439	88.25
284.67	95.25
284.901	95.25
285.132	96.25
285.364	97.25
285.595	94.25
285.826	82.25
286.057	87.25
286.288	85.25
286.52	96.25
286.751	97.25
286.982	98.25
287.213	82.25
287.444	97.25
287.675	85.25
287.906	74.25
288.138	111.25
288.369	97.25
288.6	86.25
288.831	83.25
289.062	89.25
289.293	99.25
289.524	104.25
289.755	89.25
289.986	88.25
290.217	88.25
290.448	88.25
290.679	89.25
290.91	86.25
291.141	92.25
291.371	94.25
291.602	96.25
291.833	97.25
292.064	78.25
292.295	103.25
292.526	106.25
292.757	97.25
292.987	103.25
293.218	86.25
293.449	77.25
293.68	88.25
293.91	81.25
294.141	83.25
294.372	89.25
294.603	80.25
294.833	94.25
295.064	93.25
295.295	101.25
295.525	99.25
295.756	87.25
295.987	114.25
296.217	123.25
296.448	125.25
296.679	90.25
296.909	82.25
297.14	97.25
297.37	88.25
297.601	104.25
297.831	86.25
298.062	86.25
298.292	67.25
298.523	102.25
298.753	92.25
298.984	81.25
299.214	83.25
299.445	84.25
299.675	91.25
299.905	96.25
300.136	88.25
300.366	101.25
300.597	81.25
300.827	88.25
301.057	91.25
301.288	109.25
301.518	95.25
301.748	82.25
301.979	99.25
302.209	95.25
302.439	92.25
302.669	90.25
302.9	90.25
303.13	79.25
303.36	91.25
303.59	113.25
303.82	107.25
304.051	93.25
304.281	81.25
304.511	91.25
304.741	92.25
304.971	96.25
305.201	82.25
305.431	76.25
305.661	98.25
305.891	91.25
306.121	97.25
306.352	93.25
306.582	111.25
306.812	95.25
307.042	94.25
307.272	99.25
307.502	88.25
307.731	88.25
307.961	92.25
308.191	103.25
308.421	92.25
308.651	98.25
308.881	100.25
309.111	98.25
309.341	113.25
309.571	104.25
309.8	87.25
310.03	90.25
310.26	90.25
310.49	91.25
310.72	98.25
310.949	99.25
311.179	95.25
311.409	104.25
311.639	102.25
311.868	88.25
312.098	103.25
312.328	106.25
312.557	109.25
312.787	108.25
313.017	100.25
313.246	86.25
313.476	93.25
313.706	89.25
313.935	99.25
314.165	91.25
314.394	100.25
314.624	91.25
314.853	84.25
315.083	99.25
315.312	87.25
315.542	106.25
315.771	94.25
316.001	102.25
316.23	88.25
316.46	95.25
316.689	97.25
316.919	94.25
317.148	110.25
317.377	93.25
317.607	93.25
317.836	102.25
318.065	85.25
318.295	85.25
318.524	89.25
318.753	87.25
318.983	91.25
319.212	94.25
319.441	105.25
319.67	103.25
319.9	104.25
320.129	94.25
320.358	92.25
320.587	100.25
320.816	101.25
321.046	101.25
321.275	96.25
321.504	97.25
321.733	96.25
321.962	87.25
322.191	98.25
322.42	104.25
322.649	112.25
322.878	104.25
323.108	112.25
323.337	121.25
323.566	135.25
323.795	155.25
324.024	210.25
324.253	368.25
324.482	808.25
324.71	1685.25
324.939	2237.25
325.168	795.25
325.397	250.25
325.626	145.25
325.855	132.25
326.084	127.25
326.313	133.25
326.542	166.25
326.77	234.25
326.999	459.25
327.228	935.25
327.457	1733.25
327.686	1336.25
327.914	360.25
328.143	177.25
328.372	154.25
328.6	125.25
328.829	122.25
329.058	118.25
329.287	116.25
329.515	105.25
329.744	101.25
329.972	96.25
330.201	104.25
330.43	101.25
330.658	113.25
330.887	140.25
331.115	108.25
331.344	102.25
331.572	98.25
331.801	105.25
332.03	89.25
332.258	99.25
332.486	82.25
332.715	89.25
332.943	86.25
333.172	86.25
333.4	104.25
333.629	103.25
333.857	102.25
334.085	111.25
334.314	96.25
334.542	101.25
334.771	113.25
334.999	100.25
335.227	109.25
335.455	93.25
335.684	114.25
335.912	114.25
336.14	104.25
336.369	100.25
336.597	97.25
336.825	91.25
337.053	87.25
337.281	104.25
337.51	84.25
337.738	90.25
337.966	95.25
338.194	90.25
338.422	91.25
338.65	97.25
338.878	101.25
339.106	81.25
339.334	96.25
339.562	90.25
339.79	90.25
340.018	81.25
340.246	91.25
340.474	90.25
340.702	93.25
340.93	91.25
341.158	96.25
341.386	108.25
341.614	94.25
341.842	98.25
342.07	106.25
342.298	106.25
342.526	93.25
342.754	82.25
342.981	103.25
343.209	99.25
343.437	91.25
343.665	99.25
343.893	95.25
344.12	99.25
344.348	100.25
344.576	97.25
344.804	83.25
345.031	96.25
345.259	88.25
345.487	103.25
345.714	92.25
345.942	99.25
346.17	115.25
346.397	113.25
346.625	99.25
346.853	99.25
347.08	99.25
347.308	89.25
347.535	105.25
347.763	97.25
347.99	94.25
348.218	98.25
348.445	101.25
348.673	101.25
348.9	106.25
349.128	103.25
349.355	94.25
349.583	98.25
349.81	98.25
350.037	108.25
350.265	89.25
350.492	86.25
350.72	100.25
350.947	99.25
351.174	115.25
351.402	101.25
351.629	104.25
351.856	104.25
352.083	104.25
352.311	107.25
352.538	97.25
352.765	103.25
352.992	111.25
353.22	115.25
353.447	105.25
353.674	99.25
353.901	96.25
354.128	110.25
354.355	109.25
354.583	100.25
354.81	106.25
355.037	109.25
355.264	101.25
355.491	100.25
355.718	96.25
355.945	102.25
356.172	100.25
356.399	93.25
356.626	102.25
356.853	99.25
357.08	96.25
357.307	98.25
357.534	81.25
357.761	98.25
357.988	79.25
358.215	102.25
358.441	106.25
358.668	96.25
358.895	81.25
359.122	97.25
359.349	88.25
359.576	97.25
359.802	112.25
360.029	118.25
360.256	109.25
360.483	98.25
360.709	70.25
360.936	89.25
361.163	100.25
361.39	93.25
361.616	95.25
361.843	83.25
362.07	91.25
362.296	87.25
362.523	98.25
362.749	95.25
362.976	90.25
363.203	99.25
363.429	80.25
363.656	95.25
363.882	101.25
364.109	102.25
364.335	97.25
364.562	95.25
364.788	97.25
365.015	97.25
365.241	97.25
365.468	117.25
365.694	105.25
365.92	100.25
366.147	96.25
366.373	97.25
366.599	93.25
366.826	94.25
367.052	83.25
367.278	101.25
367.505	103.25
367.731	115.25
367.957	112.25
368.184	97.25
368.41	99.25
368.636	114.25
368.862	119.25
369.089	92.25
369.315	97.25
369.541	107.25
369.767	99.25
369.993	85.25
370.219	97.25
370.445	95.25
370.672	90.25
370.898	85.25
371.124	97.25
371.35	86.25
371.576	82.25
371.802	95.25
372.028	85.25
372.254	91.25
372.48	98.25
372.706	86.25
372.932	93.25
373.158	105.25
373.384	100.25
373.61	112.25
373.835	115.25
374.061	107.25
374.287	95.25
374.513	97.25
374.739	99.25
374.965	92.25
375.191	93.25
375.416	87.25
375.642	90.25
375.868	93.25
376.094	92.25
376.319	90.25
376.545	89.25
376.771	89.25
376.997	87.25
377.222	91.25
377.448	86.25
377.674	113.25
377.899	97.25
378.125	110.25
378.35	91.25
378.576	97.25
378.802	98.25
379.027	98.25
379.253	96.25
379.478	106.25
379.704	91.25
379.929	92.25
380.155	97.25
380.38	109.25
380.606	89.25
380.831	102.25
381.057	122.25
381.282	108.25
381.507	104.25
381.733	80.25
381.958	97.25
382.184	90.25
382.409	105.25
382.634	110.25
382.86	109.25
383.085	121.25
383.31	117.25
383.535	123.25
383.761	115.25
383.986	106.25
384.211	98.25
384.436	128.25
384.662	98.25
384.887	103.25
385.112	112.25
385.337	111.25
385.562	110.25
385.787	120.25
386.013	127.25
386.238	109.25
386.463	119.25
386.688	133.25
386.913	114.25
387.138	112.25
387.363	119.25
387.588	112.25
387.813	114.25
388.038	121.25
388.263	114.25
388.488	132.25
388.713	105.25
388.938	90.25
389.163	98.25
389.387	98.25
389.612	99.25
389.837	98.25
390.062	95.25
390.287	94.25
390.512	87.25
390.736	91.25
390.961	112.25
391.186	96.25
391.411	100.25
391.636	105.25
391.86	88.25
392.085	75.25
392.31	87.25
392.534	98.25
392.759	102.25
392.984	86.25
393.208	102.25
393.433	94.25
393.658	94.25
393.882	89.25
394.107	100.25
394.331	94.25
394.556	99.25
394.78	95.25
395.005	87.25
395.229	101.25
395.454	90.25
395.678	95.25
395.903	90.25
396.127	87.25
396.352	94.25
396.576	78.25
396.801	93.25
397.025	101.25
397.249	103.25
397.474	79.25
397.698	91.25
397.922	93.25
398.147	108.25
398.371	94.25
398.595	89.25
398.82	96.25
399.044	104.25
399.268	86.25
399.492	96.25
399.717	105.25
399.941	94.25
400.165	105.25
400.389	97.25
400.613	74.25
400.837	98.25
401.062	92.25
401.286	93.25
401.51	80.25
401.734	97.25
401.958	115.25
402.182	117.25
402.406	148.25
402.63	124.25
402.854	93.25
403.078	101.25
403.302	91.25
403.526	89.25
403.75	95.25
403.974	80.25
404.198	89.25
404.422	94.25
404.645	100.25
404.869	87.25
405.093	112.25
405.317	104.25
405.541	90.25
405.765	91.25
405.988	111.25
406.212	144.25
406.436	197.25
406.66	155.25
406.883	99.25
407.107	97.25
407.331	87.25
407.555	95.25
407.778	110.25
408.002	105.25
408.226	90.25
408.449	93.25
408.673	99.25
408.896	91.25
409.12	100.25
409.344	109.25
409.567	79.25
409.791	97.25
410.014	97.25
410.238	77.25
410.461	96.25
410.685	105.25
410.908	94.25
411.132	111.25
411.355	111.25
411.578	91.25
411.802	90.25
412.025	90.25
412.249	101.25
412.472	87.25
412.695	99.25
412.919	98.25
413.142	87.25
413.365	77.25
413.589	80.25
413.812	97.25
414.035	103.25
414.258	103.25
414.482	93.25
414.705	115.25
414.928	106.25
415.151	98.25
415.374	97.25
415.597	101.25
415.821	96.25
416.044	98.25
416.267	93.25
416.49	91.25
416.713	110.25
416.936	91.25
417.159	79.25
417.382	96.25
417.605	88.25
417.828	101.25
418.051	96.25
418.274	86.25
418.497	88.25
418.72	97.25
418.943	94.25
419.166	86.25
419.389	90.25
419.611	93.25
419.834	102.25
420.057	98.25
420.28	102.25
420.503	93.25
420.726	97.25
420.948	91.25
421.171	88.25
421.394	101.25
421.617	84.25
421.839	94.25
422.062	84.25
422.285	106.25
422.507	100.25
422.73	109.25
422.953	104.25
423.175	97.25
423.398	108.25
423.621	100.25
423.843	99.25
424.066	91.25
424.288	99.25
424.511	109.25
424.733	115.25
424.956	122.25
425.178	110.25
425.401	97.25
425.623	102.25
425.846	89.25
426.068	75.25
426.291	94.25
426.513	91.25
426.735	82.25
426.958	98.25
427.18	97.25
427.402	133.25
427.625	154.25
427.847	118.25
428.069	109.25
428.292	101.25
428.514	93.25
428.736	85.25
428.958	91.25
429.181	85.25
429.403	91.25
429.625	89.25
429.847	89.25
430.069	101.25
430.292	96.25
430.514	88.25
430.736	95.25
430.958	97.25
431.18	88.25
431.402	84.25
431.624	81.25
431.846	91.25
432.068	88.25
432.29	97.25
432.512	98.25
432.734	82.25
432.956	99.25
433.178	102.25
433.4	104.25
433.622	105.25
433.844	93.25
434.066	90.25
434.287	90.25
434.509	83.25
434.731	93.25
434.953	85.25
435.175	102.25
435.397	108.25
435.618	110.25
435.84	106.25
436.062	116.25
436.284	112.25
436.505	90.25
436.727	97.25
436.949	114.25
437.17	87.25
437.392	92.25
437.614	91.25
437.835	99.25
438.057	115.25
438.278	111.25
438.5	97.25
438.721	112.25
438.943	98.25
439.165	92.25
439.386	93.25
439.608	97.25
439.829	89.25
440.05	110.25
440.272	135.25
440.493	94.25
440.715	85.25
440.936	102.25
441.158	93.25
441.379	102.25
441.6	94.25
441.822	95.25
442.043	90.25
442.264	97.25
442.486	101.25
442.707	97.25
442.928	113.25
443.149	105.25
443.371	127.25
443.592	100.25
443.813	120.25
444.034	107.25
444.255	89.25
444.476	101.25
444.698	81.25
444.919	106.25
445.14	132.25
445.361	141.25
445.582	125.25
445.803	139.25
446.024	115.25
446.245	113.25
446.466	104.25
446.687	96.25
446.908	91.25
447.129	82.25
447.35	102.25
447.571	97.25
447.792	88.25
448.013	95.25
448.234	97.25
448.455	86.25
448.675	102.25
448.896	137.25
449.117	110.25
449.338	90.25
449.559	96.25
449.779	122.25
450	102.25
450.221	94.25
450.442	93.25
450.662	102.25
450.883	99.25
451.104	116.25
451.324	103.25
451.545	104.25
451.766	90.25
451.986	85.25
452.207	87.25
452.428	96.25
452.648	99.25
452.869	102.25
453.089	113.25
453.31	111.25
453.53	99.25
453.751	100.25
453.971	98.25
454.192	98.25
454.412	82.25
454.633	96.25
454.853	91.25
455.073	96.25
455.294	90.25
455.514	102.25
455.734	89.25
455.955	97.25
456.175	82.25
456.395	81.25
456.616	88.25
456.836	81.25
457.056	97.25
457.276	88.25
457.497	81.25
457.717	77.25
457.937	92.25
458.157	98.25
458.377	92.25
458.598	114.25
458.818	132.25
459.038	154.25
459.258	109.25
459.478	98.25
459.698	78.25
459.918	99.25
460.138	92.25
460.358	102.25
460.578	81.25
460.798	90.25
461.018	87.25
461.238	88.25
461.458	88.25
461.678	100.25
461.898	95.25
462.118	94.25
462.338	99.25
462.558	84.25
462.777	86.25
462.997	85.25
463.217	78.25
463.437	98.25
463.657	89.25
463.876	91.25
464.096	95.25
464.316	86.25
464.536	91.25
464.755	106.25
464.975	109.25
465.195	149.25
465.414	143.25
465.634	99.25
465.854	80.25
466.073	91.25
466.293	96.25
466.512	79.25
466.732	71.25
466.951	86.25
467.171	102.25
467.391	96.25
467.61	96.25
467.829	85.25
468.049	77.25
468.268	95.25
468.488	91.25
468.707	75.25
468.927	79.25
469.146	83.25
469.365	90.25
469.585	94.25
469.804	99.25
470.023	85.25
470.243	108.25
470.462	101.25
470.681	105.25
470.901	97.25
471.12	91.25
471.339	104.25
471.558	92.25
471.777	91.25
471.997	112.25
472.216	100.25
472.435	92.25
472.654	98.25
472.873	97.25
473.092	89.25
473.311	94.25
473.53	106.25
473.749	97.25
473.968	101.25
474.187	108.25
474.406	95.25
474.625	97.25
474.844	94.25
475.063	102.25
475.282	106.25
475.501	96.25
475.72	85.25
475.939	99.25
476.158	84.25
476.377	85.25
476.596	78.25
476.814	71.25
477.033	90.25
477.252	104.25
477.471	75.25
477.69	93.25
477.908	103.25
478.127	90.25
478.346	88.25
478.564	95.25
478.783	91.25
479.002	103.25
479.22	102.25
479.439	95.25
479.658	112.25
479.876	97.25
480.095	101.25
480.313	94.25
480.532	84.25
480.751	86.25
480.969	93.25
481.188	125.25
481.406	111.25
481.624	92.25
481.843	103.25
482.061	91.25
482.28	88.25
482.498	85.25
482.717	98.25
482.935	98.25
483.153	102.25
483.372	94.25
483.59	86.25
483.808	93.25
484.027	104.25
484.245	98.25
484.463	88.25
484.681	84.25
484.9	93.25
485.118	107.25
485.336	106.25
485.554	98.25
485.772	114.25
485.99	94.25
486.209	101.25
486.427	97.25
486.645	106.25
486.863	96.25
487.081	90.25
487.299	104.25
487.517	102.25
487.735	91.25
487.953	94.25
488.171	93.25
488.389	111.25
488.607	104.25
488.825	91.25
489.043	88.25
489.261	96.25
489.479	86.25
489.696	103.25
489.914	80.25
490.132	88.25
490.35	100.25
490.568	94.25
490.786	99.25
491.003	95.25
491.221	88.25
491.439	78.25
491.657	106.25
491.874	99.25
492.092	80.25
492.31	96.25
492.527	95.25
492.745	94.25
492.963	104.25
493.18	85.25
493.398	91.25
493.615	97.25
493.833	105.25
494.05	91.25
494.268	94.25
494.485	86.25
494.703	89.25
494.92	89.25
495.138	85.25
495.355	82.25
495.573	90.25
495.79	94.25
496.008	88.25
496.225	102.25
496.442	101.25
496.66	90.25
496.877	97.25
497.094	93.25
497.312	94.25
497.529	87.25
497.746	103.25
497.963	92.25
498.181	112.25
498.398	101.25
498.615	91.25
498.832	100.25
499.049	93.25
499.267	97.25
499.484	104.25
499.701	99.25
499.918	89.25
500.135	103.25
500.352	93.25
500.569	90.25
500.786	98.25
501.003	89.25
501.22	96.25
501.437	102.25
501.654	108.25
501.871	109.25
502.088	95.25
502.305	97.25
502.522	96.25
502.739	85.25
502.956	86.25
503.172	95.25
503.389	99.25
503.606	105.25
503.823	104.25
504.04	102.25
504.256	87.25
504.473	83.25
504.69	94.25
504.907	88.25
505.123	88.25
505.34	89.25
505.557	89.25
505.773	80.25
505.99	89.25
506.207	83.25
506.423	98.25
506.64	89.25
506.856	99.25
507.073	94.25
507.289	96.25
507.506	85.25
507.722	126.25
507.939	97.25
508.155	97.25
508.372	78.25
508.588	105.25
508.805	109.25
509.021	101.25
509.238	101.25
509.454	100.25
509.67	90.25
509.887	115.25
510.103	129.25
510.319	198.25
510.536	638.25
510.752	2030.25
510.968	597.25
511.184	149.25
511.401	106.25
511.617	94.25
511.833	87.25
512.049	86.25
512.265	83.25
512.481	80.25
512.698	105.25
512.914	107.25
513.13	96.25
513.346	94.25
513.562	98.25
513.778	99.25
513.994	67.25
514.21	95.25
514.426	118.25
514.642	138.25
