Data from Circ_2005_H10_HRD10591_00036.txt Node
Date: Wed Jan 03 10:29:58 EST 2024
User: Yrep
Spectrometer: HR+D1059
Trigger mode: 1
Integration Time (sec): 1.000000E-1
Scans to average: 1
Electric dark correction enabled: true
Nonlinearity correction enabled: false
Boxcar width: 0
XAxis mode: Wavelengths
Number of Pixels in Spectrum: 2048
>>>>>Begin Spectral Data<<<<<
223.165	-12.12
223.4	-12.12
223.635	-12.12
223.869	-44.12
224.104	-7.12
224.338	-12.12
224.573	-12.12
224.808	-3.12
225.042	-2.12
225.277	-9.12
225.511	-14.12
225.746	7.88
225.98	5.88
226.215	14.88
226.449	9.88
226.683	19.88
226.918	18.88
227.152	38.88
227.387	44.88
227.621	38.88
227.856	42.88
228.09	44.88
228.324	55.88
228.559	67.88
228.793	59.88
229.027	68.88
229.262	63.88
229.496	79.88
229.73	75.88
229.964	80.88
230.199	79.88
230.433	60.88
230.667	76.88
230.901	77.88
231.136	81.88
231.37	85.88
231.604	92.88
231.838	85.88
232.072	89.88
232.306	81.88
232.541	83.88
232.775	69.88
233.009	84.88
233.243	79.88
233.477	89.88
233.711	87.88
233.945	85.88
234.179	81.88
234.413	81.88
234.647	77.88
234.881	95.88
235.115	71.88
235.349	82.88
235.583	76.88
235.817	68.88
236.051	84.88
236.285	86.88
236.519	80.88
236.753	80.88
236.987	83.88
237.221	79.88
237.455	100.88
237.689	64.88
237.922	81.88
238.156	73.88
238.39	87.88
238.624	63.88
238.858	77.88
239.091	87.88
239.325	73.88
239.559	72.88
239.793	70.88
240.027	77.88
240.26	77.88
240.494	80.88
240.728	73.88
240.961	84.88
241.195	75.88
241.429	79.88
241.662	93.88
241.896	83.88
242.13	92.88
242.363	76.88
242.597	86.88
242.83	77.88
243.064	96.88
243.298	74.88
243.531	68.88
243.765	75.88
243.998	79.88
244.232	87.88
244.465	79.88
244.699	87.88
244.932	81.88
245.166	79.88
245.399	77.88
245.633	83.88
245.866	81.88
246.099	77.88
246.333	88.88
246.566	75.88
246.8	78.88
247.033	72.88
247.266	83.88
247.5	86.88
247.733	80.88
247.966	86.88
248.2	72.88
248.433	81.88
248.666	78.88
248.899	84.88
249.133	91.88
249.366	91.88
249.599	99.88
249.832	88.88
250.066	88.88
250.299	79.88
250.532	78.88
250.765	78.88
250.998	83.88
251.231	72.88
251.465	73.88
251.698	77.88
251.931	91.88
252.164	81.88
252.397	77.88
252.63	75.88
252.863	87.88
253.096	73.88
253.329	81.88
253.562	82.88
253.795	83.88
254.028	83.88
254.261	88.88
254.494	87.88
254.727	81.88
254.96	84.88
255.193	69.88
255.426	86.88
255.659	83.88
255.892	85.88
256.124	82.88
256.357	86.88
256.59	95.88
256.823	88.88
257.056	89.88
257.289	77.88
257.521	72.88
257.754	72.88
257.987	82.88
258.22	87.88
258.452	78.88
258.685	69.88
258.918	69.88
259.151	88.88
259.383	84.88
259.616	81.88
259.849	76.88
260.081	86.88
260.314	71.88
260.547	71.88
260.779	86.88
261.012	90.88
261.244	92.88
261.477	86.88
261.71	87.88
261.942	108.88
262.175	100.88
262.407	76.88
262.64	78.88
262.872	84.88
263.105	77.88
263.337	86.88
263.57	82.88
263.802	81.88
264.035	77.88
264.267	74.88
264.499	72.88
264.732	85.88
264.964	77.88
265.197	84.88
265.429	86.88
265.661	88.88
265.894	79.88
266.126	92.88
266.358	87.88
266.591	81.88
266.823	88.88
267.055	102.88
267.287	97.88
267.52	85.88
267.752	73.88
267.984	76.88
268.216	65.88
268.448	88.88
268.681	83.88
268.913	89.88
269.145	86.88
269.377	78.88
269.609	78.88
269.841	104.88
270.073	83.88
270.306	71.88
270.538	65.88
270.77	81.88
271.002	79.88
271.234	88.88
271.466	93.88
271.698	94.88
271.93	87.88
272.162	95.88
272.394	88.88
272.626	84.88
272.858	99.88
273.09	80.88
273.322	95.88
273.553	81.88
273.785	100.88
274.017	84.88
274.249	85.88
274.481	83.88
274.713	93.88
274.945	92.88
275.176	88.88
275.408	78.88
275.64	87.88
275.872	92.88
276.104	77.88
276.335	89.88
276.567	108.88
276.799	96.88
277.031	96.88
277.262	96.88
277.494	105.88
277.726	91.88
277.957	91.88
278.189	76.88
278.421	76.88
278.652	76.88
278.884	89.88
279.115	85.88
279.347	85.88
279.579	84.88
279.81	81.88
280.042	62.88
280.273	92.88
280.505	101.88
280.736	91.88
280.968	88.88
281.199	78.88
281.431	90.88
281.662	80.88
281.894	106.88
282.125	101.88
282.356	119.88
282.588	139.88
282.819	114.88
283.051	104.88
283.282	97.88
283.513	85.88
283.745	85.88
283.976	96.88
284.207	90.88
284.439	98.88
284.67	93.88
284.901	83.88
285.132	74.88
285.364	89.88
285.595	82.88
285.826	88.88
286.057	91.88
286.288	96.88
286.52	82.88
286.751	97.88
286.982	83.88
287.213	85.88
287.444	81.88
287.675	91.88
287.906	91.88
288.138	98.88
288.369	98.88
288.6	96.88
288.831	95.88
289.062	93.88
289.293	85.88
289.524	79.88
289.755	79.88
289.986	91.88
290.217	89.88
290.448	88.88
290.679	88.88
290.91	70.88
291.141	88.88
291.371	79.88
291.602	92.88
291.833	96.88
292.064	88.88
292.295	92.88
292.526	94.88
292.757	102.88
292.987	93.88
293.218	84.88
293.449	83.88
293.68	92.88
293.91	94.88
294.141	96.88
294.372	103.88
294.603	84.88
294.833	87.88
295.064	84.88
295.295	89.88
295.525	101.88
295.756	105.88
295.987	118.88
296.217	149.88
296.448	105.88
296.679	88.88
296.909	95.88
297.14	89.88
297.37	96.88
297.601	81.88
297.831	86.88
298.062	103.88
298.292	96.88
298.523	80.88
298.753	92.88
298.984	81.88
299.214	89.88
299.445	95.88
299.675	93.88
299.905	82.88
300.136	99.88
300.366	95.88
300.597	85.88
300.827	89.88
301.057	87.88
301.288	96.88
301.518	95.88
301.748	103.88
301.979	83.88
302.209	86.88
302.439	91.88
302.669	94.88
302.9	99.88
303.13	93.88
303.36	95.88
303.59	86.88
303.82	107.88
304.051	100.88
304.281	88.88
304.511	98.88
304.741	88.88
304.971	94.88
305.201	93.88
305.431	88.88
305.661	96.88
305.891	95.88
306.121	97.88
306.352	90.88
306.582	110.88
306.812	96.88
307.042	89.88
307.272	100.88
307.502	104.88
307.731	88.88
307.961	95.88
308.191	106.88
308.421	86.88
308.651	99.88
308.881	88.88
309.111	90.88
309.341	88.88
309.571	116.88
309.8	107.88
310.03	86.88
310.26	110.88
310.49	100.88
310.72	97.88
310.949	93.88
311.179	95.88
311.409	93.88
311.639	106.88
311.868	87.88
312.098	113.88
312.328	95.88
312.557	110.88
312.787	97.88
313.017	85.88
313.246	82.88
313.476	93.88
313.706	96.88
313.935	100.88
314.165	98.88
314.394	107.88
314.624	98.88
314.853	94.88
315.083	113.88
315.312	99.88
315.542	83.88
315.771	99.88
316.001	100.88
316.23	80.88
316.46	84.88
316.689	78.88
316.919	112.88
317.148	91.88
317.377	100.88
317.607	96.88
317.836	92.88
318.065	89.88
318.295	91.88
318.524	86.88
318.753	102.88
318.983	97.88
319.212	90.88
319.441	111.88
319.67	95.88
319.9	73.88
320.129	96.88
320.358	90.88
320.587	98.88
320.816	89.88
321.046	107.88
321.275	80.88
321.504	105.88
321.733	94.88
321.962	101.88
322.191	107.88
322.42	100.88
322.649	113.88
322.878	109.88
323.108	109.88
323.337	120.88
323.566	128.88
323.795	152.88
324.024	245.88
324.253	449.88
324.482	971.88
324.71	2016.88
324.939	2637.88
325.168	945.88
325.397	279.88
325.626	157.88
325.855	137.88
326.084	135.88
326.313	136.88
326.542	141.88
326.77	250.88
326.999	519.88
327.228	1126.88
327.457	2029.88
327.686	1583.88
327.914	408.88
328.143	198.88
328.372	151.88
328.6	123.88
328.829	127.88
329.058	135.88
329.287	124.88
329.515	111.88
329.744	105.88
329.972	113.88
330.201	119.88
330.43	136.88
330.658	125.88
330.887	148.88
331.115	123.88
331.344	100.88
331.572	96.88
331.801	105.88
332.03	111.88
332.258	94.88
332.486	94.88
332.715	103.88
332.943	87.88
333.172	96.88
333.4	95.88
333.629	101.88
333.857	116.88
334.085	123.88
334.314	112.88
334.542	131.88
334.771	129.88
334.999	93.88
335.227	120.88
335.455	104.88
335.684	101.88
335.912	98.88
336.14	103.88
336.369	104.88
336.597	96.88
336.825	101.88
337.053	95.88
337.281	95.88
337.51	88.88
337.738	102.88
337.966	91.88
338.194	105.88
338.422	105.88
338.65	98.88
338.878	97.88
339.106	85.88
339.334	89.88
339.562	103.88
339.79	96.88
340.018	91.88
340.246	84.88
340.474	101.88
340.702	98.88
340.93	89.88
341.158	91.88
341.386	89.88
341.614	88.88
341.842	92.88
342.07	96.88
342.298	100.88
342.526	91.88
342.754	79.88
342.981	84.88
343.209	90.88
343.437	100.88
343.665	87.88
343.893	102.88
344.12	99.88
344.348	101.88
344.576	79.88
344.804	106.88
345.031	88.88
345.259	99.88
345.487	99.88
345.714	87.88
345.942	90.88
346.17	88.88
346.397	89.88
346.625	92.88
346.853	89.88
347.08	104.88
347.308	105.88
347.535	105.88
347.763	96.88
347.99	84.88
348.218	102.88
348.445	105.88
348.673	109.88
348.9	116.88
349.128	102.88
349.355	79.88
349.583	108.88
349.81	86.88
350.037	76.88
350.265	100.88
350.492	85.88
350.72	106.88
350.947	111.88
351.174	104.88
351.402	114.88
351.629	99.88
351.856	102.88
352.083	111.88
352.311	105.88
352.538	98.88
352.765	114.88
352.992	119.88
353.22	121.88
353.447	108.88
353.674	95.88
353.901	109.88
354.128	93.88
354.355	81.88
354.583	118.88
354.81	112.88
355.037	94.88
355.264	84.88
355.491	86.88
355.718	102.88
355.945	94.88
356.172	91.88
356.399	86.88
356.626	76.88
356.853	84.88
357.08	93.88
357.307	88.88
357.534	83.88
357.761	96.88
357.988	105.88
358.215	89.88
358.441	98.88
358.668	96.88
358.895	104.88
359.122	90.88
359.349	96.88
359.576	86.88
359.802	107.88
360.029	120.88
360.256	95.88
360.483	91.88
360.709	86.88
360.936	94.88
361.163	83.88
361.39	88.88
361.616	85.88
361.843	100.88
362.07	96.88
362.296	104.88
362.523	70.88
362.749	91.88
362.976	107.88
363.203	96.88
363.429	97.88
363.656	86.88
363.882	95.88
364.109	91.88
364.335	95.88
364.562	86.88
364.788	99.88
365.015	96.88
365.241	94.88
365.468	107.88
365.694	100.88
365.92	100.88
366.147	103.88
366.373	94.88
366.599	88.88
366.826	101.88
367.052	105.88
367.278	96.88
367.505	88.88
367.731	108.88
367.957	89.88
368.184	111.88
368.41	107.88
368.636	104.88
368.862	116.88
369.089	116.88
369.315	98.88
369.541	115.88
369.767	95.88
369.993	96.88
370.219	87.88
370.445	89.88
370.672	82.88
370.898	92.88
371.124	76.88
371.35	84.88
371.576	86.88
371.802	86.88
372.028	85.88
372.254	84.88
372.48	94.88
372.706	85.88
372.932	89.88
373.158	94.88
373.384	83.88
373.61	86.88
373.835	90.88
374.061	89.88
374.287	87.88
374.513	94.88
374.739	96.88
374.965	88.88
375.191	94.88
375.416	95.88
375.642	86.88
375.868	86.88
376.094	80.88
376.319	97.88
376.545	86.88
376.771	89.88
376.997	89.88
377.222	85.88
377.448	93.88
377.674	88.88
377.899	89.88
378.125	101.88
378.35	79.88
378.576	90.88
378.802	82.88
379.027	95.88
379.253	92.88
379.478	88.88
379.704	105.88
379.929	105.88
380.155	101.88
380.38	91.88
380.606	104.88
380.831	88.88
381.057	105.88
381.282	91.88
381.507	104.88
381.733	102.88
381.958	96.88
382.184	102.88
382.409	108.88
382.634	109.88
382.86	99.88
383.085	100.88
383.31	115.88
383.535	95.88
383.761	100.88
383.986	104.88
384.211	89.88
384.436	96.88
384.662	99.88
384.887	100.88
385.112	98.88
385.337	103.88
385.562	110.88
385.787	102.88
386.013	93.88
386.238	125.88
386.463	101.88
386.688	110.88
386.913	113.88
387.138	114.88
387.363	106.88
387.588	96.88
387.813	110.88
388.038	108.88
388.263	134.88
388.488	110.88
388.713	93.88
388.938	90.88
389.163	99.88
389.387	102.88
389.612	89.88
389.837	108.88
390.062	100.88
390.287	90.88
390.512	93.88
390.736	87.88
390.961	91.88
391.186	96.88
391.411	97.88
391.636	103.88
391.86	81.88
392.085	86.88
392.31	91.88
392.534	87.88
392.759	61.88
392.984	95.88
393.208	97.88
393.433	88.88
393.658	104.88
393.882	109.88
394.107	86.88
394.331	87.88
394.556	82.88
394.78	77.88
395.005	88.88
395.229	89.88
395.454	99.88
395.678	86.88
395.903	89.88
396.127	100.88
396.352	85.88
396.576	92.88
396.801	75.88
397.025	100.88
397.249	100.88
397.474	75.88
397.698	79.88
397.922	94.88
398.147	84.88
398.371	76.88
398.595	88.88
398.82	92.88
399.044	82.88
399.268	83.88
399.492	73.88
399.717	85.88
399.941	90.88
400.165	100.88
400.389	84.88
400.613	93.88
400.837	83.88
401.062	80.88
401.286	88.88
401.51	92.88
401.734	98.88
401.958	100.88
402.182	126.88
402.406	145.88
402.63	134.88
402.854	98.88
403.078	96.88
403.302	97.88
403.526	98.88
403.75	101.88
403.974	84.88
404.198	90.88
404.422	83.88
404.645	92.88
404.869	77.88
405.093	92.88
405.317	96.88
405.541	92.88
405.765	107.88
405.988	112.88
406.212	179.88
406.436	224.88
406.66	150.88
406.883	105.88
407.107	102.88
407.331	95.88
407.555	111.88
407.778	106.88
408.002	86.88
408.226	95.88
408.449	94.88
408.673	93.88
408.896	87.88
409.12	91.88
409.344	92.88
409.567	90.88
409.791	100.88
410.014	95.88
410.238	100.88
410.461	97.88
410.685	87.88
410.908	99.88
411.132	106.88
411.355	96.88
411.578	86.88
411.802	108.88
412.025	88.88
412.249	78.88
412.472	96.88
412.695	94.88
412.919	84.88
413.142	84.88
413.365	97.88
413.589	84.88
413.812	94.88
414.035	93.88
414.258	90.88
414.482	91.88
414.705	81.88
414.928	101.88
415.151	96.88
415.374	101.88
415.597	102.88
415.821	102.88
416.044	80.88
416.267	88.88
416.49	93.88
416.713	93.88
416.936	95.88
417.159	89.88
417.382	89.88
417.605	102.88
417.828	93.88
418.051	83.88
418.274	103.88
418.497	83.88
418.72	85.88
418.943	77.88
419.166	92.88
419.389	89.88
419.611	77.88
419.834	84.88
420.057	98.88
420.28	82.88
420.503	83.88
420.726	74.88
420.948	86.88
421.171	105.88
421.394	96.88
421.617	82.88
421.839	86.88
422.062	90.88
422.285	91.88
422.507	102.88
422.73	92.88
422.953	92.88
423.175	104.88
423.398	90.88
423.621	88.88
423.843	74.88
424.066	85.88
424.288	82.88
424.511	107.88
424.733	94.88
424.956	101.88
425.178	98.88
425.401	111.88
425.623	113.88
425.846	88.88
426.068	93.88
426.291	102.88
426.513	87.88
426.735	94.88
426.958	97.88
427.18	110.88
427.402	142.88
427.625	169.88
427.847	127.88
428.069	119.88
428.292	101.88
428.514	94.88
428.736	81.88
428.958	76.88
429.181	96.88
429.403	101.88
429.625	89.88
429.847	87.88
430.069	107.88
430.292	91.88
430.514	87.88
430.736	86.88
430.958	95.88
431.18	83.88
431.402	83.88
431.624	95.88
431.846	84.88
432.068	94.88
432.29	79.88
432.512	86.88
432.734	81.88
432.956	79.88
433.178	94.88
433.4	89.88
433.622	96.88
433.844	84.88
434.066	91.88
434.287	89.88
434.509	96.88
434.731	101.88
434.953	87.88
435.175	80.88
435.397	93.88
435.618	87.88
435.84	103.88
436.062	111.88
436.284	111.88
436.505	101.88
436.727	110.88
436.949	83.88
437.17	83.88
437.392	95.88
437.614	109.88
437.835	94.88
438.057	129.88
438.278	118.88
438.5	100.88
438.721	127.88
438.943	91.88
439.165	93.88
439.386	97.88
439.608	93.88
439.829	80.88
440.05	121.88
440.272	152.88
440.493	118.88
440.715	85.88
440.936	89.88
441.158	93.88
441.379	79.88
441.6	88.88
441.822	91.88
442.043	85.88
442.264	93.88
442.486	109.88
442.707	82.88
442.928	88.88
443.149	128.88
443.371	114.88
443.592	121.88
443.813	124.88
444.034	103.88
444.255	98.88
444.476	82.88
444.698	85.88
444.919	85.88
445.14	136.88
445.361	120.88
445.582	113.88
445.803	135.88
446.024	140.88
446.245	150.88
446.466	95.88
446.687	87.88
446.908	91.88
447.129	88.88
447.35	95.88
447.571	98.88
447.792	95.88
448.013	93.88
448.234	119.88
448.455	89.88
448.675	101.88
448.896	124.88
449.117	84.88
449.338	101.88
449.559	153.88
449.779	137.88
450	96.88
450.221	81.88
450.442	81.88
450.662	96.88
450.883	114.88
451.104	109.88
451.324	93.88
451.545	85.88
451.766	92.88
451.986	88.88
452.207	92.88
452.428	95.88
452.648	80.88
452.869	118.88
453.089	115.88
453.31	110.88
453.53	96.88
453.751	98.88
453.971	96.88
454.192	113.88
454.412	89.88
454.633	84.88
454.853	97.88
455.073	89.88
455.294	89.88
455.514	94.88
455.734	95.88
455.955	78.88
456.175	81.88
456.395	95.88
456.616	79.88
456.836	84.88
457.056	83.88
457.276	82.88
457.497	88.88
457.717	87.88
457.937	87.88
458.157	108.88
458.377	108.88
458.598	105.88
458.818	147.88
459.038	160.88
459.258	112.88
459.478	87.88
459.698	89.88
459.918	80.88
460.138	81.88
460.358	84.88
460.578	74.88
460.798	94.88
461.018	88.88
461.238	95.88
461.458	95.88
461.678	83.88
461.898	82.88
462.118	76.88
462.338	82.88
462.558	87.88
462.777	91.88
462.997	87.88
463.217	84.88
463.437	75.88
463.657	77.88
463.876	85.88
464.096	81.88
464.316	107.88
464.536	99.88
464.755	96.88
464.975	112.88
465.195	171.88
465.414	164.88
465.634	108.88
465.854	100.88
466.073	87.88
466.293	87.88
466.512	69.88
466.732	86.88
466.951	84.88
467.171	92.88
467.391	98.88
467.61	99.88
467.829	91.88
468.049	85.88
468.268	101.88
468.488	101.88
468.707	102.88
468.927	80.88
469.146	87.88
469.365	91.88
469.585	96.88
469.804	108.88
470.023	109.88
470.243	96.88
470.462	92.88
470.681	103.88
470.901	95.88
471.12	95.88
471.339	88.88
471.558	73.88
471.777	93.88
471.997	88.88
472.216	110.88
472.435	169.88
472.654	97.88
472.873	84.88
473.092	99.88
473.311	85.88
473.53	77.88
473.749	94.88
473.968	88.88
474.187	97.88
474.406	82.88
474.625	74.88
474.844	88.88
475.063	88.88
475.282	72.88
475.501	89.88
475.72	88.88
475.939	81.88
476.158	84.88
476.377	92.88
476.596	82.88
476.814	103.88
477.033	92.88
477.252	91.88
477.471	96.88
477.69	75.88
477.908	75.88
478.127	88.88
478.346	83.88
478.564	91.88
478.783	96.88
479.002	94.88
479.22	91.88
479.439	112.88
479.658	109.88
479.876	110.88
480.095	89.88
480.313	83.88
480.532	93.88
480.751	106.88
480.969	108.88
481.188	228.88
481.406	165.88
481.624	102.88
481.843	88.88
482.061	91.88
482.28	94.88
482.498	91.88
482.717	96.88
482.935	78.88
483.153	83.88
483.372	85.88
483.59	89.88
483.808	87.88
484.027	104.88
484.245	80.88
484.463	97.88
484.681	92.88
484.9	89.88
485.118	104.88
485.336	86.88
485.554	99.88
485.772	99.88
485.99	107.88
486.209	114.88
486.427	102.88
486.645	99.88
486.863	118.88
487.081	95.88
487.299	97.88
487.517	104.88
487.735	95.88
487.953	95.88
488.171	97.88
488.389	91.88
488.607	111.88
488.825	88.88
489.043	77.88
489.261	82.88
489.479	84.88
489.696	88.88
489.914	92.88
490.132	87.88
490.35	77.88
490.568	95.88
490.786	84.88
491.003	94.88
491.221	80.88
491.439	95.88
491.657	100.88
491.874	97.88
492.092	95.88
492.31	93.88
492.527	92.88
492.745	92.88
492.963	92.88
493.18	86.88
493.398	104.88
493.615	103.88
493.833	94.88
494.05	82.88
494.268	91.88
494.485	84.88
494.703	83.88
494.92	93.88
495.138	92.88
495.355	90.88
495.573	83.88
495.79	88.88
496.008	97.88
496.225	89.88
496.442	87.88
496.66	102.88
496.877	87.88
497.094	101.88
497.312	100.88
497.529	96.88
497.746	86.88
497.963	91.88
498.181	113.88
498.398	96.88
498.615	105.88
498.832	120.88
499.049	98.88
499.267	106.88
499.484	93.88
499.701	107.88
499.918	86.88
500.135	80.88
500.352	91.88
500.569	99.88
500.786	93.88
501.003	95.88
501.22	87.88
501.437	93.88
501.654	96.88
501.871	98.88
502.088	83.88
502.305	87.88
502.522	84.88
502.739	79.88
502.956	87.88
503.172	88.88
503.389	102.88
503.606	104.88
503.823	96.88
504.04	93.88
504.256	90.88
504.473	102.88
504.69	106.88
504.907	92.88
505.123	93.88
505.34	80.88
505.557	89.88
505.773	91.88
505.99	95.88
506.207	93.88
506.423	83.88
506.64	95.88
506.856	91.88
507.073	77.88
507.289	105.88
507.506	104.88
507.722	116.88
507.939	112.88
508.155	103.88
508.372	104.88
508.588	97.88
508.805	99.88
509.021	100.88
509.238	93.88
509.454	96.88
509.67	105.88
509.887	114.88
510.103	128.88
510.319	207.88
510.536	756.88
510.752	2514.88
510.968	712.88
511.184	163.88
511.401	118.88
511.617	100.88
511.833	97.88
512.049	84.88
512.265	101.88
512.481	108.88
512.698	86.88
512.914	92.88
513.13	104.88
513.346	113.88
513.562	104.88
513.778	90.88
513.994	107.88
514.21	100.88
514.426	120.88
514.642	131.88
514.858	134.88
515.074	162.88
