Data from Circ_2005_H10_HRD10591_00026.txt Node
Date: Wed Jan 03 10:29:56 EST 2024
User: Yrep
Spectrometer: HR+D1059
Trigger mode: 1
Integration Time (sec): 1.000000E-1
Scans to average: 1
Electric dark correction enabled: true
Nonlinearity correction enabled: false
Boxcar width: 0
XAxis mode: Wavelengths
Number of Pixels in Spectrum: 2048
>>>>>Begin Spectral Data<<<<<
223.165	-10.94
223.4	-10.94
223.635	-10.94
223.869	-10.94
224.104	-24.94
224.338	-18.94
224.573	-25.94
224.808	-15.94
225.042	-12.94
225.277	-5.94
225.511	4.06
225.746	7.06
225.98	15.06
226.215	19.06
226.449	-0.94
226.683	23.06
226.918	28.06
227.152	31.06
227.387	34.06
227.621	34.06
227.856	59.06
228.09	55.06
228.324	49.06
228.559	52.06
228.793	64.06
229.027	54.06
229.262	65.06
229.496	76.06
229.73	90.06
229.964	81.06
230.199	81.06
230.433	79.06
230.667	71.06
230.901	71.06
231.136	74.06
231.37	61.06
231.604	90.06
231.838	84.06
232.072	73.06
232.306	91.06
232.541	83.06
232.775	86.06
233.009	73.06
233.243	82.06
233.477	79.06
233.711	88.06
233.945	99.06
234.179	85.06
234.413	74.06
234.647	71.06
234.881	77.06
235.115	79.06
235.349	83.06
235.583	80.06
235.817	82.06
236.051	76.06
236.285	86.06
236.519	88.06
236.753	83.06
236.987	88.06
237.221	75.06
237.455	91.06
237.689	92.06
237.922	87.06
238.156	92.06
238.39	79.06
238.624	75.06
238.858	88.06
239.091	96.06
239.325	96.06
239.559	80.06
239.793	95.06
240.027	81.06
240.26	99.06
240.494	87.06
240.728	78.06
240.961	89.06
241.195	83.06
241.429	77.06
241.662	82.06
241.896	78.06
242.13	71.06
242.363	88.06
242.597	86.06
242.83	91.06
243.064	88.06
243.298	96.06
243.531	78.06
243.765	78.06
243.998	88.06
244.232	74.06
244.465	87.06
244.699	90.06
244.932	95.06
245.166	89.06
245.399	84.06
245.633	85.06
245.866	89.06
246.099	92.06
246.333	82.06
246.566	79.06
246.8	78.06
247.033	75.06
247.266	91.06
247.5	75.06
247.733	69.06
247.966	86.06
248.2	71.06
248.433	85.06
248.666	83.06
248.899	84.06
249.133	97.06
249.366	111.06
249.599	99.06
249.832	86.06
250.066	91.06
250.299	93.06
250.532	86.06
250.765	79.06
250.998	62.06
251.231	78.06
251.465	88.06
251.698	81.06
251.931	85.06
252.164	91.06
252.397	77.06
252.63	88.06
252.863	75.06
253.096	89.06
253.329	69.06
253.562	86.06
253.795	75.06
254.028	82.06
254.261	83.06
254.494	85.06
254.727	81.06
254.96	93.06
255.193	83.06
255.426	90.06
255.659	61.06
255.892	79.06
256.124	86.06
256.357	85.06
256.59	78.06
256.823	93.06
257.056	77.06
257.289	85.06
257.521	84.06
257.754	86.06
257.987	85.06
258.22	101.06
258.452	91.06
258.685	85.06
258.918	86.06
259.151	72.06
259.383	82.06
259.616	89.06
259.849	77.06
260.081	96.06
260.314	90.06
260.547	91.06
260.779	86.06
261.012	93.06
261.244	75.06
261.477	80.06
261.71	89.06
261.942	113.06
262.175	108.06
262.407	86.06
262.64	104.06
262.872	79.06
263.105	84.06
263.337	100.06
263.57	94.06
263.802	85.06
264.035	85.06
264.267	82.06
264.499	89.06
264.732	87.06
264.964	87.06
265.197	88.06
265.429	85.06
265.661	79.06
265.894	91.06
266.126	94.06
266.358	96.06
266.591	94.06
266.823	81.06
267.055	73.06
267.287	106.06
267.52	87.06
267.752	93.06
267.984	85.06
268.216	102.06
268.448	96.06
268.681	86.06
268.913	99.06
269.145	92.06
269.377	91.06
269.609	78.06
269.841	66.06
270.073	66.06
270.306	85.06
270.538	84.06
270.77	98.06
271.002	91.06
271.234	75.06
271.466	79.06
271.698	76.06
271.93	88.06
272.162	88.06
272.394	84.06
272.626	88.06
272.858	89.06
273.09	92.06
273.322	88.06
273.553	80.06
273.785	86.06
274.017	79.06
274.249	72.06
274.481	85.06
274.713	87.06
274.945	82.06
275.176	75.06
275.408	90.06
275.64	77.06
275.872	90.06
276.104	82.06
276.335	84.06
276.567	98.06
276.799	111.06
277.031	101.06
277.262	91.06
277.494	87.06
277.726	85.06
277.957	83.06
278.189	75.06
278.421	85.06
278.652	100.06
278.884	87.06
279.115	87.06
279.347	94.06
279.579	85.06
279.81	73.06
280.042	71.06
280.273	84.06
280.505	77.06
280.736	96.06
280.968	102.06
281.199	95.06
281.431	92.06
281.662	78.06
281.894	90.06
282.125	98.06
282.356	131.06
282.588	129.06
282.819	125.06
283.051	92.06
283.282	87.06
283.513	88.06
283.745	96.06
283.976	82.06
284.207	86.06
284.439	80.06
284.67	82.06
284.901	86.06
285.132	95.06
285.364	82.06
285.595	90.06
285.826	89.06
286.057	97.06
286.288	91.06
286.52	98.06
286.751	94.06
286.982	89.06
287.213	97.06
287.444	93.06
287.675	101.06
287.906	91.06
288.138	86.06
288.369	104.06
288.6	81.06
288.831	94.06
289.062	85.06
289.293	94.06
289.524	87.06
289.755	78.06
289.986	100.06
290.217	84.06
290.448	97.06
290.679	98.06
290.91	104.06
291.141	89.06
291.371	83.06
291.602	86.06
291.833	99.06
292.064	96.06
292.295	86.06
292.526	81.06
292.757	71.06
292.987	83.06
293.218	101.06
293.449	86.06
293.68	84.06
293.91	73.06
294.141	90.06
294.372	97.06
294.603	87.06
294.833	96.06
295.064	92.06
295.295	87.06
295.525	92.06
295.756	102.06
295.987	117.06
296.217	117.06
296.448	123.06
296.679	102.06
296.909	85.06
297.14	96.06
297.37	97.06
297.601	91.06
297.831	104.06
298.062	98.06
298.292	109.06
298.523	109.06
298.753	83.06
298.984	106.06
299.214	93.06
299.445	91.06
299.675	91.06
299.905	90.06
300.136	82.06
300.366	98.06
300.597	94.06
300.827	90.06
301.057	89.06
301.288	113.06
301.518	97.06
301.748	89.06
301.979	94.06
302.209	98.06
302.439	98.06
302.669	83.06
302.9	88.06
303.13	94.06
303.36	100.06
303.59	106.06
303.82	97.06
304.051	86.06
304.281	83.06
304.511	106.06
304.741	92.06
304.971	80.06
305.201	89.06
305.431	84.06
305.661	91.06
305.891	88.06
306.121	99.06
306.352	105.06
306.582	103.06
306.812	107.06
307.042	105.06
307.272	90.06
307.502	88.06
307.731	89.06
307.961	93.06
308.191	92.06
308.421	94.06
308.651	102.06
308.881	101.06
309.111	101.06
309.341	102.06
309.571	83.06
309.8	109.06
310.03	104.06
310.26	98.06
310.49	91.06
310.72	90.06
310.949	91.06
311.179	102.06
311.409	101.06
311.639	109.06
311.868	110.06
312.098	101.06
312.328	125.06
312.557	102.06
312.787	109.06
313.017	104.06
313.246	95.06
313.476	94.06
313.706	94.06
313.935	96.06
314.165	100.06
314.394	93.06
314.624	100.06
314.853	105.06
315.083	86.06
315.312	93.06
315.542	93.06
315.771	91.06
316.001	104.06
316.23	103.06
316.46	91.06
316.689	105.06
316.919	88.06
317.148	113.06
317.377	84.06
317.607	89.06
317.836	94.06
318.065	85.06
318.295	91.06
318.524	96.06
318.753	101.06
318.983	95.06
319.212	104.06
319.441	107.06
319.67	115.06
319.9	109.06
320.129	106.06
320.358	101.06
320.587	109.06
320.816	109.06
321.046	108.06
321.275	103.06
321.504	97.06
321.733	91.06
321.962	101.06
322.191	105.06
322.42	111.06
322.649	127.06
322.878	113.06
323.108	124.06
323.337	133.06
323.566	138.06
323.795	146.06
324.024	193.06
324.253	421.06
324.482	891.06
324.71	1862.06
324.939	2459.06
325.168	884.06
325.397	260.06
325.626	161.06
325.855	132.06
326.084	141.06
326.313	136.06
326.542	165.06
326.77	255.06
326.999	489.06
327.228	1098.06
327.457	1921.06
327.686	1507.06
327.914	399.06
328.143	185.06
328.372	159.06
328.6	126.06
328.829	118.06
329.058	120.06
329.287	137.06
329.515	103.06
329.744	102.06
329.972	99.06
330.201	109.06
330.43	118.06
330.658	117.06
330.887	154.06
331.115	132.06
331.344	106.06
331.572	104.06
331.801	113.06
332.03	115.06
332.258	113.06
332.486	95.06
332.715	105.06
332.943	103.06
333.172	95.06
333.4	99.06
333.629	105.06
333.857	112.06
334.085	102.06
334.314	108.06
334.542	130.06
334.771	119.06
334.999	105.06
335.227	94.06
335.455	89.06
335.684	87.06
335.912	97.06
336.14	112.06
336.369	95.06
336.597	105.06
336.825	117.06
337.053	95.06
337.281	103.06
337.51	79.06
337.738	95.06
337.966	89.06
338.194	100.06
338.422	104.06
338.65	89.06
338.878	83.06
339.106	79.06
339.334	88.06
339.562	92.06
339.79	86.06
340.018	93.06
340.246	99.06
340.474	100.06
340.702	82.06
340.93	81.06
341.158	85.06
341.386	90.06
341.614	114.06
341.842	92.06
342.07	102.06
342.298	89.06
342.526	98.06
342.754	87.06
342.981	98.06
343.209	98.06
343.437	98.06
343.665	88.06
343.893	86.06
344.12	98.06
344.348	100.06
344.576	88.06
344.804	112.06
345.031	76.06
345.259	96.06
345.487	72.06
345.714	108.06
345.942	104.06
346.17	98.06
346.397	101.06
346.625	108.06
346.853	102.06
347.08	89.06
347.308	91.06
347.535	91.06
347.763	98.06
347.99	106.06
348.218	107.06
348.445	115.06
348.673	96.06
348.9	105.06
349.128	115.06
349.355	85.06
349.583	89.06
349.81	105.06
350.037	98.06
350.265	91.06
350.492	98.06
350.72	105.06
350.947	112.06
351.174	116.06
351.402	104.06
351.629	112.06
351.856	105.06
352.083	112.06
352.311	111.06
352.538	121.06
352.765	122.06
352.992	116.06
353.22	120.06
353.447	113.06
353.674	99.06
353.901	105.06
354.128	100.06
354.355	99.06
354.583	111.06
354.81	111.06
355.037	86.06
355.264	97.06
355.491	102.06
355.718	91.06
355.945	109.06
356.172	91.06
356.399	109.06
356.626	110.06
356.853	116.06
357.08	100.06
357.307	97.06
357.534	93.06
357.761	106.06
357.988	105.06
358.215	106.06
358.441	104.06
358.668	89.06
358.895	101.06
359.122	90.06
359.349	101.06
359.576	95.06
359.802	101.06
360.029	116.06
360.256	116.06
360.483	100.06
360.709	89.06
360.936	99.06
361.163	92.06
361.39	89.06
361.616	79.06
361.843	101.06
362.07	103.06
362.296	102.06
362.523	83.06
362.749	83.06
362.976	97.06
363.203	83.06
363.429	78.06
363.656	103.06
363.882	92.06
364.109	95.06
364.335	101.06
364.562	94.06
364.788	84.06
365.015	89.06
365.241	90.06
365.468	108.06
365.694	106.06
365.92	97.06
366.147	98.06
366.373	85.06
366.599	104.06
366.826	92.06
367.052	91.06
367.278	89.06
367.505	84.06
367.731	94.06
367.957	81.06
368.184	90.06
368.41	91.06
368.636	106.06
368.862	109.06
369.089	107.06
369.315	102.06
369.541	96.06
369.767	101.06
369.993	100.06
370.219	116.06
370.445	87.06
370.672	99.06
370.898	92.06
371.124	99.06
371.35	101.06
371.576	106.06
371.802	100.06
372.028	98.06
372.254	83.06
372.48	96.06
372.706	87.06
372.932	99.06
373.158	93.06
373.384	84.06
373.61	86.06
373.835	88.06
374.061	90.06
374.287	85.06
374.513	90.06
374.739	86.06
374.965	90.06
375.191	92.06
375.416	92.06
375.642	96.06
375.868	105.06
376.094	100.06
376.319	87.06
376.545	79.06
376.771	95.06
376.997	88.06
377.222	101.06
377.448	90.06
377.674	99.06
377.899	79.06
378.125	96.06
378.35	103.06
378.576	90.06
378.802	95.06
379.027	108.06
379.253	98.06
379.478	112.06
379.704	103.06
379.929	89.06
380.155	95.06
380.38	102.06
380.606	100.06
380.831	88.06
381.057	99.06
381.282	95.06
381.507	106.06
381.733	99.06
381.958	92.06
382.184	102.06
382.409	110.06
382.634	113.06
382.86	89.06
383.085	98.06
383.31	95.06
383.535	99.06
383.761	105.06
383.986	107.06
384.211	103.06
384.436	107.06
384.662	113.06
384.887	100.06
385.112	103.06
385.337	109.06
385.562	106.06
385.787	101.06
386.013	119.06
386.238	128.06
386.463	117.06
386.688	118.06
386.913	108.06
387.138	118.06
387.363	99.06
387.588	100.06
387.813	109.06
388.038	117.06
388.263	121.06
388.488	126.06
388.713	110.06
388.938	104.06
389.163	99.06
389.387	98.06
389.612	100.06
389.837	90.06
390.062	98.06
390.287	95.06
390.512	89.06
390.736	97.06
390.961	89.06
391.186	97.06
391.411	104.06
391.636	99.06
391.86	96.06
392.085	102.06
392.31	90.06
392.534	76.06
392.759	91.06
392.984	88.06
393.208	103.06
393.433	99.06
393.658	106.06
393.882	86.06
394.107	73.06
394.331	84.06
394.556	82.06
394.78	72.06
395.005	90.06
395.229	89.06
395.454	91.06
395.678	86.06
395.903	90.06
396.127	102.06
396.352	74.06
396.576	93.06
396.801	84.06
397.025	80.06
397.249	99.06
397.474	86.06
397.698	91.06
397.922	78.06
398.147	86.06
398.371	93.06
398.595	76.06
398.82	75.06
399.044	79.06
399.268	88.06
399.492	87.06
399.717	90.06
399.941	97.06
400.165	103.06
400.389	94.06
400.613	91.06
400.837	89.06
401.062	88.06
401.286	80.06
401.51	96.06
401.734	90.06
401.958	104.06
402.182	123.06
402.406	159.06
402.63	119.06
402.854	104.06
403.078	103.06
403.302	83.06
403.526	89.06
403.75	99.06
403.974	61.06
404.198	83.06
404.422	87.06
404.645	84.06
404.869	95.06
405.093	94.06
405.317	102.06
405.541	87.06
405.765	91.06
405.988	111.06
406.212	162.06
406.436	223.06
406.66	145.06
406.883	117.06
407.107	93.06
407.331	106.06
407.555	96.06
407.778	90.06
408.002	88.06
408.226	91.06
408.449	91.06
408.673	77.06
408.896	97.06
409.12	101.06
409.344	89.06
409.567	104.06
409.791	90.06
410.014	107.06
410.238	91.06
410.461	91.06
410.685	81.06
410.908	91.06
411.132	95.06
411.355	113.06
411.578	96.06
411.802	102.06
412.025	83.06
412.249	98.06
412.472	84.06
412.695	111.06
412.919	103.06
413.142	90.06
413.365	85.06
413.589	99.06
413.812	76.06
414.035	96.06
414.258	98.06
414.482	98.06
414.705	101.06
414.928	89.06
415.151	96.06
415.374	113.06
415.597	87.06
415.821	82.06
416.044	90.06
416.267	79.06
416.49	92.06
416.713	86.06
416.936	91.06
417.159	76.06
417.382	90.06
417.605	79.06
417.828	113.06
418.051	101.06
418.274	88.06
418.497	85.06
418.72	91.06
418.943	90.06
419.166	83.06
419.389	107.06
419.611	81.06
419.834	99.06
420.057	87.06
420.28	97.06
420.503	80.06
420.726	78.06
420.948	95.06
421.171	96.06
421.394	91.06
421.617	100.06
421.839	101.06
422.062	91.06
422.285	91.06
422.507	104.06
422.73	111.06
422.953	96.06
423.175	93.06
423.398	73.06
423.621	86.06
423.843	82.06
424.066	87.06
424.288	91.06
424.511	93.06
424.733	95.06
424.956	102.06
425.178	109.06
425.401	103.06
425.623	104.06
425.846	99.06
426.068	95.06
426.291	95.06
426.513	102.06
426.735	93.06
426.958	101.06
427.18	90.06
427.402	128.06
427.625	160.06
427.847	141.06
428.069	116.06
428.292	97.06
428.514	84.06
428.736	86.06
428.958	83.06
429.181	101.06
429.403	99.06
429.625	88.06
429.847	88.06
430.069	85.06
430.292	109.06
430.514	91.06
430.736	92.06
430.958	88.06
431.18	86.06
431.402	91.06
431.624	87.06
431.846	83.06
432.068	96.06
432.29	86.06
432.512	91.06
432.734	80.06
432.956	100.06
433.178	86.06
433.4	93.06
433.622	88.06
433.844	89.06
434.066	98.06
434.287	78.06
434.509	87.06
434.731	82.06
434.953	84.06
435.175	94.06
435.397	81.06
435.618	101.06
435.84	100.06
436.062	117.06
436.284	135.06
436.505	105.06
436.727	92.06
436.949	102.06
437.17	89.06
437.392	85.06
437.614	99.06
437.835	102.06
438.057	107.06
438.278	95.06
438.5	97.06
438.721	121.06
438.943	100.06
439.165	73.06
439.386	92.06
439.608	77.06
439.829	106.06
440.05	125.06
440.272	140.06
440.493	104.06
440.715	90.06
440.936	80.06
441.158	91.06
441.379	93.06
441.6	101.06
441.822	97.06
442.043	89.06
442.264	100.06
442.486	103.06
442.707	99.06
442.928	98.06
443.149	135.06
443.371	154.06
443.592	117.06
443.813	129.06
444.034	103.06
444.255	91.06
444.476	86.06
444.698	86.06
444.919	90.06
445.14	147.06
445.361	121.06
445.582	127.06
445.803	154.06
446.024	133.06
446.245	126.06
446.466	105.06
446.687	88.06
446.908	90.06
447.129	99.06
447.35	94.06
447.571	97.06
447.792	96.06
448.013	101.06
448.234	114.06
448.455	97.06
448.675	111.06
448.896	118.06
449.117	105.06
449.338	97.06
449.559	143.06
449.779	133.06
450	103.06
450.221	86.06
450.442	79.06
450.662	100.06
450.883	97.06
451.104	107.06
451.324	80.06
451.545	90.06
451.766	97.06
451.986	83.06
452.207	97.06
452.428	91.06
452.648	91.06
452.869	101.06
453.089	104.06
453.31	113.06
453.53	107.06
453.751	106.06
453.971	126.06
454.192	99.06
454.412	106.06
454.633	81.06
454.853	93.06
455.073	98.06
455.294	97.06
455.514	109.06
455.734	95.06
455.955	69.06
456.175	86.06
456.395	80.06
456.616	82.06
456.836	77.06
457.056	89.06
457.276	95.06
457.497	85.06
457.717	90.06
457.937	85.06
458.157	84.06
458.377	101.06
458.598	96.06
458.818	148.06
459.038	160.06
459.258	107.06
459.478	86.06
459.698	75.06
459.918	70.06
460.138	81.06
460.358	90.06
460.578	84.06
460.798	87.06
461.018	91.06
461.238	80.06
461.458	98.06
461.678	99.06
461.898	107.06
462.118	87.06
462.338	93.06
462.558	83.06
462.777	91.06
462.997	87.06
463.217	77.06
463.437	84.06
463.657	88.06
463.876	108.06
464.096	91.06
464.316	95.06
464.536	96.06
464.755	101.06
464.975	109.06
465.195	177.06
465.414	155.06
465.634	96.06
465.854	88.06
466.073	89.06
466.293	73.06
466.512	92.06
466.732	90.06
466.951	90.06
467.171	98.06
467.391	87.06
467.61	102.06
467.829	101.06
468.049	94.06
468.268	99.06
468.488	97.06
468.707	94.06
468.927	87.06
469.146	79.06
469.365	86.06
469.585	90.06
469.804	86.06
470.023	90.06
470.243	85.06
470.462	80.06
470.681	115.06
470.901	91.06
471.12	87.06
471.339	88.06
471.558	92.06
471.777	92.06
471.997	89.06
472.216	104.06
472.435	117.06
472.654	99.06
472.873	80.06
473.092	80.06
473.311	96.06
473.53	77.06
473.749	102.06
473.968	106.06
474.187	112.06
474.406	80.06
474.625	83.06
474.844	79.06
475.063	85.06
475.282	91.06
475.501	84.06
475.72	105.06
475.939	94.06
476.158	105.06
476.377	97.06
476.596	98.06
476.814	94.06
477.033	97.06
477.252	85.06
477.471	95.06
477.69	78.06
477.908	87.06
478.127	78.06
478.346	84.06
478.564	89.06
478.783	105.06
479.002	95.06
479.22	102.06
479.439	114.06
479.658	98.06
479.876	83.06
480.095	101.06
480.313	91.06
480.532	95.06
480.751	97.06
480.969	106.06
481.188	150.06
481.406	118.06
481.624	108.06
481.843	96.06
482.061	89.06
482.28	94.06
482.498	83.06
482.717	96.06
482.935	88.06
483.153	98.06
483.372	95.06
483.59	97.06
483.808	81.06
484.027	95.06
484.245	95.06
484.463	89.06
484.681	79.06
484.9	85.06
485.118	90.06
485.336	104.06
485.554	103.06
485.772	107.06
485.99	96.06
486.209	114.06
486.427	107.06
486.645	105.06
486.863	117.06
487.081	100.06
487.299	98.06
487.517	95.06
487.735	89.06
487.953	91.06
488.171	87.06
488.389	96.06
488.607	104.06
488.825	92.06
489.043	99.06
489.261	89.06
489.479	90.06
489.696	89.06
489.914	91.06
490.132	95.06
490.35	81.06
490.568	90.06
490.786	100.06
491.003	83.06
491.221	90.06
491.439	89.06
491.657	96.06
491.874	96.06
492.092	55.06
492.31	91.06
492.527	88.06
492.745	100.06
492.963	90.06
493.18	107.06
493.398	104.06
493.615	103.06
493.833	82.06
494.05	88.06
494.268	90.06
494.485	99.06
494.703	95.06
494.92	90.06
495.138	83.06
495.355	81.06
495.573	86.06
495.79	100.06
496.008	97.06
496.225	95.06
496.442	105.06
496.66	78.06
496.877	99.06
497.094	96.06
497.312	105.06
497.529	87.06
497.746	89.06
497.963	85.06
498.181	87.06
498.398	101.06
498.615	104.06
498.832	104.06
499.049	90.06
499.267	91.06
499.484	80.06
499.701	88.06
499.918	101.06
500.135	101.06
500.352	102.06
500.569	89.06
500.786	98.06
501.003	93.06
501.22	90.06
501.437	106.06
501.654	97.06
501.871	107.06
502.088	91.06
502.305	88.06
502.522	88.06
502.739	97.06
502.956	90.06
503.172	79.06
503.389	98.06
503.606	103.06
503.823	106.06
504.04	95.06
504.256	105.06
504.473	86.06
504.69	100.06
504.907	94.06
505.123	90.06
505.34	88.06
505.557	82.06
505.773	96.06
505.99	105.06
506.207	88.06
506.423	89.06
506.64	99.06
506.856	85.06
507.073	85.06
507.289	91.06
507.506	88.06
507.722	129.06
507.939	121.06
508.155	105.06
508.372	88.06
508.588	84.06
508.805	98.06
509.021	100.06
509.238	114.06
509.454	98.06
509.67	113.06
509.887	105.06
510.103	128.06
510.319	217.06
510.536	720.06
510.752	2273.06
510.968	653.06
511.184	166.06
511.401	116.06
511.617	96.06
511.833	93.06
512.049	82.06
512.265	97.06
512.481	84.06
512.698	109.06
512.914	81.06
513.13	95.06
513.346	104.06
513.562	88.06
513.778	86.06
513.994	90.06
514.21	114.06
