Data from Circ_2005_H10_HRD10591_00091.txt Node
Date: Wed Jan 03 10:30:09 EST 2024
User: Yrep
Spectrometer: HR+D1059
Trigger mode: 1
Integration Time (sec): 1.000000E-1
Scans to average: 1
Electric dark correction enabled: true
Nonlinearity correction enabled: false
Boxcar width: 0
XAxis mode: Wavelengths
Number of Pixels in Spectrum: 2048
>>>>>Begin Spectral Data<<<<<
223.165	-25.06
223.4	-25.06
223.635	-25.06
223.869	-20.06
224.104	-27.06
224.338	-9.06
224.573	-23.06
224.808	-12.06
225.042	-6.06
225.277	-9.06
225.511	-11.06
225.746	10.94
225.98	4.94
226.215	12.94
226.449	13.94
226.683	30.94
226.918	27.94
227.152	40.94
227.387	36.94
227.621	29.94
227.856	40.94
228.09	38.94
228.324	45.94
228.559	63.94
228.793	59.94
229.027	38.94
229.262	58.94
229.496	63.94
229.73	68.94
229.964	66.94
230.199	64.94
230.433	48.94
230.667	78.94
230.901	67.94
231.136	74.94
231.37	71.94
231.604	66.94
231.838	74.94
232.072	72.94
232.306	82.94
232.541	58.94
232.775	75.94
233.009	76.94
233.243	62.94
233.477	79.94
233.711	77.94
233.945	91.94
234.179	79.94
234.413	78.94
234.647	79.94
234.881	79.94
235.115	59.94
235.349	71.94
235.583	78.94
235.817	77.94
236.051	77.94
236.285	72.94
236.519	68.94
236.753	74.94
236.987	75.94
237.221	86.94
237.455	88.94
237.689	77.94
237.922	74.94
238.156	67.94
238.39	64.94
238.624	50.94
238.858	72.94
239.091	75.94
239.325	66.94
239.559	67.94
239.793	80.94
240.027	93.94
240.26	70.94
240.494	78.94
240.728	72.94
240.961	77.94
241.195	69.94
241.429	76.94
241.662	70.94
241.896	70.94
242.13	70.94
242.363	80.94
242.597	64.94
242.83	72.94
243.064	79.94
243.298	79.94
243.531	64.94
243.765	64.94
243.998	63.94
244.232	81.94
244.465	75.94
244.699	76.94
244.932	79.94
245.166	74.94
245.399	63.94
245.633	78.94
245.866	62.94
246.099	78.94
246.333	71.94
246.566	67.94
246.8	77.94
247.033	69.94
247.266	77.94
247.5	67.94
247.733	57.94
247.966	76.94
248.2	65.94
248.433	74.94
248.666	60.94
248.899	79.94
249.133	78.94
249.366	93.94
249.599	87.94
249.832	66.94
250.066	84.94
250.299	82.94
250.532	91.94
250.765	70.94
250.998	87.94
251.231	89.94
251.465	81.94
251.698	83.94
251.931	82.94
252.164	80.94
252.397	59.94
252.63	83.94
252.863	76.94
253.096	70.94
253.329	60.94
253.562	71.94
253.795	75.94
254.028	66.94
254.261	76.94
254.494	75.94
254.727	75.94
254.96	70.94
255.193	74.94
255.426	86.94
255.659	87.94
255.892	71.94
256.124	86.94
256.357	64.94
256.59	78.94
256.823	73.94
257.056	69.94
257.289	71.94
257.521	87.94
257.754	74.94
257.987	68.94
258.22	76.94
258.452	85.94
258.685	69.94
258.918	82.94
259.151	87.94
259.383	83.94
259.616	83.94
259.849	72.94
260.081	81.94
260.314	81.94
260.547	83.94
260.779	76.94
261.012	78.94
261.244	84.94
261.477	83.94
261.71	92.94
261.942	103.94
262.175	104.94
262.407	84.94
262.64	82.94
262.872	60.94
263.105	90.94
263.337	81.94
263.57	67.94
263.802	83.94
264.035	60.94
264.267	83.94
264.499	72.94
264.732	77.94
264.964	75.94
265.197	94.94
265.429	66.94
265.661	76.94
265.894	86.94
266.126	65.94
266.358	56.94
266.591	86.94
266.823	95.94
267.055	88.94
267.287	83.94
267.52	85.94
267.752	96.94
267.984	75.94
268.216	81.94
268.448	71.94
268.681	70.94
268.913	84.94
269.145	80.94
269.377	77.94
269.609	78.94
269.841	88.94
270.073	71.94
270.306	87.94
270.538	64.94
270.77	86.94
271.002	66.94
271.234	59.94
271.466	86.94
271.698	67.94
271.93	58.94
272.162	82.94
272.394	69.94
272.626	82.94
272.858	81.94
273.09	90.94
273.322	80.94
273.553	78.94
273.785	84.94
274.017	72.94
274.249	77.94
274.481	81.94
274.713	76.94
274.945	66.94
275.176	83.94
275.408	74.94
275.64	72.94
275.872	93.94
276.104	82.94
276.335	81.94
276.567	89.94
276.799	107.94
277.031	78.94
277.262	88.94
277.494	93.94
277.726	78.94
277.957	76.94
278.189	76.94
278.421	70.94
278.652	79.94
278.884	85.94
279.115	80.94
279.347	87.94
279.579	80.94
279.81	86.94
280.042	83.94
280.273	91.94
280.505	91.94
280.736	67.94
280.968	76.94
281.199	80.94
281.431	88.94
281.662	87.94
281.894	85.94
282.125	88.94
282.356	114.94
282.588	116.94
282.819	99.94
283.051	84.94
283.282	88.94
283.513	87.94
283.745	77.94
283.976	68.94
284.207	100.94
284.439	76.94
284.67	83.94
284.901	76.94
285.132	83.94
285.364	83.94
285.595	88.94
285.826	78.94
286.057	95.94
286.288	82.94
286.52	81.94
286.751	75.94
286.982	83.94
287.213	85.94
287.444	73.94
287.675	79.94
287.906	91.94
288.138	82.94
288.369	78.94
288.6	89.94
288.831	75.94
289.062	88.94
289.293	88.94
289.524	71.94
289.755	84.94
289.986	75.94
290.217	86.94
290.448	60.94
290.679	85.94
290.91	84.94
291.141	85.94
291.371	64.94
291.602	76.94
291.833	91.94
292.064	95.94
292.295	72.94
292.526	80.94
292.757	98.94
292.987	87.94
293.218	82.94
293.449	74.94
293.68	91.94
293.91	80.94
294.141	77.94
294.372	78.94
294.603	73.94
294.833	91.94
295.064	82.94
295.295	72.94
295.525	71.94
295.756	95.94
295.987	89.94
296.217	114.94
296.448	114.94
296.679	94.94
296.909	79.94
297.14	81.94
297.37	79.94
297.601	71.94
297.831	81.94
298.062	91.94
298.292	81.94
298.523	81.94
298.753	72.94
298.984	92.94
299.214	78.94
299.445	83.94
299.675	84.94
299.905	82.94
300.136	93.94
300.366	88.94
300.597	73.94
300.827	100.94
301.057	97.94
301.288	96.94
301.518	94.94
301.748	90.94
301.979	81.94
302.209	92.94
302.439	79.94
302.669	82.94
302.9	76.94
303.13	77.94
303.36	91.94
303.59	99.94
303.82	98.94
304.051	88.94
304.281	89.94
304.511	67.94
304.741	76.94
304.971	87.94
305.201	78.94
305.431	99.94
305.661	89.94
305.891	83.94
306.121	91.94
306.352	104.94
306.582	92.94
306.812	82.94
307.042	80.94
307.272	80.94
307.502	95.94
307.731	88.94
307.961	95.94
308.191	84.94
308.421	104.94
308.651	93.94
308.881	78.94
309.111	90.94
309.341	79.94
309.571	84.94
309.8	87.94
310.03	98.94
310.26	88.94
310.49	83.94
310.72	94.94
310.949	90.94
311.179	82.94
311.409	88.94
311.639	70.94
311.868	99.94
312.098	98.94
312.328	83.94
312.557	76.94
312.787	82.94
313.017	103.94
313.246	94.94
313.476	76.94
313.706	87.94
313.935	79.94
314.165	87.94
314.394	71.94
314.624	87.94
314.853	88.94
315.083	93.94
315.312	98.94
315.542	88.94
315.771	81.94
316.001	88.94
316.23	91.94
316.46	108.94
316.689	82.94
316.919	82.94
317.148	87.94
317.377	92.94
317.607	92.94
317.836	95.94
318.065	87.94
318.295	85.94
318.524	90.94
318.753	75.94
318.983	74.94
319.212	86.94
319.441	93.94
319.67	90.94
319.9	103.94
320.129	76.94
320.358	76.94
320.587	96.94
320.816	92.94
321.046	94.94
321.275	87.94
321.504	91.94
321.733	91.94
321.962	95.94
322.191	96.94
322.42	105.94
322.649	94.94
322.878	95.94
323.108	120.94
323.337	104.94
323.566	118.94
323.795	126.94
324.024	170.94
324.253	335.94
324.482	681.94
324.71	1369.94
324.939	1797.94
325.168	686.94
325.397	224.94
325.626	134.94
325.855	120.94
326.084	110.94
326.313	114.94
326.542	144.94
326.77	203.94
326.999	392.94
327.228	808.94
327.457	1442.94
327.686	1168.94
327.914	339.94
328.143	198.94
328.372	178.94
328.6	128.94
328.829	113.94
329.058	101.94
329.287	113.94
329.515	110.94
329.744	111.94
329.972	124.94
330.201	182.94
330.43	210.94
330.658	147.94
330.887	142.94
331.115	103.94
331.344	90.94
331.572	79.94
331.801	96.94
332.03	98.94
332.258	96.94
332.486	92.94
332.715	78.94
332.943	103.94
333.172	85.94
333.4	96.94
333.629	99.94
333.857	95.94
334.085	133.94
334.314	175.94
334.542	251.94
334.771	232.94
334.999	126.94
335.227	119.94
335.455	94.94
335.684	93.94
335.912	90.94
336.14	93.94
336.369	98.94
336.597	100.94
336.825	84.94
337.053	85.94
337.281	81.94
337.51	74.94
337.738	92.94
337.966	89.94
338.194	78.94
338.422	84.94
338.65	84.94
338.878	101.94
339.106	93.94
339.334	88.94
339.562	71.94
339.79	69.94
340.018	75.94
340.246	89.94
340.474	91.94
340.702	88.94
340.93	74.94
341.158	92.94
341.386	89.94
341.614	88.94
341.842	103.94
342.07	87.94
342.298	78.94
342.526	86.94
342.754	81.94
342.981	104.94
343.209	78.94
343.437	98.94
343.665	84.94
343.893	74.94
344.12	88.94
344.348	67.94
344.576	79.94
344.804	81.94
345.031	87.94
345.259	90.94
345.487	86.94
345.714	80.94
345.942	80.94
346.17	99.94
346.397	98.94
346.625	88.94
346.853	78.94
347.08	93.94
347.308	91.94
347.535	78.94
347.763	92.94
347.99	86.94
348.218	95.94
348.445	81.94
348.673	94.94
348.9	94.94
349.128	90.94
349.355	98.94
349.583	87.94
349.81	79.94
350.037	97.94
350.265	86.94
350.492	89.94
350.72	90.94
350.947	99.94
351.174	104.94
351.402	82.94
351.629	90.94
351.856	111.94
352.083	85.94
352.311	100.94
352.538	99.94
352.765	103.94
352.992	98.94
353.22	98.94
353.447	75.94
353.674	80.94
353.901	96.94
354.128	81.94
354.355	86.94
354.583	97.94
354.81	97.94
355.037	82.94
355.264	91.94
355.491	92.94
355.718	83.94
355.945	96.94
356.172	93.94
356.399	89.94
356.626	104.94
356.853	89.94
357.08	85.94
357.307	86.94
357.534	95.94
357.761	73.94
357.988	91.94
358.215	79.94
358.441	83.94
358.668	81.94
358.895	105.94
359.122	86.94
359.349	84.94
359.576	77.94
359.802	98.94
360.029	105.94
360.256	103.94
360.483	90.94
360.709	77.94
360.936	83.94
361.163	84.94
361.39	81.94
361.616	86.94
361.843	76.94
362.07	92.94
362.296	93.94
362.523	87.94
362.749	90.94
362.976	85.94
363.203	79.94
363.429	77.94
363.656	85.94
363.882	78.94
364.109	88.94
364.335	79.94
364.562	92.94
364.788	80.94
365.015	96.94
365.241	95.94
365.468	103.94
365.694	89.94
365.92	99.94
366.147	75.94
366.373	77.94
366.599	90.94
366.826	82.94
367.052	88.94
367.278	82.94
367.505	88.94
367.731	95.94
367.957	85.94
368.184	94.94
368.41	82.94
368.636	97.94
368.862	98.94
369.089	99.94
369.315	84.94
369.541	76.94
369.767	99.94
369.993	91.94
370.219	87.94
370.445	81.94
370.672	106.94
370.898	80.94
371.124	79.94
371.35	87.94
371.576	86.94
371.802	86.94
372.028	83.94
372.254	85.94
372.48	87.94
372.706	85.94
372.932	85.94
373.158	79.94
373.384	97.94
373.61	67.94
373.835	80.94
374.061	81.94
374.287	83.94
374.513	82.94
374.739	92.94
374.965	81.94
375.191	95.94
375.416	71.94
375.642	84.94
375.868	101.94
376.094	84.94
376.319	79.94
376.545	79.94
376.771	88.94
376.997	91.94
377.222	84.94
377.448	85.94
377.674	90.94
377.899	80.94
378.125	89.94
378.35	88.94
378.576	86.94
378.802	91.94
379.027	82.94
379.253	89.94
379.478	90.94
379.704	79.94
379.929	90.94
380.155	91.94
380.38	92.94
380.606	86.94
380.831	93.94
381.057	86.94
381.282	90.94
381.507	101.94
381.733	88.94
381.958	91.94
382.184	79.94
382.409	87.94
382.634	96.94
382.86	98.94
383.085	108.94
383.31	96.94
383.535	100.94
383.761	89.94
383.986	94.94
384.211	102.94
384.436	95.94
384.662	85.94
384.887	104.94
385.112	100.94
385.337	104.94
385.562	90.94
385.787	81.94
386.013	105.94
386.238	103.94
386.463	106.94
386.688	103.94
386.913	95.94
387.138	99.94
387.363	111.94
387.588	83.94
387.813	100.94
388.038	102.94
388.263	101.94
388.488	87.94
388.713	82.94
388.938	95.94
389.163	90.94
389.387	88.94
389.612	96.94
389.837	101.94
390.062	99.94
390.287	79.94
390.512	85.94
390.736	75.94
390.961	80.94
391.186	99.94
391.411	92.94
391.636	82.94
391.86	88.94
392.085	94.94
392.31	88.94
392.534	78.94
392.759	88.94
392.984	84.94
393.208	105.94
393.433	81.94
393.658	83.94
393.882	78.94
394.107	80.94
394.331	94.94
394.556	80.94
394.78	91.94
395.005	75.94
395.229	79.94
395.454	92.94
395.678	84.94
395.903	88.94
396.127	84.94
396.352	84.94
396.576	72.94
396.801	75.94
397.025	74.94
397.249	90.94
397.474	95.94
397.698	90.94
397.922	90.94
398.147	84.94
398.371	83.94
398.595	71.94
398.82	84.94
399.044	91.94
399.268	81.94
399.492	81.94
399.717	87.94
399.941	82.94
400.165	79.94
400.389	96.94
400.613	75.94
400.837	80.94
401.062	75.94
401.286	95.94
401.51	86.94
401.734	83.94
401.958	98.94
402.182	108.94
402.406	128.94
402.63	99.94
402.854	97.94
403.078	81.94
403.302	76.94
403.526	95.94
403.75	79.94
403.974	88.94
404.198	79.94
404.422	80.94
404.645	74.94
404.869	90.94
405.093	83.94
405.317	85.94
405.541	96.94
405.765	96.94
405.988	99.94
406.212	140.94
406.436	196.94
406.66	117.94
406.883	99.94
407.107	81.94
407.331	91.94
407.555	88.94
407.778	86.94
408.002	95.94
408.226	82.94
408.449	75.94
408.673	86.94
408.896	86.94
409.12	90.94
409.344	68.94
409.567	91.94
409.791	89.94
410.014	84.94
410.238	81.94
410.461	94.94
410.685	81.94
410.908	90.94
411.132	101.94
411.355	97.94
411.578	88.94
411.802	70.94
412.025	96.94
412.249	85.94
412.472	83.94
412.695	95.94
412.919	93.94
413.142	82.94
413.365	97.94
413.589	91.94
413.812	93.94
414.035	92.94
414.258	73.94
414.482	77.94
414.705	99.94
414.928	95.94
415.151	83.94
415.374	91.94
415.597	79.94
415.821	88.94
416.044	87.94
416.267	75.94
416.49	88.94
416.713	90.94
416.936	81.94
417.159	73.94
417.382	79.94
417.605	84.94
417.828	77.94
418.051	88.94
418.274	82.94
418.497	82.94
418.72	82.94
418.943	91.94
419.166	90.94
419.389	82.94
419.611	93.94
419.834	90.94
420.057	64.94
420.28	78.94
420.503	83.94
420.726	71.94
420.948	78.94
421.171	75.94
421.394	76.94
421.617	82.94
421.839	84.94
422.062	82.94
422.285	90.94
422.507	97.94
422.73	104.94
422.953	91.94
423.175	92.94
423.398	83.94
423.621	82.94
423.843	101.94
424.066	82.94
424.288	83.94
424.511	90.94
424.733	82.94
424.956	93.94
425.178	79.94
425.401	81.94
425.623	88.94
425.846	75.94
426.068	89.94
426.291	100.94
426.513	86.94
426.735	75.94
426.958	104.94
427.18	98.94
427.402	123.94
427.625	144.94
427.847	120.94
428.069	113.94
428.292	98.94
428.514	80.94
428.736	89.94
428.958	79.94
429.181	82.94
429.403	92.94
429.625	78.94
429.847	85.94
430.069	96.94
430.292	98.94
430.514	78.94
430.736	85.94
430.958	77.94
431.18	72.94
431.402	83.94
431.624	87.94
431.846	58.94
432.068	73.94
432.29	87.94
432.512	108.94
432.734	81.94
432.956	79.94
433.178	85.94
433.4	92.94
433.622	96.94
433.844	83.94
434.066	79.94
434.287	65.94
434.509	82.94
434.731	77.94
434.953	77.94
435.175	83.94
435.397	77.94
435.618	88.94
435.84	99.94
436.062	110.94
436.284	96.94
436.505	97.94
436.727	97.94
436.949	78.94
437.17	69.94
437.392	83.94
437.614	92.94
437.835	96.94
438.057	110.94
438.278	99.94
438.5	99.94
438.721	96.94
438.943	84.94
439.165	91.94
439.386	81.94
439.608	81.94
439.829	94.94
440.05	93.94
440.272	116.94
440.493	81.94
440.715	82.94
440.936	81.94
441.158	84.94
441.379	91.94
441.6	84.94
441.822	73.94
442.043	85.94
442.264	78.94
442.486	82.94
442.707	78.94
442.928	98.94
443.149	107.94
443.371	100.94
443.592	97.94
443.813	86.94
444.034	86.94
444.255	86.94
444.476	84.94
444.698	84.94
444.919	83.94
445.14	107.94
445.361	112.94
445.582	107.94
445.803	107.94
446.024	121.94
446.245	114.94
446.466	103.94
446.687	78.94
446.908	87.94
447.129	79.94
447.35	102.94
447.571	85.94
447.792	84.94
448.013	98.94
448.234	94.94
448.455	83.94
448.675	93.94
448.896	104.94
449.117	83.94
449.338	92.94
449.559	123.94
449.779	106.94
450	108.94
450.221	91.94
450.442	89.94
450.662	88.94
450.883	87.94
451.104	84.94
451.324	82.94
451.545	77.94
451.766	86.94
451.986	89.94
452.207	82.94
452.428	87.94
452.648	100.94
452.869	103.94
453.089	103.94
453.31	114.94
453.53	88.94
453.751	88.94
453.971	106.94
454.192	93.94
454.412	96.94
454.633	87.94
454.853	83.94
455.073	72.94
455.294	78.94
455.514	87.94
455.734	85.94
455.955	94.94
456.175	67.94
456.395	76.94
456.616	80.94
456.836	80.94
457.056	71.94
457.276	92.94
457.497	75.94
457.717	84.94
457.937	75.94
458.157	84.94
458.377	73.94
458.598	96.94
458.818	121.94
459.038	140.94
459.258	96.94
459.478	81.94
459.698	75.94
459.918	73.94
460.138	76.94
460.358	65.94
460.578	79.94
460.798	91.94
461.018	84.94
461.238	85.94
461.458	83.94
461.678	82.94
461.898	91.94
462.118	82.94
462.338	91.94
462.558	81.94
462.777	75.94
462.997	79.94
463.217	76.94
463.437	84.94
463.657	74.94
463.876	84.94
464.096	83.94
464.316	71.94
464.536	87.94
464.755	75.94
464.975	91.94
465.195	152.94
465.414	131.94
465.634	80.94
465.854	84.94
466.073	80.94
466.293	58.94
466.512	83.94
466.732	82.94
466.951	66.94
467.171	88.94
467.391	101.94
467.61	88.94
467.829	91.94
468.049	125.94
468.268	164.94
468.488	94.94
468.707	78.94
468.927	66.94
469.146	95.94
469.365	81.94
469.585	65.94
469.804	73.94
470.023	78.94
470.243	76.94
470.462	94.94
470.681	87.94
470.901	92.94
471.12	91.94
471.339	84.94
471.558	78.94
471.777	80.94
471.997	100.94
472.216	203.94
472.435	336.94
472.654	128.94
472.873	92.94
473.092	77.94
473.311	65.94
473.53	68.94
473.749	84.94
473.968	84.94
474.187	91.94
474.406	88.94
474.625	65.94
474.844	81.94
475.063	79.94
475.282	90.94
475.501	90.94
475.72	78.94
475.939	78.94
476.158	88.94
476.377	85.94
476.596	81.94
476.814	90.94
477.033	87.94
477.252	91.94
477.471	89.94
477.69	91.94
477.908	88.94
478.127	72.94
478.346	90.94
478.564	95.94
478.783	82.94
479.002	90.94
479.22	97.94
479.439	97.94
479.658	90.94
479.876	97.94
480.095	94.94
480.313	94.94
480.532	97.94
480.751	102.94
480.969	196.94
481.188	530.94
481.406	346.94
481.624	113.94
481.843	81.94
482.061	79.94
482.28	98.94
482.498	90.94
482.717	75.94
482.935	92.94
483.153	82.94
483.372	73.94
483.59	66.94
483.808	87.94
484.027	90.94
484.245	93.94
484.463	99.94
484.681	74.94
484.9	79.94
485.118	87.94
485.336	97.94
485.554	96.94
485.772	78.94
485.99	88.94
486.209	94.94
486.427	89.94
486.645	101.94
486.863	92.94
487.081	96.94
487.299	98.94
487.517	96.94
487.735	95.94
487.953	89.94
488.171	89.94
488.389	87.94
488.607	90.94
488.825	86.94
489.043	81.94
489.261	77.94
489.479	84.94
489.696	82.94
489.914	85.94
490.132	78.94
490.35	80.94
490.568	82.94
490.786	82.94
491.003	80.94
491.221	81.94
491.439	88.94
491.657	84.94
491.874	88.94
492.092	88.94
492.31	88.94
492.527	56.94
492.745	92.94
492.963	80.94
493.18	88.94
493.398	94.94
493.615	90.94
493.833	97.94
494.05	74.94
494.268	88.94
494.485	80.94
494.703	81.94
494.92	81.94
495.138	79.94
495.355	81.94
495.573	87.94
495.79	81.94
496.008	86.94
496.225	95.94
496.442	66.94
496.66	78.94
496.877	89.94
497.094	81.94
497.312	81.94
497.529	92.94
497.746	88.94
497.963	85.94
498.181	72.94
498.398	90.94
498.615	94.94
498.832	99.94
499.049	88.94
499.267	92.94
499.484	82.94
499.701	88.94
499.918	90.94
500.135	86.94
500.352	90.94
500.569	82.94
500.786	102.94
501.003	79.94
501.22	81.94
501.437	92.94
501.654	87.94
501.871	84.94
502.088	88.94
502.305	94.94
502.522	91.94
502.739	99.94
502.956	80.94
503.172	88.94
503.389	91.94
503.606	94.94
503.823	90.94
504.04	80.94
504.256	82.94
504.473	80.94
504.69	87.94
504.907	85.94
505.123	73.94
505.34	77.94
505.557	91.94
505.773	90.94
505.99	82.94
506.207	98.94
506.423	74.94
506.64	82.94
506.856	98.94
507.073	89.94
507.289	73.94
507.506	82.94
507.722	71.94
507.939	95.94
508.155	73.94
508.372	93.94
508.588	91.94
508.805	78.94
509.021	99.94
509.238	104.94
509.454	74.94
509.67	90.94
509.887	107.94
510.103	129.94
510.319	175.94
510.536	599.94
510.752	1906.94
510.968	538.94
511.184	135.94
511.401	101.94
511.617	92.94
511.833	89.94
512.049	81.94
512.265	87.94
512.481	77.94
512.698	84.94
512.914	103.94
513.13	75.94
513.346	87.94
513.562	78.94
513.778	74.94
513.994	110.94
514.21	107.94
514.426	109.94
514.642	120.94
514.858	110.94
515.074	126.94
515.29	351.94
515.506	1130.94
515.721	425.94
515.937	145.94
516.153	119.94
516.369	92.94
516.585	91.94
516.801	79.94
517.016	84.94
517.232	100.94
517.448	80.94
517.664	91.94
