Data from Circ_2005_H10_HRD10591_00041.txt Node
Date: Wed Jan 03 10:29:59 EST 2024
User: Yrep
Spectrometer: HR+D1059
Trigger mode: 1
Integration Time (sec): 1.000000E-1
Scans to average: 1
Electric dark correction enabled: true
Nonlinearity correction enabled: false
Boxcar width: 0
XAxis mode: Wavelengths
Number of Pixels in Spectrum: 2048
>>>>>Begin Spectral Data<<<<<
223.165	-14.25
223.4	-14.25
223.635	-14.25
223.869	-17.25
224.104	-24.25
224.338	-22.25
224.573	-27.25
224.808	-23.25
225.042	-17.25
225.277	-6.25
225.511	-8.25
225.746	7.75
225.98	5.75
226.215	22.75
226.449	26.75
226.683	22.75
226.918	40.75
227.152	33.75
227.387	50.75
227.621	48.75
227.856	40.75
228.09	46.75
228.324	42.75
228.559	52.75
228.793	64.75
229.027	62.75
229.262	55.75
229.496	64.75
229.73	67.75
229.964	83.75
230.199	90.75
230.433	78.75
230.667	71.75
230.901	82.75
231.136	90.75
231.37	85.75
231.604	69.75
231.838	93.75
232.072	84.75
232.306	80.75
232.541	79.75
232.775	93.75
233.009	70.75
233.243	79.75
233.477	81.75
233.711	82.75
233.945	100.75
234.179	82.75
234.413	69.75
234.647	84.75
234.881	89.75
235.115	82.75
235.349	87.75
235.583	83.75
235.817	71.75
236.051	72.75
236.285	81.75
236.519	75.75
236.753	79.75
236.987	87.75
237.221	71.75
237.455	76.75
237.689	78.75
237.922	87.75
238.156	81.75
238.39	84.75
238.624	85.75
238.858	85.75
239.091	93.75
239.325	73.75
239.559	90.75
239.793	81.75
240.027	81.75
240.26	86.75
240.494	77.75
240.728	73.75
240.961	81.75
241.195	76.75
241.429	78.75
241.662	73.75
241.896	88.75
242.13	83.75
242.363	76.75
242.597	68.75
242.83	82.75
243.064	80.75
243.298	86.75
243.531	72.75
243.765	81.75
243.998	77.75
244.232	79.75
244.465	95.75
244.699	81.75
244.932	84.75
245.166	76.75
245.399	68.75
245.633	83.75
245.866	79.75
246.099	87.75
246.333	88.75
246.566	90.75
246.8	81.75
247.033	82.75
247.266	76.75
247.5	81.75
247.733	77.75
247.966	89.75
248.2	77.75
248.433	80.75
248.666	92.75
248.899	86.75
249.133	90.75
249.366	89.75
249.599	89.75
249.832	85.75
250.066	83.75
250.299	76.75
250.532	83.75
250.765	77.75
250.998	93.75
251.231	82.75
251.465	73.75
251.698	86.75
251.931	77.75
252.164	73.75
252.397	81.75
252.63	92.75
252.863	83.75
253.096	88.75
253.329	90.75
253.562	88.75
253.795	71.75
254.028	81.75
254.261	71.75
254.494	73.75
254.727	82.75
254.96	84.75
255.193	78.75
255.426	81.75
255.659	93.75
255.892	88.75
256.124	82.75
256.357	87.75
256.59	90.75
256.823	66.75
257.056	100.75
257.289	80.75
257.521	84.75
257.754	84.75
257.987	92.75
258.22	85.75
258.452	83.75
258.685	79.75
258.918	85.75
259.151	101.75
259.383	94.75
259.616	80.75
259.849	81.75
260.081	80.75
260.314	85.75
260.547	97.75
260.779	89.75
261.012	88.75
261.244	84.75
261.477	100.75
261.71	107.75
261.942	131.75
262.175	128.75
262.407	88.75
262.64	87.75
262.872	94.75
263.105	88.75
263.337	80.75
263.57	82.75
263.802	86.75
264.035	70.75
264.267	87.75
264.499	85.75
264.732	74.75
264.964	90.75
265.197	95.75
265.429	83.75
265.661	87.75
265.894	89.75
266.126	86.75
266.358	79.75
266.591	88.75
266.823	81.75
267.055	84.75
267.287	87.75
267.52	66.75
267.752	95.75
267.984	95.75
268.216	69.75
268.448	90.75
268.681	82.75
268.913	80.75
269.145	87.75
269.377	65.75
269.609	71.75
269.841	81.75
270.073	90.75
270.306	96.75
270.538	94.75
270.77	93.75
271.002	85.75
271.234	86.75
271.466	92.75
271.698	90.75
271.93	87.75
272.162	93.75
272.394	86.75
272.626	83.75
272.858	88.75
273.09	100.75
273.322	81.75
273.553	81.75
273.785	92.75
274.017	85.75
274.249	88.75
274.481	88.75
274.713	93.75
274.945	93.75
275.176	96.75
275.408	91.75
275.64	97.75
275.872	82.75
276.104	100.75
276.335	85.75
276.567	90.75
276.799	124.75
277.031	96.75
277.262	96.75
277.494	80.75
277.726	88.75
277.957	74.75
278.189	91.75
278.421	91.75
278.652	93.75
278.884	72.75
279.115	66.75
279.347	94.75
279.579	92.75
279.81	85.75
280.042	77.75
280.273	101.75
280.505	96.75
280.736	98.75
280.968	80.75
281.199	89.75
281.431	92.75
281.662	79.75
281.894	96.75
282.125	103.75
282.356	102.75
282.588	131.75
282.819	117.75
283.051	96.75
283.282	85.75
283.513	100.75
283.745	93.75
283.976	88.75
284.207	93.75
284.439	92.75
284.67	111.75
284.901	93.75
285.132	94.75
285.364	95.75
285.595	90.75
285.826	94.75
286.057	83.75
286.288	90.75
286.52	101.75
286.751	89.75
286.982	94.75
287.213	89.75
287.444	77.75
287.675	79.75
287.906	72.75
288.138	98.75
288.369	102.75
288.6	102.75
288.831	82.75
289.062	91.75
289.293	85.75
289.524	80.75
289.755	92.75
289.986	86.75
290.217	97.75
290.448	102.75
290.679	98.75
290.91	85.75
291.141	96.75
291.371	96.75
291.602	79.75
291.833	89.75
292.064	96.75
292.295	87.75
292.526	99.75
292.757	83.75
292.987	99.75
293.218	103.75
293.449	96.75
293.68	106.75
293.91	83.75
294.141	85.75
294.372	104.75
294.603	93.75
294.833	67.75
295.064	78.75
295.295	101.75
295.525	111.75
295.756	105.75
295.987	132.75
296.217	136.75
296.448	121.75
296.679	92.75
296.909	100.75
297.14	90.75
297.37	96.75
297.601	90.75
297.831	85.75
298.062	96.75
298.292	108.75
298.523	101.75
298.753	81.75
298.984	88.75
299.214	83.75
299.445	103.75
299.675	98.75
299.905	96.75
300.136	117.75
300.366	92.75
300.597	96.75
300.827	94.75
301.057	105.75
301.288	110.75
301.518	89.75
301.748	99.75
301.979	101.75
302.209	87.75
302.439	104.75
302.669	103.75
302.9	95.75
303.13	108.75
303.36	97.75
303.59	97.75
303.82	107.75
304.051	82.75
304.281	105.75
304.511	100.75
304.741	91.75
304.971	89.75
305.201	107.75
305.431	92.75
305.661	90.75
305.891	95.75
306.121	100.75
306.352	97.75
306.582	94.75
306.812	92.75
307.042	99.75
307.272	94.75
307.502	107.75
307.731	99.75
307.961	107.75
308.191	101.75
308.421	84.75
308.651	106.75
308.881	89.75
309.111	98.75
309.341	97.75
309.571	119.75
309.8	111.75
310.03	82.75
310.26	89.75
310.49	92.75
310.72	101.75
310.949	108.75
311.179	108.75
311.409	95.75
311.639	88.75
311.868	88.75
312.098	103.75
312.328	89.75
312.557	101.75
312.787	115.75
313.017	108.75
313.246	90.75
313.476	95.75
313.706	105.75
313.935	90.75
314.165	101.75
314.394	105.75
314.624	104.75
314.853	95.75
315.083	105.75
315.312	107.75
315.542	105.75
315.771	98.75
316.001	88.75
316.23	77.75
316.46	95.75
316.689	114.75
316.919	102.75
317.148	96.75
317.377	101.75
317.607	100.75
317.836	98.75
318.065	101.75
318.295	104.75
318.524	96.75
318.753	100.75
318.983	107.75
319.212	124.75
319.441	114.75
319.67	100.75
319.9	84.75
320.129	105.75
320.358	82.75
320.587	100.75
320.816	113.75
321.046	99.75
321.275	102.75
321.504	117.75
321.733	75.75
321.962	101.75
322.191	103.75
322.42	106.75
322.649	117.75
322.878	130.75
323.108	130.75
323.337	128.75
323.566	147.75
323.795	164.75
324.024	222.75
324.253	460.75
324.482	988.75
324.71	2106.75
324.939	2777.75
325.168	953.75
325.397	270.75
325.626	158.75
325.855	160.75
326.084	143.75
326.313	145.75
326.542	163.75
326.77	262.75
326.999	559.75
327.228	1180.75
327.457	2085.75
327.686	1700.75
327.914	439.75
328.143	226.75
328.372	168.75
328.6	144.75
328.829	118.75
329.058	144.75
329.287	147.75
329.515	127.75
329.744	102.75
329.972	112.75
330.201	138.75
330.43	154.75
330.658	145.75
330.887	155.75
331.115	134.75
331.344	100.75
331.572	108.75
331.801	116.75
332.03	111.75
332.258	103.75
332.486	103.75
332.715	103.75
332.943	97.75
333.172	92.75
333.4	89.75
333.629	107.75
333.857	122.75
334.085	128.75
334.314	133.75
334.542	154.75
334.771	166.75
334.999	106.75
335.227	100.75
335.455	93.75
335.684	85.75
335.912	101.75
336.14	90.75
336.369	100.75
336.597	107.75
336.825	97.75
337.053	85.75
337.281	90.75
337.51	90.75
337.738	93.75
337.966	105.75
338.194	100.75
338.422	85.75
338.65	95.75
338.878	100.75
339.106	100.75
339.334	97.75
339.562	85.75
339.79	97.75
340.018	89.75
340.246	107.75
340.474	101.75
340.702	101.75
340.93	93.75
341.158	90.75
341.386	107.75
341.614	89.75
341.842	85.75
342.07	91.75
342.298	85.75
342.526	73.75
342.754	89.75
342.981	85.75
343.209	88.75
343.437	99.75
343.665	93.75
343.893	86.75
344.12	85.75
344.348	97.75
344.576	95.75
344.804	106.75
345.031	93.75
345.259	96.75
345.487	88.75
345.714	97.75
345.942	90.75
346.17	105.75
346.397	96.75
346.625	84.75
346.853	79.75
347.08	95.75
347.308	98.75
347.535	98.75
347.763	98.75
347.99	99.75
348.218	103.75
348.445	87.75
348.673	99.75
348.9	104.75
349.128	98.75
349.355	97.75
349.583	91.75
349.81	94.75
350.037	98.75
350.265	97.75
350.492	86.75
350.72	101.75
350.947	103.75
351.174	105.75
351.402	119.75
351.629	116.75
351.856	103.75
352.083	110.75
352.311	108.75
352.538	104.75
352.765	121.75
352.992	121.75
353.22	101.75
353.447	116.75
353.674	103.75
353.901	106.75
354.128	104.75
354.355	100.75
354.583	96.75
354.81	100.75
355.037	90.75
355.264	94.75
355.491	97.75
355.718	82.75
355.945	85.75
356.172	103.75
356.399	106.75
356.626	103.75
356.853	84.75
357.08	85.75
357.307	90.75
357.534	89.75
357.761	94.75
357.988	100.75
358.215	108.75
358.441	95.75
358.668	100.75
358.895	85.75
359.122	88.75
359.349	98.75
359.576	88.75
359.802	85.75
360.029	119.75
360.256	115.75
360.483	105.75
360.709	90.75
360.936	100.75
361.163	107.75
361.39	101.75
361.616	95.75
361.843	95.75
362.07	92.75
362.296	84.75
362.523	94.75
362.749	97.75
362.976	90.75
363.203	101.75
363.429	88.75
363.656	89.75
363.882	103.75
364.109	87.75
364.335	97.75
364.562	105.75
364.788	94.75
365.015	91.75
365.241	103.75
365.468	107.75
365.694	105.75
365.92	97.75
366.147	85.75
366.373	88.75
366.599	77.75
366.826	109.75
367.052	91.75
367.278	104.75
367.505	89.75
367.731	102.75
367.957	99.75
368.184	112.75
368.41	94.75
368.636	107.75
368.862	109.75
369.089	102.75
369.315	93.75
369.541	100.75
369.767	94.75
369.993	87.75
370.219	102.75
370.445	89.75
370.672	95.75
370.898	84.75
371.124	87.75
371.35	98.75
371.576	84.75
371.802	94.75
372.028	98.75
372.254	90.75
372.48	95.75
372.706	106.75
372.932	100.75
373.158	88.75
373.384	83.75
373.61	101.75
373.835	91.75
374.061	95.75
374.287	100.75
374.513	103.75
374.739	89.75
374.965	99.75
375.191	97.75
375.416	90.75
375.642	85.75
375.868	94.75
376.094	81.75
376.319	96.75
376.545	102.75
376.771	74.75
376.997	89.75
377.222	99.75
377.448	100.75
377.674	90.75
377.899	84.75
378.125	90.75
378.35	99.75
378.576	105.75
378.802	87.75
379.027	90.75
379.253	94.75
379.478	87.75
379.704	86.75
379.929	96.75
380.155	86.75
380.38	105.75
380.606	92.75
380.831	94.75
381.057	99.75
381.282	104.75
381.507	88.75
381.733	93.75
381.958	88.75
382.184	101.75
382.409	101.75
382.634	110.75
382.86	95.75
383.085	103.75
383.31	98.75
383.535	111.75
383.761	99.75
383.986	97.75
384.211	96.75
384.436	94.75
384.662	98.75
384.887	102.75
385.112	96.75
385.337	94.75
385.562	102.75
385.787	97.75
386.013	122.75
386.238	124.75
386.463	103.75
386.688	102.75
386.913	96.75
387.138	112.75
387.363	111.75
387.588	110.75
387.813	100.75
388.038	120.75
388.263	108.75
388.488	98.75
388.713	103.75
388.938	92.75
389.163	91.75
389.387	92.75
389.612	113.75
389.837	98.75
390.062	100.75
390.287	96.75
390.512	99.75
390.736	95.75
390.961	79.75
391.186	96.75
391.411	93.75
391.636	97.75
391.86	98.75
392.085	91.75
392.31	92.75
392.534	91.75
392.759	93.75
392.984	86.75
393.208	85.75
393.433	92.75
393.658	106.75
393.882	79.75
394.107	89.75
394.331	84.75
394.556	97.75
394.78	89.75
395.005	95.75
395.229	100.75
395.454	94.75
395.678	86.75
395.903	105.75
396.127	94.75
396.352	93.75
396.576	82.75
396.801	80.75
397.025	81.75
397.249	89.75
397.474	101.75
397.698	98.75
397.922	86.75
398.147	87.75
398.371	86.75
398.595	76.75
398.82	80.75
399.044	90.75
399.268	103.75
399.492	74.75
399.717	82.75
399.941	99.75
400.165	98.75
400.389	88.75
400.613	104.75
400.837	98.75
401.062	108.75
401.286	90.75
401.51	86.75
401.734	94.75
401.958	98.75
402.182	135.75
402.406	174.75
402.63	121.75
402.854	92.75
403.078	90.75
403.302	84.75
403.526	88.75
403.75	96.75
403.974	83.75
404.198	97.75
404.422	91.75
404.645	90.75
404.869	102.75
405.093	103.75
405.317	113.75
405.541	105.75
405.765	110.75
405.988	127.75
406.212	183.75
406.436	249.75
406.66	146.75
406.883	91.75
407.107	88.75
407.331	93.75
407.555	95.75
407.778	109.75
408.002	83.75
408.226	84.75
408.449	82.75
408.673	100.75
408.896	70.75
409.12	91.75
409.344	80.75
409.567	90.75
409.791	86.75
410.014	87.75
410.238	94.75
410.461	93.75
410.685	96.75
410.908	99.75
411.132	97.75
411.355	121.75
411.578	80.75
411.802	84.75
412.025	93.75
412.249	100.75
412.472	104.75
412.695	90.75
412.919	94.75
413.142	87.75
413.365	87.75
413.589	101.75
413.812	85.75
414.035	101.75
414.258	98.75
414.482	87.75
414.705	95.75
414.928	93.75
415.151	88.75
415.374	83.75
415.597	95.75
415.821	81.75
416.044	89.75
416.267	90.75
416.49	90.75
416.713	85.75
416.936	95.75
417.159	93.75
417.382	94.75
417.605	106.75
417.828	83.75
418.051	94.75
418.274	99.75
418.497	87.75
418.72	95.75
418.943	89.75
419.166	87.75
419.389	101.75
419.611	100.75
419.834	92.75
420.057	80.75
420.28	87.75
420.503	83.75
420.726	86.75
420.948	100.75
421.171	100.75
421.394	84.75
421.617	93.75
421.839	86.75
422.062	96.75
422.285	93.75
422.507	89.75
422.73	105.75
422.953	88.75
423.175	84.75
423.398	81.75
423.621	90.75
423.843	84.75
424.066	88.75
424.288	93.75
424.511	94.75
424.733	111.75
424.956	116.75
425.178	104.75
425.401	107.75
425.623	114.75
425.846	76.75
426.068	88.75
426.291	87.75
426.513	98.75
426.735	78.75
426.958	100.75
427.18	120.75
427.402	128.75
427.625	175.75
427.847	146.75
428.069	120.75
428.292	90.75
428.514	94.75
428.736	93.75
428.958	94.75
429.181	91.75
429.403	96.75
429.625	81.75
429.847	93.75
430.069	96.75
430.292	89.75
430.514	91.75
430.736	88.75
430.958	79.75
431.18	101.75
431.402	85.75
431.624	100.75
431.846	98.75
432.068	105.75
432.29	102.75
432.512	101.75
432.734	102.75
432.956	98.75
433.178	99.75
433.4	97.75
433.622	105.75
433.844	93.75
434.066	89.75
434.287	75.75
434.509	95.75
434.731	87.75
434.953	78.75
435.175	86.75
435.397	102.75
435.618	97.75
435.84	129.75
436.062	141.75
436.284	121.75
436.505	103.75
436.727	97.75
436.949	93.75
437.17	88.75
437.392	89.75
437.614	98.75
437.835	119.75
438.057	135.75
438.278	117.75
438.5	102.75
438.721	130.75
438.943	107.75
439.165	93.75
439.386	71.75
439.608	92.75
439.829	104.75
440.05	114.75
440.272	161.75
440.493	113.75
440.715	100.75
440.936	80.75
441.158	93.75
441.379	76.75
441.6	90.75
441.822	91.75
442.043	99.75
442.264	103.75
442.486	106.75
442.707	96.75
442.928	121.75
443.149	146.75
443.371	146.75
443.592	113.75
443.813	112.75
444.034	110.75
444.255	103.75
444.476	80.75
444.698	95.75
444.919	91.75
445.14	148.75
445.361	123.75
445.582	124.75
445.803	141.75
446.024	143.75
446.245	140.75
446.466	111.75
446.687	103.75
446.908	79.75
447.129	96.75
447.35	95.75
447.571	98.75
447.792	90.75
448.013	102.75
448.234	121.75
448.455	86.75
448.675	114.75
448.896	119.75
449.117	104.75
449.338	105.75
449.559	127.75
449.779	128.75
450	109.75
450.221	88.75
450.442	97.75
450.662	115.75
450.883	108.75
451.104	130.75
451.324	107.75
451.545	90.75
451.766	93.75
451.986	85.75
452.207	91.75
452.428	97.75
452.648	88.75
452.869	119.75
453.089	114.75
453.31	125.75
453.53	89.75
453.751	83.75
453.971	124.75
454.192	120.75
454.412	89.75
454.633	90.75
454.853	91.75
455.073	86.75
455.294	84.75
455.514	109.75
455.734	103.75
455.955	96.75
456.175	93.75
456.395	89.75
456.616	88.75
456.836	83.75
457.056	84.75
457.276	84.75
457.497	88.75
457.717	95.75
457.937	77.75
458.157	94.75
458.377	91.75
458.598	105.75
458.818	150.75
459.038	169.75
459.258	120.75
459.478	88.75
459.698	79.75
459.918	79.75
460.138	82.75
460.358	76.75
460.578	87.75
460.798	84.75
461.018	100.75
461.238	85.75
461.458	84.75
461.678	96.75
461.898	90.75
462.118	89.75
462.338	78.75
462.558	96.75
462.777	93.75
462.997	93.75
463.217	90.75
463.437	78.75
463.657	86.75
463.876	99.75
464.096	108.75
464.316	101.75
464.536	85.75
464.755	99.75
464.975	96.75
465.195	183.75
465.414	177.75
465.634	104.75
465.854	94.75
466.073	84.75
466.293	80.75
466.512	93.75
466.732	85.75
466.951	81.75
467.171	88.75
467.391	87.75
467.61	108.75
467.829	105.75
468.049	104.75
468.268	103.75
468.488	94.75
468.707	96.75
468.927	86.75
469.146	78.75
469.365	87.75
469.585	89.75
469.804	100.75
470.023	104.75
470.243	94.75
470.462	98.75
470.681	112.75
470.901	101.75
471.12	85.75
471.339	87.75
471.558	99.75
471.777	99.75
471.997	106.75
472.216	154.75
472.435	188.75
472.654	93.75
472.873	84.75
473.092	96.75
473.311	88.75
473.53	94.75
473.749	97.75
473.968	89.75
474.187	105.75
474.406	112.75
474.625	88.75
474.844	94.75
475.063	97.75
475.282	103.75
475.501	94.75
475.72	96.75
475.939	88.75
476.158	91.75
476.377	80.75
476.596	97.75
476.814	100.75
477.033	103.75
477.252	78.75
477.471	95.75
477.69	91.75
477.908	90.75
478.127	85.75
478.346	94.75
478.564	89.75
478.783	103.75
479.002	96.75
479.22	104.75
479.439	96.75
479.658	95.75
479.876	100.75
480.095	92.75
480.313	81.75
480.532	98.75
480.751	84.75
480.969	129.75
481.188	272.75
481.406	196.75
481.624	101.75
481.843	93.75
482.061	88.75
482.28	99.75
482.498	107.75
482.717	86.75
482.935	80.75
483.153	85.75
483.372	84.75
483.59	92.75
483.808	84.75
484.027	89.75
484.245	94.75
484.463	92.75
484.681	102.75
484.9	97.75
485.118	97.75
485.336	80.75
485.554	100.75
485.772	92.75
485.99	101.75
486.209	91.75
486.427	108.75
486.645	119.75
486.863	117.75
487.081	111.75
487.299	111.75
487.517	106.75
487.735	96.75
487.953	86.75
488.171	92.75
488.389	89.75
488.607	99.75
488.825	84.75
489.043	86.75
489.261	102.75
489.479	96.75
489.696	89.75
489.914	94.75
490.132	83.75
490.35	89.75
490.568	89.75
490.786	91.75
491.003	86.75
491.221	106.75
491.439	101.75
491.657	94.75
491.874	90.75
492.092	84.75
492.31	106.75
492.527	96.75
492.745	88.75
492.963	85.75
493.18	90.75
493.398	90.75
493.615	88.75
493.833	80.75
494.05	78.75
494.268	80.75
494.485	85.75
494.703	92.75
494.92	92.75
495.138	86.75
495.355	94.75
495.573	86.75
495.79	101.75
496.008	91.75
496.225	96.75
496.442	102.75
496.66	79.75
496.877	101.75
497.094	110.75
497.312	99.75
497.529	90.75
497.746	92.75
497.963	91.75
498.181	93.75
498.398	89.75
498.615	116.75
498.832	95.75
499.049	89.75
499.267	96.75
499.484	78.75
499.701	103.75
499.918	102.75
500.135	89.75
500.352	104.75
500.569	96.75
500.786	79.75
501.003	86.75
501.22	101.75
501.437	82.75
501.654	104.75
501.871	115.75
502.088	88.75
502.305	86.75
502.522	100.75
502.739	107.75
502.956	102.75
503.172	86.75
503.389	100.75
503.606	105.75
503.823	100.75
504.04	100.75
504.256	85.75
504.473	94.75
504.69	88.75
504.907	95.75
505.123	94.75
505.34	81.75
505.557	95.75
505.773	88.75
505.99	90.75
506.207	99.75
506.423	93.75
506.64	85.75
506.856	90.75
507.073	91.75
507.289	97.75
507.506	97.75
507.722	98.75
507.939	120.75
508.155	101.75
508.372	105.75
508.588	85.75
508.805	91.75
509.021	93.75
509.238	104.75
509.454	107.75
509.67	101.75
509.887	119.75
510.103	140.75
510.319	230.75
510.536	817.75
510.752	2708.75
510.968	766.75
511.184	168.75
511.401	132.75
511.617	106.75
511.833	98.75
512.049	101.75
512.265	98.75
512.481	91.75
512.698	82.75
512.914	85.75
513.13	97.75
513.346	103.75
513.562	84.75
513.778	95.75
513.994	114.75
514.21	109.75
