Data from Circ_2005_H10_HRD10591_00003.txt Node
Date: Wed Jan 03 10:29:51 EST 2024
User: Yrep
Spectrometer: HR+D1059
Trigger mode: 1
Integration Time (sec): 1.000000E-1
Scans to average: 1
Electric dark correction enabled: true
Nonlinearity correction enabled: false
Boxcar width: 0
XAxis mode: Wavelengths
Number of Pixels in Spectrum: 2048
>>>>>Begin Spectral Data<<<<<
223.165	-15.06
223.4	-15.06
223.635	-15.06
223.869	-23.06
224.104	-18.06
224.338	-15.06
224.573	-13.06
224.808	-10.06
225.042	-14.06
225.277	2.94
225.511	-6.06
225.746	2.94
225.98	18.94
226.215	9.94
226.449	14.94
226.683	16.94
226.918	17.94
227.152	29.94
227.387	34.94
227.621	34.94
227.856	46.94
228.09	34.94
228.324	43.94
228.559	40.94
228.793	41.94
229.027	61.94
229.262	76.94
229.496	64.94
229.73	80.94
229.964	68.94
230.199	70.94
230.433	70.94
230.667	95.94
230.901	73.94
231.136	79.94
231.37	84.94
231.604	76.94
231.838	76.94
232.072	68.94
232.306	69.94
232.541	79.94
232.775	74.94
233.009	75.94
233.243	84.94
233.477	84.94
233.711	85.94
233.945	85.94
234.179	71.94
234.413	57.94
234.647	68.94
234.881	96.94
235.115	68.94
235.349	90.94
235.583	66.94
235.817	89.94
236.051	81.94
236.285	90.94
236.519	74.94
236.753	81.94
236.987	69.94
237.221	66.94
237.455	87.94
237.689	62.94
237.922	68.94
238.156	73.94
238.39	76.94
238.624	56.94
238.858	69.94
239.091	76.94
239.325	67.94
239.559	68.94
239.793	67.94
240.027	85.94
240.26	69.94
240.494	60.94
240.728	67.94
240.961	76.94
241.195	76.94
241.429	70.94
241.662	84.94
241.896	78.94
242.13	75.94
242.363	68.94
242.597	62.94
242.83	77.94
243.064	64.94
243.298	79.94
243.531	78.94
243.765	64.94
243.998	72.94
244.232	65.94
244.465	79.94
244.699	73.94
244.932	83.94
245.166	73.94
245.399	86.94
245.633	76.94
245.866	70.94
246.099	74.94
246.333	73.94
246.566	73.94
246.8	61.94
247.033	67.94
247.266	76.94
247.5	78.94
247.733	85.94
247.966	77.94
248.2	63.94
248.433	72.94
248.666	74.94
248.899	94.94
249.133	81.94
249.366	95.94
249.599	84.94
249.832	74.94
250.066	89.94
250.299	61.94
250.532	86.94
250.765	78.94
250.998	53.94
251.231	65.94
251.465	68.94
251.698	72.94
251.931	96.94
252.164	78.94
252.397	66.94
252.63	73.94
252.863	73.94
253.096	73.94
253.329	71.94
253.562	79.94
253.795	75.94
254.028	69.94
254.261	88.94
254.494	85.94
254.727	77.94
254.96	63.94
255.193	82.94
255.426	79.94
255.659	80.94
255.892	80.94
256.124	85.94
256.357	92.94
256.59	73.94
256.823	69.94
257.056	77.94
257.289	80.94
257.521	91.94
257.754	70.94
257.987	85.94
258.22	89.94
258.452	86.94
258.685	88.94
258.918	78.94
259.151	85.94
259.383	84.94
259.616	72.94
259.849	86.94
260.081	84.94
260.314	68.94
260.547	75.94
260.779	84.94
261.012	80.94
261.244	65.94
261.477	75.94
261.71	87.94
261.942	96.94
262.175	106.94
262.407	85.94
262.64	77.94
262.872	83.94
263.105	86.94
263.337	73.94
263.57	67.94
263.802	73.94
264.035	85.94
264.267	70.94
264.499	74.94
264.732	76.94
264.964	90.94
265.197	75.94
265.429	68.94
265.661	96.94
265.894	84.94
266.126	75.94
266.358	87.94
266.591	75.94
266.823	69.94
267.055	80.94
267.287	69.94
267.52	88.94
267.752	89.94
267.984	71.94
268.216	79.94
268.448	81.94
268.681	91.94
268.913	74.94
269.145	72.94
269.377	80.94
269.609	83.94
269.841	77.94
270.073	77.94
270.306	84.94
270.538	67.94
270.77	78.94
271.002	80.94
271.234	84.94
271.466	93.94
271.698	89.94
271.93	90.94
272.162	92.94
272.394	76.94
272.626	94.94
272.858	90.94
273.09	59.94
273.322	68.94
273.553	80.94
273.785	82.94
274.017	83.94
274.249	79.94
274.481	84.94
274.713	83.94
274.945	82.94
275.176	91.94
275.408	86.94
275.64	72.94
275.872	85.94
276.104	89.94
276.335	102.94
276.567	105.94
276.799	112.94
277.031	92.94
277.262	81.94
277.494	88.94
277.726	83.94
277.957	90.94
278.189	88.94
278.421	84.94
278.652	78.94
278.884	76.94
279.115	92.94
279.347	89.94
279.579	91.94
279.81	91.94
280.042	77.94
280.273	72.94
280.505	83.94
280.736	85.94
280.968	74.94
281.199	70.94
281.431	79.94
281.662	96.94
281.894	86.94
282.125	91.94
282.356	86.94
282.588	124.94
282.819	112.94
283.051	80.94
283.282	85.94
283.513	94.94
283.745	76.94
283.976	75.94
284.207	83.94
284.439	86.94
284.67	83.94
284.901	78.94
285.132	79.94
285.364	86.94
285.595	81.94
285.826	86.94
286.057	94.94
286.288	81.94
286.52	104.94
286.751	79.94
286.982	77.94
287.213	89.94
287.444	83.94
287.675	86.94
287.906	80.94
288.138	76.94
288.369	84.94
288.6	91.94
288.831	80.94
289.062	83.94
289.293	94.94
289.524	95.94
289.755	84.94
289.986	92.94
290.217	101.94
290.448	78.94
290.679	85.94
290.91	92.94
291.141	82.94
291.371	87.94
291.602	79.94
291.833	91.94
292.064	84.94
292.295	87.94
292.526	95.94
292.757	87.94
292.987	99.94
293.218	79.94
293.449	81.94
293.68	75.94
293.91	82.94
294.141	86.94
294.372	94.94
294.603	93.94
294.833	94.94
295.064	83.94
295.295	89.94
295.525	83.94
295.756	105.94
295.987	97.94
296.217	131.94
296.448	128.94
296.679	83.94
296.909	82.94
297.14	92.94
297.37	107.94
297.601	109.94
297.831	70.94
298.062	95.94
298.292	86.94
298.523	99.94
298.753	89.94
298.984	95.94
299.214	82.94
299.445	93.94
299.675	86.94
299.905	106.94
300.136	82.94
300.366	72.94
300.597	79.94
300.827	81.94
301.057	93.94
301.288	99.94
301.518	88.94
301.748	88.94
301.979	89.94
302.209	77.94
302.439	79.94
302.669	84.94
302.9	82.94
303.13	88.94
303.36	87.94
303.59	90.94
303.82	86.94
304.051	84.94
304.281	90.94
304.511	85.94
304.741	90.94
304.971	81.94
305.201	79.94
305.431	92.94
305.661	85.94
305.891	95.94
306.121	88.94
306.352	97.94
306.582	113.94
306.812	81.94
307.042	85.94
307.272	89.94
307.502	82.94
307.731	88.94
307.961	79.94
308.191	72.94
308.421	75.94
308.651	80.94
308.881	91.94
309.111	88.94
309.341	84.94
309.571	73.94
309.8	92.94
310.03	98.94
310.26	105.94
310.49	107.94
310.72	93.94
310.949	91.94
311.179	79.94
311.409	105.94
311.639	90.94
311.868	98.94
312.098	94.94
312.328	92.94
312.557	98.94
312.787	100.94
313.017	100.94
313.246	87.94
313.476	89.94
313.706	73.94
313.935	98.94
314.165	104.94
314.394	90.94
314.624	92.94
314.853	78.94
315.083	84.94
315.312	81.94
315.542	89.94
315.771	91.94
316.001	89.94
316.23	71.94
316.46	86.94
316.689	83.94
316.919	82.94
317.148	78.94
317.377	93.94
317.607	92.94
317.836	88.94
318.065	89.94
318.295	102.94
318.524	74.94
318.753	92.94
318.983	73.94
319.212	96.94
319.441	107.94
319.67	101.94
319.9	94.94
320.129	105.94
320.358	92.94
320.587	82.94
320.816	102.94
321.046	96.94
321.275	104.94
321.504	77.94
321.733	86.94
321.962	104.94
322.191	109.94
322.42	94.94
322.649	102.94
322.878	109.94
323.108	100.94
323.337	121.94
323.566	123.94
323.795	138.94
324.024	186.94
324.253	358.94
324.482	734.94
324.71	1565.94
324.939	2014.94
325.168	741.94
325.397	237.94
325.626	146.94
325.855	131.94
326.084	123.94
326.313	124.94
326.542	143.94
326.77	232.94
326.999	426.94
327.228	893.94
327.457	1548.94
327.686	1244.94
327.914	335.94
328.143	165.94
328.372	132.94
328.6	119.94
328.829	104.94
329.058	111.94
329.287	109.94
329.515	97.94
329.744	93.94
329.972	86.94
330.201	100.94
330.43	100.94
330.658	107.94
330.887	125.94
331.115	108.94
331.344	92.94
331.572	95.94
331.801	100.94
332.03	98.94
332.258	100.94
332.486	91.94
332.715	82.94
332.943	80.94
333.172	96.94
333.4	99.94
333.629	94.94
333.857	101.94
334.085	98.94
334.314	101.94
334.542	94.94
334.771	113.94
334.999	88.94
335.227	80.94
335.455	95.94
335.684	82.94
335.912	90.94
336.14	91.94
336.369	93.94
336.597	86.94
336.825	93.94
337.053	95.94
337.281	97.94
337.51	86.94
337.738	86.94
337.966	82.94
338.194	94.94
338.422	90.94
338.65	88.94
338.878	98.94
339.106	73.94
339.334	89.94
339.562	89.94
339.79	90.94
340.018	89.94
340.246	81.94
340.474	80.94
340.702	70.94
340.93	77.94
341.158	94.94
341.386	91.94
341.614	92.94
341.842	96.94
342.07	105.94
342.298	91.94
342.526	98.94
342.754	90.94
342.981	84.94
343.209	89.94
343.437	112.94
343.665	87.94
343.893	92.94
344.12	85.94
344.348	80.94
344.576	87.94
344.804	91.94
345.031	89.94
345.259	98.94
345.487	102.94
345.714	91.94
345.942	105.94
346.17	95.94
346.397	84.94
346.625	72.94
346.853	94.94
347.08	88.94
347.308	86.94
347.535	88.94
347.763	92.94
347.99	90.94
348.218	85.94
348.445	93.94
348.673	100.94
348.9	103.94
349.128	105.94
349.355	90.94
349.583	99.94
349.81	88.94
350.037	78.94
350.265	94.94
350.492	80.94
350.72	93.94
350.947	90.94
351.174	104.94
351.402	99.94
351.629	89.94
351.856	108.94
352.083	90.94
352.311	90.94
352.538	92.94
352.765	97.94
352.992	100.94
353.22	117.94
353.447	97.94
353.674	93.94
353.901	92.94
354.128	80.94
354.355	101.94
354.583	103.94
354.81	105.94
355.037	99.94
355.264	94.94
355.491	97.94
355.718	94.94
355.945	106.94
356.172	93.94
356.399	93.94
356.626	92.94
356.853	87.94
357.08	101.94
357.307	90.94
357.534	97.94
357.761	100.94
357.988	96.94
358.215	78.94
358.441	93.94
358.668	99.94
358.895	90.94
359.122	72.94
359.349	95.94
359.576	80.94
359.802	90.94
360.029	109.94
360.256	114.94
360.483	93.94
360.709	91.94
360.936	70.94
361.163	81.94
361.39	100.94
361.616	96.94
361.843	77.94
362.07	96.94
362.296	95.94
362.523	83.94
362.749	84.94
362.976	81.94
363.203	86.94
363.429	91.94
363.656	91.94
363.882	85.94
364.109	82.94
364.335	85.94
364.562	90.94
364.788	88.94
365.015	96.94
365.241	112.94
365.468	104.94
365.694	103.94
365.92	94.94
366.147	86.94
366.373	85.94
366.599	105.94
366.826	76.94
367.052	89.94
367.278	97.94
367.505	85.94
367.731	83.94
367.957	93.94
368.184	90.94
368.41	90.94
368.636	102.94
368.862	109.94
369.089	112.94
369.315	95.94
369.541	86.94
369.767	81.94
369.993	75.94
370.219	96.94
370.445	77.94
370.672	86.94
370.898	83.94
371.124	80.94
371.35	78.94
371.576	82.94
371.802	88.94
372.028	77.94
372.254	75.94
372.48	100.94
372.706	92.94
372.932	77.94
373.158	81.94
373.384	100.94
373.61	85.94
373.835	79.94
374.061	72.94
374.287	91.94
374.513	96.94
374.739	84.94
374.965	92.94
375.191	89.94
375.416	86.94
375.642	100.94
375.868	93.94
376.094	95.94
376.319	89.94
376.545	82.94
376.771	87.94
376.997	80.94
377.222	100.94
377.448	98.94
377.674	92.94
377.899	96.94
378.125	81.94
378.35	96.94
378.576	84.94
378.802	98.94
379.027	101.94
379.253	91.94
379.478	107.94
379.704	103.94
379.929	98.94
380.155	105.94
380.38	109.94
380.606	103.94
380.831	98.94
381.057	101.94
381.282	105.94
381.507	120.94
381.733	79.94
381.958	103.94
382.184	93.94
382.409	106.94
382.634	101.94
382.86	108.94
383.085	98.94
383.31	122.94
383.535	100.94
383.761	101.94
383.986	99.94
384.211	112.94
384.436	108.94
384.662	101.94
384.887	121.94
385.112	118.94
385.337	122.94
385.562	120.94
385.787	123.94
386.013	141.94
386.238	116.94
386.463	126.94
386.688	118.94
386.913	132.94
387.138	126.94
387.363	105.94
387.588	105.94
387.813	110.94
388.038	105.94
388.263	137.94
388.488	116.94
388.713	108.94
388.938	106.94
389.163	89.94
389.387	80.94
389.612	92.94
389.837	85.94
390.062	96.94
390.287	100.94
390.512	83.94
390.736	86.94
390.961	89.94
391.186	83.94
391.411	70.94
391.636	81.94
391.86	84.94
392.085	92.94
392.31	85.94
392.534	93.94
392.759	83.94
392.984	82.94
393.208	85.94
393.433	101.94
393.658	95.94
393.882	78.94
394.107	85.94
394.331	84.94
394.556	85.94
394.78	77.94
395.005	91.94
395.229	86.94
395.454	84.94
395.678	77.94
395.903	80.94
396.127	94.94
396.352	81.94
396.576	87.94
396.801	93.94
397.025	102.94
397.249	96.94
397.474	94.94
397.698	81.94
397.922	86.94
398.147	85.94
398.371	81.94
398.595	84.94
398.82	89.94
399.044	78.94
399.268	77.94
399.492	78.94
399.717	90.94
399.941	86.94
400.165	94.94
400.389	92.94
400.613	97.94
400.837	84.94
401.062	99.94
401.286	91.94
401.51	82.94
401.734	75.94
401.958	86.94
402.182	115.94
402.406	139.94
402.63	101.94
402.854	106.94
403.078	89.94
403.302	86.94
403.526	83.94
403.75	80.94
403.974	89.94
404.198	80.94
404.422	80.94
404.645	72.94
404.869	87.94
405.093	77.94
405.317	95.94
405.541	83.94
405.765	99.94
405.988	108.94
406.212	159.94
406.436	187.94
406.66	118.94
406.883	98.94
407.107	81.94
407.331	85.94
407.555	91.94
407.778	87.94
408.002	85.94
408.226	98.94
408.449	92.94
408.673	92.94
408.896	88.94
409.12	91.94
409.344	101.94
409.567	86.94
409.791	93.94
410.014	91.94
410.238	83.94
410.461	76.94
410.685	75.94
410.908	93.94
411.132	90.94
411.355	107.94
411.578	100.94
411.802	90.94
412.025	77.94
412.249	69.94
412.472	89.94
412.695	81.94
412.919	81.94
413.142	89.94
413.365	85.94
413.589	91.94
413.812	86.94
414.035	85.94
414.258	95.94
414.482	92.94
414.705	92.94
414.928	92.94
415.151	78.94
415.374	75.94
415.597	86.94
415.821	83.94
416.044	100.94
416.267	99.94
416.49	78.94
416.713	84.94
416.936	87.94
417.159	97.94
417.382	72.94
417.605	80.94
417.828	85.94
418.051	81.94
418.274	78.94
418.497	90.94
418.72	78.94
418.943	95.94
419.166	83.94
419.389	83.94
419.611	92.94
419.834	83.94
420.057	84.94
420.28	72.94
420.503	90.94
420.726	73.94
420.948	87.94
421.171	82.94
421.394	83.94
421.617	91.94
421.839	83.94
422.062	85.94
422.285	92.94
422.507	96.94
422.73	91.94
422.953	85.94
423.175	87.94
423.398	85.94
423.621	97.94
423.843	78.94
424.066	66.94
424.288	89.94
424.511	93.94
424.733	80.94
424.956	83.94
425.178	88.94
425.401	105.94
425.623	93.94
425.846	97.94
426.068	99.94
426.291	86.94
426.513	87.94
426.735	90.94
426.958	83.94
427.18	83.94
427.402	114.94
427.625	154.94
427.847	115.94
428.069	98.94
428.292	74.94
428.514	97.94
428.736	83.94
428.958	86.94
429.181	77.94
429.403	69.94
429.625	90.94
429.847	92.94
430.069	79.94
430.292	95.94
430.514	88.94
430.736	101.94
430.958	79.94
431.18	76.94
431.402	94.94
431.624	93.94
431.846	75.94
432.068	83.94
432.29	84.94
432.512	85.94
432.734	75.94
432.956	94.94
433.178	87.94
433.4	106.94
433.622	89.94
433.844	88.94
434.066	81.94
434.287	91.94
434.509	86.94
434.731	92.94
434.953	80.94
435.175	71.94
435.397	86.94
435.618	98.94
435.84	92.94
436.062	99.94
436.284	123.94
436.505	108.94
436.727	99.94
436.949	96.94
437.17	77.94
437.392	93.94
437.614	87.94
437.835	83.94
438.057	98.94
438.278	100.94
438.5	91.94
438.721	110.94
438.943	97.94
439.165	81.94
439.386	98.94
439.608	96.94
439.829	107.94
440.05	114.94
440.272	125.94
440.493	107.94
440.715	80.94
440.936	84.94
441.158	97.94
441.379	74.94
441.6	87.94
441.822	96.94
442.043	93.94
442.264	108.94
442.486	90.94
442.707	85.94
442.928	94.94
443.149	102.94
443.371	124.94
443.592	105.94
443.813	103.94
444.034	97.94
444.255	81.94
444.476	86.94
444.698	79.94
444.919	82.94
445.14	133.94
445.361	111.94
445.582	95.94
445.803	125.94
446.024	137.94
446.245	110.94
446.466	96.94
446.687	87.94
446.908	81.94
447.129	83.94
447.35	96.94
447.571	73.94
447.792	87.94
448.013	103.94
448.234	98.94
448.455	86.94
448.675	103.94
448.896	122.94
449.117	100.94
449.338	101.94
449.559	117.94
449.779	124.94
450	84.94
450.221	73.94
450.442	78.94
450.662	87.94
450.883	94.94
451.104	88.94
451.324	82.94
451.545	86.94
451.766	92.94
451.986	87.94
452.207	90.94
452.428	84.94
452.648	76.94
452.869	88.94
453.089	92.94
453.31	96.94
453.53	84.94
453.751	91.94
453.971	75.94
454.192	94.94
454.412	94.94
454.633	80.94
454.853	86.94
455.073	77.94
455.294	73.94
455.514	89.94
455.734	89.94
455.955	84.94
456.175	75.94
456.395	74.94
456.616	74.94
456.836	76.94
457.056	88.94
457.276	81.94
457.497	74.94
457.717	75.94
457.937	77.94
458.157	67.94
458.377	92.94
458.598	90.94
458.818	129.94
459.038	138.94
459.258	111.94
459.478	100.94
459.698	90.94
459.918	80.94
460.138	74.94
460.358	89.94
460.578	83.94
460.798	86.94
461.018	78.94
461.238	82.94
461.458	72.94
461.678	76.94
461.898	87.94
462.118	83.94
462.338	89.94
462.558	73.94
462.777	82.94
462.997	87.94
463.217	83.94
463.437	86.94
463.657	82.94
463.876	82.94
464.096	77.94
464.316	80.94
464.536	95.94
464.755	86.94
464.975	113.94
465.195	157.94
465.414	152.94
465.634	106.94
465.854	75.94
466.073	91.94
466.293	80.94
466.512	84.94
466.732	86.94
466.951	80.94
467.171	83.94
467.391	85.94
467.61	89.94
467.829	82.94
468.049	85.94
468.268	83.94
468.488	81.94
468.707	68.94
468.927	75.94
469.146	95.94
469.365	105.94
469.585	73.94
469.804	86.94
470.023	92.94
470.243	90.94
470.462	97.94
470.681	100.94
470.901	92.94
471.12	79.94
471.339	79.94
471.558	79.94
471.777	78.94
471.997	96.94
472.216	83.94
472.435	93.94
472.654	83.94
472.873	83.94
473.092	80.94
473.311	80.94
473.53	77.94
473.749	85.94
473.968	90.94
474.187	100.94
474.406	84.94
474.625	97.94
474.844	80.94
475.063	79.94
475.282	90.94
475.501	73.94
475.72	87.94
475.939	84.94
476.158	78.94
476.377	79.94
476.596	86.94
476.814	100.94
477.033	86.94
477.252	86.94
477.471	92.94
477.69	94.94
477.908	83.94
478.127	90.94
478.346	78.94
478.564	89.94
478.783	115.94
479.002	94.94
479.22	100.94
479.439	105.94
479.658	104.94
479.876	93.94
480.095	92.94
480.313	93.94
480.532	79.94
480.751	75.94
480.969	85.94
481.188	94.94
481.406	97.94
481.624	74.94
481.843	84.94
482.061	87.94
482.28	95.94
482.498	91.94
482.717	85.94
482.935	85.94
483.153	95.94
483.372	85.94
483.59	82.94
483.808	80.94
484.027	102.94
484.245	98.94
484.463	96.94
484.681	89.94
484.9	97.94
485.118	84.94
485.336	81.94
485.554	97.94
485.772	87.94
485.99	98.94
486.209	106.94
486.427	91.94
486.645	108.94
486.863	107.94
487.081	100.94
487.299	97.94
487.517	74.94
487.735	92.94
487.953	85.94
488.171	80.94
488.389	107.94
488.607	86.94
488.825	94.94
489.043	91.94
489.261	92.94
489.479	84.94
489.696	77.94
489.914	81.94
490.132	82.94
490.35	86.94
490.568	106.94
490.786	73.94
491.003	86.94
491.221	81.94
491.439	89.94
491.657	83.94
491.874	89.94
492.092	95.94
492.31	73.94
492.527	80.94
492.745	74.94
492.963	97.94
493.18	93.94
493.398	77.94
493.615	104.94
493.833	100.94
494.05	95.94
494.268	84.94
494.485	85.94
494.703	82.94
494.92	84.94
495.138	75.94
495.355	99.94
495.573	93.94
495.79	102.94
496.008	105.94
496.225	81.94
496.442	90.94
496.66	86.94
496.877	90.94
497.094	83.94
497.312	78.94
497.529	90.94
497.746	97.94
497.963	85.94
498.181	77.94
498.398	85.94
498.615	105.94
498.832	104.94
499.049	83.94
499.267	92.94
499.484	91.94
499.701	79.94
499.918	89.94
500.135	83.94
500.352	75.94
500.569	75.94
500.786	98.94
501.003	93.94
501.22	88.94
501.437	90.94
501.654	107.94
501.871	116.94
502.088	82.94
502.305	93.94
502.522	91.94
502.739	78.94
502.956	87.94
503.172	69.94
503.389	76.94
503.606	101.94
503.823	96.94
504.04	81.94
504.256	91.94
504.473	77.94
504.69	94.94
504.907	77.94
505.123	85.94
505.34	76.94
505.557	86.94
505.773	76.94
505.99	88.94
506.207	86.94
506.423	85.94
506.64	85.94
506.856	93.94
507.073	76.94
507.289	94.94
507.506	96.94
507.722	100.94
507.939	104.94
508.155	110.94
508.372	81.94
508.588	84.94
508.805	91.94
509.021	79.94
509.238	90.94
509.454	86.94
509.67	101.94
509.887	99.94
510.103	114.94
510.319	187.94
510.536	668.94
510.752	1994.94
510.968	586.94
511.184	129.94
511.401	105.94
511.617	107.94
511.833	97.94
512.049	79.94
512.265	75.94
512.481	94.94
512.698	90.94
512.914	76.94
513.13	82.94
513.346	81.94
513.562	89.94
513.778	94.94
513.994	100.94
514.21	91.94
514.426	101.94
514.642	127.94
514.858	107.94
515.074	140.94
515.29	388.94
515.506	1258.94
515.721	460.94
515.937	141.94
516.153	105.94
516.369	84.94
516.585	98.94
516.801	93.94
