Data from Circ_2005_H10_HRD10591_00021.txt Node
Date: Wed Jan 03 10:29:55 EST 2024
User: Yrep
Spectrometer: HR+D1059
Trigger mode: 1
Integration Time (sec): 1.000000E-1
Scans to average: 1
Electric dark correction enabled: true
Nonlinearity correction enabled: false
Boxcar width: 0
XAxis mode: Wavelengths
Number of Pixels in Spectrum: 2048
>>>>>Begin Spectral Data<<<<<
223.165	-26
223.4	-26
223.635	-26
223.869	-21
224.104	-22
224.338	-3
224.573	-18
224.808	-8
225.042	-5
225.277	-13
225.511	-2
225.746	4
225.98	9
226.215	19
226.449	22
226.683	16
226.918	19
227.152	29
227.387	31
227.621	36
227.856	38
228.09	38
228.324	40
228.559	55
228.793	53
229.027	53
229.262	59
229.496	79
229.73	81
229.964	80
230.199	76
230.433	73
230.667	68
230.901	70
231.136	82
231.37	77
231.604	73
231.838	92
232.072	74
232.306	82
232.541	85
232.775	66
233.009	72
233.243	81
233.477	92
233.711	84
233.945	82
234.179	91
234.413	75
234.647	99
234.881	85
235.115	72
235.349	83
235.583	95
235.817	81
236.051	69
236.285	70
236.519	67
236.753	63
236.987	82
237.221	79
237.455	76
237.689	80
237.922	73
238.156	79
238.39	82
238.624	77
238.858	75
239.091	83
239.325	93
239.559	75
239.793	76
240.027	77
240.26	71
240.494	73
240.728	82
240.961	63
241.195	75
241.429	77
241.662	57
241.896	80
242.13	71
242.363	87
242.597	67
242.83	74
243.064	76
243.298	67
243.531	73
243.765	74
243.998	75
244.232	79
244.465	79
244.699	79
244.932	80
245.166	75
245.399	70
245.633	70
245.866	70
246.099	81
246.333	83
246.566	77
246.8	83
247.033	74
247.266	79
247.5	78
247.733	73
247.966	68
248.2	83
248.433	83
248.666	85
248.899	80
249.133	88
249.366	101
249.599	85
249.832	78
250.066	82
250.299	82
250.532	79
250.765	71
250.998	73
251.231	77
251.465	84
251.698	84
251.931	78
252.164	78
252.397	75
252.63	68
252.863	89
253.096	95
253.329	96
253.562	85
253.795	78
254.028	86
254.261	87
254.494	81
254.727	81
254.96	70
255.193	81
255.426	74
255.659	64
255.892	83
256.124	84
256.357	86
256.59	78
256.823	80
257.056	90
257.289	83
257.521	94
257.754	81
257.987	80
258.22	79
258.452	92
258.685	85
258.918	93
259.151	88
259.383	82
259.616	81
259.849	83
260.081	90
260.314	86
260.547	76
260.779	77
261.012	85
261.244	85
261.477	88
261.71	98
261.942	121
262.175	129
262.407	84
262.64	77
262.872	83
263.105	86
263.337	80
263.57	86
263.802	81
264.035	78
264.267	92
264.499	69
264.732	85
264.964	83
265.197	82
265.429	85
265.661	77
265.894	79
266.126	91
266.358	71
266.591	82
266.823	87
267.055	83
267.287	88
267.52	77
267.752	67
267.984	89
268.216	87
268.448	81
268.681	89
268.913	89
269.145	72
269.377	81
269.609	68
269.841	74
270.073	70
270.306	91
270.538	94
270.77	93
271.002	77
271.234	79
271.466	87
271.698	73
271.93	90
272.162	98
272.394	82
272.626	96
272.858	90
273.09	87
273.322	89
273.553	78
273.785	82
274.017	74
274.249	86
274.481	86
274.713	87
274.945	95
275.176	81
275.408	77
275.64	89
275.872	79
276.104	98
276.335	99
276.567	101
276.799	118
277.031	101
277.262	87
277.494	72
277.726	93
277.957	81
278.189	90
278.421	77
278.652	86
278.884	105
279.115	85
279.347	85
279.579	81
279.81	85
280.042	78
280.273	88
280.505	73
280.736	83
280.968	94
281.199	83
281.431	85
281.662	78
281.894	92
282.125	98
282.356	128
282.588	153
282.819	102
283.051	83
283.282	97
283.513	78
283.745	82
283.976	88
284.207	82
284.439	91
284.67	90
284.901	85
285.132	79
285.364	74
285.595	101
285.826	87
286.057	86
286.288	88
286.52	97
286.751	92
286.982	88
287.213	85
287.444	95
287.675	76
287.906	97
288.138	86
288.369	82
288.6	79
288.831	92
289.062	97
289.293	81
289.524	89
289.755	83
289.986	92
290.217	82
290.448	101
290.679	96
290.91	97
291.141	98
291.371	106
291.602	77
291.833	92
292.064	82
292.295	81
292.526	90
292.757	98
292.987	89
293.218	81
293.449	86
293.68	89
293.91	87
294.141	93
294.372	87
294.603	77
294.833	100
295.064	84
295.295	86
295.525	99
295.756	88
295.987	111
296.217	145
296.448	133
296.679	99
296.909	87
297.14	97
297.37	74
297.601	73
297.831	89
298.062	71
298.292	80
298.523	83
298.753	84
298.984	92
299.214	79
299.445	91
299.675	78
299.905	95
300.136	91
300.366	91
300.597	97
300.827	108
301.057	101
301.288	99
301.518	97
301.748	84
301.979	97
302.209	100
302.439	92
302.669	89
302.9	89
303.13	83
303.36	110
303.59	117
303.82	100
304.051	101
304.281	93
304.511	87
304.741	95
304.971	78
305.201	100
305.431	79
305.661	71
305.891	87
306.121	102
306.352	98
306.582	113
306.812	87
307.042	88
307.272	101
307.502	90
307.731	83
307.961	91
308.191	87
308.421	84
308.651	87
308.881	98
309.111	85
309.341	83
309.571	92
309.8	90
310.03	81
310.26	97
310.49	94
310.72	90
310.949	107
311.179	108
311.409	93
311.639	94
311.868	97
312.098	109
312.328	96
312.557	109
312.787	111
313.017	103
313.246	103
313.476	94
313.706	90
313.935	97
314.165	97
314.394	95
314.624	86
314.853	97
315.083	108
315.312	88
315.542	74
315.771	97
316.001	86
316.23	86
316.46	90
316.689	77
316.919	85
317.148	96
317.377	92
317.607	84
317.836	81
318.065	90
318.295	94
318.524	79
318.753	106
318.983	106
319.212	101
319.441	109
319.67	113
319.9	112
320.129	102
320.358	88
320.587	93
320.816	96
321.046	117
321.275	91
321.504	84
321.733	84
321.962	86
322.191	97
322.42	107
322.649	110
322.878	98
323.108	118
323.337	118
323.566	160
323.795	172
324.024	239
324.253	479
324.482	1086
324.71	2210
324.939	3030
325.168	1077
325.397	300
325.626	161
325.855	144
326.084	129
326.313	139
326.542	159
326.77	276
326.999	565
327.228	1218
327.457	2281
327.686	1778
327.914	443
328.143	219
328.372	159
328.6	145
328.829	114
329.058	139
329.287	133
329.515	130
329.744	109
329.972	108
330.201	98
330.43	120
330.658	150
330.887	162
331.115	129
331.344	102
331.572	90
331.801	105
332.03	93
332.258	88
332.486	94
332.715	98
332.943	98
333.172	75
333.4	87
333.629	126
333.857	124
334.085	102
334.314	101
334.542	120
334.771	112
334.999	106
335.227	91
335.455	93
335.684	89
335.912	98
336.14	95
336.369	102
336.597	89
336.825	91
337.053	80
337.281	89
337.51	71
337.738	88
337.966	83
338.194	106
338.422	101
338.65	90
338.878	99
339.106	97
339.334	78
339.562	82
339.79	97
340.018	92
340.246	100
340.474	87
340.702	96
340.93	95
341.158	94
341.386	108
341.614	99
341.842	92
342.07	92
342.298	94
342.526	94
342.754	94
342.981	86
343.209	91
343.437	102
343.665	82
343.893	89
344.12	93
344.348	73
344.576	92
344.804	94
345.031	94
345.259	102
345.487	84
345.714	118
345.942	102
346.17	94
346.397	81
346.625	105
346.853	100
347.08	100
347.308	93
347.535	95
347.763	95
347.99	90
348.218	106
348.445	100
348.673	109
348.9	107
349.128	86
349.355	89
349.583	96
349.81	82
350.037	110
350.265	99
350.492	85
350.72	91
350.947	108
351.174	112
351.402	112
351.629	110
351.856	107
352.083	106
352.311	117
352.538	114
352.765	109
352.992	133
353.22	103
353.447	106
353.674	100
353.901	98
354.128	92
354.355	97
354.583	83
354.81	96
355.037	87
355.264	95
355.491	93
355.718	95
355.945	99
356.172	94
356.399	102
356.626	84
356.853	93
357.08	90
357.307	90
357.534	107
357.761	96
357.988	106
358.215	99
358.441	95
358.668	81
358.895	82
359.122	96
359.349	72
359.576	92
359.802	100
360.029	108
360.256	127
360.483	86
360.709	75
360.936	95
361.163	93
361.39	88
361.616	109
361.843	85
362.07	99
362.296	92
362.523	94
362.749	85
362.976	100
363.203	89
363.429	95
363.656	78
363.882	84
364.109	92
364.335	92
364.562	98
364.788	90
365.015	72
365.241	95
365.468	115
365.694	103
365.92	87
366.147	102
366.373	103
366.599	95
366.826	100
367.052	81
367.278	88
367.505	89
367.731	104
367.957	76
368.184	86
368.41	93
368.636	119
368.862	114
369.089	107
369.315	78
369.541	87
369.767	94
369.993	82
370.219	108
370.445	89
370.672	79
370.898	94
371.124	82
371.35	75
371.576	101
371.802	93
372.028	85
372.254	88
372.48	73
372.706	77
372.932	84
373.158	92
373.384	101
373.61	82
373.835	108
374.061	94
374.287	86
374.513	91
374.739	82
374.965	79
375.191	102
375.416	77
375.642	87
375.868	93
376.094	78
376.319	78
376.545	85
376.771	81
376.997	88
377.222	87
377.448	99
377.674	87
377.899	90
378.125	86
378.35	90
378.576	82
378.802	86
379.027	71
379.253	90
379.478	104
379.704	89
379.929	85
380.155	97
380.38	105
380.606	105
380.831	99
381.057	96
381.282	102
381.507	102
381.733	102
381.958	83
382.184	98
382.409	118
382.634	95
382.86	91
383.085	107
383.31	91
383.535	93
383.761	100
383.986	90
384.211	97
384.436	101
384.662	97
384.887	118
385.112	97
385.337	102
385.562	107
385.787	94
386.013	111
386.238	113
386.463	102
386.688	103
386.913	107
387.138	113
387.363	106
387.588	114
387.813	98
388.038	119
388.263	119
388.488	94
388.713	77
388.938	83
389.163	109
389.387	87
389.612	93
389.837	71
390.062	88
390.287	93
390.512	81
390.736	87
390.961	95
391.186	87
391.411	90
391.636	98
391.86	80
392.085	86
392.31	87
392.534	79
392.759	82
392.984	88
393.208	91
393.433	99
393.658	101
393.882	77
394.107	77
394.331	96
394.556	79
394.78	101
395.005	94
395.229	76
395.454	85
395.678	83
395.903	85
396.127	93
396.352	88
396.576	75
396.801	98
397.025	89
397.249	81
397.474	81
397.698	77
397.922	74
398.147	78
398.371	81
398.595	102
398.82	82
399.044	73
399.268	96
399.492	65
399.717	101
399.941	104
400.165	91
400.389	92
400.613	90
400.837	95
401.062	77
401.286	87
401.51	78
401.734	98
401.958	102
402.182	134
402.406	169
402.63	116
402.854	107
403.078	95
403.302	85
403.526	73
403.75	93
403.974	79
404.198	76
404.422	92
404.645	89
404.869	91
405.093	95
405.317	114
405.541	97
405.765	101
405.988	134
406.212	195
406.436	267
406.66	169
406.883	103
407.107	106
407.331	99
407.555	97
407.778	90
408.002	84
408.226	95
408.449	89
408.673	90
408.896	91
409.12	95
409.344	87
409.567	76
409.791	93
410.014	99
410.238	86
410.461	85
410.685	89
410.908	106
411.132	101
411.355	89
411.578	99
411.802	79
412.025	77
412.249	82
412.472	85
412.695	99
412.919	95
413.142	88
413.365	84
413.589	101
413.812	87
414.035	87
414.258	76
414.482	102
414.705	97
414.928	96
415.151	91
415.374	85
415.597	78
415.821	82
416.044	89
416.267	76
416.49	87
416.713	86
416.936	101
417.159	100
417.382	84
417.605	86
417.828	87
418.051	87
418.274	92
418.497	91
418.72	70
418.943	78
419.166	83
419.389	91
419.611	98
419.834	87
420.057	83
420.28	86
420.503	75
420.726	86
420.948	111
421.171	95
421.394	79
421.617	96
421.839	87
422.062	103
422.285	87
422.507	85
422.73	111
422.953	101
423.175	86
423.398	69
423.621	100
423.843	87
424.066	105
424.288	93
424.511	82
424.733	106
424.956	91
425.178	81
425.401	92
425.623	95
425.846	83
426.068	100
426.291	100
426.513	96
426.735	93
426.958	96
427.18	99
427.402	138
427.625	176
427.847	148
428.069	105
428.292	73
428.514	88
428.736	79
428.958	87
429.181	77
429.403	75
429.625	70
429.847	96
430.069	95
430.292	91
430.514	75
430.736	86
430.958	90
431.18	84
431.402	81
431.624	84
431.846	78
432.068	98
432.29	93
432.512	94
432.734	86
432.956	83
433.178	101
433.4	101
433.622	67
433.844	88
434.066	82
434.287	86
434.509	88
434.731	85
434.953	92
435.175	92
435.397	94
435.618	97
435.84	103
436.062	123
436.284	129
436.505	99
436.727	108
436.949	86
437.17	79
437.392	86
437.614	83
437.835	105
438.057	135
438.278	108
438.5	104
438.721	135
438.943	107
439.165	93
439.386	78
439.608	83
439.829	91
440.05	141
440.272	157
440.493	98
440.715	89
440.936	87
441.158	95
441.379	84
441.6	85
441.822	90
442.043	81
442.264	112
442.486	103
442.707	95
442.928	118
443.149	144
443.371	147
443.592	140
443.813	112
444.034	117
444.255	91
444.476	84
444.698	93
444.919	82
445.14	128
445.361	145
445.582	135
445.803	144
446.024	130
446.245	142
446.466	97
446.687	92
446.908	92
447.129	82
447.35	77
447.571	82
447.792	101
448.013	100
448.234	112
448.455	107
448.675	121
448.896	125
449.117	95
449.338	106
449.559	133
449.779	138
450	97
450.221	92
450.442	97
450.662	101
450.883	100
451.104	107
451.324	98
451.545	94
451.766	91
451.986	72
452.207	98
452.428	100
452.648	99
452.869	116
453.089	125
453.31	140
453.53	90
453.751	87
453.971	99
454.192	114
454.412	93
454.633	86
454.853	98
455.073	82
455.294	96
455.514	104
455.734	90
455.955	89
456.175	87
456.395	88
456.616	81
456.836	83
457.056	86
457.276	79
457.497	94
457.717	88
457.937	97
458.157	95
458.377	99
458.598	109
458.818	173
459.038	186
459.258	132
459.478	91
459.698	84
459.918	90
460.138	74
460.358	101
460.578	91
460.798	88
461.018	84
461.238	98
461.458	84
461.678	101
461.898	83
462.118	74
462.338	87
462.558	86
462.777	85
462.997	81
463.217	95
463.437	91
463.657	95
463.876	91
464.096	91
464.316	83
464.536	89
464.755	88
464.975	128
465.195	197
465.414	189
465.634	113
465.854	93
466.073	78
466.293	83
466.512	91
466.732	80
466.951	85
467.171	102
467.391	87
467.61	97
467.829	88
468.049	98
468.268	95
468.488	86
468.707	85
468.927	88
469.146	77
469.365	85
469.585	95
469.804	102
470.023	105
470.243	93
470.462	94
470.681	105
470.901	98
471.12	97
471.339	86
471.558	86
471.777	92
471.997	101
472.216	106
472.435	122
472.654	92
472.873	78
473.092	98
473.311	86
473.53	84
473.749	97
473.968	96
474.187	106
474.406	103
474.625	89
474.844	88
475.063	93
475.282	93
475.501	90
475.72	95
475.939	86
476.158	92
476.377	89
476.596	86
476.814	85
477.033	94
477.252	91
477.471	87
477.69	85
477.908	93
478.127	70
478.346	83
478.564	93
478.783	98
479.002	87
479.22	98
479.439	107
479.658	98
479.876	82
480.095	102
480.313	98
480.532	71
480.751	83
480.969	83
481.188	138
481.406	115
481.624	90
481.843	94
482.061	93
482.28	91
482.498	82
482.717	79
482.935	86
483.153	90
483.372	87
483.59	91
483.808	98
484.027	89
484.245	91
484.463	96
484.681	100
484.9	92
485.118	97
485.336	93
485.554	92
485.772	86
485.99	100
486.209	82
486.427	114
486.645	102
486.863	100
487.081	98
487.299	101
487.517	87
487.735	92
487.953	101
488.171	94
488.389	86
488.607	98
488.825	98
489.043	86
489.261	89
489.479	101
489.696	86
489.914	89
490.132	78
490.35	98
490.568	94
490.786	82
491.003	86
491.221	91
491.439	78
491.657	97
491.874	85
492.092	75
492.31	76
492.527	84
492.745	85
492.963	89
493.18	97
493.398	96
493.615	93
493.833	99
494.05	85
494.268	94
494.485	92
494.703	103
494.92	75
495.138	82
495.355	81
495.573	85
495.79	106
496.008	106
496.225	96
496.442	91
496.66	102
496.877	87
497.094	94
497.312	99
497.529	91
497.746	92
497.963	89
498.181	90
498.398	102
498.615	107
498.832	106
499.049	90
499.267	99
499.484	94
499.701	85
499.918	90
500.135	87
500.352	92
500.569	99
500.786	105
501.003	84
501.22	78
501.437	90
501.654	89
501.871	124
502.088	86
502.305	82
502.522	101
502.739	89
502.956	84
503.172	93
503.389	98
503.606	97
503.823	94
504.04	92
504.256	81
504.473	85
504.69	107
504.907	92
505.123	89
505.34	77
505.557	86
505.773	90
505.99	87
506.207	75
506.423	90
506.64	77
506.856	86
507.073	91
507.289	77
507.506	94
507.722	116
507.939	112
508.155	98
508.372	93
508.588	103
508.805	103
509.021	103
509.238	98
509.454	101
509.67	79
509.887	111
510.103	130
510.319	225
510.536	855
510.752	2870
510.968	801
511.184	174
511.401	112
511.617	112
511.833	90
512.049	83
512.265	98
512.481	81
512.698	91
512.914	89
513.13	97
513.346	86
513.562	91
513.778	113
513.994	107
514.21	111
514.426	118
514.642	135
514.858	130
515.074	182
515.29	553
515.506	1865
515.721	713
515.937	176
516.153	105
516.369	109
516.585	102
516.801	96
517.016	101
517.232	100
517.448	104
517.664	97
517.879	90
518.095	86
518.311	93
518.527	87
518.742	93
518.958	79
519.173	86
519.389	91
519.605	92
519.82	110
520.036	93
520.251	129
520.467	118
520.682	114
520.898	117
521.113	127
521.329	151
521.544	234
521.76	674
521.975	3192
522.19	1955
522.406	394
522.621	150
522.836	111
523.052	110
523.267	103
523.482	84
523.698	101
523.913	117
524.128	95
524.343	90
524.559	83
524.774	83
524.989	106
525.204	113
525.419	106
525.634	101
525.849	93
526.064	87
526.28	97
526.495	78
526.71	88
526.925	86
527.14	89
527.355	85
527.57	87
527.785	89
527.999	69
528.214	91
528.429	79
528.644	84
528.859	102
529.074	87
529.289	150
529.503	212
529.718	117
529.933	99
530.148	84
530.363	91
530.577	80
530.792	80
531.007	79
531.221	89
531.436	77
531.651	91
531.865	89
532.08	84
532.295	96
532.509	103
532.724	84
532.938	98
533.153	98
533.367	87
533.582	94
533.796	105
534.011	102
534.225	92
534.44	75
534.654	86
534.868	101
535.083	75
535.297	82
535.511	98
535.726	99
535.94	100
536.154	96
536.369	95
536.583	85
536.797	82
537.011	90
537.225	79
537.44	69
537.654	85
537.868	92
538.082	96
538.296	87
538.51	95
538.724	90
538.938	87
539.153	88
539.367	117
539.581	101
539.795	100
540.009	110
540.222	95
540.436	87
540.65	95
540.864	83
541.078	91
541.292	93
541.506	89
541.72	90
541.934	88
542.147	85
542.361	82
542.575	99
542.789	86
543.002	91
543.216	116
543.43	104
543.644	90
543.857	100
544.071	99
544.285	75
544.498	86
544.712	88
544.925	92
545.139	87
545.352	70
545.566	82
545.779	71
545.993	75
546.206	82
546.42	83
546.633	91
546.847	93
547.06	69
547.274	91
547.487	86
547.7	74
547.914	79
548.127	83
548.34	87
548.554	84
548.767	104
548.98	88
549.193	92
549.407	86
549.62	80
549.833	87
550.046	79
550.259	90
550.473	85
550.686	84
550.899	95
551.112	95
551.325	84
551.538	82
551.751	98
551.964	81
552.177	86
552.39	89
552.603	80
552.816	110
553.029	93
553.242	102
553.455	102
553.667	99
553.88	97
554.093	87
554.306	94
554.519	90
554.732	83
554.944	86
555.157	92
555.37	80
555.583	89
555.795	88
556.008	90
556.221	89
556.433	105
556.646	90
556.859	91
557.071	93
557.284	91
557.496	98
557.709	70
557.921	89
558.134	81
558.346	81
558.559	88
558.771	86
558.984	93
559.196	91
559.409	99
559.621	84
559.833	86
560.046	86
560.258	100
560.47	77
560.683	88
560.895	78
561.107	100
561.32	91
561.532	87
561.744	81
561.956	98
562.168	77
562.381	90
562.593	86
562.805	81
563.017	85
563.229	82
563.441	85
563.653	94
563.865	69
564.077	91
564.289	84
564.501	89
564.713	83
564.925	83
565.137	106
565.349	85
565.561	84
565.773	72
565.985	84
566.197	88
566.408	85
566.62	93
566.832	80
567.044	81
567.255	84
567.467	100
567.679	80
567.891	94
568.102	91
568.314	78
568.526	100
568.737	85
568.949	86
569.161	97
569.372	87
569.584	87
569.795	99
570.007	125
570.218	272
570.43	149
570.641	101
570.853	97
571.064	99
571.276	84
571.487	76
571.698	95
571.91	90
572.121	80
572.333	82
572.544	84
572.755	92
572.966	82
573.178	92
573.389	89
573.6	86
573.811	87
574.023	92
574.234	71
574.445	95
574.656	88
574.867	97
575.078	84
575.289	94
575.501	87
575.712	82
575.923	94
576.134	84
576.345	85
576.556	91
576.767	89
576.978	87
577.188	87
577.399	82
577.61	92
577.821	84
578.032	116
578.243	298
578.454	900
578.665	239
578.875	102
579.086	93
579.297	91
579.508	95
579.718	92
579.929	89
580.14	81
580.35	83
580.561	82
580.772	89
580.982	83
581.193	84
581.403	87
581.614	87
581.825	84
582.035	78
582.246	76
582.456	89
582.667	91
582.877	99
583.087	90
583.298	86
583.508	86
583.719	91
583.929	91
584.139	98
