Data from Circ_1987_H10_HRD10591_00022.txt Node
Date: Wed Jan 03 12:10:37 EST 2024
User: Yrep
Spectrometer: HR+D1059
Trigger mode: 1
Integration Time (sec): 1.000000E-1
Scans to average: 1
Electric dark correction enabled: true
Nonlinearity correction enabled: false
Boxcar width: 0
XAxis mode: Wavelengths
Number of Pixels in Spectrum: 2048
>>>>>Begin Spectral Data<<<<<
223.165	-24.75
223.4	-24.75
223.635	-24.75
223.869	-21.75
224.104	-18.75
224.338	-5.75
224.573	-12.75
224.808	-15.75
225.042	-13.75
225.277	-4.75
225.511	9.25
225.746	3.25
225.98	16.25
226.215	4.25
226.449	16.25
226.683	18.25
226.918	17.25
227.152	33.25
227.387	34.25
227.621	24.25
227.856	41.25
228.09	49.25
228.324	49.25
228.559	35.25
228.793	56.25
229.027	40.25
229.262	73.25
229.496	76.25
229.73	92.25
229.964	88.25
230.199	72.25
230.433	68.25
230.667	73.25
230.901	87.25
231.136	83.25
231.37	68.25
231.604	78.25
231.838	80.25
232.072	77.25
232.306	91.25
232.541	97.25
232.775	83.25
233.009	78.25
233.243	74.25
233.477	88.25
233.711	83.25
233.945	78.25
234.179	66.25
234.413	71.25
234.647	84.25
234.881	79.25
235.115	81.25
235.349	82.25
235.583	77.25
235.817	91.25
236.051	67.25
236.285	78.25
236.519	76.25
236.753	79.25
236.987	76.25
237.221	88.25
237.455	76.25
237.689	77.25
237.922	75.25
238.156	83.25
238.39	68.25
238.624	75.25
238.858	73.25
239.091	91.25
239.325	55.25
239.559	85.25
239.793	82.25
240.027	81.25
240.26	75.25
240.494	67.25
240.728	91.25
240.961	80.25
241.195	68.25
241.429	85.25
241.662	68.25
241.896	67.25
242.13	79.25
242.363	77.25
242.597	52.25
242.83	72.25
243.064	85.25
243.298	59.25
243.531	72.25
243.765	89.25
243.998	83.25
244.232	77.25
244.465	84.25
244.699	85.25
244.932	83.25
245.166	71.25
245.399	80.25
245.633	79.25
245.866	68.25
246.099	72.25
246.333	75.25
246.566	79.25
246.8	91.25
247.033	85.25
247.266	82.25
247.5	65.25
247.733	75.25
247.966	64.25
248.2	88.25
248.433	76.25
248.666	81.25
248.899	81.25
249.133	79.25
249.366	98.25
249.599	95.25
249.832	84.25
250.066	83.25
250.299	91.25
250.532	74.25
250.765	72.25
250.998	81.25
251.231	88.25
251.465	82.25
251.698	77.25
251.931	85.25
252.164	83.25
252.397	91.25
252.63	84.25
252.863	68.25
253.096	72.25
253.329	67.25
253.562	76.25
253.795	81.25
254.028	95.25
254.261	75.25
254.494	74.25
254.727	79.25
254.96	84.25
255.193	77.25
255.426	81.25
255.659	93.25
255.892	97.25
256.124	84.25
256.357	105.25
256.59	83.25
256.823	82.25
257.056	81.25
257.289	79.25
257.521	81.25
257.754	76.25
257.987	79.25
258.22	84.25
258.452	80.25
258.685	64.25
258.918	77.25
259.151	85.25
259.383	81.25
259.616	97.25
259.849	82.25
260.081	93.25
260.314	100.25
260.547	93.25
260.779	90.25
261.012	89.25
261.244	90.25
261.477	90.25
261.71	95.25
261.942	116.25
262.175	117.25
262.407	107.25
262.64	85.25
262.872	77.25
263.105	67.25
263.337	70.25
263.57	79.25
263.802	78.25
264.035	80.25
264.267	69.25
264.499	68.25
264.732	64.25
264.964	75.25
265.197	82.25
265.429	90.25
265.661	69.25
265.894	78.25
266.126	85.25
266.358	65.25
266.591	76.25
266.823	87.25
267.055	83.25
267.287	76.25
267.52	80.25
267.752	99.25
267.984	85.25
268.216	67.25
268.448	80.25
268.681	80.25
268.913	89.25
269.145	88.25
269.377	91.25
269.609	74.25
269.841	90.25
270.073	85.25
270.306	93.25
270.538	75.25
270.77	85.25
271.002	87.25
271.234	76.25
271.466	80.25
271.698	85.25
271.93	102.25
272.162	94.25
272.394	92.25
272.626	87.25
272.858	88.25
273.09	60.25
273.322	80.25
273.553	91.25
273.785	88.25
274.017	81.25
274.249	90.25
274.481	80.25
274.713	72.25
274.945	79.25
275.176	87.25
275.408	81.25
275.64	92.25
275.872	95.25
276.104	81.25
276.335	102.25
276.567	101.25
276.799	129.25
277.031	134.25
277.262	149.25
277.494	127.25
277.726	87.25
277.957	88.25
278.189	78.25
278.421	89.25
278.652	77.25
278.884	88.25
279.115	88.25
279.347	90.25
279.579	92.25
279.81	99.25
280.042	154.25
280.273	178.25
280.505	134.25
280.736	107.25
280.968	94.25
281.199	94.25
281.431	95.25
281.662	88.25
281.894	90.25
282.125	92.25
282.356	123.25
282.588	144.25
282.819	115.25
283.051	80.25
283.282	88.25
283.513	91.25
283.745	86.25
283.976	99.25
284.207	88.25
284.439	81.25
284.67	75.25
284.901	75.25
285.132	72.25
285.364	90.25
285.595	94.25
285.826	77.25
286.057	89.25
286.288	98.25
286.52	82.25
286.751	83.25
286.982	85.25
287.213	88.25
287.444	95.25
287.675	85.25
287.906	79.25
288.138	69.25
288.369	86.25
288.6	84.25
288.831	88.25
289.062	106.25
289.293	86.25
289.524	87.25
289.755	80.25
289.986	89.25
290.217	94.25
290.448	74.25
290.679	101.25
290.91	98.25
291.141	91.25
291.371	91.25
291.602	84.25
291.833	77.25
292.064	83.25
292.295	87.25
292.526	72.25
292.757	78.25
292.987	73.25
293.218	78.25
293.449	81.25
293.68	91.25
293.91	86.25
294.141	93.25
294.372	97.25
294.603	95.25
294.833	94.25
295.064	92.25
295.295	92.25
295.525	95.25
295.756	103.25
295.987	133.25
296.217	137.25
296.448	127.25
296.679	94.25
296.909	88.25
297.14	79.25
297.37	86.25
297.601	88.25
297.831	94.25
298.062	80.25
298.292	99.25
298.523	84.25
298.753	94.25
298.984	80.25
299.214	91.25
299.445	81.25
299.675	97.25
299.905	93.25
300.136	95.25
300.366	80.25
300.597	95.25
300.827	90.25
301.057	90.25
301.288	98.25
301.518	91.25
301.748	97.25
301.979	104.25
302.209	90.25
302.439	104.25
302.669	95.25
302.9	76.25
303.13	86.25
303.36	104.25
303.59	127.25
303.82	105.25
304.051	101.25
304.281	98.25
304.511	92.25
304.741	89.25
304.971	76.25
305.201	79.25
305.431	90.25
305.661	95.25
305.891	105.25
306.121	84.25
306.352	90.25
306.582	97.25
306.812	108.25
307.042	99.25
307.272	120.25
307.502	148.25
307.731	139.25
307.961	102.25
308.191	77.25
308.421	92.25
308.651	83.25
308.881	92.25
309.111	89.25
309.341	87.25
309.571	88.25
309.8	96.25
310.03	99.25
310.26	85.25
310.49	103.25
310.72	101.25
310.949	97.25
311.179	108.25
311.409	86.25
311.639	100.25
311.868	84.25
312.098	92.25
312.328	85.25
312.557	121.25
312.787	118.25
313.017	110.25
313.246	110.25
313.476	87.25
313.706	80.25
313.935	99.25
314.165	98.25
314.394	107.25
314.624	99.25
314.853	96.25
315.083	93.25
315.312	93.25
315.542	92.25
315.771	98.25
316.001	102.25
316.23	107.25
316.46	87.25
316.689	83.25
316.919	91.25
317.148	101.25
317.377	95.25
317.607	88.25
317.836	100.25
318.065	105.25
318.295	91.25
318.524	85.25
318.753	94.25
318.983	92.25
319.212	105.25
319.441	111.25
319.67	111.25
319.9	102.25
320.129	92.25
320.358	91.25
320.587	88.25
320.816	98.25
321.046	99.25
321.275	105.25
321.504	95.25
321.733	94.25
321.962	95.25
322.191	98.25
322.42	114.25
322.649	101.25
322.878	121.25
323.108	107.25
323.337	127.25
323.566	138.25
323.795	165.25
324.024	191.25
324.253	383.25
324.482	796.25
324.71	1625.25
324.939	2202.25
325.168	800.25
325.397	255.25
325.626	157.25
325.855	130.25
326.084	127.25
326.313	140.25
326.542	167.25
326.77	214.25
326.999	448.25
327.228	880.25
327.457	1567.25
327.686	1290.25
327.914	416.25
328.143	357.25
328.372	442.25
328.6	256.25
328.829	147.25
329.058	162.25
329.287	170.25
329.515	159.25
329.744	191.25
329.972	311.25
330.201	611.25
330.43	873.25
330.658	419.25
330.887	237.25
331.115	173.25
331.344	103.25
331.572	118.25
331.801	103.25
332.03	106.25
332.258	100.25
332.486	99.25
332.715	105.25
332.943	103.25
333.172	103.25
333.4	120.25
333.629	140.25
333.857	175.25
334.085	288.25
334.314	556.25
334.542	1084.25
334.771	1056.25
334.999	297.25
335.227	144.25
335.455	115.25
335.684	99.25
335.912	107.25
336.14	97.25
336.369	98.25
336.597	95.25
336.825	94.25
337.053	101.25
337.281	85.25
337.51	84.25
337.738	77.25
337.966	80.25
338.194	100.25
338.422	87.25
338.65	80.25
338.878	98.25
339.106	116.25
339.334	105.25
339.562	77.25
339.79	100.25
340.018	108.25
340.246	101.25
340.474	93.25
340.702	100.25
340.93	109.25
341.158	93.25
341.386	99.25
341.614	100.25
341.842	97.25
342.07	89.25
342.298	82.25
342.526	106.25
342.754	94.25
342.981	92.25
343.209	92.25
343.437	113.25
343.665	83.25
343.893	90.25
344.12	79.25
344.348	76.25
344.576	86.25
344.804	89.25
345.031	96.25
345.259	97.25
345.487	84.25
345.714	97.25
345.942	87.25
346.17	97.25
346.397	103.25
346.625	83.25
346.853	90.25
347.08	74.25
347.308	102.25
347.535	97.25
347.763	104.25
347.99	98.25
348.218	103.25
348.445	111.25
348.673	108.25
348.9	85.25
349.128	86.25
349.355	95.25
349.583	86.25
349.81	95.25
350.037	87.25
350.265	87.25
350.492	111.25
350.72	96.25
350.947	113.25
351.174	101.25
351.402	102.25
351.629	111.25
351.856	108.25
352.083	87.25
352.311	110.25
352.538	111.25
352.765	101.25
352.992	111.25
353.22	128.25
353.447	96.25
353.674	107.25
353.901	91.25
354.128	109.25
354.355	90.25
354.583	101.25
354.81	103.25
355.037	95.25
355.264	95.25
355.491	93.25
355.718	91.25
355.945	101.25
356.172	95.25
356.399	97.25
356.626	89.25
356.853	107.25
357.08	108.25
357.307	83.25
357.534	84.25
357.761	84.25
357.988	91.25
358.215	101.25
358.441	85.25
358.668	100.25
358.895	80.25
359.122	92.25
359.349	75.25
359.576	96.25
359.802	103.25
360.029	121.25
360.256	122.25
360.483	107.25
360.709	85.25
360.936	100.25
361.163	84.25
361.39	87.25
361.616	95.25
361.843	103.25
362.07	103.25
362.296	85.25
362.523	93.25
362.749	79.25
362.976	92.25
363.203	84.25
363.429	87.25
363.656	93.25
363.882	96.25
364.109	93.25
364.335	94.25
364.562	102.25
364.788	87.25
365.015	94.25
365.241	103.25
365.468	112.25
365.694	116.25
365.92	97.25
366.147	93.25
366.373	89.25
366.599	95.25
366.826	89.25
367.052	91.25
367.278	96.25
367.505	88.25
367.731	92.25
367.957	83.25
368.184	83.25
368.41	99.25
368.636	113.25
368.862	117.25
369.089	103.25
369.315	90.25
369.541	96.25
369.767	86.25
369.993	89.25
370.219	106.25
370.445	90.25
370.672	91.25
370.898	84.25
371.124	94.25
371.35	84.25
371.576	80.25
371.802	95.25
372.028	74.25
372.254	79.25
372.48	93.25
372.706	89.25
372.932	96.25
373.158	79.25
373.384	86.25
373.61	84.25
373.835	80.25
374.061	108.25
374.287	104.25
374.513	98.25
374.739	100.25
374.965	80.25
375.191	94.25
375.416	92.25
375.642	109.25
375.868	99.25
376.094	86.25
376.319	87.25
376.545	80.25
376.771	101.25
376.997	103.25
377.222	81.25
377.448	77.25
377.674	83.25
377.899	94.25
378.125	93.25
378.35	93.25
378.576	90.25
378.802	87.25
379.027	92.25
379.253	87.25
379.478	92.25
379.704	95.25
379.929	103.25
380.155	94.25
380.38	95.25
380.606	94.25
380.831	107.25
381.057	88.25
381.282	91.25
381.507	95.25
381.733	85.25
381.958	93.25
382.184	107.25
382.409	95.25
382.634	103.25
382.86	93.25
383.085	97.25
383.31	90.25
383.535	97.25
383.761	89.25
383.986	85.25
384.211	82.25
384.436	102.25
384.662	105.25
384.887	108.25
385.112	109.25
385.337	100.25
385.562	98.25
385.787	122.25
386.013	107.25
386.238	107.25
386.463	95.25
386.688	97.25
386.913	94.25
387.138	115.25
387.363	95.25
387.588	102.25
387.813	116.25
388.038	96.25
388.263	116.25
388.488	101.25
388.713	97.25
388.938	108.25
389.163	91.25
389.387	96.25
389.612	91.25
389.837	91.25
390.062	96.25
390.287	88.25
390.512	94.25
390.736	85.25
390.961	85.25
391.186	98.25
391.411	96.25
391.636	99.25
391.86	85.25
392.085	92.25
392.31	84.25
392.534	88.25
392.759	83.25
392.984	99.25
393.208	79.25
393.433	86.25
393.658	91.25
393.882	96.25
394.107	62.25
394.331	83.25
394.556	76.25
394.78	93.25
395.005	89.25
395.229	94.25
395.454	102.25
395.678	82.25
395.903	88.25
396.127	85.25
396.352	83.25
396.576	89.25
396.801	87.25
397.025	97.25
397.249	84.25
397.474	95.25
397.698	72.25
397.922	82.25
398.147	88.25
398.371	86.25
398.595	85.25
398.82	84.25
399.044	76.25
399.268	69.25
399.492	81.25
399.717	94.25
399.941	81.25
400.165	105.25
400.389	96.25
400.613	83.25
400.837	83.25
401.062	79.25
401.286	85.25
401.51	97.25
401.734	98.25
401.958	98.25
402.182	139.25
402.406	169.25
402.63	131.25
402.854	82.25
403.078	82.25
403.302	95.25
403.526	85.25
403.75	89.25
403.974	71.25
404.198	82.25
404.422	78.25
404.645	100.25
404.869	80.25
405.093	103.25
405.317	127.25
405.541	102.25
405.765	108.25
405.988	115.25
406.212	179.25
406.436	258.25
406.66	159.25
406.883	97.25
407.107	103.25
407.331	99.25
407.555	103.25
407.778	107.25
408.002	94.25
408.226	83.25
408.449	97.25
408.673	92.25
408.896	83.25
409.12	77.25
409.344	93.25
409.567	91.25
409.791	99.25
410.014	99.25
410.238	92.25
410.461	83.25
410.685	93.25
410.908	109.25
411.132	105.25
411.355	100.25
411.578	95.25
411.802	102.25
412.025	92.25
412.249	92.25
412.472	112.25
412.695	120.25
412.919	113.25
413.142	103.25
413.365	88.25
413.589	87.25
413.812	82.25
414.035	85.25
414.258	102.25
414.482	92.25
414.705	85.25
414.928	90.25
415.151	91.25
415.374	94.25
415.597	73.25
415.821	96.25
416.044	76.25
416.267	83.25
416.49	94.25
416.713	87.25
416.936	82.25
417.159	80.25
417.382	84.25
417.605	103.25
417.828	100.25
418.051	101.25
418.274	95.25
418.497	96.25
418.72	80.25
418.943	92.25
419.166	91.25
419.389	71.25
419.611	92.25
419.834	89.25
420.057	99.25
420.28	98.25
420.503	90.25
420.726	85.25
420.948	83.25
421.171	105.25
421.394	93.25
421.617	84.25
421.839	87.25
422.062	87.25
422.285	87.25
422.507	93.25
422.73	96.25
422.953	85.25
423.175	94.25
423.398	84.25
423.621	86.25
423.843	96.25
424.066	100.25
424.288	96.25
424.511	87.25
424.733	100.25
424.956	119.25
425.178	118.25
425.401	92.25
425.623	105.25
425.846	84.25
426.068	92.25
426.291	96.25
426.513	96.25
426.735	98.25
426.958	101.25
427.18	105.25
427.402	159.25
427.625	223.25
427.847	196.25
428.069	187.25
428.292	119.25
428.514	98.25
428.736	85.25
428.958	82.25
429.181	94.25
429.403	96.25
429.625	80.25
429.847	84.25
430.069	105.25
430.292	102.25
430.514	84.25
430.736	79.25
430.958	71.25
431.18	95.25
431.402	84.25
431.624	96.25
431.846	103.25
432.068	85.25
432.29	83.25
432.512	93.25
432.734	81.25
432.956	91.25
433.178	104.25
433.4	110.25
433.622	92.25
433.844	99.25
434.066	89.25
434.287	98.25
434.509	87.25
434.731	77.25
434.953	84.25
435.175	86.25
435.397	83.25
435.618	100.25
435.84	118.25
436.062	141.25
436.284	119.25
436.505	105.25
436.727	95.25
436.949	90.25
437.17	87.25
437.392	89.25
437.614	100.25
437.835	100.25
438.057	124.25
438.278	115.25
438.5	106.25
438.721	142.25
438.943	114.25
439.165	78.25
439.386	92.25
439.608	81.25
439.829	97.25
440.05	133.25
440.272	160.25
440.493	102.25
440.715	86.25
440.936	87.25
441.158	82.25
441.379	94.25
441.6	95.25
441.822	84.25
442.043	96.25
442.264	83.25
442.486	111.25
442.707	99.25
442.928	119.25
443.149	155.25
443.371	139.25
443.592	112.25
443.813	118.25
444.034	104.25
444.255	79.25
444.476	85.25
444.698	83.25
444.919	86.25
445.14	143.25
445.361	119.25
445.582	120.25
445.803	160.25
446.024	161.25
446.245	141.25
446.466	116.25
446.687	83.25
446.908	83.25
447.129	96.25
447.35	100.25
447.571	92.25
447.792	94.25
448.013	106.25
448.234	120.25
448.455	90.25
448.675	131.25
448.896	145.25
449.117	104.25
449.338	109.25
449.559	126.25
449.779	139.25
450	97.25
450.221	95.25
450.442	98.25
450.662	97.25
450.883	110.25
451.104	131.25
451.324	96.25
451.545	81.25
451.766	75.25
451.986	75.25
452.207	94.25
452.428	86.25
452.648	108.25
452.869	105.25
453.089	119.25
453.31	120.25
453.53	93.25
453.751	96.25
453.971	112.25
454.192	103.25
454.412	87.25
454.633	80.25
454.853	91.25
455.073	81.25
455.294	91.25
455.514	105.25
455.734	88.25
455.955	89.25
456.175	78.25
456.395	85.25
456.616	84.25
456.836	81.25
457.056	94.25
457.276	86.25
457.497	88.25
457.717	82.25
457.937	84.25
458.157	81.25
458.377	81.25
458.598	128.25
458.818	176.25
459.038	188.25
459.258	113.25
459.478	84.25
459.698	89.25
459.918	61.25
460.138	76.25
460.358	82.25
460.578	79.25
460.798	97.25
461.018	70.25
461.238	83.25
461.458	87.25
461.678	72.25
461.898	80.25
462.118	88.25
462.338	100.25
462.558	79.25
462.777	95.25
462.997	99.25
463.217	113.25
463.437	105.25
463.657	102.25
463.876	109.25
464.096	88.25
464.316	95.25
464.536	97.25
464.755	96.25
464.975	113.25
465.195	192.25
465.414	199.25
465.634	102.25
465.854	88.25
466.073	85.25
466.293	83.25
466.512	73.25
466.732	95.25
466.951	84.25
467.171	93.25
467.391	113.25
467.61	123.25
467.829	156.25
468.049	349.25
468.268	530.25
468.488	162.25
468.707	96.25
468.927	90.25
469.146	80.25
469.365	92.25
469.585	88.25
469.804	96.25
470.023	108.25
470.243	93.25
470.462	105.25
470.681	113.25
470.901	92.25
471.12	94.25
471.339	100.25
471.558	106.25
471.777	115.25
471.997	206.25
472.216	697.25
472.435	1495.25
472.654	369.25
472.873	125.25
473.092	88.25
473.311	81.25
473.53	63.25
473.749	96.25
473.968	104.25
474.187	112.25
474.406	104.25
474.625	85.25
474.844	85.25
475.063	85.25
475.282	89.25
475.501	90.25
475.72	99.25
475.939	97.25
476.158	82.25
476.377	89.25
476.596	79.25
476.814	91.25
477.033	92.25
477.252	92.25
477.471	80.25
477.69	79.25
477.908	100.25
478.127	98.25
478.346	90.25
478.564	89.25
478.783	99.25
479.002	100.25
479.22	97.25
479.439	108.25
479.658	116.25
479.876	109.25
480.095	91.25
480.313	110.25
480.532	136.25
480.751	196.25
480.969	624.25
481.188	2608.25
481.406	1532.25
481.624	256.25
481.843	110.25
482.061	103.25
482.28	94.25
482.498	102.25
482.717	91.25
482.935	83.25
483.153	79.25
483.372	82.25
483.59	91.25
483.808	76.25
484.027	90.25
484.245	96.25
484.463	89.25
484.681	85.25
484.9	85.25
485.118	101.25
485.336	100.25
485.554	91.25
485.772	96.25
485.99	125.25
486.209	116.25
486.427	112.25
486.645	110.25
486.863	116.25
487.081	103.25
487.299	98.25
487.517	92.25
487.735	93.25
487.953	82.25
488.171	91.25
488.389	98.25
488.607	100.25
488.825	89.25
489.043	93.25
489.261	103.25
489.479	94.25
489.696	83.25
489.914	83.25
490.132	81.25
490.35	72.25
490.568	92.25
490.786	90.25
491.003	94.25
491.221	86.25
491.439	96.25
491.657	89.25
491.874	107.25
492.092	96.25
492.31	81.25
492.527	102.25
492.745	87.25
492.963	100.25
493.18	86.25
493.398	102.25
493.615	98.25
493.833	94.25
494.05	84.25
494.268	83.25
494.485	97.25
494.703	80.25
494.92	77.25
495.138	89.25
495.355	87.25
495.573	89.25
495.79	85.25
496.008	91.25
496.225	85.25
496.442	84.25
496.66	92.25
496.877	89.25
497.094	94.25
497.312	106.25
497.529	90.25
497.746	89.25
497.963	86.25
498.181	69.25
498.398	95.25
498.615	106.25
498.832	111.25
499.049	94.25
499.267	94.25
499.484	81.25
499.701	104.25
499.918	80.25
500.135	76.25
500.352	97.25
500.569	93.25
500.786	87.25
501.003	100.25
501.22	102.25
501.437	89.25
501.654	109.25
501.871	114.25
502.088	77.25
502.305	88.25
502.522	85.25
502.739	90.25
502.956	92.25
503.172	91.25
503.389	97.25
503.606	99.25
503.823	115.25
504.04	92.25
504.256	91.25
504.473	83.25
504.69	82.25
504.907	87.25
505.123	96.25
505.34	84.25
505.557	84.25
505.773	101.25
505.99	79.25
506.207	78.25
506.423	83.25
506.64	101.25
506.856	96.25
507.073	102.25
507.289	96.25
507.506	100.25
507.722	137.25
507.939	109.25
508.155	93.25
508.372	83.25
508.588	93.25
508.805	87.25
509.021	94.25
509.238	90.25
509.454	89.25
509.67	97.25
509.887	115.25
510.103	130.25
510.319	212.25
510.536	780.25
510.752	2671.25
510.968	715.25
511.184	159.25
511.401	115.25
511.617	102.25
511.833	98.25
512.049	89.25
512.265	80.25
512.481	84.25
512.698	83.25
512.914	78.25
513.13	93.25
513.346	78.25
513.562	96.25
513.778	118.25
513.994	105.25
514.21	111.25
514.426	125.25
514.642	139.25
