Data from Circ_1987_H10_HRD10591_00058.txt Node
Date: Wed Jan 03 12:10:44 EST 2024
User: Yrep
Spectrometer: HR+D1059
Trigger mode: 1
Integration Time (sec): 1.000000E-1
Scans to average: 1
Electric dark correction enabled: true
Nonlinearity correction enabled: false
Boxcar width: 0
XAxis mode: Wavelengths
Number of Pixels in Spectrum: 2048
>>>>>Begin Spectral Data<<<<<
223.165	-24.06
223.4	-24.06
223.635	-24.06
223.869	-17.06
224.104	-20.06
224.338	-15.06
224.573	-6.06
224.808	-12.06
225.042	-18.06
225.277	-14.06
225.511	2.94
225.746	-0.06
225.98	-2.06
226.215	14.94
226.449	26.94
226.683	16.94
226.918	33.94
227.152	32.94
227.387	34.94
227.621	46.94
227.856	46.94
228.09	54.94
228.324	67.94
228.559	54.94
228.793	60.94
229.027	61.94
229.262	75.94
229.496	83.94
229.73	110.94
229.964	104.94
230.199	75.94
230.433	70.94
230.667	76.94
230.901	77.94
231.136	80.94
231.37	70.94
231.604	68.94
231.838	67.94
232.072	94.94
232.306	89.94
232.541	83.94
232.775	77.94
233.009	77.94
233.243	83.94
233.477	79.94
233.711	78.94
233.945	70.94
234.179	88.94
234.413	65.94
234.647	75.94
234.881	81.94
235.115	84.94
235.349	82.94
235.583	66.94
235.817	68.94
236.051	71.94
236.285	82.94
236.519	93.94
236.753	80.94
236.987	87.94
237.221	87.94
237.455	97.94
237.689	96.94
237.922	83.94
238.156	80.94
238.39	67.94
238.624	75.94
238.858	79.94
239.091	88.94
239.325	100.94
239.559	78.94
239.793	93.94
240.027	68.94
240.26	93.94
240.494	81.94
240.728	76.94
240.961	90.94
241.195	96.94
241.429	84.94
241.662	88.94
241.896	79.94
242.13	84.94
242.363	75.94
242.597	82.94
242.83	85.94
243.064	84.94
243.298	77.94
243.531	72.94
243.765	96.94
243.998	73.94
244.232	83.94
244.465	102.94
244.699	70.94
244.932	70.94
245.166	82.94
245.399	66.94
245.633	70.94
245.866	53.94
246.099	62.94
246.333	64.94
246.566	83.94
246.8	90.94
247.033	98.94
247.266	78.94
247.5	85.94
247.733	69.94
247.966	81.94
248.2	89.94
248.433	96.94
248.666	78.94
248.899	80.94
249.133	80.94
249.366	111.94
249.599	115.94
249.832	83.94
250.066	70.94
250.299	79.94
250.532	79.94
250.765	81.94
250.998	83.94
251.231	84.94
251.465	81.94
251.698	79.94
251.931	103.94
252.164	104.94
252.397	88.94
252.63	70.94
252.863	77.94
253.096	87.94
253.329	77.94
253.562	86.94
253.795	82.94
254.028	75.94
254.261	68.94
254.494	71.94
254.727	88.94
254.96	78.94
255.193	87.94
255.426	88.94
255.659	88.94
255.892	92.94
256.124	116.94
256.357	95.94
256.59	81.94
256.823	82.94
257.056	90.94
257.289	92.94
257.521	86.94
257.754	103.94
257.987	97.94
258.22	106.94
258.452	91.94
258.685	95.94
258.918	102.94
259.151	69.94
259.383	80.94
259.616	96.94
259.849	97.94
260.081	86.94
260.314	105.94
260.547	78.94
260.779	104.94
261.012	114.94
261.244	123.94
261.477	98.94
261.71	103.94
261.942	145.94
262.175	166.94
262.407	105.94
262.64	94.94
262.872	86.94
263.105	88.94
263.337	85.94
263.57	97.94
263.802	88.94
264.035	67.94
264.267	81.94
264.499	85.94
264.732	92.94
264.964	79.94
265.197	86.94
265.429	87.94
265.661	66.94
265.894	83.94
266.126	83.94
266.358	84.94
266.591	78.94
266.823	88.94
267.055	78.94
267.287	80.94
267.52	77.94
267.752	84.94
267.984	104.94
268.216	73.94
268.448	91.94
268.681	96.94
268.913	86.94
269.145	100.94
269.377	94.94
269.609	88.94
269.841	80.94
270.073	81.94
270.306	86.94
270.538	85.94
270.77	87.94
271.002	72.94
271.234	89.94
271.466	82.94
271.698	105.94
271.93	89.94
272.162	97.94
272.394	96.94
272.626	87.94
272.858	79.94
273.09	80.94
273.322	96.94
273.553	78.94
273.785	88.94
274.017	87.94
274.249	81.94
274.481	77.94
274.713	83.94
274.945	100.94
275.176	88.94
275.408	112.94
275.64	113.94
275.872	133.94
276.104	115.94
276.335	110.94
276.567	134.94
276.799	176.94
277.031	207.94
277.262	232.94
277.494	169.94
277.726	110.94
277.957	107.94
278.189	85.94
278.421	92.94
278.652	96.94
278.884	113.94
279.115	98.94
279.347	97.94
279.579	106.94
279.81	163.94
280.042	234.94
280.273	316.94
280.505	223.94
280.736	109.94
280.968	102.94
281.199	81.94
281.431	93.94
281.662	95.94
281.894	97.94
282.125	116.94
282.356	147.94
282.588	189.94
282.819	156.94
283.051	93.94
283.282	78.94
283.513	86.94
283.745	91.94
283.976	97.94
284.207	91.94
284.439	92.94
284.67	86.94
284.901	108.94
285.132	81.94
285.364	94.94
285.595	95.94
285.826	86.94
286.057	98.94
286.288	99.94
286.52	75.94
286.751	73.94
286.982	91.94
287.213	83.94
287.444	93.94
287.675	85.94
287.906	92.94
288.138	104.94
288.369	108.94
288.6	93.94
288.831	88.94
289.062	82.94
289.293	80.94
289.524	99.94
289.755	85.94
289.986	85.94
290.217	87.94
290.448	83.94
290.679	78.94
290.91	105.94
291.141	88.94
291.371	78.94
291.602	92.94
291.833	104.94
292.064	89.94
292.295	87.94
292.526	92.94
292.757	97.94
292.987	94.94
293.218	86.94
293.449	82.94
293.68	97.94
293.91	96.94
294.141	94.94
294.372	80.94
294.603	83.94
294.833	105.94
295.064	79.94
295.295	104.94
295.525	111.94
295.756	112.94
295.987	139.94
296.217	192.94
296.448	146.94
296.679	107.94
296.909	98.94
297.14	84.94
297.37	92.94
297.601	84.94
297.831	100.94
298.062	106.94
298.292	78.94
298.523	91.94
298.753	84.94
298.984	84.94
299.214	93.94
299.445	78.94
299.675	106.94
299.905	99.94
300.136	100.94
300.366	100.94
300.597	100.94
300.827	108.94
301.057	104.94
301.288	119.94
301.518	102.94
301.748	116.94
301.979	114.94
302.209	110.94
302.439	95.94
302.669	91.94
302.9	94.94
303.13	106.94
303.36	130.94
303.59	131.94
303.82	151.94
304.051	116.94
304.281	109.94
304.511	99.94
304.741	87.94
304.971	98.94
305.201	100.94
305.431	93.94
305.661	91.94
305.891	103.94
306.121	111.94
306.352	109.94
306.582	128.94
306.812	119.94
307.042	129.94
307.272	188.94
307.502	214.94
307.731	187.94
307.961	146.94
308.191	89.94
308.421	100.94
308.651	108.94
308.881	103.94
309.111	92.94
309.341	104.94
309.571	110.94
309.8	108.94
310.03	128.94
310.26	123.94
310.49	112.94
310.72	112.94
310.949	133.94
311.179	100.94
311.409	103.94
311.639	111.94
311.868	117.94
312.098	109.94
312.328	117.94
312.557	133.94
312.787	134.94
313.017	116.94
313.246	104.94
313.476	107.94
313.706	97.94
313.935	116.94
314.165	120.94
314.394	129.94
314.624	102.94
314.853	127.94
315.083	95.94
315.312	80.94
315.542	86.94
315.771	95.94
316.001	92.94
316.23	95.94
316.46	101.94
316.689	98.94
316.919	91.94
317.148	98.94
317.377	87.94
317.607	89.94
317.836	106.94
318.065	101.94
318.295	96.94
318.524	96.94
318.753	86.94
318.983	108.94
319.212	117.94
319.441	133.94
319.67	113.94
319.9	90.94
320.129	87.94
320.358	93.94
320.587	99.94
320.816	113.94
321.046	114.94
321.275	113.94
321.504	107.94
321.733	117.94
321.962	112.94
322.191	100.94
322.42	139.94
322.649	130.94
322.878	139.94
323.108	141.94
323.337	160.94
323.566	161.94
323.795	201.94
324.024	285.94
324.253	550.94
324.482	1209.94
324.71	2551.94
324.939	3373.94
325.168	1232.94
325.397	315.94
325.626	196.94
325.855	145.94
326.084	145.94
326.313	180.94
326.542	198.94
326.77	292.94
326.999	599.94
327.228	1248.94
327.457	2329.94
327.686	1898.94
327.914	660.94
328.143	686.94
328.372	896.94
328.6	475.94
328.829	232.94
329.058	241.94
329.287	259.94
329.515	215.94
329.744	313.94
329.972	628.94
330.201	1316.94
330.43	1962.94
330.658	849.94
330.887	411.94
331.115	258.94
331.344	123.94
331.572	143.94
331.801	160.94
332.03	141.94
332.258	135.94
332.486	122.94
332.715	116.94
332.943	135.94
333.172	122.94
333.4	150.94
333.629	177.94
333.857	280.94
334.085	551.94
334.314	1227.94
334.542	2427.94
334.771	2246.94
334.999	555.94
335.227	195.94
335.455	151.94
335.684	121.94
335.912	101.94
336.14	103.94
336.369	111.94
336.597	116.94
336.825	127.94
337.053	99.94
337.281	108.94
337.51	109.94
337.738	106.94
337.966	96.94
338.194	126.94
338.422	116.94
338.65	90.94
338.878	96.94
339.106	99.94
339.334	85.94
339.562	103.94
339.79	101.94
340.018	116.94
340.246	103.94
340.474	105.94
340.702	134.94
340.93	91.94
341.158	100.94
341.386	114.94
341.614	104.94
341.842	112.94
342.07	91.94
342.298	108.94
342.526	79.94
342.754	96.94
342.981	88.94
343.209	92.94
343.437	83.94
343.665	100.94
343.893	97.94
344.12	91.94
344.348	94.94
344.576	91.94
344.804	110.94
345.031	128.94
345.259	121.94
345.487	103.94
345.714	100.94
345.942	88.94
346.17	104.94
346.397	98.94
346.625	100.94
346.853	102.94
347.08	93.94
347.308	92.94
347.535	122.94
347.763	118.94
347.99	103.94
348.218	103.94
348.445	135.94
348.673	125.94
348.9	106.94
349.128	99.94
349.355	81.94
349.583	95.94
349.81	89.94
350.037	110.94
350.265	97.94
350.492	102.94
350.72	97.94
350.947	115.94
351.174	118.94
351.402	142.94
351.629	118.94
351.856	112.94
352.083	114.94
352.311	121.94
352.538	137.94
352.765	143.94
352.992	135.94
353.22	125.94
353.447	112.94
353.674	115.94
353.901	99.94
354.128	84.94
354.355	93.94
354.583	99.94
354.81	96.94
355.037	101.94
355.264	88.94
355.491	89.94
355.718	87.94
355.945	103.94
356.172	90.94
356.399	89.94
356.626	89.94
356.853	89.94
357.08	81.94
357.307	87.94
357.534	94.94
357.761	87.94
357.988	91.94
358.215	103.94
358.441	73.94
358.668	84.94
358.895	89.94
359.122	110.94
359.349	91.94
359.576	104.94
359.802	123.94
360.029	171.94
360.256	169.94
360.483	138.94
360.709	100.94
360.936	85.94
361.163	117.94
361.39	119.94
361.616	98.94
361.843	118.94
362.07	104.94
362.296	109.94
362.523	110.94
362.749	99.94
362.976	107.94
363.203	107.94
363.429	96.94
363.656	98.94
363.882	92.94
364.109	99.94
364.335	94.94
364.562	104.94
364.788	91.94
365.015	108.94
365.241	102.94
365.468	128.94
365.694	124.94
365.92	123.94
366.147	95.94
366.373	91.94
366.599	111.94
366.826	89.94
367.052	92.94
367.278	91.94
367.505	104.94
367.731	96.94
367.957	103.94
368.184	97.94
368.41	122.94
368.636	141.94
368.862	145.94
369.089	137.94
369.315	112.94
369.541	100.94
369.767	100.94
369.993	116.94
370.219	109.94
370.445	112.94
370.672	87.94
370.898	90.94
371.124	87.94
371.35	87.94
371.576	97.94
371.802	95.94
372.028	87.94
372.254	94.94
372.48	99.94
372.706	88.94
372.932	100.94
373.158	82.94
373.384	97.94
373.61	103.94
373.835	100.94
374.061	98.94
374.287	94.94
374.513	99.94
374.739	101.94
374.965	95.94
375.191	93.94
375.416	89.94
375.642	73.94
375.868	88.94
376.094	82.94
376.319	89.94
376.545	94.94
376.771	81.94
376.997	93.94
377.222	87.94
377.448	90.94
377.674	88.94
377.899	93.94
378.125	92.94
378.35	92.94
378.576	103.94
378.802	91.94
379.027	90.94
379.253	100.94
379.478	97.94
379.704	100.94
379.929	97.94
380.155	108.94
380.38	99.94
380.606	101.94
380.831	88.94
381.057	96.94
381.282	98.94
381.507	93.94
381.733	93.94
381.958	103.94
382.184	88.94
382.409	89.94
382.634	108.94
382.86	110.94
383.085	101.94
383.31	81.94
383.535	95.94
383.761	99.94
383.986	99.94
384.211	100.94
384.436	105.94
384.662	105.94
384.887	92.94
385.112	103.94
385.337	107.94
385.562	104.94
385.787	109.94
386.013	119.94
386.238	120.94
386.463	109.94
386.688	124.94
386.913	120.94
387.138	98.94
387.363	104.94
387.588	99.94
387.813	93.94
388.038	100.94
388.263	126.94
388.488	102.94
388.713	101.94
388.938	98.94
389.163	88.94
389.387	80.94
389.612	85.94
389.837	87.94
390.062	75.94
390.287	86.94
390.512	87.94
390.736	78.94
390.961	91.94
391.186	101.94
391.411	89.94
391.636	80.94
391.86	89.94
392.085	75.94
392.31	93.94
392.534	88.94
392.759	80.94
392.984	82.94
393.208	94.94
393.433	90.94
393.658	100.94
393.882	82.94
394.107	88.94
394.331	85.94
394.556	93.94
394.78	89.94
395.005	87.94
395.229	85.94
395.454	106.94
395.678	87.94
395.903	81.94
396.127	99.94
396.352	90.94
396.576	91.94
396.801	92.94
397.025	86.94
397.249	85.94
397.474	81.94
397.698	83.94
397.922	93.94
398.147	91.94
398.371	91.94
398.595	67.94
398.82	75.94
399.044	82.94
399.268	62.94
399.492	84.94
399.717	88.94
399.941	96.94
400.165	94.94
400.389	103.94
400.613	93.94
400.837	80.94
401.062	81.94
401.286	105.94
401.51	91.94
401.734	98.94
401.958	104.94
402.182	178.94
402.406	226.94
402.63	159.94
402.854	116.94
403.078	103.94
403.302	91.94
403.526	86.94
403.75	104.94
403.974	91.94
404.198	86.94
404.422	92.94
404.645	104.94
404.869	113.94
405.093	125.94
405.317	169.94
405.541	157.94
405.765	143.94
405.988	161.94
406.212	256.94
406.436	383.94
406.66	249.94
406.883	126.94
407.107	117.94
407.331	115.94
407.555	112.94
407.778	120.94
408.002	108.94
408.226	94.94
408.449	93.94
408.673	103.94
408.896	108.94
409.12	102.94
409.344	90.94
409.567	83.94
409.791	95.94
410.014	99.94
410.238	94.94
410.461	94.94
410.685	100.94
410.908	102.94
411.132	105.94
411.355	89.94
411.578	88.94
411.802	113.94
412.025	104.94
412.249	121.94
412.472	116.94
412.695	155.94
412.919	119.94
413.142	100.94
413.365	93.94
413.589	88.94
413.812	93.94
414.035	104.94
414.258	92.94
414.482	90.94
414.705	93.94
414.928	105.94
415.151	88.94
415.374	83.94
415.597	90.94
415.821	94.94
416.044	106.94
416.267	75.94
416.49	92.94
416.713	89.94
416.936	95.94
417.159	104.94
417.382	114.94
417.605	113.94
417.828	124.94
418.051	111.94
418.274	105.94
418.497	92.94
418.72	87.94
418.943	85.94
419.166	93.94
419.389	87.94
419.611	86.94
419.834	84.94
420.057	94.94
420.28	99.94
420.503	77.94
420.726	95.94
420.948	86.94
421.171	115.94
421.394	120.94
421.617	81.94
421.839	75.94
422.062	89.94
422.285	97.94
422.507	106.94
422.73	112.94
422.953	96.94
423.175	81.94
423.398	97.94
423.621	87.94
423.843	99.94
424.066	96.94
424.288	90.94
424.511	107.94
424.733	113.94
424.956	125.94
425.178	114.94
425.401	113.94
425.623	118.94
425.846	93.94
426.068	93.94
426.291	103.94
426.513	92.94
426.735	92.94
426.958	106.94
427.18	139.94
427.402	211.94
427.625	326.94
427.847	283.94
428.069	255.94
428.292	143.94
428.514	98.94
428.736	95.94
428.958	85.94
429.181	86.94
429.403	87.94
429.625	92.94
429.847	88.94
430.069	110.94
430.292	110.94
430.514	84.94
430.736	70.94
430.958	98.94
431.18	86.94
431.402	80.94
431.624	93.94
431.846	93.94
432.068	100.94
432.29	104.94
432.512	73.94
432.734	94.94
432.956	76.94
433.178	93.94
433.4	110.94
433.622	84.94
433.844	80.94
434.066	84.94
434.287	86.94
434.509	97.94
434.731	98.94
434.953	106.94
435.175	72.94
435.397	84.94
435.618	95.94
435.84	123.94
436.062	134.94
436.284	132.94
436.505	120.94
436.727	116.94
436.949	93.94
437.17	86.94
437.392	99.94
437.614	104.94
437.835	147.94
438.057	176.94
438.278	134.94
438.5	112.94
438.721	158.94
438.943	128.94
439.165	97.94
439.386	90.94
439.608	104.94
439.829	126.94
440.05	183.94
440.272	231.94
440.493	129.94
440.715	95.94
440.936	99.94
441.158	96.94
441.379	87.94
441.6	111.94
441.822	96.94
442.043	111.94
442.264	116.94
442.486	108.94
442.707	90.94
442.928	143.94
443.149	203.94
443.371	194.94
443.592	158.94
443.813	135.94
444.034	131.94
444.255	94.94
444.476	97.94
444.698	100.94
444.919	104.94
445.14	147.94
445.361	139.94
445.582	165.94
445.803	234.94
446.024	205.94
446.245	207.94
446.466	141.94
446.687	95.94
446.908	92.94
447.129	94.94
447.35	99.94
447.571	108.94
447.792	114.94
448.013	116.94
448.234	155.94
448.455	134.94
448.675	132.94
448.896	147.94
449.117	119.94
449.338	127.94
449.559	170.94
449.779	162.94
450	82.94
450.221	87.94
450.442	83.94
450.662	118.94
450.883	129.94
451.104	157.94
451.324	126.94
451.545	93.94
451.766	84.94
451.986	84.94
452.207	104.94
452.428	100.94
452.648	119.94
452.869	143.94
453.089	162.94
453.31	163.94
453.53	109.94
453.751	103.94
453.971	133.94
454.192	154.94
454.412	116.94
454.633	81.94
454.853	102.94
455.073	91.94
455.294	89.94
455.514	107.94
455.734	93.94
455.955	95.94
456.175	87.94
456.395	84.94
456.616	97.94
456.836	87.94
457.056	99.94
457.276	83.94
457.497	80.94
457.717	98.94
457.937	96.94
458.157	87.94
458.377	111.94
458.598	142.94
458.818	270.94
459.038	316.94
459.258	193.94
459.478	118.94
459.698	97.94
459.918	77.94
460.138	84.94
460.358	87.94
460.578	89.94
460.798	86.94
461.018	105.94
461.238	92.94
461.458	77.94
461.678	94.94
461.898	100.94
462.118	80.94
462.338	72.94
462.558	89.94
462.777	77.94
462.997	119.94
463.217	117.94
463.437	104.94
463.657	112.94
463.876	83.94
464.096	81.94
464.316	111.94
464.536	109.94
464.755	116.94
464.975	147.94
465.195	301.94
465.414	307.94
465.634	117.94
465.854	91.94
466.073	85.94
466.293	108.94
466.512	98.94
466.732	89.94
466.951	91.94
467.171	102.94
467.391	109.94
467.61	167.94
467.829	247.94
468.049	690.94
468.268	1051.94
468.488	259.94
468.707	104.94
468.927	104.94
469.146	104.94
469.365	97.94
469.585	112.94
469.804	119.94
470.023	114.94
470.243	120.94
470.462	129.94
470.681	160.94
470.901	108.94
471.12	101.94
471.339	91.94
471.558	125.94
471.777	177.94
471.997	361.94
472.216	1318.94
472.435	3172.94
472.654	720.94
472.873	191.94
473.092	108.94
473.311	106.94
473.53	91.94
473.749	90.94
473.968	103.94
474.187	158.94
474.406	112.94
474.625	104.94
474.844	98.94
475.063	96.94
475.282	93.94
475.501	85.94
475.72	99.94
475.939	92.94
476.158	98.94
476.377	100.94
476.596	105.94
476.814	104.94
477.033	116.94
477.252	83.94
477.471	91.94
477.69	99.94
477.908	94.94
478.127	84.94
478.346	105.94
478.564	115.94
478.783	105.94
479.002	101.94
479.22	116.94
479.439	132.94
479.658	160.94
479.876	134.94
480.095	142.94
480.313	158.94
480.532	192.94
480.751	323.94
480.969	1229.94
481.188	5493.94
481.406	3103.94
481.624	445.94
481.843	160.94
482.061	123.94
482.28	105.94
482.498	103.94
482.717	94.94
482.935	104.94
483.153	86.94
483.372	89.94
483.59	98.94
483.808	98.94
484.027	94.94
484.245	93.94
484.463	103.94
484.681	76.94
484.9	91.94
485.118	96.94
485.336	93.94
485.554	98.94
485.772	125.94
485.99	107.94
486.209	105.94
486.427	113.94
486.645	131.94
486.863	131.94
487.081	125.94
487.299	104.94
487.517	101.94
487.735	89.94
487.953	98.94
488.171	87.94
488.389	102.94
488.607	101.94
488.825	104.94
489.043	81.94
489.261	82.94
489.479	96.94
489.696	103.94
489.914	90.94
490.132	94.94
490.35	95.94
490.568	105.94
490.786	101.94
491.003	96.94
491.221	100.94
491.439	93.94
491.657	96.94
491.874	89.94
492.092	95.94
492.31	93.94
492.527	103.94
492.745	105.94
492.963	95.94
493.18	97.94
493.398	98.94
493.615	98.94
493.833	87.94
494.05	92.94
494.268	85.94
494.485	105.94
494.703	97.94
494.92	105.94
495.138	84.94
495.355	95.94
495.573	97.94
495.79	106.94
496.008	95.94
496.225	90.94
496.442	97.94
496.66	99.94
496.877	96.94
497.094	91.94
497.312	103.94
497.529	95.94
497.746	97.94
497.963	84.94
498.181	95.94
498.398	99.94
498.615	121.94
498.832	105.94
499.049	112.94
499.267	91.94
499.484	97.94
499.701	97.94
499.918	92.94
500.135	99.94
500.352	105.94
500.569	93.94
500.786	113.94
501.003	106.94
501.22	96.94
501.437	91.94
501.654	97.94
501.871	145.94
502.088	104.94
502.305	92.94
502.522	95.94
502.739	97.94
502.956	97.94
503.172	95.94
503.389	110.94
503.606	157.94
503.823	124.94
504.04	88.94
504.256	99.94
504.473	96.94
504.69	97.94
504.907	91.94
505.123	103.94
505.34	90.94
505.557	96.94
505.773	95.94
505.99	89.94
506.207	93.94
506.423	99.94
506.64	89.94
506.856	86.94
507.073	101.94
507.289	89.94
507.506	113.94
507.722	152.94
507.939	143.94
508.155	112.94
508.372	99.94
508.588	106.94
508.805	109.94
509.021	94.94
509.238	119.94
509.454	103.94
509.67	101.94
509.887	136.94
510.103	176.94
510.319	275.94
510.536	1055.94
510.752	3803.94
510.968	995.94
511.184	197.94
511.401	151.94
511.617	128.94
