Data from Circ_1987_H10_HRD10591_00028.txt Node
Date: Wed Jan 03 12:10:38 EST 2024
User: Yrep
Spectrometer: HR+D1059
Trigger mode: 1
Integration Time (sec): 1.000000E-1
Scans to average: 1
Electric dark correction enabled: true
Nonlinearity correction enabled: false
Boxcar width: 0
XAxis mode: Wavelengths
Number of Pixels in Spectrum: 2048
>>>>>Begin Spectral Data<<<<<
223.165	-23.56
223.4	-23.56
223.635	-23.56
223.869	-11.56
224.104	-15.56
224.338	-18.56
224.573	-31.56
224.808	-5.56
225.042	2.44
225.277	-8.56
225.511	-5.56
225.746	1.44
225.98	4.44
226.215	15.44
226.449	29.44
226.683	14.44
226.918	21.44
227.152	31.44
227.387	39.44
227.621	34.44
227.856	58.44
228.09	56.44
228.324	45.44
228.559	55.44
228.793	42.44
229.027	60.44
229.262	70.44
229.496	75.44
229.73	102.44
229.964	108.44
230.199	67.44
230.433	78.44
230.667	76.44
230.901	78.44
231.136	86.44
231.37	90.44
231.604	75.44
231.838	87.44
232.072	87.44
232.306	83.44
232.541	86.44
232.775	92.44
233.009	84.44
233.243	87.44
233.477	80.44
233.711	88.44
233.945	94.44
234.179	90.44
234.413	86.44
234.647	76.44
234.881	99.44
235.115	88.44
235.349	87.44
235.583	72.44
235.817	86.44
236.051	76.44
236.285	73.44
236.519	77.44
236.753	72.44
236.987	78.44
237.221	102.44
237.455	108.44
237.689	91.44
237.922	96.44
238.156	83.44
238.39	74.44
238.624	69.44
238.858	71.44
239.091	71.44
239.325	82.44
239.559	84.44
239.793	76.44
240.027	92.44
240.26	84.44
240.494	98.44
240.728	98.44
240.961	81.44
241.195	77.44
241.429	84.44
241.662	71.44
241.896	76.44
242.13	79.44
242.363	90.44
242.597	98.44
242.83	86.44
243.064	77.44
243.298	87.44
243.531	82.44
243.765	86.44
243.998	88.44
244.232	78.44
244.465	92.44
244.699	86.44
244.932	79.44
245.166	92.44
245.399	80.44
245.633	89.44
245.866	73.44
246.099	79.44
246.333	72.44
246.566	102.44
246.8	93.44
247.033	74.44
247.266	78.44
247.5	80.44
247.733	76.44
247.966	86.44
248.2	91.44
248.433	103.44
248.666	83.44
248.899	85.44
249.133	98.44
249.366	100.44
249.599	115.44
249.832	88.44
250.066	80.44
250.299	87.44
250.532	92.44
250.765	79.44
250.998	71.44
251.231	94.44
251.465	84.44
251.698	99.44
251.931	72.44
252.164	87.44
252.397	85.44
252.63	90.44
252.863	79.44
253.096	75.44
253.329	83.44
253.562	70.44
253.795	84.44
254.028	94.44
254.261	84.44
254.494	103.44
254.727	92.44
254.96	98.44
255.193	90.44
255.426	84.44
255.659	79.44
255.892	102.44
256.124	111.44
256.357	90.44
256.59	92.44
256.823	88.44
257.056	92.44
257.289	88.44
257.521	94.44
257.754	92.44
257.987	96.44
258.22	85.44
258.452	92.44
258.685	109.44
258.918	94.44
259.151	88.44
259.383	84.44
259.616	107.44
259.849	86.44
260.081	93.44
260.314	94.44
260.547	100.44
260.779	90.44
261.012	95.44
261.244	116.44
261.477	105.44
261.71	108.44
261.942	138.44
262.175	144.44
262.407	108.44
262.64	93.44
262.872	86.44
263.105	87.44
263.337	82.44
263.57	90.44
263.802	96.44
264.035	103.44
264.267	82.44
264.499	96.44
264.732	93.44
264.964	85.44
265.197	83.44
265.429	84.44
265.661	79.44
265.894	92.44
266.126	94.44
266.358	89.44
266.591	89.44
266.823	102.44
267.055	91.44
267.287	95.44
267.52	90.44
267.752	91.44
267.984	83.44
268.216	87.44
268.448	67.44
268.681	109.44
268.913	92.44
269.145	92.44
269.377	88.44
269.609	96.44
269.841	84.44
270.073	104.44
270.306	84.44
270.538	109.44
270.77	90.44
271.002	115.44
271.234	76.44
271.466	91.44
271.698	92.44
271.93	91.44
272.162	94.44
272.394	105.44
272.626	95.44
272.858	99.44
273.09	92.44
273.322	90.44
273.553	91.44
273.785	79.44
274.017	93.44
274.249	84.44
274.481	112.44
274.713	93.44
274.945	92.44
275.176	103.44
275.408	92.44
275.64	106.44
275.872	112.44
276.104	97.44
276.335	99.44
276.567	114.44
276.799	144.44
277.031	146.44
277.262	170.44
277.494	141.44
277.726	94.44
277.957	100.44
278.189	98.44
278.421	90.44
278.652	84.44
278.884	90.44
279.115	94.44
279.347	89.44
279.579	106.44
279.81	133.44
280.042	170.44
280.273	230.44
280.505	168.44
280.736	111.44
280.968	91.44
281.199	101.44
281.431	91.44
281.662	92.44
281.894	77.44
282.125	111.44
282.356	136.44
282.588	177.44
282.819	139.44
283.051	104.44
283.282	104.44
283.513	76.44
283.745	96.44
283.976	93.44
284.207	95.44
284.439	94.44
284.67	85.44
284.901	85.44
285.132	92.44
285.364	92.44
285.595	108.44
285.826	75.44
286.057	99.44
286.288	100.44
286.52	110.44
286.751	93.44
286.982	72.44
287.213	85.44
287.444	84.44
287.675	95.44
287.906	85.44
288.138	98.44
288.369	109.44
288.6	100.44
288.831	93.44
289.062	112.44
289.293	89.44
289.524	103.44
289.755	89.44
289.986	92.44
290.217	106.44
290.448	78.44
290.679	90.44
290.91	108.44
291.141	100.44
291.371	95.44
291.602	78.44
291.833	97.44
292.064	86.44
292.295	96.44
292.526	95.44
292.757	102.44
292.987	84.44
293.218	103.44
293.449	99.44
293.68	99.44
293.91	79.44
294.141	106.44
294.372	79.44
294.603	90.44
294.833	101.44
295.064	90.44
295.295	95.44
295.525	104.44
295.756	109.44
295.987	131.44
296.217	161.44
296.448	143.44
296.679	121.44
296.909	102.44
297.14	92.44
297.37	85.44
297.601	93.44
297.831	99.44
298.062	85.44
298.292	99.44
298.523	103.44
298.753	109.44
298.984	85.44
299.214	103.44
299.445	100.44
299.675	109.44
299.905	110.44
300.136	102.44
300.366	107.44
300.597	104.44
300.827	105.44
301.057	97.44
301.288	119.44
301.518	99.44
301.748	96.44
301.979	125.44
302.209	99.44
302.439	90.44
302.669	97.44
302.9	96.44
303.13	88.44
303.36	111.44
303.59	110.44
303.82	138.44
304.051	108.44
304.281	106.44
304.511	96.44
304.741	94.44
304.971	98.44
305.201	95.44
305.431	94.44
305.661	82.44
305.891	106.44
306.121	106.44
306.352	104.44
306.582	115.44
306.812	122.44
307.042	129.44
307.272	134.44
307.502	173.44
307.731	147.44
307.961	116.44
308.191	102.44
308.421	104.44
308.651	90.44
308.881	104.44
309.111	111.44
309.341	100.44
309.571	100.44
309.8	108.44
310.03	103.44
310.26	118.44
310.49	98.44
310.72	111.44
310.949	130.44
311.179	112.44
311.409	109.44
311.639	103.44
311.868	121.44
312.098	98.44
312.328	105.44
312.557	118.44
312.787	118.44
313.017	131.44
313.246	106.44
313.476	88.44
313.706	103.44
313.935	117.44
314.165	120.44
314.394	116.44
314.624	101.44
314.853	115.44
315.083	111.44
315.312	99.44
315.542	103.44
315.771	106.44
316.001	100.44
316.23	98.44
316.46	90.44
316.689	88.44
316.919	98.44
317.148	94.44
317.377	103.44
317.607	120.44
317.836	101.44
318.065	107.44
318.295	88.44
318.524	101.44
318.753	97.44
318.983	115.44
319.212	102.44
319.441	133.44
319.67	122.44
319.9	93.44
320.129	98.44
320.358	106.44
320.587	101.44
320.816	101.44
321.046	115.44
321.275	114.44
321.504	114.44
321.733	107.44
321.962	105.44
322.191	105.44
322.42	120.44
322.649	120.44
322.878	123.44
323.108	135.44
323.337	133.44
323.566	157.44
323.795	185.44
324.024	247.44
324.253	478.44
324.482	1043.44
324.71	2188.44
324.939	2906.44
325.168	1039.44
325.397	288.44
325.626	184.44
325.855	141.44
326.084	139.44
326.313	160.44
326.542	191.44
326.77	268.44
326.999	525.44
327.228	1131.44
327.457	2102.44
327.686	1683.44
327.914	558.44
328.143	505.44
328.372	598.44
328.6	323.44
328.829	182.44
329.058	207.44
329.287	180.44
329.515	189.44
329.744	229.44
329.972	432.44
330.201	844.44
330.43	1215.44
330.658	562.44
330.887	301.44
331.115	184.44
331.344	141.44
331.572	126.44
331.801	129.44
332.03	127.44
332.258	111.44
332.486	130.44
332.715	107.44
332.943	106.44
333.172	128.44
333.4	128.44
333.629	163.44
333.857	218.44
334.085	395.44
334.314	803.44
334.542	1609.44
334.771	1452.44
334.999	416.44
335.227	179.44
335.455	136.44
335.684	126.44
335.912	106.44
336.14	122.44
336.369	116.44
336.597	128.44
336.825	104.44
337.053	99.44
337.281	85.44
337.51	105.44
337.738	94.44
337.966	117.44
338.194	110.44
338.422	98.44
338.65	97.44
338.878	90.44
339.106	99.44
339.334	109.44
339.562	100.44
339.79	101.44
340.018	86.44
340.246	103.44
340.474	106.44
340.702	106.44
340.93	95.44
341.158	107.44
341.386	124.44
341.614	114.44
341.842	102.44
342.07	101.44
342.298	95.44
342.526	106.44
342.754	104.44
342.981	97.44
343.209	86.44
343.437	103.44
343.665	98.44
343.893	94.44
344.12	89.44
344.348	90.44
344.576	108.44
344.804	109.44
345.031	119.44
345.259	116.44
345.487	102.44
345.714	107.44
345.942	103.44
346.17	77.44
346.397	94.44
346.625	101.44
346.853	102.44
347.08	112.44
347.308	119.44
347.535	105.44
347.763	102.44
347.99	106.44
348.218	116.44
348.445	134.44
348.673	98.44
348.9	108.44
349.128	100.44
349.355	95.44
349.583	101.44
349.81	108.44
350.037	115.44
350.265	85.44
350.492	103.44
350.72	92.44
350.947	110.44
351.174	124.44
351.402	135.44
351.629	108.44
351.856	113.44
352.083	130.44
352.311	125.44
352.538	134.44
352.765	139.44
352.992	115.44
353.22	126.44
353.447	125.44
353.674	105.44
353.901	109.44
354.128	90.44
354.355	99.44
354.583	100.44
354.81	119.44
355.037	96.44
355.264	111.44
355.491	107.44
355.718	97.44
355.945	102.44
356.172	91.44
356.399	94.44
356.626	102.44
356.853	91.44
357.08	89.44
357.307	100.44
357.534	112.44
357.761	114.44
357.988	105.44
358.215	113.44
358.441	106.44
358.668	96.44
358.895	101.44
359.122	107.44
359.349	97.44
359.576	100.44
359.802	123.44
360.029	139.44
360.256	153.44
360.483	120.44
360.709	105.44
360.936	108.44
361.163	105.44
361.39	101.44
361.616	110.44
361.843	101.44
362.07	110.44
362.296	109.44
362.523	86.44
362.749	105.44
362.976	105.44
363.203	106.44
363.429	103.44
363.656	107.44
363.882	101.44
364.109	109.44
364.335	93.44
364.562	99.44
364.788	100.44
365.015	94.44
365.241	112.44
365.468	111.44
365.694	126.44
365.92	114.44
366.147	126.44
366.373	98.44
366.599	98.44
366.826	95.44
367.052	101.44
367.278	116.44
367.505	106.44
367.731	108.44
367.957	105.44
368.184	94.44
368.41	111.44
368.636	119.44
368.862	143.44
369.089	127.44
369.315	103.44
369.541	99.44
369.767	108.44
369.993	98.44
370.219	101.44
370.445	93.44
370.672	89.44
370.898	100.44
371.124	92.44
371.35	92.44
371.576	96.44
371.802	85.44
372.028	104.44
372.254	100.44
372.48	99.44
372.706	100.44
372.932	92.44
373.158	98.44
373.384	110.44
373.61	104.44
373.835	93.44
374.061	102.44
374.287	97.44
374.513	94.44
374.739	95.44
374.965	86.44
375.191	89.44
375.416	98.44
375.642	105.44
375.868	98.44
376.094	95.44
376.319	106.44
376.545	96.44
376.771	101.44
376.997	97.44
377.222	103.44
377.448	105.44
377.674	97.44
377.899	89.44
378.125	99.44
378.35	107.44
378.576	100.44
378.802	91.44
379.027	91.44
379.253	100.44
379.478	94.44
379.704	109.44
379.929	98.44
380.155	102.44
380.38	93.44
380.606	104.44
380.831	95.44
381.057	94.44
381.282	105.44
381.507	112.44
381.733	102.44
381.958	90.44
382.184	90.44
382.409	92.44
382.634	106.44
382.86	111.44
383.085	107.44
383.31	92.44
383.535	95.44
383.761	103.44
383.986	98.44
384.211	107.44
384.436	99.44
384.662	114.44
384.887	110.44
385.112	111.44
385.337	96.44
385.562	103.44
385.787	108.44
386.013	113.44
386.238	133.44
386.463	116.44
386.688	116.44
386.913	105.44
387.138	100.44
387.363	123.44
387.588	113.44
387.813	116.44
388.038	128.44
388.263	111.44
388.488	116.44
388.713	108.44
388.938	112.44
389.163	117.44
389.387	106.44
389.612	92.44
389.837	90.44
390.062	94.44
390.287	94.44
390.512	90.44
390.736	90.44
390.961	90.44
391.186	105.44
391.411	93.44
391.636	88.44
391.86	84.44
392.085	83.44
392.31	79.44
392.534	90.44
392.759	103.44
392.984	96.44
393.208	93.44
393.433	98.44
393.658	106.44
393.882	107.44
394.107	94.44
394.331	91.44
394.556	90.44
394.78	99.44
395.005	95.44
395.229	96.44
395.454	101.44
395.678	89.44
395.903	82.44
396.127	103.44
396.352	92.44
396.576	91.44
396.801	89.44
397.025	92.44
397.249	89.44
397.474	96.44
397.698	85.44
397.922	89.44
398.147	86.44
398.371	89.44
398.595	103.44
398.82	90.44
399.044	81.44
399.268	94.44
399.492	86.44
399.717	102.44
399.941	83.44
400.165	98.44
400.389	86.44
400.613	108.44
400.837	90.44
401.062	106.44
401.286	100.44
401.51	71.44
401.734	100.44
401.958	110.44
402.182	152.44
402.406	210.44
402.63	153.44
402.854	108.44
403.078	104.44
403.302	101.44
403.526	100.44
403.75	92.44
403.974	92.44
404.198	91.44
404.422	97.44
404.645	90.44
404.869	92.44
405.093	119.44
405.317	165.44
405.541	158.44
405.765	120.44
405.988	147.44
406.212	226.44
406.436	314.44
406.66	210.44
406.883	142.44
407.107	110.44
407.331	128.44
407.555	119.44
407.778	103.44
408.002	96.44
408.226	82.44
408.449	88.44
408.673	108.44
408.896	125.44
409.12	91.44
409.344	89.44
409.567	94.44
409.791	103.44
410.014	96.44
410.238	109.44
410.461	97.44
410.685	95.44
410.908	107.44
411.132	122.44
411.355	114.44
411.578	99.44
411.802	98.44
412.025	91.44
412.249	123.44
412.472	123.44
412.695	131.44
412.919	122.44
413.142	103.44
413.365	106.44
413.589	92.44
413.812	95.44
414.035	102.44
414.258	115.44
414.482	100.44
414.705	105.44
414.928	90.44
415.151	111.44
415.374	98.44
415.597	86.44
415.821	86.44
416.044	82.44
416.267	99.44
416.49	91.44
416.713	94.44
416.936	98.44
417.159	94.44
417.382	103.44
417.605	102.44
417.828	116.44
418.051	104.44
418.274	95.44
418.497	83.44
418.72	93.44
418.943	96.44
419.166	94.44
419.389	92.44
419.611	98.44
419.834	108.44
420.057	104.44
420.28	104.44
420.503	105.44
420.726	78.44
420.948	108.44
421.171	110.44
421.394	116.44
421.617	98.44
421.839	90.44
422.062	100.44
422.285	99.44
422.507	96.44
422.73	123.44
422.953	108.44
423.175	99.44
423.398	90.44
423.621	101.44
423.843	93.44
424.066	88.44
424.288	96.44
424.511	91.44
424.733	122.44
424.956	143.44
425.178	115.44
425.401	116.44
425.623	116.44
425.846	100.44
426.068	106.44
426.291	103.44
426.513	93.44
426.735	96.44
426.958	104.44
427.18	129.44
427.402	180.44
427.625	270.44
427.847	260.44
428.069	221.44
428.292	125.44
428.514	104.44
428.736	93.44
428.958	102.44
429.181	92.44
429.403	101.44
429.625	94.44
429.847	111.44
430.069	118.44
430.292	114.44
430.514	96.44
430.736	75.44
430.958	92.44
431.18	111.44
431.402	86.44
431.624	90.44
431.846	105.44
432.068	106.44
432.29	87.44
432.512	92.44
432.734	91.44
432.956	99.44
433.178	90.44
433.4	108.44
433.622	99.44
433.844	100.44
434.066	98.44
434.287	96.44
434.509	94.44
434.731	93.44
434.953	91.44
435.175	99.44
435.397	98.44
435.618	110.44
435.84	133.44
436.062	163.44
436.284	138.44
436.505	116.44
436.727	113.44
436.949	101.44
437.17	109.44
437.392	76.44
437.614	96.44
437.835	135.44
438.057	164.44
438.278	155.44
438.5	137.44
438.721	151.44
438.943	110.44
439.165	94.44
439.386	87.44
439.608	99.44
439.829	126.44
440.05	150.44
440.272	202.44
440.493	121.44
440.715	98.44
440.936	105.44
441.158	98.44
441.379	90.44
441.6	115.44
441.822	120.44
442.043	107.44
442.264	138.44
442.486	117.44
442.707	93.44
442.928	139.44
443.149	184.44
443.371	193.44
443.592	144.44
443.813	142.44
444.034	127.44
444.255	113.44
444.476	98.44
444.698	96.44
444.919	101.44
445.14	142.44
445.361	147.44
445.582	153.44
445.803	203.44
446.024	214.44
446.245	195.44
446.466	138.44
446.687	107.44
446.908	98.44
447.129	101.44
447.35	91.44
447.571	106.44
447.792	107.44
448.013	98.44
448.234	117.44
448.455	128.44
448.675	131.44
448.896	134.44
449.117	98.44
449.338	120.44
449.559	168.44
449.779	177.44
450	118.44
450.221	103.44
450.442	96.44
450.662	114.44
450.883	126.44
451.104	145.44
451.324	106.44
451.545	100.44
451.766	103.44
451.986	102.44
452.207	109.44
452.428	98.44
452.648	97.44
452.869	141.44
453.089	140.44
453.31	138.44
453.53	104.44
453.751	110.44
453.971	124.44
454.192	136.44
454.412	110.44
454.633	92.44
454.853	87.44
455.073	92.44
455.294	95.44
455.514	111.44
455.734	98.44
455.955	95.44
456.175	85.44
456.395	84.44
456.616	88.44
456.836	73.44
457.056	96.44
457.276	90.44
457.497	88.44
457.717	99.44
457.937	102.44
458.157	101.44
458.377	89.44
458.598	140.44
458.818	207.44
459.038	231.44
459.258	173.44
459.478	126.44
459.698	99.44
459.918	117.44
460.138	108.44
460.358	96.44
460.578	75.44
460.798	103.44
461.018	109.44
461.238	104.44
461.458	92.44
461.678	70.44
461.898	100.44
462.118	110.44
462.338	83.44
462.558	91.44
462.777	83.44
462.997	110.44
463.217	98.44
463.437	108.44
463.657	85.44
463.876	99.44
464.096	106.44
464.316	90.44
464.536	98.44
464.755	108.44
464.975	130.44
465.195	251.44
465.414	242.44
465.634	108.44
465.854	94.44
466.073	96.44
466.293	84.44
466.512	104.44
466.732	96.44
466.951	103.44
467.171	96.44
467.391	117.44
467.61	153.44
467.829	186.44
468.049	459.44
468.268	694.44
468.488	199.44
468.707	117.44
468.927	99.44
469.146	94.44
469.365	103.44
469.585	103.44
469.804	96.44
470.023	116.44
470.243	94.44
470.462	121.44
470.681	141.44
470.901	106.44
471.12	104.44
471.339	119.44
471.558	128.44
471.777	132.44
471.997	258.44
472.216	914.44
472.435	2056.44
472.654	517.44
472.873	149.44
473.092	99.44
473.311	101.44
473.53	88.44
473.749	95.44
473.968	121.44
474.187	140.44
474.406	127.44
474.625	86.44
474.844	84.44
475.063	91.44
475.282	101.44
475.501	85.44
475.72	96.44
475.939	102.44
476.158	86.44
476.377	83.44
476.596	108.44
476.814	102.44
477.033	106.44
477.252	115.44
477.471	97.44
477.69	97.44
477.908	104.44
478.127	112.44
478.346	93.44
478.564	106.44
478.783	110.44
479.002	106.44
479.22	111.44
479.439	121.44
479.658	137.44
479.876	135.44
480.095	119.44
480.313	119.44
480.532	166.44
480.751	255.44
480.969	856.44
481.188	3597.44
481.406	2095.44
481.624	319.44
481.843	126.44
482.061	99.44
482.28	98.44
482.498	104.44
482.717	94.44
482.935	112.44
483.153	111.44
483.372	90.44
483.59	87.44
483.808	81.44
484.027	91.44
484.245	82.44
484.463	94.44
484.681	94.44
484.9	106.44
485.118	99.44
485.336	100.44
485.554	106.44
485.772	94.44
485.99	110.44
486.209	100.44
486.427	100.44
486.645	120.44
486.863	137.44
487.081	106.44
487.299	101.44
487.517	112.44
487.735	105.44
487.953	100.44
488.171	102.44
488.389	107.44
488.607	105.44
488.825	102.44
489.043	104.44
489.261	95.44
489.479	102.44
489.696	99.44
489.914	90.44
490.132	94.44
490.35	91.44
490.568	99.44
490.786	101.44
491.003	106.44
491.221	105.44
491.439	107.44
491.657	108.44
491.874	100.44
492.092	99.44
492.31	91.44
492.527	100.44
492.745	101.44
492.963	100.44
493.18	96.44
493.398	109.44
493.615	101.44
493.833	103.44
494.05	103.44
494.268	102.44
494.485	109.44
494.703	90.44
494.92	93.44
495.138	96.44
495.355	107.44
495.573	92.44
495.79	99.44
496.008	106.44
496.225	85.44
496.442	100.44
496.66	90.44
496.877	77.44
497.094	94.44
497.312	104.44
497.529	112.44
497.746	95.44
497.963	109.44
498.181	100.44
498.398	100.44
498.615	124.44
498.832	112.44
499.049	90.44
499.267	107.44
499.484	94.44
499.701	92.44
499.918	103.44
500.135	86.44
500.352	104.44
500.569	87.44
500.786	90.44
501.003	98.44
501.22	101.44
501.437	95.44
501.654	104.44
501.871	118.44
502.088	118.44
502.305	101.44
502.522	100.44
502.739	93.44
502.956	116.44
503.172	100.44
503.389	111.44
503.606	118.44
503.823	94.44
504.04	94.44
504.256	78.44
504.473	76.44
504.69	91.44
504.907	98.44
505.123	105.44
505.34	96.44
505.557	96.44
505.773	111.44
505.99	94.44
506.207	111.44
506.423	107.44
506.64	87.44
506.856	95.44
507.073	101.44
507.289	108.44
507.506	105.44
507.722	146.44
507.939	141.44
508.155	93.44
508.372	104.44
508.588	100.44
508.805	106.44
509.021	101.44
509.238	115.44
509.454	86.44
509.67	109.44
509.887	116.44
510.103	151.44
510.319	240.44
