Data from Circ_1987_H10_HRD10591_00026.txt Node
Date: Wed Jan 03 12:10:38 EST 2024
User: Yrep
Spectrometer: HR+D1059
Trigger mode: 1
Integration Time (sec): 1.000000E-1
Scans to average: 1
Electric dark correction enabled: true
Nonlinearity correction enabled: false
Boxcar width: 0
XAxis mode: Wavelengths
Number of Pixels in Spectrum: 2048
>>>>>Begin Spectral Data<<<<<
223.165	-19.88
223.4	-19.88
223.635	-19.88
223.869	-18.88
224.104	-14.88
224.338	-23.88
224.573	-11.88
224.808	-6.88
225.042	-13.88
225.277	0.12
225.511	-6.88
225.746	-1.88
225.98	10.12
226.215	13.12
226.449	9.12
226.683	25.12
226.918	25.12
227.152	36.12
227.387	32.12
227.621	53.12
227.856	60.12
228.09	53.12
228.324	41.12
228.559	64.12
228.793	56.12
229.027	70.12
229.262	76.12
229.496	87.12
229.73	99.12
229.964	77.12
230.199	76.12
230.433	72.12
230.667	95.12
230.901	71.12
231.136	77.12
231.37	76.12
231.604	71.12
231.838	81.12
232.072	83.12
232.306	77.12
232.541	87.12
232.775	89.12
233.009	68.12
233.243	88.12
233.477	65.12
233.711	88.12
233.945	99.12
234.179	70.12
234.413	84.12
234.647	69.12
234.881	79.12
235.115	71.12
235.349	79.12
235.583	83.12
235.817	94.12
236.051	74.12
236.285	76.12
236.519	79.12
236.753	76.12
236.987	94.12
237.221	92.12
237.455	100.12
237.689	88.12
237.922	76.12
238.156	94.12
238.39	68.12
238.624	87.12
238.858	67.12
239.091	92.12
239.325	86.12
239.559	85.12
239.793	93.12
240.027	85.12
240.26	74.12
240.494	91.12
240.728	90.12
240.961	74.12
241.195	83.12
241.429	73.12
241.662	68.12
241.896	83.12
242.13	85.12
242.363	82.12
242.597	86.12
242.83	89.12
243.064	73.12
243.298	80.12
243.531	68.12
243.765	91.12
243.998	81.12
244.232	89.12
244.465	87.12
244.699	89.12
244.932	81.12
245.166	79.12
245.399	78.12
245.633	91.12
245.866	76.12
246.099	83.12
246.333	92.12
246.566	87.12
246.8	83.12
247.033	61.12
247.266	75.12
247.5	81.12
247.733	83.12
247.966	84.12
248.2	92.12
248.433	70.12
248.666	64.12
248.899	92.12
249.133	105.12
249.366	106.12
249.599	112.12
249.832	84.12
250.066	81.12
250.299	93.12
250.532	89.12
250.765	83.12
250.998	75.12
251.231	97.12
251.465	70.12
251.698	100.12
251.931	79.12
252.164	74.12
252.397	66.12
252.63	84.12
252.863	72.12
253.096	79.12
253.329	84.12
253.562	89.12
253.795	93.12
254.028	82.12
254.261	85.12
254.494	85.12
254.727	75.12
254.96	76.12
255.193	86.12
255.426	93.12
255.659	95.12
255.892	104.12
256.124	97.12
256.357	91.12
256.59	86.12
256.823	80.12
257.056	85.12
257.289	100.12
257.521	104.12
257.754	86.12
257.987	97.12
258.22	87.12
258.452	91.12
258.685	91.12
258.918	83.12
259.151	86.12
259.383	84.12
259.616	82.12
259.849	84.12
260.081	85.12
260.314	92.12
260.547	91.12
260.779	83.12
261.012	108.12
261.244	105.12
261.477	102.12
261.71	99.12
261.942	125.12
262.175	139.12
262.407	95.12
262.64	84.12
262.872	92.12
263.105	87.12
263.337	93.12
263.57	84.12
263.802	78.12
264.035	81.12
264.267	75.12
264.499	92.12
264.732	87.12
264.964	83.12
265.197	81.12
265.429	87.12
265.661	63.12
265.894	79.12
266.126	87.12
266.358	97.12
266.591	96.12
266.823	79.12
267.055	81.12
267.287	84.12
267.52	88.12
267.752	92.12
267.984	85.12
268.216	84.12
268.448	96.12
268.681	81.12
268.913	91.12
269.145	98.12
269.377	99.12
269.609	92.12
269.841	67.12
270.073	85.12
270.306	93.12
270.538	87.12
270.77	78.12
271.002	87.12
271.234	80.12
271.466	97.12
271.698	86.12
271.93	86.12
272.162	79.12
272.394	103.12
272.626	96.12
272.858	91.12
273.09	96.12
273.322	98.12
273.553	92.12
273.785	97.12
274.017	93.12
274.249	89.12
274.481	86.12
274.713	87.12
274.945	97.12
275.176	106.12
275.408	88.12
275.64	100.12
275.872	127.12
276.104	101.12
276.335	99.12
276.567	125.12
276.799	140.12
277.031	149.12
277.262	165.12
277.494	132.12
277.726	107.12
277.957	91.12
278.189	84.12
278.421	100.12
278.652	87.12
278.884	79.12
279.115	99.12
279.347	92.12
279.579	84.12
279.81	99.12
280.042	166.12
280.273	226.12
280.505	154.12
280.736	92.12
280.968	87.12
281.199	80.12
281.431	90.12
281.662	87.12
281.894	97.12
282.125	96.12
282.356	146.12
282.588	177.12
282.819	143.12
283.051	103.12
283.282	93.12
283.513	103.12
283.745	102.12
283.976	97.12
284.207	86.12
284.439	92.12
284.67	97.12
284.901	97.12
285.132	75.12
285.364	95.12
285.595	97.12
285.826	98.12
286.057	95.12
286.288	109.12
286.52	93.12
286.751	92.12
286.982	92.12
287.213	91.12
287.444	95.12
287.675	90.12
287.906	97.12
288.138	90.12
288.369	102.12
288.6	95.12
288.831	95.12
289.062	80.12
289.293	86.12
289.524	86.12
289.755	99.12
289.986	87.12
290.217	99.12
290.448	102.12
290.679	105.12
290.91	87.12
291.141	79.12
291.371	101.12
291.602	90.12
291.833	95.12
292.064	83.12
292.295	79.12
292.526	101.12
292.757	99.12
292.987	91.12
293.218	81.12
293.449	88.12
293.68	85.12
293.91	91.12
294.141	95.12
294.372	99.12
294.603	85.12
294.833	86.12
295.064	97.12
295.295	92.12
295.525	97.12
295.756	118.12
295.987	121.12
296.217	160.12
296.448	132.12
296.679	105.12
296.909	107.12
297.14	91.12
297.37	93.12
297.601	105.12
297.831	97.12
298.062	111.12
298.292	103.12
298.523	88.12
298.753	85.12
298.984	97.12
299.214	85.12
299.445	103.12
299.675	104.12
299.905	96.12
300.136	98.12
300.366	96.12
300.597	90.12
300.827	104.12
301.057	123.12
301.288	122.12
301.518	120.12
301.748	99.12
301.979	116.12
302.209	102.12
302.439	99.12
302.669	91.12
302.9	99.12
303.13	100.12
303.36	98.12
303.59	133.12
303.82	132.12
304.051	99.12
304.281	91.12
304.511	88.12
304.741	91.12
304.971	91.12
305.201	99.12
305.431	100.12
305.661	89.12
305.891	112.12
306.121	116.12
306.352	97.12
306.582	112.12
306.812	95.12
307.042	112.12
307.272	152.12
307.502	145.12
307.731	160.12
307.961	122.12
308.191	114.12
308.421	100.12
308.651	95.12
308.881	96.12
309.111	96.12
309.341	102.12
309.571	102.12
309.8	96.12
310.03	100.12
310.26	109.12
310.49	102.12
310.72	105.12
310.949	125.12
311.179	124.12
311.409	109.12
311.639	105.12
311.868	104.12
312.098	91.12
312.328	105.12
312.557	111.12
312.787	117.12
313.017	107.12
313.246	103.12
313.476	108.12
313.706	125.12
313.935	111.12
314.165	108.12
314.394	106.12
314.624	100.12
314.853	107.12
315.083	113.12
315.312	108.12
315.542	100.12
315.771	104.12
316.001	92.12
316.23	94.12
316.46	97.12
316.689	94.12
316.919	103.12
317.148	113.12
317.377	104.12
317.607	107.12
317.836	113.12
318.065	81.12
318.295	92.12
318.524	101.12
318.753	94.12
318.983	96.12
319.212	96.12
319.441	117.12
319.67	119.12
319.9	93.12
320.129	112.12
320.358	109.12
320.587	92.12
320.816	102.12
321.046	118.12
321.275	106.12
321.504	104.12
321.733	110.12
321.962	111.12
322.191	98.12
322.42	105.12
322.649	120.12
322.878	100.12
323.108	135.12
323.337	146.12
323.566	144.12
323.795	178.12
324.024	219.12
324.253	417.12
324.482	858.12
324.71	1696.12
324.939	2217.12
325.168	863.12
325.397	264.12
325.626	159.12
325.855	132.12
326.084	119.12
326.313	135.12
326.542	167.12
326.77	226.12
326.999	457.12
327.228	869.12
327.457	1562.12
327.686	1304.12
327.914	446.12
328.143	411.12
328.372	531.12
328.6	321.12
328.829	178.12
329.058	179.12
329.287	182.12
329.515	173.12
329.744	204.12
329.972	394.12
330.201	728.12
330.43	1087.12
330.658	514.12
330.887	249.12
331.115	176.12
331.344	133.12
331.572	117.12
331.801	130.12
332.03	121.12
332.258	99.12
332.486	104.12
332.715	109.12
332.943	124.12
333.172	126.12
333.4	121.12
333.629	155.12
333.857	193.12
334.085	341.12
334.314	681.12
334.542	1300.12
334.771	1307.12
334.999	359.12
335.227	167.12
335.455	118.12
335.684	115.12
335.912	121.12
336.14	116.12
336.369	93.12
336.597	122.12
336.825	115.12
337.053	100.12
337.281	97.12
337.51	95.12
337.738	98.12
337.966	113.12
338.194	107.12
338.422	109.12
338.65	86.12
338.878	99.12
339.106	96.12
339.334	98.12
339.562	94.12
339.79	98.12
340.018	111.12
340.246	108.12
340.474	94.12
340.702	101.12
340.93	96.12
341.158	101.12
341.386	99.12
341.614	108.12
341.842	101.12
342.07	84.12
342.298	75.12
342.526	88.12
342.754	105.12
342.981	97.12
343.209	101.12
343.437	105.12
343.665	96.12
343.893	82.12
344.12	89.12
344.348	78.12
344.576	97.12
344.804	103.12
345.031	107.12
345.259	107.12
345.487	100.12
345.714	111.12
345.942	104.12
346.17	97.12
346.397	92.12
346.625	75.12
346.853	99.12
347.08	104.12
347.308	103.12
347.535	103.12
347.763	108.12
347.99	105.12
348.218	116.12
348.445	122.12
348.673	116.12
348.9	91.12
349.128	95.12
349.355	99.12
349.583	108.12
349.81	105.12
350.037	109.12
350.265	96.12
350.492	104.12
350.72	96.12
350.947	92.12
351.174	105.12
351.402	130.12
351.629	123.12
351.856	114.12
352.083	109.12
352.311	123.12
352.538	119.12
352.765	111.12
352.992	122.12
353.22	113.12
353.447	107.12
353.674	122.12
353.901	97.12
354.128	98.12
354.355	90.12
354.583	103.12
354.81	101.12
355.037	95.12
355.264	98.12
355.491	104.12
355.718	108.12
355.945	87.12
356.172	89.12
356.399	90.12
356.626	90.12
356.853	93.12
357.08	95.12
357.307	90.12
357.534	108.12
357.761	104.12
357.988	96.12
358.215	98.12
358.441	103.12
358.668	107.12
358.895	91.12
359.122	88.12
359.349	95.12
359.576	117.12
359.802	122.12
360.029	143.12
360.256	136.12
360.483	100.12
360.709	89.12
360.936	95.12
361.163	103.12
361.39	105.12
361.616	113.12
361.843	98.12
362.07	109.12
362.296	107.12
362.523	94.12
362.749	91.12
362.976	91.12
363.203	109.12
363.429	90.12
363.656	100.12
363.882	85.12
364.109	107.12
364.335	98.12
364.562	83.12
364.788	95.12
365.015	109.12
365.241	108.12
365.468	121.12
365.694	119.12
365.92	115.12
366.147	103.12
366.373	102.12
366.599	100.12
366.826	104.12
367.052	100.12
367.278	97.12
367.505	95.12
367.731	104.12
367.957	101.12
368.184	84.12
368.41	112.12
368.636	129.12
368.862	136.12
369.089	126.12
369.315	104.12
369.541	84.12
369.767	87.12
369.993	106.12
370.219	92.12
370.445	94.12
370.672	88.12
370.898	106.12
371.124	82.12
371.35	90.12
371.576	80.12
371.802	82.12
372.028	97.12
372.254	95.12
372.48	91.12
372.706	84.12
372.932	90.12
373.158	80.12
373.384	101.12
373.61	96.12
373.835	93.12
374.061	93.12
374.287	103.12
374.513	106.12
374.739	87.12
374.965	91.12
375.191	105.12
375.416	101.12
375.642	96.12
375.868	89.12
376.094	111.12
376.319	89.12
376.545	100.12
376.771	93.12
376.997	86.12
377.222	93.12
377.448	107.12
377.674	84.12
377.899	94.12
378.125	103.12
378.35	109.12
378.576	84.12
378.802	99.12
379.027	99.12
379.253	95.12
379.478	91.12
379.704	108.12
379.929	102.12
380.155	108.12
380.38	100.12
380.606	101.12
380.831	115.12
381.057	99.12
381.282	105.12
381.507	91.12
381.733	100.12
381.958	103.12
382.184	88.12
382.409	107.12
382.634	108.12
382.86	93.12
383.085	106.12
383.31	107.12
383.535	103.12
383.761	96.12
383.986	109.12
384.211	90.12
384.436	102.12
384.662	111.12
384.887	109.12
385.112	113.12
385.337	109.12
385.562	112.12
385.787	113.12
386.013	119.12
386.238	139.12
386.463	106.12
386.688	107.12
386.913	127.12
387.138	124.12
387.363	106.12
387.588	95.12
387.813	117.12
388.038	112.12
388.263	115.12
388.488	110.12
388.713	105.12
388.938	90.12
389.163	99.12
389.387	95.12
389.612	107.12
389.837	88.12
390.062	97.12
390.287	90.12
390.512	85.12
390.736	96.12
390.961	89.12
391.186	104.12
391.411	102.12
391.636	98.12
391.86	88.12
392.085	92.12
392.31	108.12
392.534	97.12
392.759	91.12
392.984	99.12
393.208	91.12
393.433	103.12
393.658	103.12
393.882	92.12
394.107	88.12
394.331	96.12
394.556	94.12
394.78	73.12
395.005	87.12
395.229	87.12
395.454	99.12
395.678	99.12
395.903	90.12
396.127	85.12
396.352	83.12
396.576	96.12
396.801	91.12
397.025	88.12
397.249	91.12
397.474	96.12
397.698	101.12
397.922	92.12
398.147	86.12
398.371	93.12
398.595	89.12
398.82	92.12
399.044	104.12
399.268	78.12
399.492	104.12
399.717	101.12
399.941	119.12
400.165	94.12
400.389	91.12
400.613	90.12
400.837	98.12
401.062	97.12
401.286	105.12
401.51	107.12
401.734	91.12
401.958	113.12
402.182	155.12
402.406	196.12
402.63	146.12
402.854	104.12
403.078	92.12
403.302	99.12
403.526	99.12
403.75	96.12
403.974	85.12
404.198	85.12
404.422	99.12
404.645	94.12
404.869	94.12
405.093	112.12
405.317	135.12
405.541	119.12
405.765	107.12
405.988	143.12
406.212	215.12
406.436	302.12
406.66	199.12
406.883	111.12
407.107	101.12
407.331	107.12
407.555	113.12
407.778	112.12
408.002	106.12
408.226	93.12
408.449	90.12
408.673	97.12
408.896	95.12
409.12	103.12
409.344	95.12
409.567	69.12
409.791	80.12
410.014	96.12
410.238	92.12
410.461	96.12
410.685	84.12
410.908	94.12
411.132	100.12
411.355	96.12
411.578	101.12
411.802	102.12
412.025	109.12
412.249	97.12
412.472	122.12
412.695	117.12
412.919	110.12
413.142	107.12
413.365	86.12
413.589	91.12
413.812	83.12
414.035	115.12
414.258	100.12
414.482	93.12
414.705	94.12
414.928	83.12
415.151	100.12
415.374	97.12
415.597	97.12
415.821	88.12
416.044	95.12
416.267	107.12
416.49	101.12
416.713	90.12
416.936	88.12
417.159	91.12
417.382	91.12
417.605	97.12
417.828	111.12
418.051	101.12
418.274	87.12
418.497	106.12
418.72	99.12
418.943	102.12
419.166	81.12
419.389	94.12
419.611	90.12
419.834	95.12
420.057	90.12
420.28	101.12
420.503	85.12
420.726	96.12
420.948	112.12
421.171	112.12
421.394	98.12
421.617	85.12
421.839	87.12
422.062	96.12
422.285	95.12
422.507	113.12
422.73	125.12
422.953	99.12
423.175	100.12
423.398	98.12
423.621	89.12
423.843	100.12
424.066	100.12
424.288	92.12
424.511	99.12
424.733	108.12
424.956	112.12
425.178	100.12
425.401	99.12
425.623	109.12
425.846	93.12
426.068	118.12
426.291	88.12
426.513	88.12
426.735	100.12
426.958	99.12
427.18	116.12
427.402	160.12
427.625	253.12
427.847	207.12
428.069	181.12
428.292	112.12
428.514	99.12
428.736	100.12
428.958	96.12
429.181	85.12
429.403	90.12
429.625	79.12
429.847	96.12
430.069	116.12
430.292	107.12
430.514	100.12
430.736	83.12
430.958	92.12
431.18	80.12
431.402	85.12
431.624	98.12
431.846	80.12
432.068	87.12
432.29	98.12
432.512	97.12
432.734	88.12
432.956	102.12
433.178	104.12
433.4	106.12
433.622	96.12
433.844	100.12
434.066	109.12
434.287	100.12
434.509	100.12
434.731	82.12
434.953	112.12
435.175	97.12
435.397	95.12
435.618	94.12
435.84	101.12
436.062	136.12
436.284	128.12
436.505	106.12
436.727	100.12
436.949	100.12
437.17	87.12
437.392	89.12
437.614	93.12
437.835	117.12
438.057	150.12
438.278	132.12
438.5	108.12
438.721	141.12
438.943	119.12
439.165	111.12
439.386	90.12
439.608	98.12
439.829	98.12
440.05	128.12
440.272	162.12
440.493	122.12
440.715	96.12
440.936	88.12
441.158	88.12
441.379	95.12
441.6	96.12
441.822	109.12
442.043	110.12
442.264	106.12
442.486	101.12
442.707	102.12
442.928	120.12
443.149	163.12
443.371	141.12
443.592	123.12
443.813	122.12
444.034	132.12
444.255	106.12
444.476	106.12
444.698	86.12
444.919	100.12
445.14	121.12
445.361	144.12
445.582	137.12
445.803	165.12
446.024	157.12
446.245	157.12
446.466	121.12
446.687	85.12
446.908	81.12
447.129	91.12
447.35	81.12
447.571	101.12
447.792	105.12
448.013	95.12
448.234	108.12
448.455	109.12
448.675	109.12
448.896	120.12
449.117	115.12
449.338	96.12
449.559	135.12
449.779	124.12
450	106.12
450.221	83.12
450.442	96.12
450.662	101.12
450.883	111.12
451.104	140.12
451.324	117.12
451.545	101.12
451.766	88.12
451.986	90.12
452.207	92.12
452.428	101.12
452.648	121.12
452.869	124.12
453.089	126.12
453.31	135.12
453.53	95.12
453.751	93.12
453.971	125.12
454.192	136.12
454.412	104.12
454.633	94.12
454.853	92.12
455.073	99.12
455.294	99.12
455.514	112.12
455.734	101.12
455.955	99.12
456.175	92.12
456.395	83.12
456.616	75.12
456.836	99.12
457.056	99.12
457.276	92.12
457.497	88.12
457.717	82.12
457.937	90.12
458.157	98.12
458.377	108.12
458.598	125.12
458.818	208.12
459.038	216.12
459.258	144.12
459.478	96.12
459.698	98.12
459.918	81.12
460.138	93.12
460.358	84.12
460.578	94.12
460.798	98.12
461.018	86.12
461.238	80.12
461.458	98.12
461.678	91.12
461.898	96.12
462.118	91.12
462.338	91.12
462.558	95.12
462.777	92.12
462.997	100.12
463.217	108.12
463.437	90.12
463.657	91.12
463.876	96.12
464.096	94.12
464.316	111.12
464.536	97.12
464.755	107.12
464.975	129.12
465.195	225.12
465.414	229.12
465.634	102.12
465.854	97.12
466.073	89.12
466.293	102.12
466.512	102.12
466.732	91.12
466.951	82.12
467.171	109.12
467.391	107.12
467.61	131.12
467.829	173.12
468.049	435.12
468.268	652.12
468.488	194.12
468.707	101.12
468.927	99.12
469.146	107.12
469.365	96.12
469.585	108.12
469.804	93.12
470.023	95.12
470.243	101.12
470.462	108.12
470.681	149.12
470.901	103.12
471.12	106.12
471.339	99.12
471.558	114.12
471.777	142.12
471.997	243.12
472.216	823.12
472.435	1878.12
472.654	445.12
472.873	129.12
473.092	102.12
473.311	75.12
473.53	83.12
473.749	81.12
473.968	105.12
474.187	117.12
474.406	115.12
474.625	83.12
474.844	95.12
475.063	103.12
475.282	96.12
475.501	107.12
475.72	92.12
475.939	93.12
476.158	90.12
476.377	91.12
476.596	96.12
476.814	108.12
477.033	114.12
477.252	99.12
477.471	104.12
477.69	85.12
477.908	87.12
478.127	100.12
478.346	82.12
478.564	104.12
478.783	118.12
479.002	106.12
479.22	113.12
479.439	113.12
479.658	136.12
479.876	124.12
480.095	118.12
480.313	154.12
480.532	139.12
480.751	237.12
480.969	742.12
481.188	3167.12
481.406	1865.12
481.624	309.12
481.843	131.12
482.061	92.12
482.28	100.12
482.498	97.12
482.717	85.12
482.935	98.12
483.153	109.12
483.372	99.12
483.59	99.12
483.808	88.12
484.027	95.12
484.245	104.12
484.463	103.12
484.681	102.12
484.9	90.12
485.118	93.12
485.336	100.12
485.554	98.12
485.772	108.12
485.99	93.12
486.209	95.12
486.427	119.12
486.645	114.12
486.863	131.12
487.081	110.12
487.299	102.12
487.517	99.12
487.735	94.12
487.953	101.12
488.171	93.12
488.389	98.12
488.607	113.12
488.825	104.12
489.043	91.12
489.261	100.12
489.479	89.12
489.696	89.12
489.914	89.12
490.132	96.12
490.35	96.12
490.568	87.12
490.786	97.12
491.003	101.12
491.221	92.12
491.439	103.12
491.657	84.12
491.874	95.12
492.092	89.12
492.31	91.12
492.527	102.12
492.745	89.12
492.963	91.12
493.18	95.12
493.398	85.12
493.615	108.12
493.833	92.12
494.05	104.12
494.268	101.12
494.485	96.12
494.703	82.12
494.92	97.12
495.138	94.12
495.355	87.12
495.573	100.12
495.79	99.12
496.008	101.12
496.225	98.12
496.442	97.12
496.66	87.12
496.877	92.12
497.094	101.12
497.312	91.12
497.529	96.12
497.746	105.12
497.963	87.12
498.181	92.12
498.398	99.12
498.615	114.12
498.832	105.12
499.049	98.12
499.267	79.12
499.484	89.12
499.701	92.12
499.918	97.12
500.135	109.12
500.352	99.12
500.569	92.12
500.786	115.12
501.003	94.12
501.22	101.12
501.437	106.12
501.654	105.12
501.871	118.12
502.088	104.12
502.305	92.12
502.522	99.12
502.739	101.12
502.956	88.12
503.172	90.12
503.389	101.12
503.606	120.12
503.823	97.12
504.04	105.12
504.256	95.12
504.473	88.12
504.69	110.12
504.907	94.12
505.123	89.12
505.34	83.12
505.557	98.12
505.773	101.12
505.99	79.12
506.207	95.12
506.423	102.12
506.64	95.12
506.856	92.12
507.073	101.12
507.289	102.12
507.506	112.12
507.722	138.12
507.939	130.12
508.155	106.12
508.372	97.12
508.588	107.12
508.805	105.12
509.021	104.12
509.238	109.12
509.454	105.12
509.67	100.12
509.887	114.12
510.103	147.12
510.319	238.12
510.536	898.12
510.752	3163.12
510.968	822.12
511.184	179.12
511.401	144.12
511.617	111.12
511.833	115.12
