Data from Circ_1987_H10_HRD10591_00067.txt Node
Date: Wed Jan 03 12:10:46 EST 2024
User: Yrep
Spectrometer: HR+D1059
Trigger mode: 1
Integration Time (sec): 1.000000E-1
Scans to average: 1
Electric dark correction enabled: true
Nonlinearity correction enabled: false
Boxcar width: 0
XAxis mode: Wavelengths
Number of Pixels in Spectrum: 2048
>>>>>Begin Spectral Data<<<<<
223.165	-13.12
223.4	-13.12
223.635	-13.12
223.869	-26.12
224.104	-39.12
224.338	-13.12
224.573	-5.12
224.808	-12.12
225.042	-1.12
225.277	-15.12
225.511	3.88
225.746	17.88
225.98	6.88
226.215	11.88
226.449	19.88
226.683	28.88
226.918	16.88
227.152	18.88
227.387	46.88
227.621	32.88
227.856	33.88
228.09	50.88
228.324	60.88
228.559	58.88
228.793	65.88
229.027	54.88
229.262	59.88
229.496	94.88
229.73	91.88
229.964	90.88
230.199	78.88
230.433	79.88
230.667	83.88
230.901	74.88
231.136	75.88
231.37	58.88
231.604	74.88
231.838	81.88
232.072	88.88
232.306	90.88
232.541	78.88
232.775	79.88
233.009	80.88
233.243	81.88
233.477	93.88
233.711	76.88
233.945	91.88
234.179	85.88
234.413	76.88
234.647	72.88
234.881	79.88
235.115	79.88
235.349	87.88
235.583	78.88
235.817	71.88
236.051	82.88
236.285	60.88
236.519	61.88
236.753	86.88
236.987	90.88
237.221	87.88
237.455	83.88
237.689	82.88
237.922	69.88
238.156	83.88
238.39	72.88
238.624	73.88
238.858	78.88
239.091	70.88
239.325	86.88
239.559	85.88
239.793	84.88
240.027	65.88
240.26	90.88
240.494	74.88
240.728	93.88
240.961	88.88
241.195	84.88
241.429	90.88
241.662	75.88
241.896	74.88
242.13	80.88
242.363	79.88
242.597	71.88
242.83	83.88
243.064	68.88
243.298	76.88
243.531	85.88
243.765	80.88
243.998	77.88
244.232	75.88
244.465	82.88
244.699	87.88
244.932	71.88
245.166	71.88
245.399	85.88
245.633	75.88
245.866	79.88
246.099	78.88
246.333	82.88
246.566	83.88
246.8	57.88
247.033	83.88
247.266	78.88
247.5	74.88
247.733	87.88
247.966	84.88
248.2	79.88
248.433	80.88
248.666	61.88
248.899	89.88
249.133	89.88
249.366	96.88
249.599	98.88
249.832	90.88
250.066	83.88
250.299	89.88
250.532	106.88
250.765	85.88
250.998	79.88
251.231	64.88
251.465	71.88
251.698	95.88
251.931	93.88
252.164	79.88
252.397	82.88
252.63	88.88
252.863	79.88
253.096	75.88
253.329	91.88
253.562	85.88
253.795	84.88
254.028	90.88
254.261	79.88
254.494	92.88
254.727	84.88
254.96	85.88
255.193	65.88
255.426	74.88
255.659	79.88
255.892	92.88
256.124	98.88
256.357	77.88
256.59	96.88
256.823	81.88
257.056	86.88
257.289	84.88
257.521	84.88
257.754	79.88
257.987	83.88
258.22	81.88
258.452	91.88
258.685	108.88
258.918	92.88
259.151	83.88
259.383	94.88
259.616	78.88
259.849	92.88
260.081	82.88
260.314	82.88
260.547	99.88
260.779	99.88
261.012	102.88
261.244	106.88
261.477	103.88
261.71	96.88
261.942	119.88
262.175	147.88
262.407	96.88
262.64	84.88
262.872	88.88
263.105	105.88
263.337	87.88
263.57	76.88
263.802	99.88
264.035	74.88
264.267	85.88
264.499	83.88
264.732	84.88
264.964	79.88
265.197	70.88
265.429	88.88
265.661	83.88
265.894	98.88
266.126	85.88
266.358	87.88
266.591	84.88
266.823	94.88
267.055	87.88
267.287	88.88
267.52	73.88
267.752	83.88
267.984	80.88
268.216	87.88
268.448	82.88
268.681	88.88
268.913	84.88
269.145	86.88
269.377	69.88
269.609	76.88
269.841	90.88
270.073	77.88
270.306	90.88
270.538	94.88
270.77	88.88
271.002	84.88
271.234	81.88
271.466	92.88
271.698	93.88
271.93	93.88
272.162	96.88
272.394	102.88
272.626	97.88
272.858	92.88
273.09	92.88
273.322	88.88
273.553	89.88
273.785	88.88
274.017	87.88
274.249	89.88
274.481	78.88
274.713	85.88
274.945	88.88
275.176	89.88
275.408	106.88
275.64	115.88
275.872	113.88
276.104	86.88
276.335	95.88
276.567	112.88
276.799	134.88
277.031	145.88
277.262	186.88
277.494	156.88
277.726	107.88
277.957	80.88
278.189	88.88
278.421	105.88
278.652	90.88
278.884	101.88
279.115	92.88
279.347	93.88
279.579	113.88
279.81	118.88
280.042	155.88
280.273	236.88
280.505	170.88
280.736	97.88
280.968	93.88
281.199	84.88
281.431	92.88
281.662	93.88
281.894	101.88
282.125	107.88
282.356	142.88
282.588	166.88
282.819	126.88
283.051	99.88
283.282	98.88
283.513	82.88
283.745	99.88
283.976	92.88
284.207	95.88
284.439	88.88
284.67	88.88
284.901	77.88
285.132	90.88
285.364	100.88
285.595	73.88
285.826	91.88
286.057	91.88
286.288	84.88
286.52	88.88
286.751	94.88
286.982	86.88
287.213	106.88
287.444	95.88
287.675	82.88
287.906	89.88
288.138	97.88
288.369	93.88
288.6	105.88
288.831	96.88
289.062	78.88
289.293	94.88
289.524	90.88
289.755	90.88
289.986	78.88
290.217	82.88
290.448	80.88
290.679	88.88
290.91	94.88
291.141	91.88
291.371	92.88
291.602	85.88
291.833	80.88
292.064	84.88
292.295	93.88
292.526	94.88
292.757	91.88
292.987	91.88
293.218	72.88
293.449	98.88
293.68	94.88
293.91	94.88
294.141	91.88
294.372	87.88
294.603	91.88
294.833	89.88
295.064	94.88
295.295	94.88
295.525	89.88
295.756	106.88
295.987	121.88
296.217	154.88
296.448	137.88
296.679	114.88
296.909	73.88
297.14	88.88
297.37	92.88
297.601	97.88
297.831	88.88
298.062	96.88
298.292	95.88
298.523	86.88
298.753	97.88
298.984	92.88
299.214	95.88
299.445	90.88
299.675	101.88
299.905	102.88
300.136	93.88
300.366	100.88
300.597	86.88
300.827	89.88
301.057	109.88
301.288	112.88
301.518	98.88
301.748	98.88
301.979	110.88
302.209	106.88
302.439	91.88
302.669	82.88
302.9	92.88
303.13	97.88
303.36	122.88
303.59	136.88
303.82	128.88
304.051	97.88
304.281	107.88
304.511	86.88
304.741	89.88
304.971	105.88
305.201	94.88
305.431	98.88
305.661	95.88
305.891	85.88
306.121	102.88
306.352	97.88
306.582	107.88
306.812	111.88
307.042	108.88
307.272	121.88
307.502	163.88
307.731	154.88
307.961	123.88
308.191	106.88
308.421	95.88
308.651	102.88
308.881	102.88
309.111	94.88
309.341	94.88
309.571	95.88
309.8	88.88
310.03	88.88
310.26	108.88
310.49	96.88
310.72	103.88
310.949	113.88
311.179	118.88
311.409	97.88
311.639	89.88
311.868	104.88
312.098	89.88
312.328	103.88
312.557	103.88
312.787	113.88
313.017	110.88
313.246	91.88
313.476	104.88
313.706	87.88
313.935	97.88
314.165	98.88
314.394	100.88
314.624	108.88
314.853	98.88
315.083	104.88
315.312	97.88
315.542	90.88
315.771	99.88
316.001	98.88
316.23	91.88
316.46	97.88
316.689	100.88
316.919	87.88
317.148	117.88
317.377	106.88
317.607	97.88
317.836	103.88
318.065	88.88
318.295	100.88
318.524	86.88
318.753	94.88
318.983	109.88
319.212	113.88
319.441	130.88
319.67	114.88
319.9	92.88
320.129	96.88
320.358	86.88
320.587	101.88
320.816	96.88
321.046	105.88
321.275	102.88
321.504	106.88
321.733	95.88
321.962	100.88
322.191	111.88
322.42	109.88
322.649	111.88
322.878	111.88
323.108	127.88
323.337	127.88
323.566	145.88
323.795	163.88
324.024	202.88
324.253	376.88
324.482	775.88
324.71	1518.88
324.939	2036.88
325.168	780.88
325.397	242.88
325.626	130.88
325.855	132.88
326.084	129.88
326.313	135.88
326.542	158.88
326.77	210.88
326.999	404.88
327.228	763.88
327.457	1371.88
327.686	1166.88
327.914	449.88
328.143	424.88
328.372	560.88
328.6	332.88
328.829	168.88
329.058	173.88
329.287	203.88
329.515	160.88
329.744	226.88
329.972	412.88
330.201	825.88
330.43	1198.88
330.658	569.88
330.887	278.88
331.115	165.88
331.344	142.88
331.572	110.88
331.801	127.88
332.03	115.88
332.258	108.88
332.486	101.88
332.715	102.88
332.943	113.88
333.172	111.88
333.4	116.88
333.629	134.88
333.857	214.88
334.085	352.88
334.314	752.88
334.542	1474.88
334.771	1399.88
334.999	375.88
335.227	155.88
335.455	124.88
335.684	106.88
335.912	106.88
336.14	112.88
336.369	107.88
336.597	115.88
336.825	103.88
337.053	109.88
337.281	103.88
337.51	107.88
337.738	102.88
337.966	97.88
338.194	108.88
338.422	113.88
338.65	91.88
338.878	95.88
339.106	90.88
339.334	99.88
339.562	99.88
339.79	82.88
340.018	96.88
340.246	102.88
340.474	108.88
340.702	115.88
340.93	98.88
341.158	103.88
341.386	104.88
341.614	115.88
341.842	104.88
342.07	100.88
342.298	92.88
342.526	88.88
342.754	103.88
342.981	95.88
343.209	84.88
343.437	106.88
343.665	101.88
343.893	93.88
344.12	95.88
344.348	99.88
344.576	103.88
344.804	103.88
345.031	103.88
345.259	101.88
345.487	96.88
345.714	94.88
345.942	91.88
346.17	85.88
346.397	98.88
346.625	111.88
346.853	96.88
347.08	94.88
347.308	96.88
347.535	97.88
347.763	112.88
347.99	117.88
348.218	98.88
348.445	125.88
348.673	105.88
348.9	97.88
349.128	99.88
349.355	109.88
349.583	93.88
349.81	88.88
350.037	103.88
350.265	106.88
350.492	90.88
350.72	104.88
350.947	105.88
351.174	116.88
351.402	123.88
351.629	102.88
351.856	107.88
352.083	117.88
352.311	111.88
352.538	129.88
352.765	114.88
352.992	119.88
353.22	132.88
353.447	115.88
353.674	104.88
353.901	107.88
354.128	91.88
354.355	87.88
354.583	95.88
354.81	102.88
355.037	94.88
355.264	95.88
355.491	98.88
355.718	80.88
355.945	81.88
356.172	103.88
356.399	91.88
356.626	86.88
356.853	92.88
357.08	100.88
357.307	86.88
357.534	100.88
357.761	97.88
357.988	103.88
358.215	97.88
358.441	82.88
358.668	90.88
358.895	99.88
359.122	91.88
359.349	104.88
359.576	91.88
359.802	103.88
360.029	138.88
360.256	122.88
360.483	117.88
360.709	96.88
360.936	101.88
361.163	100.88
361.39	100.88
361.616	94.88
361.843	99.88
362.07	99.88
362.296	110.88
362.523	103.88
362.749	101.88
362.976	103.88
363.203	101.88
363.429	91.88
363.656	94.88
363.882	90.88
364.109	86.88
364.335	92.88
364.562	92.88
364.788	94.88
365.015	112.88
365.241	109.88
365.468	119.88
365.694	126.88
365.92	103.88
366.147	103.88
366.373	86.88
366.599	102.88
366.826	88.88
367.052	93.88
367.278	90.88
367.505	98.88
367.731	99.88
367.957	91.88
368.184	101.88
368.41	103.88
368.636	122.88
368.862	126.88
369.089	139.88
369.315	111.88
369.541	90.88
369.767	103.88
369.993	96.88
370.219	94.88
370.445	92.88
370.672	106.88
370.898	105.88
371.124	87.88
371.35	100.88
371.576	94.88
371.802	96.88
372.028	88.88
372.254	96.88
372.48	84.88
372.706	84.88
372.932	89.88
373.158	98.88
373.384	93.88
373.61	95.88
373.835	102.88
374.061	102.88
374.287	97.88
374.513	102.88
374.739	87.88
374.965	94.88
375.191	74.88
375.416	93.88
375.642	98.88
375.868	97.88
376.094	92.88
376.319	99.88
376.545	105.88
376.771	88.88
376.997	105.88
377.222	90.88
377.448	73.88
377.674	97.88
377.899	68.88
378.125	96.88
378.35	100.88
378.576	104.88
378.802	89.88
379.027	92.88
379.253	101.88
379.478	112.88
379.704	94.88
379.929	88.88
380.155	105.88
380.38	94.88
380.606	93.88
380.831	110.88
381.057	102.88
381.282	98.88
381.507	104.88
381.733	91.88
381.958	95.88
382.184	94.88
382.409	97.88
382.634	92.88
382.86	92.88
383.085	95.88
383.31	98.88
383.535	106.88
383.761	112.88
383.986	104.88
384.211	110.88
384.436	101.88
384.662	105.88
384.887	98.88
385.112	85.88
385.337	102.88
385.562	98.88
385.787	99.88
386.013	102.88
386.238	121.88
386.463	108.88
386.688	109.88
386.913	104.88
387.138	107.88
387.363	79.88
387.588	107.88
387.813	98.88
388.038	100.88
388.263	115.88
388.488	110.88
388.713	98.88
388.938	104.88
389.163	93.88
389.387	104.88
389.612	97.88
389.837	91.88
390.062	93.88
390.287	106.88
390.512	96.88
390.736	81.88
390.961	102.88
391.186	88.88
391.411	88.88
391.636	100.88
391.86	81.88
392.085	79.88
392.31	81.88
392.534	78.88
392.759	88.88
392.984	76.88
393.208	94.88
393.433	96.88
393.658	87.88
393.882	97.88
394.107	75.88
394.331	81.88
394.556	103.88
394.78	89.88
395.005	96.88
395.229	91.88
395.454	99.88
395.678	85.88
395.903	105.88
396.127	99.88
396.352	79.88
396.576	104.88
396.801	87.88
397.025	83.88
397.249	79.88
397.474	82.88
397.698	98.88
397.922	90.88
398.147	96.88
398.371	83.88
398.595	86.88
398.82	94.88
399.044	91.88
399.268	103.88
399.492	87.88
399.717	86.88
399.941	88.88
400.165	91.88
400.389	94.88
400.613	91.88
400.837	87.88
401.062	86.88
401.286	98.88
401.51	96.88
401.734	85.88
401.958	106.88
402.182	142.88
402.406	182.88
402.63	137.88
402.854	103.88
403.078	90.88
403.302	87.88
403.526	97.88
403.75	89.88
403.974	91.88
404.198	88.88
404.422	90.88
404.645	96.88
404.869	108.88
405.093	108.88
405.317	129.88
405.541	134.88
405.765	120.88
405.988	118.88
406.212	208.88
406.436	278.88
406.66	180.88
406.883	121.88
407.107	98.88
407.331	105.88
407.555	107.88
407.778	93.88
408.002	94.88
408.226	95.88
408.449	84.88
408.673	94.88
408.896	99.88
409.12	99.88
409.344	92.88
409.567	79.88
409.791	75.88
410.014	94.88
410.238	96.88
410.461	86.88
410.685	101.88
410.908	108.88
411.132	91.88
411.355	88.88
411.578	95.88
411.802	99.88
412.025	92.88
412.249	112.88
412.472	112.88
412.695	120.88
412.919	105.88
413.142	102.88
413.365	89.88
413.589	87.88
413.812	88.88
414.035	81.88
414.258	99.88
414.482	81.88
414.705	83.88
414.928	92.88
415.151	87.88
415.374	103.88
415.597	99.88
415.821	90.88
416.044	103.88
416.267	96.88
416.49	77.88
416.713	92.88
416.936	80.88
417.159	93.88
417.382	92.88
417.605	102.88
417.828	117.88
418.051	98.88
418.274	91.88
418.497	95.88
418.72	102.88
418.943	101.88
419.166	80.88
419.389	96.88
419.611	87.88
419.834	90.88
420.057	87.88
420.28	103.88
420.503	98.88
420.726	94.88
420.948	107.88
421.171	120.88
421.394	79.88
421.617	92.88
421.839	92.88
422.062	86.88
422.285	91.88
422.507	119.88
422.73	103.88
422.953	102.88
423.175	109.88
423.398	85.88
423.621	86.88
423.843	91.88
424.066	75.88
424.288	80.88
424.511	98.88
424.733	107.88
424.956	106.88
425.178	106.88
425.401	97.88
425.623	105.88
425.846	91.88
426.068	95.88
426.291	95.88
426.513	95.88
426.735	104.88
426.958	115.88
427.18	118.88
427.402	161.88
427.625	218.88
427.847	210.88
428.069	185.88
428.292	114.88
428.514	104.88
428.736	99.88
428.958	87.88
429.181	83.88
429.403	94.88
429.625	95.88
429.847	99.88
430.069	113.88
430.292	89.88
430.514	91.88
430.736	87.88
430.958	93.88
431.18	76.88
431.402	84.88
431.624	90.88
431.846	86.88
432.068	88.88
432.29	86.88
432.512	92.88
432.734	90.88
432.956	102.88
433.178	99.88
433.4	100.88
433.622	88.88
433.844	90.88
434.066	87.88
434.287	91.88
434.509	92.88
434.731	91.88
434.953	94.88
435.175	86.88
435.397	97.88
435.618	91.88
435.84	110.88
436.062	123.88
436.284	108.88
436.505	99.88
436.727	110.88
436.949	82.88
437.17	94.88
437.392	86.88
437.614	98.88
437.835	122.88
438.057	154.88
438.278	122.88
438.5	101.88
438.721	128.88
438.943	113.88
439.165	102.88
439.386	72.88
439.608	87.88
439.829	114.88
440.05	151.88
440.272	155.88
440.493	121.88
440.715	103.88
440.936	95.88
441.158	95.88
441.379	96.88
441.6	101.88
441.822	116.88
442.043	100.88
442.264	122.88
442.486	118.88
442.707	99.88
442.928	103.88
443.149	172.88
443.371	150.88
443.592	134.88
443.813	133.88
444.034	96.88
444.255	91.88
444.476	94.88
444.698	104.88
444.919	97.88
445.14	132.88
445.361	119.88
445.582	125.88
445.803	170.88
446.024	164.88
446.245	139.88
446.466	123.88
446.687	85.88
446.908	88.88
447.129	89.88
447.35	87.88
447.571	89.88
447.792	103.88
448.013	105.88
448.234	113.88
448.455	114.88
448.675	114.88
448.896	121.88
449.117	101.88
449.338	110.88
449.559	129.88
449.779	131.88
450	101.88
450.221	89.88
450.442	99.88
450.662	113.88
450.883	121.88
451.104	135.88
451.324	103.88
451.545	96.88
451.766	94.88
451.986	94.88
452.207	103.88
452.428	88.88
452.648	98.88
452.869	118.88
453.089	120.88
453.31	138.88
453.53	100.88
453.751	95.88
453.971	130.88
454.192	128.88
454.412	115.88
454.633	82.88
454.853	99.88
455.073	92.88
455.294	86.88
455.514	119.88
455.734	90.88
455.955	87.88
456.175	100.88
456.395	95.88
456.616	82.88
456.836	88.88
457.056	80.88
457.276	89.88
457.497	95.88
457.717	102.88
457.937	84.88
458.157	90.88
458.377	104.88
458.598	111.88
458.818	199.88
459.038	198.88
459.258	147.88
459.478	112.88
459.698	96.88
459.918	103.88
460.138	88.88
460.358	87.88
460.578	94.88
460.798	90.88
461.018	88.88
461.238	88.88
461.458	91.88
461.678	86.88
461.898	88.88
462.118	91.88
462.338	82.88
462.558	75.88
462.777	96.88
462.997	105.88
463.217	108.88
463.437	111.88
463.657	100.88
463.876	91.88
464.096	112.88
464.316	91.88
464.536	98.88
464.755	87.88
464.975	125.88
465.195	222.88
465.414	234.88
465.634	97.88
465.854	98.88
466.073	89.88
466.293	99.88
466.512	94.88
466.732	84.88
466.951	96.88
467.171	103.88
467.391	116.88
467.61	148.88
467.829	196.88
468.049	468.88
468.268	718.88
468.488	193.88
468.707	110.88
468.927	83.88
469.146	86.88
469.365	94.88
469.585	103.88
469.804	104.88
470.023	95.88
470.243	102.88
470.462	113.88
470.681	138.88
470.901	90.88
471.12	98.88
471.339	101.88
471.558	120.88
471.777	154.88
471.997	266.88
472.216	922.88
472.435	2178.88
472.654	500.88
472.873	158.88
473.092	108.88
473.311	99.88
473.53	90.88
473.749	102.88
473.968	105.88
474.187	105.88
474.406	115.88
474.625	106.88
474.844	91.88
475.063	93.88
475.282	100.88
475.501	104.88
475.72	85.88
475.939	76.88
476.158	81.88
476.377	75.88
476.596	102.88
476.814	107.88
477.033	106.88
477.252	96.88
477.471	91.88
477.69	94.88
477.908	74.88
478.127	95.88
478.346	89.88
478.564	102.88
478.783	118.88
479.002	107.88
479.22	106.88
479.439	119.88
479.658	124.88
479.876	127.88
480.095	128.88
480.313	134.88
480.532	140.88
480.751	233.88
480.969	822.88
481.188	3624.88
481.406	2098.88
481.624	310.88
481.843	119.88
482.061	103.88
482.28	101.88
482.498	95.88
482.717	91.88
482.935	80.88
483.153	98.88
483.372	91.88
483.59	91.88
483.808	92.88
484.027	101.88
484.245	108.88
484.463	105.88
484.681	89.88
484.9	104.88
485.118	99.88
485.336	97.88
485.554	98.88
485.772	79.88
485.99	109.88
486.209	121.88
486.427	115.88
486.645	127.88
486.863	129.88
487.081	107.88
487.299	96.88
487.517	79.88
487.735	103.88
487.953	95.88
488.171	103.88
488.389	121.88
488.607	108.88
488.825	107.88
489.043	98.88
489.261	104.88
489.479	92.88
489.696	103.88
489.914	102.88
490.132	91.88
490.35	88.88
490.568	100.88
490.786	90.88
491.003	99.88
491.221	86.88
491.439	103.88
491.657	95.88
491.874	91.88
492.092	88.88
492.31	91.88
492.527	95.88
492.745	96.88
492.963	105.88
493.18	104.88
493.398	91.88
493.615	103.88
493.833	89.88
494.05	91.88
494.268	80.88
494.485	98.88
494.703	96.88
494.92	74.88
495.138	80.88
495.355	94.88
495.573	84.88
495.79	90.88
496.008	95.88
496.225	96.88
496.442	88.88
496.66	88.88
496.877	96.88
497.094	96.88
497.312	80.88
497.529	74.88
497.746	98.88
497.963	88.88
498.181	93.88
498.398	104.88
498.615	103.88
498.832	85.88
499.049	79.88
499.267	88.88
499.484	88.88
499.701	89.88
499.918	83.88
500.135	96.88
500.352	90.88
500.569	107.88
500.786	94.88
501.003	88.88
501.22	94.88
501.437	95.88
501.654	102.88
501.871	128.88
502.088	96.88
502.305	99.88
502.522	98.88
502.739	72.88
502.956	100.88
503.172	106.88
503.389	104.88
503.606	121.88
503.823	119.88
504.04	102.88
504.256	107.88
504.473	86.88
504.69	94.88
504.907	92.88
505.123	97.88
505.34	94.88
505.557	105.88
505.773	98.88
505.99	89.88
506.207	91.88
506.423	74.88
506.64	99.88
506.856	99.88
507.073	86.88
507.289	86.88
507.506	99.88
507.722	129.88
507.939	115.88
508.155	112.88
508.372	108.88
508.588	96.88
508.805	94.88
509.021	103.88
509.238	96.88
509.454	105.88
509.67	121.88
509.887	115.88
510.103	135.88
510.319	235.88
510.536	853.88
510.752	2915.88
510.968	794.88
511.184	182.88
511.401	144.88
511.617	108.88
511.833	100.88
512.049	115.88
512.265	99.88
512.481	98.88
512.698	87.88
