Data from Circ_1987_H10_HRD10591_00064.txt Node
Date: Wed Jan 03 12:10:45 EST 2024
User: Yrep
Spectrometer: HR+D1059
Trigger mode: 1
Integration Time (sec): 1.000000E-1
Scans to average: 1
Electric dark correction enabled: true
Nonlinearity correction enabled: false
Boxcar width: 0
XAxis mode: Wavelengths
Number of Pixels in Spectrum: 2048
>>>>>Begin Spectral Data<<<<<
223.165	-19.88
223.4	-19.88
223.635	-19.88
223.869	-17.88
224.104	-11.88
224.338	-18.88
224.573	-5.88
224.808	-28.88
225.042	-1.88
225.277	-4.88
225.511	-13.88
225.746	-10.88
225.98	19.12
226.215	8.12
226.449	22.12
226.683	25.12
226.918	33.12
227.152	27.12
227.387	39.12
227.621	44.12
227.856	58.12
228.09	43.12
228.324	52.12
228.559	61.12
228.793	68.12
229.027	64.12
229.262	80.12
229.496	81.12
229.73	87.12
229.964	86.12
230.199	79.12
230.433	83.12
230.667	93.12
230.901	81.12
231.136	69.12
231.37	85.12
231.604	75.12
231.838	89.12
232.072	76.12
232.306	90.12
232.541	81.12
232.775	61.12
233.009	82.12
233.243	72.12
233.477	77.12
233.711	83.12
233.945	73.12
234.179	81.12
234.413	85.12
234.647	93.12
234.881	80.12
235.115	94.12
235.349	92.12
235.583	83.12
235.817	72.12
236.051	79.12
236.285	93.12
236.519	81.12
236.753	66.12
236.987	82.12
237.221	106.12
237.455	112.12
237.689	74.12
237.922	86.12
238.156	88.12
238.39	83.12
238.624	82.12
238.858	71.12
239.091	76.12
239.325	93.12
239.559	98.12
239.793	83.12
240.027	81.12
240.26	85.12
240.494	84.12
240.728	60.12
240.961	91.12
241.195	84.12
241.429	70.12
241.662	81.12
241.896	79.12
242.13	75.12
242.363	77.12
242.597	66.12
242.83	78.12
243.064	71.12
243.298	69.12
243.531	80.12
243.765	86.12
243.998	74.12
244.232	93.12
244.465	87.12
244.699	89.12
244.932	85.12
245.166	73.12
245.399	78.12
245.633	72.12
245.866	84.12
246.099	85.12
246.333	87.12
246.566	88.12
246.8	86.12
247.033	79.12
247.266	87.12
247.5	81.12
247.733	78.12
247.966	86.12
248.2	84.12
248.433	84.12
248.666	97.12
248.899	74.12
249.133	99.12
249.366	105.12
249.599	103.12
249.832	91.12
250.066	90.12
250.299	86.12
250.532	85.12
250.765	80.12
250.998	86.12
251.231	82.12
251.465	94.12
251.698	85.12
251.931	88.12
252.164	77.12
252.397	56.12
252.63	89.12
252.863	78.12
253.096	89.12
253.329	90.12
253.562	82.12
253.795	79.12
254.028	87.12
254.261	67.12
254.494	92.12
254.727	80.12
254.96	80.12
255.193	85.12
255.426	82.12
255.659	81.12
255.892	99.12
256.124	94.12
256.357	89.12
256.59	81.12
256.823	92.12
257.056	94.12
257.289	83.12
257.521	85.12
257.754	81.12
257.987	94.12
258.22	90.12
258.452	88.12
258.685	100.12
258.918	80.12
259.151	91.12
259.383	87.12
259.616	83.12
259.849	96.12
260.081	96.12
260.314	104.12
260.547	86.12
260.779	86.12
261.012	93.12
261.244	86.12
261.477	90.12
261.71	98.12
261.942	129.12
262.175	127.12
262.407	90.12
262.64	75.12
262.872	99.12
263.105	82.12
263.337	95.12
263.57	88.12
263.802	79.12
264.035	83.12
264.267	92.12
264.499	81.12
264.732	81.12
264.964	83.12
265.197	89.12
265.429	95.12
265.661	89.12
265.894	94.12
266.126	83.12
266.358	70.12
266.591	83.12
266.823	70.12
267.055	85.12
267.287	85.12
267.52	88.12
267.752	77.12
267.984	76.12
268.216	88.12
268.448	95.12
268.681	95.12
268.913	90.12
269.145	76.12
269.377	72.12
269.609	100.12
269.841	81.12
270.073	81.12
270.306	95.12
270.538	96.12
270.77	89.12
271.002	87.12
271.234	93.12
271.466	88.12
271.698	81.12
271.93	86.12
272.162	90.12
272.394	97.12
272.626	85.12
272.858	70.12
273.09	74.12
273.322	94.12
273.553	90.12
273.785	82.12
274.017	84.12
274.249	111.12
274.481	95.12
274.713	92.12
274.945	96.12
275.176	101.12
275.408	103.12
275.64	103.12
275.872	117.12
276.104	106.12
276.335	110.12
276.567	111.12
276.799	132.12
277.031	154.12
277.262	185.12
277.494	137.12
277.726	101.12
277.957	98.12
278.189	86.12
278.421	102.12
278.652	87.12
278.884	98.12
279.115	85.12
279.347	103.12
279.579	110.12
279.81	119.12
280.042	168.12
280.273	241.12
280.505	166.12
280.736	109.12
280.968	95.12
281.199	107.12
281.431	86.12
281.662	89.12
281.894	90.12
282.125	113.12
282.356	119.12
282.588	157.12
282.819	127.12
283.051	96.12
283.282	90.12
283.513	90.12
283.745	100.12
283.976	81.12
284.207	89.12
284.439	99.12
284.67	86.12
284.901	82.12
285.132	91.12
285.364	87.12
285.595	74.12
285.826	83.12
286.057	87.12
286.288	97.12
286.52	81.12
286.751	77.12
286.982	77.12
287.213	103.12
287.444	99.12
287.675	84.12
287.906	102.12
288.138	97.12
288.369	109.12
288.6	103.12
288.831	86.12
289.062	86.12
289.293	82.12
289.524	88.12
289.755	98.12
289.986	83.12
290.217	92.12
290.448	99.12
290.679	94.12
290.91	99.12
291.141	92.12
291.371	96.12
291.602	80.12
291.833	70.12
292.064	87.12
292.295	96.12
292.526	90.12
292.757	95.12
292.987	87.12
293.218	103.12
293.449	97.12
293.68	86.12
293.91	83.12
294.141	86.12
294.372	78.12
294.603	99.12
294.833	86.12
295.064	86.12
295.295	94.12
295.525	86.12
295.756	100.12
295.987	120.12
296.217	143.12
296.448	126.12
296.679	103.12
296.909	102.12
297.14	107.12
297.37	77.12
297.601	78.12
297.831	77.12
298.062	97.12
298.292	78.12
298.523	97.12
298.753	90.12
298.984	87.12
299.214	105.12
299.445	98.12
299.675	83.12
299.905	93.12
300.136	89.12
300.366	87.12
300.597	89.12
300.827	97.12
301.057	100.12
301.288	102.12
301.518	92.12
301.748	75.12
301.979	127.12
302.209	97.12
302.439	110.12
302.669	89.12
302.9	95.12
303.13	103.12
303.36	107.12
303.59	124.12
303.82	143.12
304.051	117.12
304.281	95.12
304.511	93.12
304.741	92.12
304.971	97.12
305.201	91.12
305.431	102.12
305.661	97.12
305.891	90.12
306.121	99.12
306.352	105.12
306.582	117.12
306.812	111.12
307.042	118.12
307.272	147.12
307.502	166.12
307.731	169.12
307.961	136.12
308.191	99.12
308.421	107.12
308.651	103.12
308.881	96.12
309.111	88.12
309.341	93.12
309.571	99.12
309.8	90.12
310.03	109.12
310.26	103.12
310.49	100.12
310.72	108.12
310.949	127.12
311.179	124.12
311.409	92.12
311.639	108.12
311.868	86.12
312.098	105.12
312.328	106.12
312.557	110.12
312.787	117.12
313.017	119.12
313.246	111.12
313.476	82.12
313.706	101.12
313.935	101.12
314.165	96.12
314.394	120.12
314.624	98.12
314.853	100.12
315.083	93.12
315.312	105.12
315.542	91.12
315.771	96.12
316.001	94.12
316.23	85.12
316.46	99.12
316.689	107.12
316.919	101.12
317.148	91.12
317.377	105.12
317.607	100.12
317.836	96.12
318.065	79.12
318.295	94.12
318.524	102.12
318.753	106.12
318.983	96.12
319.212	110.12
319.441	100.12
319.67	112.12
319.9	102.12
320.129	90.12
320.358	102.12
320.587	118.12
320.816	91.12
321.046	110.12
321.275	93.12
321.504	97.12
321.733	101.12
321.962	103.12
322.191	91.12
322.42	108.12
322.649	116.12
322.878	116.12
323.108	134.12
323.337	122.12
323.566	141.12
323.795	157.12
324.024	223.12
324.253	403.12
324.482	873.12
324.71	1732.12
324.939	2269.12
325.168	848.12
325.397	278.12
325.626	165.12
325.855	131.12
326.084	129.12
326.313	138.12
326.542	153.12
326.77	248.12
326.999	447.12
327.228	915.12
327.457	1661.12
327.686	1325.12
327.914	482.12
328.143	491.12
328.372	590.12
328.6	350.12
328.829	184.12
329.058	195.12
329.287	202.12
329.515	168.12
329.744	250.12
329.972	447.12
330.201	904.12
330.43	1348.12
330.658	583.12
330.887	284.12
331.115	182.12
331.344	119.12
331.572	131.12
331.801	136.12
332.03	131.12
332.258	115.12
332.486	111.12
332.715	97.12
332.943	122.12
333.172	111.12
333.4	124.12
333.629	161.12
333.857	225.12
334.085	388.12
334.314	831.12
334.542	1692.12
334.771	1554.12
334.999	422.12
335.227	172.12
335.455	115.12
335.684	110.12
335.912	103.12
336.14	116.12
336.369	122.12
336.597	116.12
336.825	117.12
337.053	103.12
337.281	107.12
337.51	103.12
337.738	96.12
337.966	87.12
338.194	90.12
338.422	109.12
338.65	89.12
338.878	94.12
339.106	106.12
339.334	95.12
339.562	99.12
339.79	106.12
340.018	97.12
340.246	101.12
340.474	111.12
340.702	90.12
340.93	96.12
341.158	93.12
341.386	103.12
341.614	108.12
341.842	109.12
342.07	86.12
342.298	109.12
342.526	99.12
342.754	87.12
342.981	87.12
343.209	105.12
343.437	111.12
343.665	101.12
343.893	81.12
344.12	78.12
344.348	91.12
344.576	95.12
344.804	106.12
345.031	97.12
345.259	110.12
345.487	93.12
345.714	111.12
345.942	87.12
346.17	92.12
346.397	92.12
346.625	99.12
346.853	96.12
347.08	96.12
347.308	100.12
347.535	98.12
347.763	107.12
347.99	94.12
348.218	121.12
348.445	108.12
348.673	125.12
348.9	100.12
349.128	106.12
349.355	118.12
349.583	93.12
349.81	104.12
350.037	96.12
350.265	90.12
350.492	83.12
350.72	106.12
350.947	107.12
351.174	121.12
351.402	121.12
351.629	105.12
351.856	114.12
352.083	110.12
352.311	104.12
352.538	125.12
352.765	113.12
352.992	119.12
353.22	115.12
353.447	101.12
353.674	111.12
353.901	113.12
354.128	98.12
354.355	93.12
354.583	98.12
354.81	93.12
355.037	100.12
355.264	94.12
355.491	97.12
355.718	90.12
355.945	93.12
356.172	102.12
356.399	79.12
356.626	102.12
356.853	93.12
357.08	77.12
357.307	92.12
357.534	84.12
357.761	86.12
357.988	97.12
358.215	99.12
358.441	103.12
358.668	97.12
358.895	101.12
359.122	95.12
359.349	85.12
359.576	95.12
359.802	109.12
360.029	137.12
360.256	139.12
360.483	122.12
360.709	97.12
360.936	95.12
361.163	95.12
361.39	107.12
361.616	111.12
361.843	103.12
362.07	93.12
362.296	119.12
362.523	102.12
362.749	96.12
362.976	111.12
363.203	100.12
363.429	95.12
363.656	97.12
363.882	98.12
364.109	95.12
364.335	102.12
364.562	98.12
364.788	110.12
365.015	93.12
365.241	93.12
365.468	98.12
365.694	114.12
365.92	96.12
366.147	94.12
366.373	98.12
366.599	97.12
366.826	85.12
367.052	95.12
367.278	91.12
367.505	98.12
367.731	97.12
367.957	101.12
368.184	105.12
368.41	121.12
368.636	110.12
368.862	121.12
369.089	124.12
369.315	93.12
369.541	114.12
369.767	101.12
369.993	93.12
370.219	97.12
370.445	94.12
370.672	91.12
370.898	88.12
371.124	87.12
371.35	94.12
371.576	93.12
371.802	87.12
372.028	87.12
372.254	79.12
372.48	87.12
372.706	101.12
372.932	82.12
373.158	85.12
373.384	92.12
373.61	88.12
373.835	65.12
374.061	95.12
374.287	86.12
374.513	93.12
374.739	89.12
374.965	90.12
375.191	84.12
375.416	85.12
375.642	88.12
375.868	96.12
376.094	85.12
376.319	83.12
376.545	98.12
376.771	91.12
376.997	94.12
377.222	87.12
377.448	107.12
377.674	79.12
377.899	81.12
378.125	106.12
378.35	81.12
378.576	91.12
378.802	95.12
379.027	91.12
379.253	88.12
379.478	90.12
379.704	90.12
379.929	94.12
380.155	87.12
380.38	84.12
380.606	85.12
380.831	98.12
381.057	96.12
381.282	101.12
381.507	88.12
381.733	101.12
381.958	94.12
382.184	96.12
382.409	97.12
382.634	95.12
382.86	96.12
383.085	90.12
383.31	103.12
383.535	95.12
383.761	92.12
383.986	103.12
384.211	101.12
384.436	97.12
384.662	97.12
384.887	91.12
385.112	106.12
385.337	106.12
385.562	98.12
385.787	91.12
386.013	106.12
386.238	120.12
386.463	103.12
386.688	109.12
386.913	86.12
387.138	88.12
387.363	106.12
387.588	101.12
387.813	99.12
388.038	108.12
388.263	106.12
388.488	101.12
388.713	97.12
388.938	93.12
389.163	92.12
389.387	104.12
389.612	71.12
389.837	90.12
390.062	83.12
390.287	91.12
390.512	88.12
390.736	85.12
390.961	82.12
391.186	69.12
391.411	88.12
391.636	82.12
391.86	79.12
392.085	85.12
392.31	74.12
392.534	85.12
392.759	93.12
392.984	88.12
393.208	94.12
393.433	82.12
393.658	100.12
393.882	99.12
394.107	81.12
394.331	83.12
394.556	89.12
394.78	85.12
395.005	92.12
395.229	83.12
395.454	87.12
395.678	93.12
395.903	81.12
396.127	73.12
396.352	97.12
396.576	88.12
396.801	87.12
397.025	89.12
397.249	83.12
397.474	88.12
397.698	95.12
397.922	89.12
398.147	89.12
398.371	96.12
398.595	89.12
398.82	92.12
399.044	94.12
399.268	103.12
399.492	82.12
399.717	85.12
399.941	91.12
400.165	107.12
400.389	98.12
400.613	70.12
400.837	93.12
401.062	86.12
401.286	88.12
401.51	105.12
401.734	96.12
401.958	109.12
402.182	137.12
402.406	180.12
402.63	135.12
402.854	91.12
403.078	100.12
403.302	91.12
403.526	92.12
403.75	94.12
403.974	94.12
404.198	102.12
404.422	88.12
404.645	92.12
404.869	102.12
405.093	123.12
405.317	151.12
405.541	144.12
405.765	125.12
405.988	115.12
406.212	193.12
406.436	281.12
406.66	193.12
406.883	126.12
407.107	108.12
407.331	100.12
407.555	112.12
407.778	105.12
408.002	90.12
408.226	89.12
408.449	89.12
408.673	85.12
408.896	106.12
409.12	104.12
409.344	83.12
409.567	82.12
409.791	90.12
410.014	109.12
410.238	90.12
410.461	89.12
410.685	85.12
410.908	105.12
411.132	93.12
411.355	103.12
411.578	81.12
411.802	86.12
412.025	90.12
412.249	119.12
412.472	129.12
412.695	133.12
412.919	111.12
413.142	82.12
413.365	82.12
413.589	83.12
413.812	92.12
414.035	95.12
414.258	88.12
414.482	89.12
414.705	92.12
414.928	95.12
415.151	104.12
415.374	79.12
415.597	81.12
415.821	96.12
416.044	92.12
416.267	81.12
416.49	86.12
416.713	101.12
416.936	98.12
417.159	103.12
417.382	87.12
417.605	93.12
417.828	100.12
418.051	101.12
418.274	91.12
418.497	90.12
418.72	101.12
418.943	95.12
419.166	90.12
419.389	91.12
419.611	82.12
419.834	89.12
420.057	79.12
420.28	99.12
420.503	90.12
420.726	88.12
420.948	89.12
421.171	113.12
421.394	95.12
421.617	94.12
421.839	90.12
422.062	89.12
422.285	101.12
422.507	103.12
422.73	111.12
422.953	90.12
423.175	91.12
423.398	89.12
423.621	81.12
423.843	82.12
424.066	83.12
424.288	82.12
424.511	105.12
424.733	115.12
424.956	120.12
425.178	93.12
425.401	99.12
425.623	118.12
425.846	102.12
426.068	101.12
426.291	94.12
426.513	94.12
426.735	85.12
426.958	97.12
427.18	114.12
427.402	175.12
427.625	258.12
427.847	227.12
428.069	198.12
428.292	113.12
428.514	111.12
428.736	95.12
428.958	90.12
429.181	83.12
429.403	84.12
429.625	77.12
429.847	105.12
430.069	94.12
430.292	99.12
430.514	101.12
430.736	95.12
430.958	90.12
431.18	93.12
431.402	97.12
431.624	84.12
431.846	83.12
432.068	99.12
432.29	82.12
432.512	81.12
432.734	91.12
432.956	89.12
433.178	103.12
433.4	98.12
433.622	87.12
433.844	88.12
434.066	87.12
434.287	105.12
434.509	88.12
434.731	88.12
434.953	78.12
435.175	87.12
435.397	96.12
435.618	87.12
435.84	108.12
436.062	146.12
436.284	122.12
436.505	104.12
436.727	101.12
436.949	94.12
437.17	82.12
437.392	88.12
437.614	91.12
437.835	121.12
438.057	130.12
438.278	133.12
438.5	114.12
438.721	145.12
438.943	90.12
439.165	94.12
439.386	94.12
439.608	97.12
439.829	101.12
440.05	135.12
440.272	182.12
440.493	114.12
440.715	98.12
440.936	83.12
441.158	89.12
441.379	83.12
441.6	98.12
441.822	127.12
442.043	104.12
442.264	111.12
442.486	105.12
442.707	99.12
442.928	132.12
443.149	158.12
443.371	164.12
443.592	126.12
443.813	137.12
444.034	116.12
444.255	103.12
444.476	92.12
444.698	84.12
444.919	94.12
445.14	126.12
445.361	144.12
445.582	133.12
445.803	199.12
446.024	174.12
446.245	169.12
446.466	123.12
446.687	89.12
446.908	82.12
447.129	91.12
447.35	99.12
447.571	111.12
447.792	110.12
448.013	121.12
448.234	109.12
448.455	111.12
448.675	126.12
448.896	143.12
449.117	110.12
449.338	131.12
449.559	153.12
449.779	162.12
450	92.12
450.221	93.12
450.442	81.12
450.662	103.12
450.883	122.12
451.104	134.12
451.324	123.12
451.545	112.12
451.766	99.12
451.986	74.12
452.207	100.12
452.428	97.12
452.648	100.12
452.869	122.12
453.089	131.12
453.31	147.12
453.53	88.12
453.751	99.12
453.971	108.12
454.192	130.12
454.412	96.12
454.633	86.12
454.853	92.12
455.073	83.12
455.294	83.12
455.514	115.12
455.734	88.12
455.955	78.12
456.175	85.12
456.395	97.12
456.616	86.12
456.836	95.12
457.056	89.12
457.276	90.12
457.497	90.12
457.717	74.12
457.937	79.12
458.157	83.12
458.377	95.12
458.598	131.12
458.818	214.12
459.038	224.12
459.258	157.12
459.478	117.12
459.698	101.12
459.918	88.12
460.138	85.12
460.358	82.12
460.578	90.12
460.798	97.12
461.018	87.12
461.238	73.12
461.458	87.12
461.678	87.12
461.898	79.12
462.118	90.12
462.338	74.12
462.558	83.12
462.777	90.12
462.997	98.12
463.217	103.12
463.437	107.12
463.657	87.12
463.876	95.12
464.096	87.12
464.316	111.12
464.536	113.12
464.755	97.12
464.975	129.12
465.195	222.12
465.414	227.12
465.634	117.12
465.854	86.12
466.073	87.12
466.293	77.12
466.512	88.12
466.732	88.12
466.951	89.12
467.171	97.12
467.391	120.12
467.61	138.12
467.829	175.12
468.049	488.12
468.268	715.12
468.488	208.12
468.707	106.12
468.927	101.12
469.146	92.12
469.365	85.12
469.585	98.12
469.804	100.12
470.023	105.12
470.243	99.12
470.462	122.12
470.681	133.12
470.901	101.12
471.12	92.12
471.339	111.12
471.558	115.12
471.777	141.12
471.997	288.12
472.216	970.12
472.435	2229.12
472.654	543.12
472.873	143.12
473.092	112.12
473.311	97.12
473.53	107.12
473.749	94.12
473.968	114.12
474.187	119.12
474.406	107.12
474.625	88.12
474.844	94.12
475.063	94.12
475.282	91.12
475.501	79.12
475.72	83.12
475.939	93.12
476.158	90.12
476.377	96.12
476.596	101.12
476.814	115.12
477.033	110.12
477.252	93.12
477.471	95.12
477.69	74.12
477.908	87.12
478.127	87.12
478.346	95.12
478.564	105.12
478.783	91.12
479.002	94.12
479.22	113.12
479.439	117.12
479.658	136.12
479.876	128.12
480.095	118.12
480.313	145.12
480.532	151.12
480.751	256.12
480.969	895.12
481.188	3842.12
481.406	2201.12
481.624	328.12
481.843	123.12
482.061	103.12
482.28	104.12
482.498	110.12
482.717	84.12
482.935	96.12
483.153	85.12
483.372	93.12
483.59	88.12
483.808	101.12
484.027	93.12
484.245	104.12
484.463	98.12
484.681	97.12
484.9	97.12
485.118	105.12
485.336	96.12
485.554	98.12
485.772	106.12
485.99	110.12
486.209	101.12
486.427	104.12
486.645	123.12
486.863	123.12
487.081	95.12
487.299	97.12
487.517	100.12
487.735	105.12
487.953	94.12
488.171	88.12
488.389	85.12
488.607	102.12
488.825	83.12
489.043	86.12
489.261	95.12
489.479	98.12
489.696	72.12
489.914	85.12
490.132	85.12
490.35	97.12
490.568	86.12
490.786	99.12
491.003	68.12
491.221	113.12
491.439	105.12
491.657	93.12
491.874	97.12
492.092	102.12
492.31	101.12
492.527	97.12
492.745	112.12
492.963	102.12
493.18	95.12
493.398	101.12
493.615	97.12
493.833	97.12
494.05	98.12
494.268	86.12
494.485	106.12
494.703	85.12
494.92	81.12
495.138	93.12
495.355	88.12
495.573	93.12
495.79	82.12
496.008	84.12
496.225	98.12
496.442	78.12
496.66	98.12
496.877	93.12
497.094	91.12
497.312	85.12
497.529	97.12
497.746	90.12
497.963	88.12
498.181	108.12
498.398	97.12
498.615	113.12
498.832	103.12
499.049	93.12
499.267	88.12
499.484	99.12
499.701	90.12
499.918	102.12
500.135	88.12
500.352	98.12
500.569	94.12
500.786	95.12
501.003	93.12
501.22	81.12
501.437	93.12
501.654	105.12
501.871	124.12
502.088	100.12
502.305	90.12
502.522	99.12
502.739	90.12
502.956	97.12
503.172	92.12
503.389	92.12
503.606	131.12
503.823	119.12
504.04	102.12
504.256	109.12
504.473	97.12
504.69	98.12
504.907	94.12
505.123	88.12
505.34	95.12
505.557	86.12
505.773	101.12
505.99	98.12
506.207	88.12
506.423	94.12
506.64	83.12
506.856	98.12
507.073	76.12
507.289	100.12
507.506	98.12
507.722	125.12
507.939	126.12
508.155	90.12
508.372	83.12
508.588	90.12
508.805	91.12
509.021	103.12
509.238	118.12
509.454	98.12
509.67	103.12
509.887	121.12
510.103	142.12
510.319	217.12
510.536	806.12
510.752	2746.12
510.968	742.12
511.184	168.12
511.401	126.12
511.617	101.12
511.833	120.12
512.049	106.12
512.265	93.12
512.481	112.12
512.698	87.12
512.914	82.12
513.13	107.12
