Data from Circ_1987_H10_HRD10591_00018.txt Node
Date: Wed Jan 03 12:10:36 EST 2024
User: Yrep
Spectrometer: HR+D1059
Trigger mode: 1
Integration Time (sec): 1.000000E-1
Scans to average: 1
Electric dark correction enabled: true
Nonlinearity correction enabled: false
Boxcar width: 0
XAxis mode: Wavelengths
Number of Pixels in Spectrum: 2048
>>>>>Begin Spectral Data<<<<<
223.165	-23
223.4	-23
223.635	-23
223.869	-19
224.104	-21
224.338	-13
224.573	-17
224.808	-6
225.042	8
225.277	3
225.511	-15
225.746	2
225.98	2
226.215	19
226.449	13
226.683	19
226.918	24
227.152	24
227.387	39
227.621	40
227.856	47
228.09	49
228.324	52
228.559	67
228.793	60
229.027	61
229.262	73
229.496	74
229.73	90
229.964	89
230.199	76
230.433	76
230.667	74
230.901	83
231.136	66
231.37	83
231.604	95
231.838	87
232.072	89
232.306	84
232.541	86
232.775	87
233.009	86
233.243	75
233.477	87
233.711	87
233.945	82
234.179	85
234.413	82
234.647	87
234.881	85
235.115	89
235.349	80
235.583	76
235.817	79
236.051	82
236.285	75
236.519	87
236.753	69
236.987	97
237.221	90
237.455	88
237.689	76
237.922	92
238.156	92
238.39	84
238.624	68
238.858	90
239.091	76
239.325	90
239.559	81
239.793	74
240.027	73
240.26	66
240.494	85
240.728	65
240.961	81
241.195	88
241.429	75
241.662	83
241.896	79
242.13	83
242.363	83
242.597	79
242.83	70
243.064	83
243.298	91
243.531	93
243.765	72
243.998	72
244.232	84
244.465	81
244.699	83
244.932	80
245.166	81
245.399	67
245.633	92
245.866	76
246.099	80
246.333	82
246.566	91
246.8	89
247.033	75
247.266	87
247.5	77
247.733	83
247.966	87
248.2	83
248.433	71
248.666	96
248.899	110
249.133	92
249.366	103
249.599	105
249.832	93
250.066	93
250.299	88
250.532	84
250.765	77
250.998	87
251.231	82
251.465	92
251.698	70
251.931	91
252.164	88
252.397	83
252.63	86
252.863	87
253.096	85
253.329	99
253.562	90
253.795	97
254.028	76
254.261	90
254.494	85
254.727	86
254.96	91
255.193	81
255.426	81
255.659	83
255.892	96
256.124	96
256.357	83
256.59	89
256.823	74
257.056	92
257.289	95
257.521	98
257.754	90
257.987	64
258.22	97
258.452	106
258.685	99
258.918	80
259.151	84
259.383	74
259.616	93
259.849	87
260.081	91
260.314	74
260.547	83
260.779	96
261.012	109
261.244	115
261.477	106
261.71	99
261.942	122
262.175	145
262.407	98
262.64	95
262.872	80
263.105	95
263.337	98
263.57	86
263.802	80
264.035	90
264.267	86
264.499	80
264.732	79
264.964	92
265.197	93
265.429	79
265.661	81
265.894	92
266.126	79
266.358	74
266.591	79
266.823	89
267.055	79
267.287	85
267.52	84
267.752	78
267.984	89
268.216	101
268.448	88
268.681	79
268.913	79
269.145	94
269.377	95
269.609	85
269.841	92
270.073	84
270.306	80
270.538	81
270.77	84
271.002	91
271.234	89
271.466	80
271.698	91
271.93	94
272.162	88
272.394	91
272.626	95
272.858	100
273.09	87
273.322	84
273.553	83
273.785	91
274.017	91
274.249	98
274.481	94
274.713	88
274.945	80
275.176	88
275.408	88
275.64	114
275.872	112
276.104	107
276.335	109
276.567	115
276.799	153
277.031	159
277.262	175
277.494	147
277.726	98
277.957	99
278.189	97
278.421	94
278.652	84
278.884	96
279.115	90
279.347	98
279.579	109
279.81	109
280.042	176
280.273	219
280.505	143
280.736	99
280.968	100
281.199	90
281.431	98
281.662	88
281.894	95
282.125	88
282.356	147
282.588	189
282.819	129
283.051	98
283.282	83
283.513	95
283.745	81
283.976	88
284.207	95
284.439	83
284.67	108
284.901	93
285.132	81
285.364	88
285.595	91
285.826	89
286.057	88
286.288	83
286.52	87
286.751	88
286.982	101
287.213	86
287.444	97
287.675	85
287.906	105
288.138	113
288.369	100
288.6	96
288.831	100
289.062	102
289.293	77
289.524	84
289.755	86
289.986	85
290.217	90
290.448	83
290.679	87
290.91	87
291.141	92
291.371	85
291.602	95
291.833	96
292.064	96
292.295	95
292.526	100
292.757	89
292.987	88
293.218	106
293.449	96
293.68	89
293.91	85
294.141	100
294.372	83
294.603	98
294.833	95
295.064	92
295.295	87
295.525	87
295.756	106
295.987	127
296.217	169
296.448	157
296.679	104
296.909	76
297.14	101
297.37	83
297.601	95
297.831	89
298.062	122
298.292	90
298.523	90
298.753	87
298.984	80
299.214	91
299.445	89
299.675	105
299.905	109
300.136	100
300.366	84
300.597	89
300.827	106
301.057	104
301.288	128
301.518	115
301.748	93
301.979	121
302.209	101
302.439	102
302.669	102
302.9	95
303.13	95
303.36	120
303.59	135
303.82	135
304.051	110
304.281	103
304.511	89
304.741	96
304.971	107
305.201	99
305.431	95
305.661	105
305.891	96
306.121	102
306.352	123
306.582	121
306.812	106
307.042	115
307.272	144
307.502	165
307.731	150
307.961	105
308.191	95
308.421	90
308.651	83
308.881	112
309.111	87
309.341	100
309.571	104
309.8	98
310.03	106
310.26	97
310.49	116
310.72	114
310.949	128
311.179	104
311.409	88
311.639	103
311.868	115
312.098	105
312.328	99
312.557	113
312.787	129
313.017	101
313.246	109
313.476	90
313.706	110
313.935	103
314.165	122
314.394	120
314.624	109
314.853	115
315.083	105
315.312	92
315.542	92
315.771	91
316.001	102
316.23	94
316.46	95
316.689	106
316.919	97
317.148	107
317.377	108
317.607	117
317.836	111
318.065	92
318.295	96
318.524	86
318.753	97
318.983	94
319.212	101
319.441	121
319.67	130
319.9	103
320.129	108
320.358	112
320.587	108
320.816	107
321.046	123
321.275	114
321.504	93
321.733	111
321.962	108
322.191	104
322.42	114
322.649	121
322.878	114
323.108	128
323.337	139
323.566	153
323.795	171
324.024	216
324.253	425
324.482	863
324.71	1679
324.939	2180
325.168	855
325.397	252
325.626	161
325.855	145
326.084	128
326.313	143
326.542	176
326.77	235
326.999	436
327.228	851
327.457	1527
327.686	1268
327.914	452
328.143	438
328.372	543
328.6	319
328.829	182
329.058	181
329.287	209
329.515	170
329.744	222
329.972	385
330.201	771
330.43	1164
330.658	547
330.887	278
331.115	195
331.344	132
331.572	117
331.801	138
332.03	120
332.258	119
332.486	112
332.715	104
332.943	108
333.172	112
333.4	131
333.629	146
333.857	205
334.085	332
334.314	696
334.542	1384
334.771	1349
334.999	362
335.227	143
335.455	116
335.684	133
335.912	99
336.14	108
336.369	113
336.597	109
336.825	109
337.053	90
337.281	98
337.51	97
337.738	101
337.966	113
338.194	119
338.422	103
338.65	97
338.878	101
339.106	104
339.334	91
339.562	100
339.79	101
340.018	102
340.246	103
340.474	104
340.702	100
340.93	94
341.158	111
341.386	107
341.614	113
341.842	121
342.07	117
342.298	98
342.526	102
342.754	98
342.981	94
343.209	91
343.437	95
343.665	89
343.893	93
344.12	110
344.348	105
344.576	96
344.804	106
345.031	112
345.259	123
345.487	92
345.714	104
345.942	106
346.17	104
346.397	93
346.625	95
346.853	90
347.08	87
347.308	116
347.535	98
347.763	121
347.99	109
348.218	116
348.445	130
348.673	115
348.9	106
349.128	98
349.355	84
349.583	82
349.81	96
350.037	98
350.265	101
350.492	109
350.72	118
350.947	117
351.174	121
351.402	128
351.629	124
351.856	116
352.083	110
352.311	107
352.538	114
352.765	119
352.992	113
353.22	122
353.447	111
353.674	114
353.901	110
354.128	92
354.355	88
354.583	104
354.81	94
355.037	106
355.264	104
355.491	85
355.718	88
355.945	107
356.172	88
356.399	90
356.626	101
356.853	105
357.08	96
357.307	97
357.534	104
357.761	96
357.988	111
358.215	100
358.441	93
358.668	96
358.895	89
359.122	100
359.349	81
359.576	111
359.802	130
360.029	140
360.256	132
360.483	128
360.709	98
360.936	106
361.163	108
361.39	101
361.616	101
361.843	94
362.07	104
362.296	113
362.523	112
362.749	100
362.976	111
363.203	97
363.429	86
363.656	103
363.882	105
364.109	96
364.335	105
364.562	90
364.788	101
365.015	106
365.241	100
365.468	101
365.694	128
365.92	109
366.147	114
366.373	103
366.599	100
366.826	90
367.052	88
367.278	104
367.505	74
367.731	81
367.957	100
368.184	94
368.41	111
368.636	130
368.862	131
369.089	130
369.315	107
369.541	104
369.767	99
369.993	101
370.219	99
370.445	107
370.672	103
370.898	94
371.124	92
371.35	91
371.576	84
371.802	74
372.028	103
372.254	84
372.48	82
372.706	101
372.932	98
373.158	88
373.384	105
373.61	97
373.835	99
374.061	103
374.287	99
374.513	96
374.739	102
374.965	83
375.191	91
375.416	92
375.642	88
375.868	94
376.094	93
376.319	93
376.545	94
376.771	106
376.997	99
377.222	95
377.448	96
377.674	92
377.899	97
378.125	95
378.35	100
378.576	100
378.802	104
379.027	86
379.253	108
379.478	93
379.704	100
379.929	105
380.155	111
380.38	105
380.606	100
380.831	113
381.057	117
381.282	112
381.507	92
381.733	97
381.958	94
382.184	110
382.409	115
382.634	109
382.86	106
383.085	98
383.31	107
383.535	93
383.761	110
383.986	103
384.211	101
384.436	91
384.662	105
384.887	108
385.112	109
385.337	119
385.562	120
385.787	113
386.013	109
386.238	133
386.463	125
386.688	119
386.913	109
387.138	110
387.363	93
387.588	110
387.813	120
388.038	114
388.263	119
388.488	122
388.713	98
388.938	88
389.163	87
389.387	97
389.612	99
389.837	103
390.062	95
390.287	87
390.512	90
390.736	82
390.961	78
391.186	87
391.411	105
391.636	92
391.86	88
392.085	92
392.31	94
392.534	83
392.759	84
392.984	90
393.208	91
393.433	105
393.658	89
393.882	76
394.107	105
394.331	83
394.556	85
394.78	98
395.005	73
395.229	96
395.454	95
395.678	89
395.903	98
396.127	88
396.352	101
396.576	97
396.801	97
397.025	106
397.249	96
397.474	89
397.698	102
397.922	99
398.147	101
398.371	82
398.595	85
398.82	84
399.044	68
399.268	89
399.492	89
399.717	84
399.941	99
400.165	101
400.389	97
400.613	93
400.837	81
401.062	96
401.286	96
401.51	99
401.734	92
401.958	114
402.182	156
402.406	235
402.63	163
402.854	117
403.078	86
403.302	101
403.526	93
403.75	89
403.974	93
404.198	88
404.422	80
404.645	104
404.869	100
405.093	111
405.317	129
405.541	141
405.765	128
405.988	150
406.212	247
406.436	354
406.66	234
406.883	131
407.107	104
407.331	103
407.555	123
407.778	95
408.002	105
408.226	105
408.449	102
408.673	91
408.896	86
409.12	97
409.344	86
409.567	96
409.791	93
410.014	93
410.238	96
410.461	96
410.685	108
410.908	102
411.132	113
411.355	109
411.578	101
411.802	97
412.025	94
412.249	93
412.472	91
412.695	126
412.919	112
413.142	98
413.365	87
413.589	107
413.812	95
414.035	111
414.258	97
414.482	98
414.705	86
414.928	90
415.151	85
415.374	95
415.597	91
415.821	105
416.044	102
416.267	85
416.49	92
416.713	99
416.936	83
417.159	100
417.382	81
417.605	108
417.828	109
418.051	94
418.274	90
418.497	87
418.72	90
418.943	86
419.166	84
419.389	86
419.611	82
419.834	80
420.057	86
420.28	106
420.503	97
420.726	90
420.948	101
421.171	90
421.394	101
421.617	85
421.839	99
422.062	92
422.285	86
422.507	104
422.73	112
422.953	103
423.175	91
423.398	89
423.621	90
423.843	75
424.066	99
424.288	98
424.511	113
424.733	90
424.956	120
425.178	100
425.401	101
425.623	106
425.846	93
426.068	114
426.291	103
426.513	95
426.735	99
426.958	87
427.18	108
427.402	179
427.625	246
427.847	213
428.069	167
428.292	123
428.514	117
428.736	97
428.958	85
429.181	91
429.403	108
429.625	84
429.847	105
430.069	106
430.292	87
430.514	95
430.736	83
430.958	93
431.18	94
431.402	87
431.624	85
431.846	78
432.068	95
432.29	79
432.512	91
432.734	80
432.956	89
433.178	107
433.4	96
433.622	99
433.844	95
434.066	81
434.287	97
434.509	82
434.731	99
434.953	83
435.175	106
435.397	98
435.618	91
435.84	113
436.062	130
436.284	121
436.505	95
436.727	100
436.949	97
437.17	99
437.392	90
437.614	94
437.835	126
438.057	144
438.278	129
438.5	114
438.721	146
438.943	132
439.165	97
439.386	106
439.608	81
439.829	97
440.05	132
440.272	157
440.493	110
440.715	107
440.936	85
441.158	86
441.379	90
441.6	90
441.822	108
442.043	107
442.264	118
442.486	115
442.707	109
442.928	119
443.149	177
443.371	170
443.592	128
443.813	123
444.034	119
444.255	101
444.476	107
444.698	90
444.919	98
445.14	127
445.361	108
445.582	139
445.803	181
446.024	175
446.245	170
446.466	125
446.687	105
446.908	99
447.129	90
447.35	97
447.571	87
447.792	107
448.013	117
448.234	139
448.455	112
448.675	138
448.896	132
449.117	117
449.338	124
449.559	140
449.779	133
450	95
450.221	74
450.442	108
450.662	111
450.883	123
451.104	145
451.324	111
451.545	103
451.766	75
451.986	99
452.207	97
452.428	93
452.648	112
452.869	147
453.089	140
453.31	147
453.53	115
453.751	95
453.971	107
454.192	135
454.412	102
454.633	96
454.853	85
455.073	87
455.294	102
455.514	107
455.734	95
455.955	90
456.175	89
456.395	79
456.616	97
456.836	95
457.056	86
457.276	92
457.497	87
457.717	101
457.937	100
458.157	103
458.377	107
458.598	137
458.818	211
459.038	235
459.258	132
459.478	107
459.698	89
459.918	90
460.138	79
460.358	86
460.578	91
460.798	103
461.018	88
461.238	95
461.458	95
461.678	86
461.898	92
462.118	94
462.338	98
462.558	89
462.777	82
462.997	99
463.217	124
463.437	111
463.657	85
463.876	87
464.096	105
464.316	105
464.536	92
464.755	108
464.975	134
465.195	250
465.414	256
465.634	114
465.854	92
466.073	92
466.293	103
466.512	96
466.732	101
466.951	72
467.171	90
467.391	102
467.61	151
467.829	185
468.049	445
468.268	695
468.488	192
468.707	116
468.927	91
469.146	81
469.365	99
469.585	99
469.804	100
470.023	114
470.243	113
470.462	123
470.681	138
470.901	113
471.12	97
471.339	109
471.558	93
471.777	144
471.997	254
472.216	861
472.435	1968
472.654	487
472.873	137
473.092	105
473.311	99
473.53	101
473.749	104
473.968	106
474.187	128
474.406	112
474.625	105
474.844	79
475.063	99
475.282	96
475.501	90
475.72	87
475.939	92
476.158	99
476.377	94
476.596	103
476.814	101
477.033	99
477.252	102
477.471	93
477.69	100
477.908	95
478.127	77
478.346	95
478.564	117
478.783	111
479.002	93
479.22	119
479.439	107
479.658	131
479.876	122
480.095	120
480.313	129
480.532	146
480.751	231
480.969	777
481.188	3353
481.406	1966
481.624	318
481.843	137
482.061	108
482.28	104
482.498	90
482.717	83
482.935	91
483.153	94
483.372	90
483.59	108
483.808	111
484.027	105
484.245	110
484.463	99
484.681	111
484.9	100
485.118	104
485.336	99
485.554	105
485.772	86
485.99	121
486.209	110
486.427	112
486.645	125
486.863	134
487.081	117
487.299	105
487.517	105
487.735	92
487.953	92
488.171	98
488.389	85
488.607	108
488.825	89
489.043	100
489.261	108
489.479	98
489.696	93
489.914	102
490.132	96
490.35	83
490.568	82
490.786	84
491.003	105
491.221	91
491.439	108
491.657	95
491.874	109
492.092	103
492.31	88
492.527	112
492.745	92
492.963	99
493.18	101
493.398	92
493.615	99
493.833	98
494.05	98
494.268	91
494.485	92
494.703	88
494.92	84
495.138	88
495.355	88
495.573	109
495.79	108
496.008	100
496.225	91
496.442	95
496.66	99
496.877	90
497.094	92
497.312	92
497.529	96
497.746	104
497.963	83
498.181	96
498.398	92
498.615	118
498.832	113
499.049	97
499.267	89
499.484	106
499.701	98
499.918	103
500.135	90
500.352	96
500.569	97
500.786	105
501.003	107
501.22	91
501.437	87
501.654	93
501.871	142
502.088	98
502.305	114
502.522	90
502.739	94
502.956	94
503.172	93
503.389	108
503.606	121
503.823	110
504.04	105
504.256	112
504.473	83
504.69	74
504.907	101
505.123	103
505.34	79
505.557	79
505.773	101
505.99	97
506.207	104
506.423	99
506.64	100
506.856	92
507.073	93
507.289	96
507.506	115
507.722	146
507.939	144
508.155	100
508.372	87
508.588	108
508.805	89
509.021	93
509.238	106
509.454	100
509.67	122
509.887	121
510.103	157
510.319	269
510.536	1082
510.752	3717
510.968	977
511.184	202
511.401	133
511.617	127
511.833	119
512.049	91
512.265	92
512.481	81
512.698	101
512.914	97
513.13	96
513.346	86
513.562	101
513.778	93
513.994	115
514.21	131
514.426	165
514.642	210
514.858	169
515.074	243
515.29	787
515.506	2923
515.721	1004
515.937	230
516.153	157
516.369	116
516.585	107
516.801	104
517.016	105
517.232	112
517.448	105
517.664	100
517.879	111
518.095	82
518.311	101
518.527	121
518.742	102
518.958	92
519.173	95
519.389	96
519.605	93
519.82	94
520.036	103
520.251	157
520.467	132
520.682	135
520.898	127
521.113	120
521.329	189
521.544	347
521.76	992
521.975	4892
522.19	2899
522.406	568
522.621	161
522.836	123
523.052	106
523.267	107
523.482	101
523.698	117
523.913	136
524.128	124
524.343	105
524.559	83
524.774	93
524.989	92
525.204	129
525.419	121
525.634	94
525.849	93
526.064	99
526.28	104
526.495	97
526.71	99
526.925	90
527.14	104
527.355	109
527.57	93
527.785	86
527.999	86
528.214	89
528.429	95
528.644	100
528.859	86
529.074	96
529.289	152
529.503	297
529.718	124
529.933	97
530.148	73
530.363	83
530.577	97
530.792	92
531.007	92
531.221	102
531.436	92
531.651	108
531.865	90
532.08	110
532.295	98
532.509	89
532.724	88
532.938	92
533.153	100
533.367	96
533.582	109
533.796	99
534.011	96
534.225	92
534.44	101
534.654	91
534.868	92
535.083	90
535.297	103
535.511	114
535.726	114
535.94	116
536.154	98
536.369	71
536.583	82
536.797	101
537.011	91
537.225	92
537.44	106
537.654	113
537.868	97
538.082	99
538.296	86
538.51	83
538.724	95
538.938	106
539.153	97
539.367	119
539.581	88
539.795	103
540.009	94
540.222	85
540.436	94
540.65	98
540.864	87
541.078	101
541.292	102
541.506	90
541.72	88
541.934	89
542.147	93
542.361	89
542.575	81
542.789	97
543.002	96
543.216	93
543.43	105
543.644	108
543.857	79
544.071	97
544.285	91
544.498	93
544.712	96
544.925	100
545.139	99
545.352	87
545.566	91
545.779	82
545.993	95
546.206	105
546.42	86
546.633	116
546.847	108
547.06	97
547.274	91
547.487	92
547.7	83
547.914	84
548.127	92
548.34	89
548.554	90
548.767	98
548.98	83
549.193	87
549.407	82
549.62	91
549.833	102
550.046	90
550.259	100
550.473	96
550.686	109
550.899	86
551.112	102
551.325	98
551.538	112
551.751	97
551.964	88
552.177	89
552.39	91
552.603	101
552.816	90
553.029	108
553.242	99
553.455	105
553.667	125
553.88	134
554.093	95
554.306	103
554.519	107
554.732	104
554.944	79
555.157	93
555.37	90
555.583	89
555.795	109
556.008	99
556.221	93
556.433	98
556.646	95
556.859	88
557.071	90
557.284	88
557.496	95
557.709	93
557.921	95
558.134	87
558.346	92
558.559	93
558.771	86
558.984	98
559.196	94
559.409	112
559.621	92
559.833	89
560.046	103
560.258	116
560.47	117
560.683	100
560.895	88
561.107	90
561.32	98
561.532	101
561.744	105
561.956	92
562.168	94
562.381	96
562.593	95
562.805	95
563.017	84
563.229	107
563.441	101
563.653	96
563.865	81
564.077	84
564.289	85
564.501	83
564.713	96
564.925	104
565.137	112
565.349	102
565.561	96
565.773	99
565.985	94
566.197	80
566.408	82
566.62	82
566.832	95
567.044	96
567.255	86
567.467	90
567.679	89
567.891	81
568.102	92
568.314	97
568.526	84
568.737	93
568.949	92
569.161	101
569.372	99
569.584	105
569.795	102
570.007	126
570.218	345
570.43	171
570.641	103
570.853	93
571.064	96
571.276	87
571.487	82
571.698	96
571.91	91
572.121	91
572.333	99
572.544	91
572.755	83
572.966	83
573.178	81
573.389	93
573.6	74
573.811	88
574.023	89
574.234	90
574.445	104
574.656	92
574.867	96
575.078	79
575.289	83
575.501	82
575.712	85
575.923	108
576.134	90
576.345	90
576.556	100
576.767	98
576.978	113
577.188	91
577.399	93
577.61	109
577.821	121
578.032	140
578.243	377
