Data from Circ_1987_H10_HRD10591_00045.txt Node
Date: Wed Jan 03 12:10:41 EST 2024
User: Yrep
Spectrometer: HR+D1059
Trigger mode: 1
Integration Time (sec): 1.000000E-1
Scans to average: 1
Electric dark correction enabled: true
Nonlinearity correction enabled: false
Boxcar width: 0
XAxis mode: Wavelengths
Number of Pixels in Spectrum: 2048
>>>>>Begin Spectral Data<<<<<
223.165	-20.75
223.4	-20.75
223.635	-20.75
223.869	-21.75
224.104	-14.75
224.338	-26.75
224.573	-11.75
224.808	-7.75
225.042	0.25
225.277	0.25
225.511	-4.75
225.746	2.25
225.98	20.25
226.215	-3.75
226.449	19.25
226.683	14.25
226.918	26.25
227.152	29.25
227.387	33.25
227.621	42.25
227.856	54.25
228.09	43.25
228.324	43.25
228.559	57.25
228.793	58.25
229.027	58.25
229.262	76.25
229.496	82.25
229.73	79.25
229.964	88.25
230.199	73.25
230.433	83.25
230.667	72.25
230.901	81.25
231.136	73.25
231.37	75.25
231.604	76.25
231.838	82.25
232.072	83.25
232.306	87.25
232.541	76.25
232.775	78.25
233.009	89.25
233.243	91.25
233.477	88.25
233.711	71.25
233.945	84.25
234.179	66.25
234.413	87.25
234.647	78.25
234.881	82.25
235.115	73.25
235.349	72.25
235.583	86.25
235.817	79.25
236.051	85.25
236.285	77.25
236.519	74.25
236.753	77.25
236.987	75.25
237.221	98.25
237.455	103.25
237.689	86.25
237.922	84.25
238.156	82.25
238.39	87.25
238.624	79.25
238.858	90.25
239.091	99.25
239.325	76.25
239.559	79.25
239.793	84.25
240.027	93.25
240.26	84.25
240.494	83.25
240.728	81.25
240.961	71.25
241.195	85.25
241.429	79.25
241.662	82.25
241.896	80.25
242.13	84.25
242.363	75.25
242.597	69.25
242.83	83.25
243.064	80.25
243.298	91.25
243.531	86.25
243.765	82.25
243.998	60.25
244.232	73.25
244.465	76.25
244.699	79.25
244.932	86.25
245.166	78.25
245.399	81.25
245.633	74.25
245.866	78.25
246.099	75.25
246.333	82.25
246.566	70.25
246.8	81.25
247.033	60.25
247.266	97.25
247.5	90.25
247.733	86.25
247.966	76.25
248.2	70.25
248.433	77.25
248.666	91.25
248.899	91.25
249.133	103.25
249.366	112.25
249.599	108.25
249.832	87.25
250.066	90.25
250.299	83.25
250.532	87.25
250.765	93.25
250.998	93.25
251.231	71.25
251.465	90.25
251.698	82.25
251.931	89.25
252.164	88.25
252.397	84.25
252.63	81.25
252.863	79.25
253.096	97.25
253.329	70.25
253.562	82.25
253.795	85.25
254.028	83.25
254.261	71.25
254.494	75.25
254.727	82.25
254.96	96.25
255.193	89.25
255.426	83.25
255.659	66.25
255.892	93.25
256.124	86.25
256.357	93.25
256.59	91.25
256.823	93.25
257.056	88.25
257.289	74.25
257.521	92.25
257.754	83.25
257.987	93.25
258.22	93.25
258.452	106.25
258.685	109.25
258.918	90.25
259.151	79.25
259.383	72.25
259.616	81.25
259.849	87.25
260.081	102.25
260.314	93.25
260.547	101.25
260.779	88.25
261.012	90.25
261.244	104.25
261.477	117.25
261.71	115.25
261.942	135.25
262.175	151.25
262.407	105.25
262.64	82.25
262.872	82.25
263.105	74.25
263.337	97.25
263.57	93.25
263.802	83.25
264.035	91.25
264.267	87.25
264.499	89.25
264.732	75.25
264.964	91.25
265.197	91.25
265.429	67.25
265.661	89.25
265.894	88.25
266.126	85.25
266.358	90.25
266.591	87.25
266.823	81.25
267.055	93.25
267.287	81.25
267.52	95.25
267.752	86.25
267.984	86.25
268.216	68.25
268.448	90.25
268.681	97.25
268.913	92.25
269.145	103.25
269.377	92.25
269.609	82.25
269.841	99.25
270.073	82.25
270.306	87.25
270.538	92.25
270.77	91.25
271.002	90.25
271.234	84.25
271.466	97.25
271.698	82.25
271.93	96.25
272.162	91.25
272.394	87.25
272.626	79.25
272.858	102.25
273.09	91.25
273.322	87.25
273.553	97.25
273.785	78.25
274.017	85.25
274.249	87.25
274.481	91.25
274.713	92.25
274.945	88.25
275.176	96.25
275.408	111.25
275.64	105.25
275.872	137.25
276.104	100.25
276.335	100.25
276.567	116.25
276.799	147.25
277.031	158.25
277.262	185.25
277.494	130.25
277.726	98.25
277.957	94.25
278.189	102.25
278.421	100.25
278.652	86.25
278.884	91.25
279.115	87.25
279.347	90.25
279.579	90.25
279.81	130.25
280.042	174.25
280.273	218.25
280.505	166.25
280.736	89.25
280.968	99.25
281.199	103.25
281.431	99.25
281.662	96.25
281.894	93.25
282.125	107.25
282.356	122.25
282.588	175.25
282.819	139.25
283.051	83.25
283.282	86.25
283.513	100.25
283.745	83.25
283.976	97.25
284.207	78.25
284.439	84.25
284.67	92.25
284.901	88.25
285.132	84.25
285.364	92.25
285.595	89.25
285.826	89.25
286.057	94.25
286.288	88.25
286.52	95.25
286.751	92.25
286.982	100.25
287.213	78.25
287.444	91.25
287.675	90.25
287.906	100.25
288.138	87.25
288.369	106.25
288.6	96.25
288.831	97.25
289.062	87.25
289.293	97.25
289.524	90.25
289.755	88.25
289.986	91.25
290.217	79.25
290.448	90.25
290.679	93.25
290.91	98.25
291.141	91.25
291.371	90.25
291.602	92.25
291.833	91.25
292.064	84.25
292.295	89.25
292.526	99.25
292.757	90.25
292.987	89.25
293.218	74.25
293.449	79.25
293.68	88.25
293.91	98.25
294.141	100.25
294.372	90.25
294.603	86.25
294.833	91.25
295.064	106.25
295.295	104.25
295.525	86.25
295.756	113.25
295.987	131.25
296.217	162.25
296.448	139.25
296.679	84.25
296.909	87.25
297.14	86.25
297.37	98.25
297.601	83.25
297.831	100.25
298.062	94.25
298.292	91.25
298.523	95.25
298.753	99.25
298.984	83.25
299.214	88.25
299.445	97.25
299.675	99.25
299.905	101.25
300.136	95.25
300.366	97.25
300.597	92.25
300.827	90.25
301.057	110.25
301.288	122.25
301.518	99.25
301.748	106.25
301.979	116.25
302.209	108.25
302.439	104.25
302.669	102.25
302.9	91.25
303.13	106.25
303.36	111.25
303.59	111.25
303.82	132.25
304.051	102.25
304.281	95.25
304.511	90.25
304.741	107.25
304.971	90.25
305.201	96.25
305.431	88.25
305.661	89.25
305.891	92.25
306.121	104.25
306.352	100.25
306.582	116.25
306.812	116.25
307.042	114.25
307.272	134.25
307.502	160.25
307.731	166.25
307.961	105.25
308.191	97.25
308.421	96.25
308.651	105.25
308.881	104.25
309.111	89.25
309.341	99.25
309.571	112.25
309.8	108.25
310.03	104.25
310.26	100.25
310.49	112.25
310.72	114.25
310.949	99.25
311.179	114.25
311.409	100.25
311.639	94.25
311.868	99.25
312.098	97.25
312.328	111.25
312.557	128.25
312.787	122.25
313.017	119.25
313.246	94.25
313.476	104.25
313.706	100.25
313.935	103.25
314.165	98.25
314.394	114.25
314.624	118.25
314.853	110.25
315.083	104.25
315.312	98.25
315.542	110.25
315.771	88.25
316.001	118.25
316.23	88.25
316.46	106.25
316.689	82.25
316.919	85.25
317.148	113.25
317.377	103.25
317.607	87.25
317.836	113.25
318.065	113.25
318.295	99.25
318.524	101.25
318.753	105.25
318.983	98.25
319.212	94.25
319.441	117.25
319.67	119.25
319.9	95.25
320.129	101.25
320.358	100.25
320.587	98.25
320.816	110.25
321.046	114.25
321.275	88.25
321.504	91.25
321.733	103.25
321.962	90.25
322.191	108.25
322.42	125.25
322.649	122.25
322.878	121.25
323.108	129.25
323.337	136.25
323.566	158.25
323.795	188.25
324.024	225.25
324.253	454.25
324.482	986.25
324.71	1962.25
324.939	2682.25
325.168	1002.25
325.397	270.25
325.626	177.25
325.855	134.25
326.084	149.25
326.313	136.25
326.542	179.25
326.77	242.25
326.999	500.25
327.228	1003.25
327.457	1909.25
327.686	1554.25
327.914	514.25
328.143	484.25
328.372	589.25
328.6	347.25
328.829	197.25
329.058	192.25
329.287	181.25
329.515	172.25
329.744	225.25
329.972	414.25
330.201	830.25
330.43	1276.25
330.658	585.25
330.887	278.25
331.115	184.25
331.344	128.25
331.572	121.25
331.801	131.25
332.03	128.25
332.258	118.25
332.486	114.25
332.715	117.25
332.943	120.25
333.172	126.25
333.4	136.25
333.629	176.25
333.857	206.25
334.085	381.25
334.314	802.25
334.542	1548.25
334.771	1479.25
334.999	405.25
335.227	181.25
335.455	125.25
335.684	114.25
335.912	113.25
336.14	108.25
336.369	98.25
336.597	106.25
336.825	106.25
337.053	97.25
337.281	90.25
337.51	95.25
337.738	85.25
337.966	102.25
338.194	101.25
338.422	107.25
338.65	103.25
338.878	88.25
339.106	96.25
339.334	99.25
339.562	102.25
339.79	101.25
340.018	83.25
340.246	105.25
340.474	94.25
340.702	97.25
340.93	100.25
341.158	88.25
341.386	96.25
341.614	102.25
341.842	103.25
342.07	101.25
342.298	97.25
342.526	107.25
342.754	102.25
342.981	92.25
343.209	76.25
343.437	104.25
343.665	106.25
343.893	81.25
344.12	94.25
344.348	100.25
344.576	103.25
344.804	114.25
345.031	106.25
345.259	107.25
345.487	102.25
345.714	91.25
345.942	97.25
346.17	104.25
346.397	108.25
346.625	105.25
346.853	95.25
347.08	100.25
347.308	110.25
347.535	98.25
347.763	104.25
347.99	96.25
348.218	102.25
348.445	124.25
348.673	100.25
348.9	99.25
349.128	104.25
349.355	92.25
349.583	85.25
349.81	108.25
350.037	97.25
350.265	89.25
350.492	118.25
350.72	117.25
350.947	115.25
351.174	111.25
351.402	115.25
351.629	108.25
351.856	94.25
352.083	116.25
352.311	123.25
352.538	123.25
352.765	134.25
352.992	110.25
353.22	123.25
353.447	132.25
353.674	115.25
353.901	84.25
354.128	93.25
354.355	100.25
354.583	84.25
354.81	99.25
355.037	106.25
355.264	98.25
355.491	87.25
355.718	102.25
355.945	82.25
356.172	109.25
356.399	90.25
356.626	101.25
356.853	112.25
357.08	97.25
357.307	88.25
357.534	90.25
357.761	88.25
357.988	107.25
358.215	85.25
358.441	99.25
358.668	97.25
358.895	86.25
359.122	88.25
359.349	88.25
359.576	118.25
359.802	131.25
360.029	142.25
360.256	140.25
360.483	123.25
360.709	89.25
360.936	104.25
361.163	119.25
361.39	96.25
361.616	94.25
361.843	91.25
362.07	118.25
362.296	102.25
362.523	118.25
362.749	101.25
362.976	90.25
363.203	100.25
363.429	92.25
363.656	100.25
363.882	99.25
364.109	95.25
364.335	88.25
364.562	99.25
364.788	101.25
365.015	102.25
365.241	103.25
365.468	131.25
365.694	130.25
365.92	107.25
366.147	102.25
366.373	99.25
366.599	93.25
366.826	98.25
367.052	96.25
367.278	97.25
367.505	83.25
367.731	86.25
367.957	93.25
368.184	106.25
368.41	103.25
368.636	116.25
368.862	126.25
369.089	122.25
369.315	86.25
369.541	97.25
369.767	102.25
369.993	94.25
370.219	98.25
370.445	99.25
370.672	90.25
370.898	95.25
371.124	86.25
371.35	87.25
371.576	92.25
371.802	75.25
372.028	91.25
372.254	96.25
372.48	83.25
372.706	86.25
372.932	107.25
373.158	91.25
373.384	89.25
373.61	90.25
373.835	91.25
374.061	97.25
374.287	107.25
374.513	90.25
374.739	107.25
374.965	96.25
375.191	88.25
375.416	88.25
375.642	75.25
375.868	102.25
376.094	96.25
376.319	97.25
376.545	93.25
376.771	91.25
376.997	74.25
377.222	102.25
377.448	102.25
377.674	102.25
377.899	92.25
378.125	87.25
378.35	107.25
378.576	93.25
378.802	91.25
379.027	86.25
379.253	95.25
379.478	98.25
379.704	79.25
379.929	102.25
380.155	91.25
380.38	101.25
380.606	90.25
380.831	92.25
381.057	102.25
381.282	84.25
381.507	79.25
381.733	86.25
381.958	103.25
382.184	103.25
382.409	98.25
382.634	101.25
382.86	96.25
383.085	101.25
383.31	100.25
383.535	82.25
383.761	101.25
383.986	95.25
384.211	92.25
384.436	98.25
384.662	91.25
384.887	104.25
385.112	110.25
385.337	113.25
385.562	103.25
385.787	105.25
386.013	113.25
386.238	117.25
386.463	103.25
386.688	106.25
386.913	108.25
387.138	97.25
387.363	108.25
387.588	93.25
387.813	96.25
388.038	106.25
388.263	130.25
388.488	113.25
388.713	94.25
388.938	105.25
389.163	89.25
389.387	88.25
389.612	106.25
389.837	88.25
390.062	89.25
390.287	90.25
390.512	95.25
390.736	95.25
390.961	87.25
391.186	78.25
391.411	95.25
391.636	82.25
391.86	85.25
392.085	90.25
392.31	91.25
392.534	92.25
392.759	89.25
392.984	86.25
393.208	96.25
393.433	105.25
393.658	108.25
393.882	92.25
394.107	89.25
394.331	83.25
394.556	93.25
394.78	90.25
395.005	94.25
395.229	80.25
395.454	76.25
395.678	88.25
395.903	84.25
396.127	88.25
396.352	86.25
396.576	104.25
396.801	95.25
397.025	83.25
397.249	98.25
397.474	99.25
397.698	82.25
397.922	87.25
398.147	92.25
398.371	86.25
398.595	87.25
398.82	80.25
399.044	96.25
399.268	105.25
399.492	90.25
399.717	103.25
399.941	110.25
400.165	99.25
400.389	104.25
400.613	75.25
400.837	77.25
401.062	90.25
401.286	92.25
401.51	92.25
401.734	108.25
401.958	101.25
402.182	139.25
402.406	202.25
402.63	163.25
402.854	90.25
403.078	94.25
403.302	88.25
403.526	82.25
403.75	87.25
403.974	110.25
404.198	94.25
404.422	117.25
404.645	99.25
404.869	103.25
405.093	124.25
405.317	144.25
405.541	130.25
405.765	110.25
405.988	162.25
406.212	212.25
406.436	315.25
406.66	206.25
406.883	114.25
407.107	111.25
407.331	101.25
407.555	121.25
407.778	115.25
408.002	102.25
408.226	103.25
408.449	80.25
408.673	91.25
408.896	91.25
409.12	90.25
409.344	88.25
409.567	96.25
409.791	85.25
410.014	92.25
410.238	95.25
410.461	103.25
410.685	92.25
410.908	90.25
411.132	97.25
411.355	95.25
411.578	98.25
411.802	91.25
412.025	80.25
412.249	88.25
412.472	114.25
412.695	123.25
412.919	94.25
413.142	91.25
413.365	88.25
413.589	97.25
413.812	87.25
414.035	92.25
414.258	86.25
414.482	80.25
414.705	90.25
414.928	94.25
415.151	87.25
415.374	87.25
415.597	103.25
415.821	93.25
416.044	78.25
416.267	100.25
416.49	95.25
416.713	90.25
416.936	82.25
417.159	84.25
417.382	96.25
417.605	96.25
417.828	114.25
418.051	114.25
418.274	86.25
418.497	102.25
418.72	95.25
418.943	81.25
419.166	92.25
419.389	87.25
419.611	88.25
419.834	94.25
420.057	103.25
420.28	92.25
420.503	83.25
420.726	92.25
420.948	106.25
421.171	114.25
421.394	105.25
421.617	84.25
421.839	75.25
422.062	100.25
422.285	91.25
422.507	95.25
422.73	117.25
422.953	84.25
423.175	100.25
423.398	94.25
423.621	103.25
423.843	108.25
424.066	79.25
424.288	94.25
424.511	92.25
424.733	99.25
424.956	123.25
425.178	127.25
425.401	104.25
425.623	99.25
425.846	108.25
426.068	104.25
426.291	103.25
426.513	96.25
426.735	98.25
426.958	98.25
427.18	119.25
427.402	176.25
427.625	265.25
427.847	241.25
428.069	211.25
428.292	116.25
428.514	95.25
428.736	98.25
428.958	74.25
429.181	92.25
429.403	94.25
429.625	106.25
429.847	100.25
430.069	109.25
430.292	96.25
430.514	88.25
430.736	84.25
430.958	93.25
431.18	87.25
431.402	90.25
431.624	87.25
431.846	93.25
432.068	88.25
432.29	88.25
432.512	83.25
432.734	100.25
432.956	96.25
433.178	98.25
433.4	94.25
433.622	98.25
433.844	92.25
434.066	102.25
434.287	91.25
434.509	91.25
434.731	78.25
434.953	90.25
435.175	90.25
435.397	97.25
435.618	114.25
435.84	108.25
436.062	140.25
436.284	128.25
436.505	105.25
436.727	93.25
436.949	97.25
437.17	95.25
437.392	109.25
437.614	100.25
437.835	137.25
438.057	148.25
438.278	137.25
438.5	110.25
438.721	149.25
438.943	114.25
439.165	88.25
439.386	95.25
439.608	97.25
439.829	122.25
440.05	148.25
440.272	180.25
440.493	102.25
440.715	90.25
440.936	82.25
441.158	98.25
441.379	91.25
441.6	95.25
441.822	102.25
442.043	100.25
442.264	90.25
442.486	104.25
442.707	94.25
442.928	122.25
443.149	180.25
443.371	180.25
443.592	138.25
443.813	131.25
444.034	132.25
444.255	101.25
444.476	88.25
444.698	96.25
444.919	87.25
445.14	140.25
445.361	130.25
445.582	126.25
445.803	191.25
446.024	180.25
446.245	158.25
446.466	126.25
446.687	84.25
446.908	98.25
447.129	81.25
447.35	95.25
447.571	89.25
447.792	104.25
448.013	106.25
448.234	129.25
448.455	98.25
448.675	135.25
448.896	136.25
449.117	106.25
449.338	107.25
449.559	140.25
449.779	152.25
450	102.25
450.221	83.25
450.442	81.25
450.662	104.25
450.883	138.25
451.104	127.25
451.324	116.25
451.545	94.25
451.766	91.25
451.986	90.25
452.207	91.25
452.428	111.25
452.648	105.25
452.869	118.25
453.089	126.25
453.31	138.25
453.53	108.25
453.751	92.25
453.971	107.25
454.192	132.25
454.412	110.25
454.633	80.25
454.853	91.25
455.073	83.25
455.294	97.25
455.514	100.25
455.734	96.25
455.955	78.25
456.175	85.25
456.395	98.25
456.616	97.25
456.836	81.25
457.056	90.25
457.276	83.25
457.497	82.25
457.717	83.25
457.937	98.25
458.157	74.25
458.377	98.25
458.598	116.25
458.818	198.25
459.038	206.25
459.258	158.25
459.478	99.25
459.698	94.25
459.918	86.25
460.138	79.25
460.358	90.25
460.578	82.25
460.798	85.25
461.018	91.25
461.238	92.25
461.458	85.25
461.678	75.25
461.898	91.25
462.118	87.25
462.338	87.25
462.558	90.25
462.777	96.25
462.997	101.25
463.217	94.25
463.437	85.25
463.657	81.25
463.876	86.25
464.096	94.25
464.316	97.25
464.536	106.25
464.755	93.25
464.975	118.25
465.195	241.25
465.414	224.25
465.634	124.25
465.854	91.25
466.073	85.25
466.293	92.25
466.512	112.25
466.732	89.25
466.951	101.25
467.171	99.25
467.391	111.25
467.61	130.25
467.829	203.25
468.049	483.25
468.268	728.25
468.488	207.25
468.707	122.25
468.927	108.25
469.146	88.25
469.365	82.25
469.585	95.25
469.804	121.25
470.023	130.25
470.243	114.25
470.462	128.25
470.681	144.25
470.901	96.25
471.12	87.25
471.339	96.25
471.558	131.25
471.777	124.25
471.997	266.25
472.216	900.25
472.435	2120.25
472.654	529.25
472.873	162.25
473.092	94.25
473.311	99.25
473.53	98.25
473.749	104.25
473.968	128.25
474.187	128.25
474.406	108.25
474.625	80.25
474.844	88.25
475.063	76.25
475.282	76.25
475.501	91.25
475.72	100.25
475.939	87.25
476.158	86.25
476.377	96.25
476.596	98.25
476.814	94.25
477.033	109.25
477.252	93.25
477.471	108.25
477.69	89.25
477.908	97.25
478.127	94.25
478.346	107.25
478.564	101.25
478.783	114.25
479.002	96.25
479.22	95.25
479.439	116.25
479.658	137.25
479.876	136.25
480.095	103.25
480.313	131.25
480.532	156.25
480.751	249.25
480.969	863.25
481.188	3688.25
481.406	2122.25
481.624	330.25
481.843	130.25
482.061	99.25
482.28	108.25
482.498	101.25
482.717	94.25
482.935	99.25
483.153	84.25
483.372	98.25
483.59	94.25
483.808	88.25
484.027	96.25
484.245	103.25
484.463	103.25
484.681	103.25
484.9	103.25
485.118	110.25
485.336	93.25
485.554	100.25
485.772	106.25
485.99	114.25
486.209	97.25
486.427	101.25
486.645	124.25
486.863	130.25
487.081	110.25
487.299	107.25
487.517	106.25
487.735	72.25
487.953	94.25
488.171	103.25
488.389	103.25
488.607	116.25
488.825	86.25
489.043	99.25
489.261	102.25
489.479	72.25
489.696	64.25
489.914	91.25
490.132	76.25
490.35	95.25
490.568	82.25
490.786	91.25
491.003	92.25
491.221	98.25
491.439	119.25
491.657	91.25
491.874	102.25
492.092	68.25
492.31	97.25
492.527	87.25
492.745	99.25
492.963	90.25
493.18	98.25
493.398	96.25
493.615	101.25
493.833	98.25
494.05	91.25
494.268	80.25
494.485	95.25
494.703	106.25
494.92	94.25
495.138	75.25
495.355	90.25
495.573	94.25
495.79	87.25
496.008	87.25
496.225	106.25
496.442	90.25
496.66	99.25
496.877	80.25
497.094	102.25
497.312	105.25
497.529	109.25
497.746	87.25
497.963	84.25
498.181	86.25
498.398	99.25
498.615	108.25
498.832	111.25
499.049	95.25
499.267	89.25
499.484	98.25
499.701	88.25
499.918	87.25
500.135	86.25
500.352	79.25
500.569	91.25
500.786	107.25
501.003	115.25
501.22	103.25
501.437	84.25
501.654	94.25
501.871	132.25
502.088	99.25
502.305	99.25
502.522	96.25
502.739	94.25
502.956	91.25
503.172	109.25
503.389	104.25
503.606	125.25
503.823	98.25
504.04	110.25
504.256	80.25
504.473	84.25
504.69	83.25
504.907	101.25
505.123	96.25
505.34	94.25
505.557	88.25
505.773	84.25
505.99	91.25
506.207	100.25
506.423	87.25
506.64	94.25
506.856	88.25
507.073	96.25
507.289	105.25
507.506	111.25
507.722	134.25
507.939	141.25
508.155	92.25
508.372	91.25
508.588	113.25
508.805	96.25
509.021	102.25
509.238	100.25
509.454	91.25
509.67	104.25
509.887	121.25
510.103	140.25
510.319	247.25
510.536	954.25
510.752	3299.25
510.968	875.25
511.184	184.25
511.401	137.25
511.617	107.25
511.833	99.25
512.049	103.25
512.265	103.25
512.481	85.25
