Data from Circ_1987_H10_HRD10591_00011.txt Node
Date: Wed Jan 03 12:10:35 EST 2024
User: Yrep
Spectrometer: HR+D1059
Trigger mode: 1
Integration Time (sec): 1.000000E-1
Scans to average: 1
Electric dark correction enabled: true
Nonlinearity correction enabled: false
Boxcar width: 0
XAxis mode: Wavelengths
Number of Pixels in Spectrum: 2048
>>>>>Begin Spectral Data<<<<<
223.165	-18.81
223.4	-18.81
223.635	-18.81
223.869	-17.81
224.104	-18.81
224.338	-27.81
224.573	-25.81
224.808	-7.81
225.042	-18.81
225.277	5.19
225.511	8.19
225.746	3.19
225.98	17.19
226.215	7.19
226.449	20.19
226.683	8.19
226.918	38.19
227.152	28.19
227.387	40.19
227.621	40.19
227.856	53.19
228.09	49.19
228.324	60.19
228.559	44.19
228.793	58.19
229.027	72.19
229.262	66.19
229.496	72.19
229.73	112.19
229.964	82.19
230.199	73.19
230.433	86.19
230.667	82.19
230.901	71.19
231.136	73.19
231.37	81.19
231.604	82.19
231.838	91.19
232.072	74.19
232.306	90.19
232.541	82.19
232.775	86.19
233.009	79.19
233.243	91.19
233.477	75.19
233.711	88.19
233.945	90.19
234.179	73.19
234.413	73.19
234.647	81.19
234.881	74.19
235.115	75.19
235.349	82.19
235.583	73.19
235.817	76.19
236.051	73.19
236.285	71.19
236.519	82.19
236.753	84.19
236.987	95.19
237.221	80.19
237.455	99.19
237.689	82.19
237.922	78.19
238.156	86.19
238.39	80.19
238.624	84.19
238.858	83.19
239.091	72.19
239.325	80.19
239.559	72.19
239.793	84.19
240.027	72.19
240.26	78.19
240.494	78.19
240.728	75.19
240.961	84.19
241.195	92.19
241.429	64.19
241.662	84.19
241.896	71.19
242.13	83.19
242.363	88.19
242.597	67.19
242.83	70.19
243.064	68.19
243.298	70.19
243.531	64.19
243.765	72.19
243.998	90.19
244.232	92.19
244.465	81.19
244.699	81.19
244.932	78.19
245.166	67.19
245.399	82.19
245.633	82.19
245.866	61.19
246.099	74.19
246.333	82.19
246.566	78.19
246.8	73.19
247.033	72.19
247.266	84.19
247.5	78.19
247.733	78.19
247.966	73.19
248.2	84.19
248.433	75.19
248.666	84.19
248.899	88.19
249.133	87.19
249.366	102.19
249.599	108.19
249.832	73.19
250.066	81.19
250.299	90.19
250.532	85.19
250.765	93.19
250.998	86.19
251.231	82.19
251.465	89.19
251.698	93.19
251.931	71.19
252.164	102.19
252.397	89.19
252.63	80.19
252.863	83.19
253.096	89.19
253.329	95.19
253.562	76.19
253.795	83.19
254.028	96.19
254.261	78.19
254.494	78.19
254.727	100.19
254.96	96.19
255.193	68.19
255.426	96.19
255.659	94.19
255.892	84.19
256.124	105.19
256.357	87.19
256.59	87.19
256.823	91.19
257.056	92.19
257.289	84.19
257.521	95.19
257.754	75.19
257.987	92.19
258.22	93.19
258.452	88.19
258.685	83.19
258.918	89.19
259.151	96.19
259.383	83.19
259.616	88.19
259.849	90.19
260.081	86.19
260.314	71.19
260.547	89.19
260.779	100.19
261.012	102.19
261.244	85.19
261.477	86.19
261.71	87.19
261.942	131.19
262.175	153.19
262.407	106.19
262.64	81.19
262.872	91.19
263.105	86.19
263.337	84.19
263.57	88.19
263.802	78.19
264.035	82.19
264.267	89.19
264.499	84.19
264.732	91.19
264.964	88.19
265.197	87.19
265.429	94.19
265.661	88.19
265.894	66.19
266.126	74.19
266.358	94.19
266.591	82.19
266.823	78.19
267.055	82.19
267.287	90.19
267.52	82.19
267.752	81.19
267.984	86.19
268.216	76.19
268.448	82.19
268.681	83.19
268.913	96.19
269.145	85.19
269.377	83.19
269.609	87.19
269.841	86.19
270.073	90.19
270.306	78.19
270.538	94.19
270.77	92.19
271.002	93.19
271.234	81.19
271.466	90.19
271.698	89.19
271.93	83.19
272.162	86.19
272.394	101.19
272.626	90.19
272.858	99.19
273.09	91.19
273.322	80.19
273.553	91.19
273.785	90.19
274.017	84.19
274.249	92.19
274.481	97.19
274.713	88.19
274.945	98.19
275.176	108.19
275.408	99.19
275.64	111.19
275.872	118.19
276.104	115.19
276.335	98.19
276.567	114.19
276.799	137.19
277.031	162.19
277.262	160.19
277.494	124.19
277.726	95.19
277.957	102.19
278.189	91.19
278.421	108.19
278.652	90.19
278.884	89.19
279.115	101.19
279.347	104.19
279.579	95.19
279.81	115.19
280.042	174.19
280.273	206.19
280.505	161.19
280.736	97.19
280.968	94.19
281.199	84.19
281.431	93.19
281.662	107.19
281.894	79.19
282.125	99.19
282.356	131.19
282.588	170.19
282.819	130.19
283.051	90.19
283.282	95.19
283.513	87.19
283.745	88.19
283.976	98.19
284.207	88.19
284.439	88.19
284.67	102.19
284.901	92.19
285.132	91.19
285.364	98.19
285.595	97.19
285.826	106.19
286.057	92.19
286.288	98.19
286.52	95.19
286.751	91.19
286.982	88.19
287.213	88.19
287.444	109.19
287.675	100.19
287.906	91.19
288.138	93.19
288.369	98.19
288.6	96.19
288.831	85.19
289.062	95.19
289.293	86.19
289.524	87.19
289.755	102.19
289.986	96.19
290.217	97.19
290.448	88.19
290.679	90.19
290.91	82.19
291.141	80.19
291.371	92.19
291.602	88.19
291.833	103.19
292.064	98.19
292.295	85.19
292.526	82.19
292.757	103.19
292.987	91.19
293.218	88.19
293.449	89.19
293.68	97.19
293.91	87.19
294.141	91.19
294.372	90.19
294.603	99.19
294.833	90.19
295.064	90.19
295.295	82.19
295.525	90.19
295.756	92.19
295.987	119.19
296.217	164.19
296.448	147.19
296.679	100.19
296.909	107.19
297.14	110.19
297.37	98.19
297.601	99.19
297.831	91.19
298.062	100.19
298.292	80.19
298.523	104.19
298.753	106.19
298.984	107.19
299.214	86.19
299.445	92.19
299.675	98.19
299.905	98.19
300.136	86.19
300.366	92.19
300.597	94.19
300.827	91.19
301.057	103.19
301.288	135.19
301.518	110.19
301.748	96.19
301.979	129.19
302.209	108.19
302.439	87.19
302.669	98.19
302.9	83.19
303.13	88.19
303.36	119.19
303.59	117.19
303.82	136.19
304.051	107.19
304.281	93.19
304.511	90.19
304.741	80.19
304.971	80.19
305.201	106.19
305.431	91.19
305.661	88.19
305.891	106.19
306.121	95.19
306.352	111.19
306.582	118.19
306.812	108.19
307.042	122.19
307.272	130.19
307.502	147.19
307.731	147.19
307.961	115.19
308.191	108.19
308.421	97.19
308.651	98.19
308.881	94.19
309.111	91.19
309.341	107.19
309.571	107.19
309.8	114.19
310.03	122.19
310.26	113.19
310.49	111.19
310.72	121.19
310.949	113.19
311.179	120.19
311.409	103.19
311.639	109.19
311.868	108.19
312.098	118.19
312.328	108.19
312.557	125.19
312.787	119.19
313.017	120.19
313.246	101.19
313.476	116.19
313.706	94.19
313.935	99.19
314.165	112.19
314.394	116.19
314.624	104.19
314.853	98.19
315.083	97.19
315.312	112.19
315.542	92.19
315.771	84.19
316.001	94.19
316.23	90.19
316.46	100.19
316.689	86.19
316.919	101.19
317.148	104.19
317.377	95.19
317.607	105.19
317.836	111.19
318.065	100.19
318.295	89.19
318.524	106.19
318.753	69.19
318.983	103.19
319.212	109.19
319.441	116.19
319.67	130.19
319.9	100.19
320.129	98.19
320.358	103.19
320.587	94.19
320.816	106.19
321.046	119.19
321.275	95.19
321.504	98.19
321.733	99.19
321.962	107.19
322.191	107.19
322.42	119.19
322.649	123.19
322.878	116.19
323.108	129.19
323.337	139.19
323.566	150.19
323.795	196.19
324.024	240.19
324.253	496.19
324.482	1033.19
324.71	2183.19
324.939	2970.19
325.168	1060.19
325.397	316.19
325.626	165.19
325.855	148.19
326.084	144.19
326.313	143.19
326.542	173.19
326.77	284.19
326.999	551.19
327.228	1132.19
327.457	2136.19
327.686	1763.19
327.914	537.19
328.143	424.19
328.372	540.19
328.6	322.19
328.829	182.19
329.058	174.19
329.287	200.19
329.515	178.19
329.744	202.19
329.972	382.19
330.201	736.19
330.43	1097.19
330.658	528.19
330.887	286.19
331.115	191.19
331.344	123.19
331.572	121.19
331.801	114.19
332.03	132.19
332.258	115.19
332.486	100.19
332.715	108.19
332.943	108.19
333.172	112.19
333.4	139.19
333.629	141.19
333.857	201.19
334.085	349.19
334.314	707.19
334.542	1341.19
334.771	1298.19
334.999	370.19
335.227	163.19
335.455	110.19
335.684	117.19
335.912	109.19
336.14	115.19
336.369	112.19
336.597	108.19
336.825	102.19
337.053	94.19
337.281	96.19
337.51	100.19
337.738	101.19
337.966	98.19
338.194	105.19
338.422	98.19
338.65	89.19
338.878	109.19
339.106	96.19
339.334	114.19
339.562	102.19
339.79	105.19
340.018	94.19
340.246	105.19
340.474	119.19
340.702	95.19
340.93	94.19
341.158	100.19
341.386	125.19
341.614	122.19
341.842	100.19
342.07	99.19
342.298	103.19
342.526	96.19
342.754	104.19
342.981	86.19
343.209	94.19
343.437	107.19
343.665	80.19
343.893	97.19
344.12	97.19
344.348	97.19
344.576	93.19
344.804	104.19
345.031	106.19
345.259	100.19
345.487	116.19
345.714	92.19
345.942	101.19
346.17	102.19
346.397	100.19
346.625	108.19
346.853	84.19
347.08	94.19
347.308	114.19
347.535	105.19
347.763	118.19
347.99	98.19
348.218	105.19
348.445	126.19
348.673	98.19
348.9	102.19
349.128	105.19
349.355	104.19
349.583	99.19
349.81	98.19
350.037	127.19
350.265	97.19
350.492	90.19
350.72	108.19
350.947	103.19
351.174	116.19
351.402	138.19
351.629	127.19
351.856	115.19
352.083	103.19
352.311	135.19
352.538	128.19
352.765	131.19
352.992	129.19
353.22	124.19
353.447	111.19
353.674	97.19
353.901	102.19
354.128	101.19
354.355	98.19
354.583	106.19
354.81	77.19
355.037	85.19
355.264	104.19
355.491	88.19
355.718	89.19
355.945	99.19
356.172	86.19
356.399	94.19
356.626	107.19
356.853	92.19
357.08	91.19
357.307	103.19
357.534	104.19
357.761	99.19
357.988	97.19
358.215	103.19
358.441	102.19
358.668	92.19
358.895	89.19
359.122	90.19
359.349	92.19
359.576	103.19
359.802	116.19
360.029	144.19
360.256	148.19
360.483	130.19
360.709	89.19
360.936	96.19
361.163	91.19
361.39	92.19
361.616	90.19
361.843	110.19
362.07	112.19
362.296	117.19
362.523	91.19
362.749	116.19
362.976	93.19
363.203	99.19
363.429	90.19
363.656	104.19
363.882	101.19
364.109	94.19
364.335	100.19
364.562	106.19
364.788	105.19
365.015	88.19
365.241	89.19
365.468	119.19
365.694	123.19
365.92	89.19
366.147	96.19
366.373	85.19
366.599	86.19
366.826	98.19
367.052	97.19
367.278	101.19
367.505	107.19
367.731	104.19
367.957	103.19
368.184	100.19
368.41	117.19
368.636	128.19
368.862	140.19
369.089	117.19
369.315	108.19
369.541	112.19
369.767	84.19
369.993	75.19
370.219	98.19
370.445	101.19
370.672	86.19
370.898	72.19
371.124	89.19
371.35	89.19
371.576	97.19
371.802	96.19
372.028	95.19
372.254	97.19
372.48	102.19
372.706	98.19
372.932	83.19
373.158	82.19
373.384	95.19
373.61	96.19
373.835	83.19
374.061	103.19
374.287	89.19
374.513	81.19
374.739	92.19
374.965	81.19
375.191	93.19
375.416	85.19
375.642	97.19
375.868	107.19
376.094	100.19
376.319	97.19
376.545	75.19
376.771	90.19
376.997	95.19
377.222	98.19
377.448	92.19
377.674	90.19
377.899	104.19
378.125	96.19
378.35	89.19
378.576	91.19
378.802	86.19
379.027	92.19
379.253	103.19
379.478	105.19
379.704	90.19
379.929	88.19
380.155	104.19
380.38	98.19
380.606	106.19
380.831	100.19
381.057	108.19
381.282	97.19
381.507	112.19
381.733	107.19
381.958	93.19
382.184	100.19
382.409	118.19
382.634	112.19
382.86	105.19
383.085	109.19
383.31	115.19
383.535	99.19
383.761	113.19
383.986	103.19
384.211	101.19
384.436	98.19
384.662	111.19
384.887	103.19
385.112	121.19
385.337	107.19
385.562	103.19
385.787	133.19
386.013	131.19
386.238	129.19
386.463	133.19
386.688	118.19
386.913	105.19
387.138	121.19
387.363	110.19
387.588	103.19
387.813	119.19
388.038	111.19
388.263	115.19
388.488	113.19
388.713	91.19
388.938	105.19
389.163	108.19
389.387	92.19
389.612	95.19
389.837	84.19
390.062	87.19
390.287	91.19
390.512	91.19
390.736	89.19
390.961	90.19
391.186	97.19
391.411	99.19
391.636	91.19
391.86	77.19
392.085	97.19
392.31	90.19
392.534	92.19
392.759	94.19
392.984	91.19
393.208	85.19
393.433	102.19
393.658	95.19
393.882	94.19
394.107	88.19
394.331	90.19
394.556	84.19
394.78	99.19
395.005	80.19
395.229	83.19
395.454	98.19
395.678	79.19
395.903	97.19
396.127	87.19
396.352	86.19
396.576	86.19
396.801	96.19
397.025	79.19
397.249	86.19
397.474	94.19
397.698	87.19
397.922	87.19
398.147	82.19
398.371	88.19
398.595	73.19
398.82	80.19
399.044	96.19
399.268	96.19
399.492	107.19
399.717	99.19
399.941	94.19
400.165	96.19
400.389	93.19
400.613	94.19
400.837	98.19
401.062	105.19
401.286	100.19
401.51	95.19
401.734	96.19
401.958	106.19
402.182	164.19
402.406	188.19
402.63	143.19
402.854	114.19
403.078	102.19
403.302	86.19
403.526	92.19
403.75	101.19
403.974	98.19
404.198	78.19
404.422	94.19
404.645	85.19
404.869	101.19
405.093	117.19
405.317	152.19
405.541	133.19
405.765	131.19
405.988	146.19
406.212	227.19
406.436	308.19
406.66	199.19
406.883	127.19
407.107	106.19
407.331	101.19
407.555	127.19
407.778	122.19
408.002	97.19
408.226	85.19
408.449	78.19
408.673	99.19
408.896	94.19
409.12	114.19
409.344	103.19
409.567	82.19
409.791	94.19
410.014	116.19
410.238	96.19
410.461	106.19
410.685	104.19
410.908	100.19
411.132	123.19
411.355	112.19
411.578	107.19
411.802	91.19
412.025	98.19
412.249	105.19
412.472	124.19
412.695	128.19
412.919	103.19
413.142	82.19
413.365	91.19
413.589	84.19
413.812	90.19
414.035	95.19
414.258	100.19
414.482	87.19
414.705	95.19
414.928	98.19
415.151	83.19
415.374	98.19
415.597	97.19
415.821	91.19
416.044	92.19
416.267	87.19
416.49	89.19
416.713	94.19
416.936	79.19
417.159	91.19
417.382	92.19
417.605	114.19
417.828	125.19
418.051	110.19
418.274	95.19
418.497	106.19
418.72	101.19
418.943	101.19
419.166	96.19
419.389	94.19
419.611	85.19
419.834	86.19
420.057	84.19
420.28	87.19
420.503	93.19
420.726	87.19
420.948	90.19
421.171	111.19
421.394	102.19
421.617	102.19
421.839	92.19
422.062	98.19
422.285	103.19
422.507	104.19
422.73	117.19
422.953	98.19
423.175	96.19
423.398	86.19
423.621	97.19
423.843	77.19
424.066	84.19
424.288	86.19
424.511	90.19
424.733	106.19
424.956	126.19
425.178	105.19
425.401	118.19
425.623	110.19
425.846	98.19
426.068	102.19
426.291	104.19
426.513	90.19
426.735	106.19
426.958	111.19
427.18	122.19
427.402	183.19
427.625	252.19
427.847	236.19
428.069	230.19
428.292	135.19
428.514	99.19
428.736	98.19
428.958	82.19
429.181	88.19
429.403	94.19
429.625	97.19
429.847	93.19
430.069	115.19
430.292	90.19
430.514	93.19
430.736	99.19
430.958	94.19
431.18	88.19
431.402	91.19
431.624	96.19
431.846	78.19
432.068	88.19
432.29	87.19
432.512	93.19
432.734	80.19
432.956	100.19
433.178	107.19
433.4	112.19
433.622	102.19
433.844	93.19
434.066	108.19
434.287	106.19
434.509	87.19
434.731	79.19
434.953	95.19
435.175	90.19
435.397	94.19
435.618	88.19
435.84	117.19
436.062	158.19
436.284	149.19
436.505	123.19
436.727	125.19
436.949	82.19
437.17	89.19
437.392	99.19
437.614	108.19
437.835	133.19
438.057	166.19
438.278	121.19
438.5	118.19
438.721	137.19
438.943	117.19
439.165	89.19
439.386	88.19
439.608	100.19
439.829	117.19
440.05	153.19
440.272	186.19
440.493	111.19
440.715	103.19
440.936	85.19
441.158	102.19
441.379	92.19
441.6	103.19
441.822	94.19
442.043	102.19
442.264	124.19
442.486	112.19
442.707	104.19
442.928	122.19
443.149	177.19
443.371	163.19
443.592	133.19
443.813	150.19
444.034	128.19
444.255	95.19
444.476	91.19
444.698	98.19
444.919	94.19
445.14	135.19
445.361	132.19
445.582	131.19
445.803	184.19
446.024	173.19
446.245	178.19
446.466	132.19
446.687	91.19
446.908	90.19
447.129	99.19
447.35	76.19
447.571	73.19
447.792	97.19
448.013	92.19
448.234	127.19
448.455	106.19
448.675	144.19
448.896	149.19
449.117	116.19
449.338	112.19
449.559	137.19
449.779	155.19
450	107.19
450.221	83.19
450.442	84.19
450.662	99.19
450.883	112.19
451.104	136.19
451.324	100.19
451.545	76.19
451.766	78.19
451.986	80.19
452.207	98.19
452.428	96.19
452.648	101.19
452.869	129.19
453.089	138.19
453.31	133.19
453.53	102.19
453.751	98.19
453.971	112.19
454.192	130.19
454.412	102.19
454.633	100.19
454.853	78.19
455.073	94.19
455.294	117.19
455.514	97.19
455.734	102.19
455.955	102.19
456.175	103.19
456.395	88.19
456.616	88.19
456.836	99.19
457.056	91.19
457.276	85.19
457.497	81.19
457.717	68.19
457.937	93.19
458.157	106.19
458.377	102.19
458.598	138.19
458.818	225.19
459.038	249.19
459.258	135.19
459.478	119.19
459.698	95.19
459.918	81.19
460.138	76.19
460.358	96.19
460.578	78.19
460.798	105.19
461.018	88.19
461.238	98.19
461.458	82.19
461.678	99.19
461.898	81.19
462.118	80.19
462.338	94.19
462.558	95.19
462.777	91.19
462.997	97.19
463.217	90.19
463.437	80.19
463.657	68.19
463.876	96.19
464.096	107.19
464.316	103.19
464.536	102.19
464.755	100.19
464.975	122.19
465.195	243.19
465.414	244.19
465.634	117.19
465.854	74.19
466.073	92.19
466.293	94.19
466.512	88.19
466.732	97.19
466.951	99.19
467.171	93.19
467.391	121.19
467.61	136.19
467.829	176.19
468.049	410.19
468.268	620.19
468.488	173.19
468.707	96.19
468.927	91.19
469.146	95.19
469.365	85.19
469.585	95.19
469.804	119.19
470.023	116.19
470.243	102.19
470.462	115.19
470.681	134.19
470.901	107.19
471.12	91.19
471.339	103.19
471.558	104.19
471.777	134.19
471.997	247.19
472.216	795.19
472.435	1860.19
472.654	440.19
472.873	143.19
473.092	108.19
473.311	107.19
473.53	94.19
473.749	101.19
473.968	112.19
474.187	134.19
474.406	116.19
474.625	112.19
474.844	95.19
475.063	94.19
475.282	79.19
475.501	99.19
475.72	90.19
475.939	91.19
476.158	95.19
476.377	99.19
476.596	98.19
476.814	114.19
477.033	103.19
477.252	111.19
477.471	95.19
477.69	89.19
477.908	86.19
478.127	89.19
478.346	94.19
478.564	107.19
478.783	120.19
479.002	104.19
479.22	117.19
479.439	119.19
479.658	136.19
479.876	120.19
480.095	128.19
480.313	143.19
480.532	130.19
480.751	235.19
480.969	713.19
481.188	3151.19
481.406	1862.19
481.624	309.19
481.843	138.19
482.061	105.19
482.28	97.19
482.498	92.19
482.717	96.19
482.935	97.19
483.153	83.19
483.372	83.19
483.59	89.19
483.808	97.19
484.027	89.19
484.245	87.19
484.463	95.19
484.681	105.19
484.9	94.19
485.118	94.19
485.336	116.19
485.554	104.19
485.772	119.19
485.99	119.19
486.209	124.19
486.427	112.19
486.645	121.19
486.863	145.19
487.081	113.19
487.299	105.19
487.517	104.19
487.735	98.19
487.953	91.19
488.171	101.19
488.389	92.19
488.607	99.19
488.825	96.19
489.043	76.19
489.261	94.19
489.479	90.19
489.696	96.19
489.914	89.19
490.132	105.19
490.35	107.19
490.568	83.19
490.786	91.19
491.003	104.19
491.221	92.19
491.439	91.19
491.657	106.19
491.874	91.19
492.092	90.19
492.31	97.19
492.527	108.19
492.745	101.19
492.963	102.19
493.18	84.19
493.398	102.19
493.615	100.19
493.833	107.19
494.05	107.19
494.268	98.19
494.485	84.19
494.703	83.19
494.92	94.19
495.138	100.19
495.355	102.19
495.573	97.19
495.79	103.19
496.008	90.19
496.225	88.19
496.442	89.19
496.66	100.19
496.877	82.19
497.094	95.19
497.312	94.19
497.529	92.19
497.746	80.19
497.963	84.19
498.181	92.19
498.398	108.19
498.615	127.19
498.832	108.19
499.049	95.19
499.267	102.19
499.484	95.19
499.701	97.19
499.918	81.19
500.135	100.19
500.352	105.19
500.569	90.19
500.786	102.19
501.003	98.19
501.22	93.19
501.437	85.19
501.654	89.19
501.871	126.19
502.088	78.19
502.305	97.19
502.522	98.19
502.739	93.19
502.956	94.19
503.172	96.19
503.389	104.19
503.606	130.19
503.823	103.19
504.04	93.19
504.256	90.19
504.473	102.19
504.69	99.19
504.907	94.19
505.123	97.19
505.34	99.19
505.557	87.19
505.773	97.19
505.99	96.19
506.207	102.19
506.423	99.19
506.64	104.19
506.856	104.19
507.073	97.19
507.289	84.19
507.506	94.19
507.722	123.19
507.939	120.19
508.155	107.19
508.372	100.19
508.588	99.19
508.805	97.19
509.021	95.19
509.238	109.19
509.454	98.19
509.67	112.19
509.887	110.19
510.103	163.19
510.319	243.19
510.536	932.19
510.752	3144.19
510.968	848.19
511.184	183.19
511.401	107.19
511.617	102.19
511.833	113.19
512.049	113.19
