Data from Circ_1987_H10_HRD10591_00068.txt Node
Date: Wed Jan 03 12:10:46 EST 2024
User: Yrep
Spectrometer: HR+D1059
Trigger mode: 1
Integration Time (sec): 1.000000E-1
Scans to average: 1
Electric dark correction enabled: true
Nonlinearity correction enabled: false
Boxcar width: 0
XAxis mode: Wavelengths
Number of Pixels in Spectrum: 2048
>>>>>Begin Spectral Data<<<<<
223.165	-22.5
223.4	-22.5
223.635	-22.5
223.869	-17.5
224.104	-10.5
224.338	-20.5
224.573	-12.5
224.808	-15.5
225.042	-16.5
225.277	3.5
225.511	14.5
225.746	-5.5
225.98	8.5
226.215	10.5
226.449	19.5
226.683	24.5
226.918	20.5
227.152	19.5
227.387	35.5
227.621	38.5
227.856	34.5
228.09	49.5
228.324	53.5
228.559	57.5
228.793	66.5
229.027	62.5
229.262	72.5
229.496	87.5
229.73	92.5
229.964	94.5
230.199	89.5
230.433	76.5
230.667	87.5
230.901	71.5
231.136	87.5
231.37	74.5
231.604	83.5
231.838	90.5
232.072	78.5
232.306	89.5
232.541	80.5
232.775	86.5
233.009	75.5
233.243	88.5
233.477	81.5
233.711	88.5
233.945	92.5
234.179	80.5
234.413	87.5
234.647	85.5
234.881	90.5
235.115	82.5
235.349	87.5
235.583	76.5
235.817	83.5
236.051	75.5
236.285	89.5
236.519	101.5
236.753	96.5
236.987	81.5
237.221	98.5
237.455	100.5
237.689	78.5
237.922	84.5
238.156	80.5
238.39	72.5
238.624	82.5
238.858	89.5
239.091	78.5
239.325	88.5
239.559	90.5
239.793	84.5
240.027	78.5
240.26	82.5
240.494	80.5
240.728	73.5
240.961	80.5
241.195	91.5
241.429	67.5
241.662	79.5
241.896	88.5
242.13	68.5
242.363	100.5
242.597	80.5
242.83	79.5
243.064	84.5
243.298	92.5
243.531	79.5
243.765	76.5
243.998	82.5
244.232	85.5
244.465	92.5
244.699	82.5
244.932	74.5
245.166	86.5
245.399	83.5
245.633	64.5
245.866	80.5
246.099	82.5
246.333	80.5
246.566	85.5
246.8	79.5
247.033	80.5
247.266	84.5
247.5	87.5
247.733	82.5
247.966	81.5
248.2	87.5
248.433	88.5
248.666	84.5
248.899	92.5
249.133	82.5
249.366	92.5
249.599	111.5
249.832	100.5
250.066	94.5
250.299	87.5
250.532	84.5
250.765	92.5
250.998	69.5
251.231	73.5
251.465	80.5
251.698	84.5
251.931	94.5
252.164	84.5
252.397	86.5
252.63	75.5
252.863	77.5
253.096	88.5
253.329	98.5
253.562	82.5
253.795	96.5
254.028	80.5
254.261	78.5
254.494	87.5
254.727	92.5
254.96	71.5
255.193	87.5
255.426	91.5
255.659	85.5
255.892	101.5
256.124	90.5
256.357	85.5
256.59	95.5
256.823	91.5
257.056	87.5
257.289	75.5
257.521	91.5
257.754	96.5
257.987	89.5
258.22	82.5
258.452	92.5
258.685	104.5
258.918	96.5
259.151	77.5
259.383	90.5
259.616	82.5
259.849	80.5
260.081	90.5
260.314	77.5
260.547	96.5
260.779	107.5
261.012	90.5
261.244	99.5
261.477	91.5
261.71	115.5
261.942	132.5
262.175	143.5
262.407	94.5
262.64	73.5
262.872	89.5
263.105	82.5
263.337	86.5
263.57	95.5
263.802	91.5
264.035	66.5
264.267	81.5
264.499	78.5
264.732	84.5
264.964	84.5
265.197	82.5
265.429	84.5
265.661	76.5
265.894	78.5
266.126	73.5
266.358	83.5
266.591	89.5
266.823	75.5
267.055	90.5
267.287	86.5
267.52	84.5
267.752	94.5
267.984	94.5
268.216	73.5
268.448	89.5
268.681	96.5
268.913	86.5
269.145	94.5
269.377	74.5
269.609	92.5
269.841	77.5
270.073	82.5
270.306	81.5
270.538	83.5
270.77	90.5
271.002	70.5
271.234	99.5
271.466	86.5
271.698	85.5
271.93	87.5
272.162	111.5
272.394	81.5
272.626	92.5
272.858	86.5
273.09	82.5
273.322	85.5
273.553	90.5
273.785	89.5
274.017	79.5
274.249	81.5
274.481	96.5
274.713	94.5
274.945	83.5
275.176	98.5
275.408	114.5
275.64	126.5
275.872	119.5
276.104	113.5
276.335	96.5
276.567	126.5
276.799	143.5
277.031	171.5
277.262	194.5
277.494	158.5
277.726	100.5
277.957	95.5
278.189	90.5
278.421	109.5
278.652	97.5
278.884	96.5
279.115	89.5
279.347	106.5
279.579	107.5
279.81	139.5
280.042	194.5
280.273	252.5
280.505	181.5
280.736	100.5
280.968	92.5
281.199	104.5
281.431	86.5
281.662	81.5
281.894	109.5
282.125	98.5
282.356	144.5
282.588	162.5
282.819	142.5
283.051	94.5
283.282	108.5
283.513	100.5
283.745	100.5
283.976	93.5
284.207	78.5
284.439	101.5
284.67	91.5
284.901	85.5
285.132	87.5
285.364	97.5
285.595	94.5
285.826	110.5
286.057	98.5
286.288	93.5
286.52	92.5
286.751	80.5
286.982	89.5
287.213	102.5
287.444	90.5
287.675	106.5
287.906	82.5
288.138	94.5
288.369	96.5
288.6	94.5
288.831	78.5
289.062	82.5
289.293	91.5
289.524	89.5
289.755	85.5
289.986	82.5
290.217	84.5
290.448	84.5
290.679	78.5
290.91	103.5
291.141	81.5
291.371	86.5
291.602	98.5
291.833	88.5
292.064	86.5
292.295	103.5
292.526	98.5
292.757	80.5
292.987	81.5
293.218	91.5
293.449	75.5
293.68	82.5
293.91	98.5
294.141	101.5
294.372	85.5
294.603	111.5
294.833	99.5
295.064	98.5
295.295	81.5
295.525	103.5
295.756	114.5
295.987	127.5
296.217	166.5
296.448	135.5
296.679	105.5
296.909	104.5
297.14	88.5
297.37	97.5
297.601	85.5
297.831	84.5
298.062	97.5
298.292	104.5
298.523	97.5
298.753	97.5
298.984	80.5
299.214	79.5
299.445	87.5
299.675	98.5
299.905	98.5
300.136	87.5
300.366	87.5
300.597	101.5
300.827	105.5
301.057	102.5
301.288	100.5
301.518	103.5
301.748	108.5
301.979	116.5
302.209	107.5
302.439	96.5
302.669	87.5
302.9	92.5
303.13	87.5
303.36	102.5
303.59	137.5
303.82	150.5
304.051	118.5
304.281	84.5
304.511	96.5
304.741	100.5
304.971	85.5
305.201	88.5
305.431	101.5
305.661	102.5
305.891	99.5
306.121	94.5
306.352	106.5
306.582	114.5
306.812	116.5
307.042	130.5
307.272	163.5
307.502	186.5
307.731	154.5
307.961	129.5
308.191	104.5
308.421	109.5
308.651	101.5
308.881	98.5
309.111	107.5
309.341	111.5
309.571	94.5
309.8	105.5
310.03	107.5
310.26	106.5
310.49	112.5
310.72	100.5
310.949	114.5
311.179	119.5
311.409	106.5
311.639	108.5
311.868	106.5
312.098	98.5
312.328	111.5
312.557	144.5
312.787	126.5
313.017	108.5
313.246	114.5
313.476	101.5
313.706	101.5
313.935	112.5
314.165	118.5
314.394	114.5
314.624	109.5
314.853	97.5
315.083	107.5
315.312	99.5
315.542	95.5
315.771	108.5
316.001	102.5
316.23	86.5
316.46	106.5
316.689	96.5
316.919	115.5
317.148	94.5
317.377	106.5
317.607	111.5
317.836	108.5
318.065	96.5
318.295	101.5
318.524	80.5
318.753	86.5
318.983	102.5
319.212	113.5
319.441	139.5
319.67	124.5
319.9	96.5
320.129	90.5
320.358	104.5
320.587	102.5
320.816	91.5
321.046	102.5
321.275	106.5
321.504	99.5
321.733	107.5
321.962	111.5
322.191	110.5
322.42	124.5
322.649	117.5
322.878	112.5
323.108	129.5
323.337	131.5
323.566	162.5
323.795	191.5
324.024	231.5
324.253	425.5
324.482	871.5
324.71	1723.5
324.939	2248.5
325.168	848.5
325.397	285.5
325.626	178.5
325.855	152.5
326.084	150.5
326.313	150.5
326.542	170.5
326.77	242.5
326.999	425.5
327.228	852.5
327.457	1586.5
327.686	1303.5
327.914	508.5
328.143	534.5
328.372	656.5
328.6	385.5
328.829	192.5
329.058	210.5
329.287	201.5
329.515	176.5
329.744	241.5
329.972	468.5
330.201	1003.5
330.43	1441.5
330.658	646.5
330.887	304.5
331.115	203.5
331.344	119.5
331.572	126.5
331.801	129.5
332.03	128.5
332.258	119.5
332.486	99.5
332.715	109.5
332.943	126.5
333.172	114.5
333.4	133.5
333.629	166.5
333.857	228.5
334.085	430.5
334.314	902.5
334.542	1841.5
334.771	1690.5
334.999	436.5
335.227	174.5
335.455	127.5
335.684	109.5
335.912	117.5
336.14	124.5
336.369	117.5
336.597	111.5
336.825	108.5
337.053	93.5
337.281	90.5
337.51	92.5
337.738	109.5
337.966	118.5
338.194	109.5
338.422	98.5
338.65	117.5
338.878	92.5
339.106	94.5
339.334	95.5
339.562	107.5
339.79	101.5
340.018	101.5
340.246	87.5
340.474	98.5
340.702	105.5
340.93	94.5
341.158	108.5
341.386	113.5
341.614	127.5
341.842	100.5
342.07	106.5
342.298	104.5
342.526	96.5
342.754	109.5
342.981	100.5
343.209	91.5
343.437	91.5
343.665	87.5
343.893	88.5
344.12	92.5
344.348	97.5
344.576	106.5
344.804	96.5
345.031	98.5
345.259	110.5
345.487	106.5
345.714	107.5
345.942	92.5
346.17	96.5
346.397	94.5
346.625	108.5
346.853	86.5
347.08	78.5
347.308	116.5
347.535	117.5
347.763	112.5
347.99	112.5
348.218	112.5
348.445	116.5
348.673	111.5
348.9	94.5
349.128	82.5
349.355	83.5
349.583	96.5
349.81	89.5
350.037	99.5
350.265	104.5
350.492	96.5
350.72	105.5
350.947	97.5
351.174	105.5
351.402	125.5
351.629	107.5
351.856	94.5
352.083	116.5
352.311	118.5
352.538	127.5
352.765	130.5
352.992	133.5
353.22	139.5
353.447	117.5
353.674	106.5
353.901	100.5
354.128	98.5
354.355	96.5
354.583	101.5
354.81	92.5
355.037	96.5
355.264	104.5
355.491	94.5
355.718	101.5
355.945	97.5
356.172	104.5
356.399	96.5
356.626	107.5
356.853	99.5
357.08	98.5
357.307	93.5
357.534	101.5
357.761	106.5
357.988	91.5
358.215	85.5
358.441	91.5
358.668	92.5
358.895	88.5
359.122	87.5
359.349	74.5
359.576	85.5
359.802	145.5
360.029	158.5
360.256	146.5
360.483	130.5
360.709	92.5
360.936	98.5
361.163	91.5
361.39	102.5
361.616	106.5
361.843	113.5
362.07	105.5
362.296	116.5
362.523	105.5
362.749	96.5
362.976	94.5
363.203	99.5
363.429	99.5
363.656	98.5
363.882	100.5
364.109	111.5
364.335	109.5
364.562	100.5
364.788	104.5
365.015	99.5
365.241	100.5
365.468	136.5
365.694	115.5
365.92	103.5
366.147	98.5
366.373	99.5
366.599	87.5
366.826	99.5
367.052	101.5
367.278	81.5
367.505	88.5
367.731	113.5
367.957	108.5
368.184	99.5
368.41	104.5
368.636	127.5
368.862	130.5
369.089	128.5
369.315	108.5
369.541	105.5
369.767	96.5
369.993	86.5
370.219	107.5
370.445	90.5
370.672	88.5
370.898	95.5
371.124	86.5
371.35	93.5
371.576	92.5
371.802	87.5
372.028	86.5
372.254	81.5
372.48	86.5
372.706	89.5
372.932	86.5
373.158	100.5
373.384	97.5
373.61	95.5
373.835	94.5
374.061	100.5
374.287	106.5
374.513	100.5
374.739	97.5
374.965	86.5
375.191	94.5
375.416	96.5
375.642	83.5
375.868	73.5
376.094	85.5
376.319	80.5
376.545	101.5
376.771	91.5
376.997	100.5
377.222	84.5
377.448	105.5
377.674	103.5
377.899	80.5
378.125	86.5
378.35	102.5
378.576	100.5
378.802	99.5
379.027	95.5
379.253	98.5
379.478	78.5
379.704	87.5
379.929	100.5
380.155	93.5
380.38	96.5
380.606	100.5
380.831	97.5
381.057	98.5
381.282	78.5
381.507	103.5
381.733	95.5
381.958	98.5
382.184	84.5
382.409	112.5
382.634	103.5
382.86	111.5
383.085	106.5
383.31	103.5
383.535	103.5
383.761	101.5
383.986	90.5
384.211	109.5
384.436	110.5
384.662	99.5
384.887	87.5
385.112	93.5
385.337	110.5
385.562	102.5
385.787	99.5
386.013	97.5
386.238	119.5
386.463	101.5
386.688	111.5
386.913	98.5
387.138	106.5
387.363	102.5
387.588	103.5
387.813	104.5
388.038	106.5
388.263	91.5
388.488	98.5
388.713	92.5
388.938	84.5
389.163	91.5
389.387	87.5
389.612	91.5
389.837	102.5
390.062	92.5
390.287	102.5
390.512	94.5
390.736	98.5
390.961	92.5
391.186	95.5
391.411	76.5
391.636	90.5
391.86	81.5
392.085	87.5
392.31	87.5
392.534	97.5
392.759	100.5
392.984	84.5
393.208	102.5
393.433	102.5
393.658	102.5
393.882	99.5
394.107	96.5
394.331	69.5
394.556	87.5
394.78	92.5
395.005	90.5
395.229	87.5
395.454	100.5
395.678	96.5
395.903	96.5
396.127	98.5
396.352	86.5
396.576	105.5
396.801	89.5
397.025	80.5
397.249	87.5
397.474	103.5
397.698	87.5
397.922	95.5
398.147	95.5
398.371	95.5
398.595	92.5
398.82	74.5
399.044	77.5
399.268	86.5
399.492	98.5
399.717	108.5
399.941	74.5
400.165	79.5
400.389	98.5
400.613	95.5
400.837	98.5
401.062	90.5
401.286	84.5
401.51	95.5
401.734	107.5
401.958	107.5
402.182	147.5
402.406	192.5
402.63	150.5
402.854	106.5
403.078	100.5
403.302	87.5
403.526	94.5
403.75	95.5
403.974	85.5
404.198	89.5
404.422	89.5
404.645	91.5
404.869	114.5
405.093	113.5
405.317	154.5
405.541	150.5
405.765	115.5
405.988	158.5
406.212	216.5
406.436	320.5
406.66	214.5
406.883	126.5
407.107	106.5
407.331	106.5
407.555	112.5
407.778	100.5
408.002	104.5
408.226	91.5
408.449	74.5
408.673	103.5
408.896	86.5
409.12	90.5
409.344	85.5
409.567	88.5
409.791	89.5
410.014	99.5
410.238	98.5
410.461	88.5
410.685	94.5
410.908	87.5
411.132	103.5
411.355	110.5
411.578	97.5
411.802	88.5
412.025	97.5
412.249	113.5
412.472	129.5
412.695	145.5
412.919	116.5
413.142	99.5
413.365	93.5
413.589	96.5
413.812	89.5
414.035	105.5
414.258	81.5
414.482	87.5
414.705	92.5
414.928	89.5
415.151	101.5
415.374	87.5
415.597	78.5
415.821	84.5
416.044	100.5
416.267	84.5
416.49	92.5
416.713	91.5
416.936	100.5
417.159	95.5
417.382	107.5
417.605	114.5
417.828	122.5
418.051	102.5
418.274	74.5
418.497	82.5
418.72	98.5
418.943	103.5
419.166	71.5
419.389	91.5
419.611	96.5
419.834	100.5
420.057	97.5
420.28	98.5
420.503	75.5
420.726	100.5
420.948	92.5
421.171	102.5
421.394	106.5
421.617	96.5
421.839	95.5
422.062	88.5
422.285	104.5
422.507	96.5
422.73	113.5
422.953	97.5
423.175	97.5
423.398	108.5
423.621	96.5
423.843	91.5
424.066	98.5
424.288	97.5
424.511	94.5
424.733	108.5
424.956	130.5
425.178	98.5
425.401	113.5
425.623	99.5
425.846	103.5
426.068	109.5
426.291	103.5
426.513	98.5
426.735	100.5
426.958	91.5
427.18	116.5
427.402	166.5
427.625	258.5
427.847	219.5
428.069	214.5
428.292	124.5
428.514	105.5
428.736	90.5
428.958	103.5
429.181	72.5
429.403	90.5
429.625	80.5
429.847	92.5
430.069	107.5
430.292	111.5
430.514	87.5
430.736	96.5
430.958	103.5
431.18	82.5
431.402	73.5
431.624	94.5
431.846	97.5
432.068	86.5
432.29	85.5
432.512	105.5
432.734	97.5
432.956	97.5
433.178	114.5
433.4	103.5
433.622	94.5
433.844	86.5
434.066	83.5
434.287	98.5
434.509	97.5
434.731	93.5
434.953	81.5
435.175	103.5
435.397	96.5
435.618	97.5
435.84	108.5
436.062	133.5
436.284	126.5
436.505	114.5
436.727	101.5
436.949	89.5
437.17	91.5
437.392	96.5
437.614	102.5
437.835	123.5
438.057	161.5
438.278	147.5
438.5	120.5
438.721	156.5
438.943	113.5
439.165	88.5
439.386	85.5
439.608	93.5
439.829	94.5
440.05	138.5
440.272	172.5
440.493	120.5
440.715	110.5
440.936	108.5
441.158	92.5
441.379	98.5
441.6	105.5
441.822	96.5
442.043	105.5
442.264	143.5
442.486	111.5
442.707	100.5
442.928	138.5
443.149	154.5
443.371	166.5
443.592	134.5
443.813	123.5
444.034	132.5
444.255	95.5
444.476	97.5
444.698	83.5
444.919	87.5
445.14	134.5
445.361	127.5
445.582	126.5
445.803	169.5
446.024	174.5
446.245	170.5
446.466	133.5
446.687	86.5
446.908	108.5
447.129	92.5
447.35	97.5
447.571	104.5
447.792	102.5
448.013	102.5
448.234	121.5
448.455	117.5
448.675	128.5
448.896	136.5
449.117	121.5
449.338	101.5
449.559	134.5
449.779	136.5
450	95.5
450.221	95.5
450.442	92.5
450.662	108.5
450.883	132.5
451.104	138.5
451.324	111.5
451.545	117.5
451.766	87.5
451.986	95.5
452.207	99.5
452.428	97.5
452.648	119.5
452.869	125.5
453.089	133.5
453.31	152.5
453.53	96.5
453.751	115.5
453.971	132.5
454.192	151.5
454.412	101.5
454.633	95.5
454.853	82.5
455.073	87.5
455.294	90.5
455.514	118.5
455.734	82.5
455.955	92.5
456.175	97.5
456.395	76.5
456.616	73.5
456.836	105.5
457.056	84.5
457.276	86.5
457.497	79.5
457.717	95.5
457.937	94.5
458.157	98.5
458.377	103.5
458.598	138.5
458.818	217.5
459.038	237.5
459.258	153.5
459.478	108.5
459.698	91.5
459.918	87.5
460.138	98.5
460.358	101.5
460.578	83.5
460.798	95.5
461.018	108.5
461.238	89.5
461.458	88.5
461.678	82.5
461.898	99.5
462.118	86.5
462.338	96.5
462.558	91.5
462.777	90.5
462.997	98.5
463.217	110.5
463.437	117.5
463.657	114.5
463.876	87.5
464.096	108.5
464.316	99.5
464.536	119.5
464.755	97.5
464.975	128.5
465.195	251.5
465.414	254.5
465.634	109.5
465.854	79.5
466.073	88.5
466.293	88.5
466.512	78.5
466.732	87.5
466.951	94.5
467.171	87.5
467.391	103.5
467.61	129.5
467.829	200.5
468.049	540.5
468.268	831.5
468.488	210.5
468.707	113.5
468.927	92.5
469.146	81.5
469.365	92.5
469.585	103.5
469.804	116.5
470.023	123.5
470.243	111.5
470.462	122.5
470.681	158.5
470.901	108.5
471.12	119.5
471.339	113.5
471.558	121.5
471.777	150.5
471.997	286.5
472.216	1044.5
472.435	2410.5
472.654	570.5
472.873	182.5
473.092	129.5
473.311	109.5
473.53	99.5
473.749	92.5
473.968	102.5
474.187	128.5
474.406	135.5
474.625	88.5
474.844	95.5
475.063	104.5
475.282	88.5
475.501	82.5
475.72	92.5
475.939	100.5
476.158	82.5
476.377	91.5
476.596	99.5
476.814	101.5
477.033	101.5
477.252	98.5
477.471	104.5
477.69	85.5
477.908	92.5
478.127	102.5
478.346	94.5
478.564	99.5
478.783	118.5
479.002	104.5
479.22	114.5
479.439	133.5
479.658	149.5
479.876	128.5
480.095	102.5
480.313	137.5
480.532	167.5
480.751	272.5
480.969	963.5
481.188	4192.5
481.406	2377.5
481.624	354.5
481.843	148.5
482.061	126.5
482.28	107.5
482.498	88.5
482.717	90.5
482.935	90.5
483.153	97.5
483.372	94.5
483.59	88.5
483.808	86.5
484.027	98.5
484.245	93.5
484.463	82.5
484.681	101.5
484.9	94.5
485.118	92.5
485.336	94.5
485.554	96.5
485.772	111.5
485.99	113.5
486.209	104.5
486.427	99.5
486.645	115.5
486.863	136.5
487.081	107.5
487.299	92.5
487.517	95.5
487.735	97.5
487.953	87.5
488.171	89.5
488.389	97.5
488.607	99.5
488.825	93.5
489.043	89.5
489.261	107.5
489.479	104.5
489.696	95.5
489.914	102.5
490.132	89.5
490.35	85.5
490.568	85.5
490.786	99.5
491.003	100.5
491.221	84.5
491.439	111.5
491.657	100.5
491.874	100.5
492.092	91.5
492.31	89.5
492.527	114.5
492.745	97.5
492.963	104.5
493.18	110.5
493.398	92.5
493.615	104.5
493.833	86.5
494.05	88.5
494.268	92.5
494.485	73.5
494.703	102.5
494.92	101.5
495.138	84.5
495.355	92.5
495.573	97.5
495.79	79.5
496.008	90.5
496.225	97.5
496.442	88.5
496.66	93.5
496.877	88.5
497.094	96.5
497.312	98.5
497.529	88.5
497.746	96.5
497.963	81.5
498.181	105.5
498.398	103.5
498.615	113.5
498.832	120.5
499.049	83.5
499.267	92.5
499.484	84.5
499.701	88.5
499.918	85.5
500.135	98.5
500.352	108.5
500.569	107.5
500.786	97.5
501.003	92.5
501.22	95.5
501.437	103.5
501.654	103.5
501.871	113.5
502.088	109.5
502.305	95.5
502.522	101.5
502.739	79.5
502.956	102.5
503.172	84.5
503.389	115.5
503.606	138.5
503.823	117.5
504.04	111.5
504.256	98.5
504.473	97.5
504.69	92.5
504.907	99.5
505.123	80.5
505.34	79.5
505.557	79.5
505.773	93.5
505.99	101.5
506.207	74.5
506.423	98.5
506.64	93.5
506.856	87.5
507.073	81.5
507.289	99.5
507.506	120.5
507.722	135.5
507.939	150.5
508.155	107.5
508.372	86.5
508.588	103.5
508.805	111.5
509.021	100.5
509.238	97.5
509.454	112.5
509.67	118.5
509.887	128.5
510.103	144.5
510.319	242.5
510.536	882.5
510.752	3136.5
510.968	832.5
511.184	173.5
511.401	123.5
511.617	117.5
511.833	120.5
512.049	101.5
512.265	106.5
512.481	89.5
512.698	99.5
512.914	101.5
513.13	98.5
513.346	112.5
513.562	95.5
513.778	107.5
513.994	109.5
514.21	127.5
514.426	147.5
514.642	187.5
514.858	166.5
515.074	233.5
515.29	705.5
515.506	2566.5
515.721	891.5
515.937	219.5
516.153	130.5
516.369	114.5
516.585	106.5
516.801	113.5
517.016	108.5
517.232	74.5
517.448	91.5
517.664	105.5
517.879	107.5
518.095	108.5
518.311	112.5
518.527	104.5
518.742	98.5
518.958	99.5
519.173	107.5
519.389	88.5
519.605	112.5
519.82	106.5
520.036	115.5
520.251	142.5
520.467	132.5
520.682	124.5
520.898	128.5
521.113	149.5
521.329	185.5
521.544	289.5
521.76	949.5
521.975	4283.5
522.19	2520.5
522.406	500.5
522.621	156.5
522.836	122.5
523.052	111.5
523.267	107.5
523.482	97.5
523.698	108.5
523.913	149.5
524.128	115.5
524.343	97.5
524.559	98.5
524.774	103.5
524.989	99.5
525.204	123.5
525.419	112.5
525.634	101.5
525.849	90.5
526.064	82.5
526.28	92.5
526.495	85.5
526.71	91.5
526.925	96.5
527.14	91.5
527.355	107.5
527.57	98.5
527.785	87.5
527.999	83.5
528.214	99.5
528.429	89.5
528.644	96.5
528.859	110.5
529.074	106.5
529.289	170.5
529.503	291.5
529.718	147.5
529.933	102.5
530.148	90.5
530.363	80.5
530.577	84.5
530.792	96.5
