Data from Circ_1987_H10_HRD10591_00042.txt Node
Date: Wed Jan 03 12:10:41 EST 2024
User: Yrep
Spectrometer: HR+D1059
Trigger mode: 1
Integration Time (sec): 1.000000E-1
Scans to average: 1
Electric dark correction enabled: true
Nonlinearity correction enabled: false
Boxcar width: 0
XAxis mode: Wavelengths
Number of Pixels in Spectrum: 2048
>>>>>Begin Spectral Data<<<<<
223.165	-30.81
223.4	-30.81
223.635	-30.81
223.869	-10.81
224.104	-15.81
224.338	-25.81
224.573	-23.81
224.808	-20.81
225.042	-8.81
225.277	-10.81
225.511	-4.81
225.746	6.19
225.98	24.19
226.215	25.19
226.449	30.19
226.683	18.19
226.918	26.19
227.152	22.19
227.387	28.19
227.621	34.19
227.856	41.19
228.09	46.19
228.324	46.19
228.559	53.19
228.793	57.19
229.027	81.19
229.262	86.19
229.496	83.19
229.73	98.19
229.964	106.19
230.199	79.19
230.433	73.19
230.667	83.19
230.901	77.19
231.136	91.19
231.37	89.19
231.604	84.19
231.838	79.19
232.072	88.19
232.306	92.19
232.541	93.19
232.775	79.19
233.009	63.19
233.243	79.19
233.477	84.19
233.711	96.19
233.945	95.19
234.179	79.19
234.413	87.19
234.647	100.19
234.881	90.19
235.115	75.19
235.349	75.19
235.583	80.19
235.817	83.19
236.051	83.19
236.285	89.19
236.519	77.19
236.753	80.19
236.987	89.19
237.221	92.19
237.455	91.19
237.689	91.19
237.922	80.19
238.156	81.19
238.39	83.19
238.624	78.19
238.858	86.19
239.091	69.19
239.325	77.19
239.559	96.19
239.793	87.19
240.027	89.19
240.26	70.19
240.494	82.19
240.728	88.19
240.961	87.19
241.195	84.19
241.429	72.19
241.662	64.19
241.896	75.19
242.13	90.19
242.363	77.19
242.597	93.19
242.83	88.19
243.064	79.19
243.298	81.19
243.531	75.19
243.765	71.19
243.998	95.19
244.232	87.19
244.465	100.19
244.699	87.19
244.932	91.19
245.166	80.19
245.399	81.19
245.633	85.19
245.866	81.19
246.099	86.19
246.333	81.19
246.566	88.19
246.8	80.19
247.033	80.19
247.266	85.19
247.5	75.19
247.733	90.19
247.966	91.19
248.2	92.19
248.433	95.19
248.666	87.19
248.899	84.19
249.133	93.19
249.366	100.19
249.599	114.19
249.832	92.19
250.066	80.19
250.299	91.19
250.532	92.19
250.765	88.19
250.998	84.19
251.231	90.19
251.465	83.19
251.698	88.19
251.931	80.19
252.164	105.19
252.397	71.19
252.63	79.19
252.863	72.19
253.096	85.19
253.329	83.19
253.562	93.19
253.795	88.19
254.028	87.19
254.261	87.19
254.494	95.19
254.727	87.19
254.96	84.19
255.193	87.19
255.426	100.19
255.659	85.19
255.892	93.19
256.124	107.19
256.357	101.19
256.59	96.19
256.823	83.19
257.056	90.19
257.289	83.19
257.521	90.19
257.754	83.19
257.987	83.19
258.22	86.19
258.452	92.19
258.685	89.19
258.918	89.19
259.151	97.19
259.383	84.19
259.616	87.19
259.849	89.19
260.081	93.19
260.314	101.19
260.547	91.19
260.779	100.19
261.012	106.19
261.244	97.19
261.477	100.19
261.71	93.19
261.942	109.19
262.175	126.19
262.407	96.19
262.64	100.19
262.872	74.19
263.105	83.19
263.337	102.19
263.57	85.19
263.802	81.19
264.035	104.19
264.267	92.19
264.499	88.19
264.732	101.19
264.964	82.19
265.197	105.19
265.429	85.19
265.661	88.19
265.894	87.19
266.126	81.19
266.358	102.19
266.591	83.19
266.823	87.19
267.055	85.19
267.287	79.19
267.52	76.19
267.752	87.19
267.984	88.19
268.216	89.19
268.448	98.19
268.681	94.19
268.913	83.19
269.145	95.19
269.377	84.19
269.609	90.19
269.841	84.19
270.073	101.19
270.306	67.19
270.538	86.19
270.77	95.19
271.002	94.19
271.234	74.19
271.466	85.19
271.698	86.19
271.93	91.19
272.162	90.19
272.394	95.19
272.626	89.19
272.858	81.19
273.09	99.19
273.322	88.19
273.553	98.19
273.785	88.19
274.017	92.19
274.249	91.19
274.481	88.19
274.713	109.19
274.945	102.19
275.176	84.19
275.408	99.19
275.64	110.19
275.872	107.19
276.104	92.19
276.335	91.19
276.567	117.19
276.799	119.19
277.031	152.19
277.262	170.19
277.494	147.19
277.726	109.19
277.957	87.19
278.189	73.19
278.421	91.19
278.652	106.19
278.884	86.19
279.115	97.19
279.347	106.19
279.579	94.19
279.81	125.19
280.042	159.19
280.273	200.19
280.505	151.19
280.736	101.19
280.968	91.19
281.199	93.19
281.431	99.19
281.662	82.19
281.894	84.19
282.125	107.19
282.356	136.19
282.588	163.19
282.819	139.19
283.051	99.19
283.282	90.19
283.513	97.19
283.745	84.19
283.976	96.19
284.207	84.19
284.439	80.19
284.67	97.19
284.901	86.19
285.132	97.19
285.364	87.19
285.595	104.19
285.826	87.19
286.057	109.19
286.288	105.19
286.52	94.19
286.751	89.19
286.982	100.19
287.213	94.19
287.444	97.19
287.675	111.19
287.906	91.19
288.138	97.19
288.369	97.19
288.6	98.19
288.831	89.19
289.062	96.19
289.293	90.19
289.524	99.19
289.755	81.19
289.986	87.19
290.217	76.19
290.448	97.19
290.679	95.19
290.91	96.19
291.141	81.19
291.371	104.19
291.602	85.19
291.833	103.19
292.064	93.19
292.295	79.19
292.526	88.19
292.757	92.19
292.987	90.19
293.218	90.19
293.449	87.19
293.68	108.19
293.91	82.19
294.141	94.19
294.372	95.19
294.603	85.19
294.833	98.19
295.064	110.19
295.295	72.19
295.525	110.19
295.756	106.19
295.987	123.19
296.217	159.19
296.448	140.19
296.679	115.19
296.909	94.19
297.14	90.19
297.37	100.19
297.601	101.19
297.831	95.19
298.062	88.19
298.292	90.19
298.523	92.19
298.753	78.19
298.984	100.19
299.214	79.19
299.445	88.19
299.675	111.19
299.905	102.19
300.136	100.19
300.366	105.19
300.597	105.19
300.827	96.19
301.057	104.19
301.288	120.19
301.518	97.19
301.748	90.19
301.979	117.19
302.209	104.19
302.439	104.19
302.669	88.19
302.9	96.19
303.13	99.19
303.36	88.19
303.59	110.19
303.82	151.19
304.051	124.19
304.281	86.19
304.511	94.19
304.741	96.19
304.971	93.19
305.201	100.19
305.431	96.19
305.661	99.19
305.891	101.19
306.121	102.19
306.352	100.19
306.582	99.19
306.812	93.19
307.042	122.19
307.272	139.19
307.502	151.19
307.731	140.19
307.961	111.19
308.191	93.19
308.421	103.19
308.651	104.19
308.881	90.19
309.111	106.19
309.341	94.19
309.571	116.19
309.8	112.19
310.03	109.19
310.26	93.19
310.49	100.19
310.72	115.19
310.949	109.19
311.179	115.19
311.409	87.19
311.639	95.19
311.868	104.19
312.098	93.19
312.328	107.19
312.557	108.19
312.787	124.19
313.017	123.19
313.246	90.19
313.476	91.19
313.706	98.19
313.935	107.19
314.165	95.19
314.394	102.19
314.624	100.19
314.853	103.19
315.083	97.19
315.312	97.19
315.542	100.19
315.771	95.19
316.001	88.19
316.23	87.19
316.46	97.19
316.689	96.19
316.919	95.19
317.148	103.19
317.377	111.19
317.607	102.19
317.836	106.19
318.065	99.19
318.295	99.19
318.524	94.19
318.753	96.19
318.983	98.19
319.212	102.19
319.441	113.19
319.67	119.19
319.9	101.19
320.129	90.19
320.358	89.19
320.587	100.19
320.816	95.19
321.046	106.19
321.275	93.19
321.504	104.19
321.733	92.19
321.962	100.19
322.191	100.19
322.42	117.19
322.649	116.19
322.878	108.19
323.108	141.19
323.337	127.19
323.566	155.19
323.795	165.19
324.024	233.19
324.253	379.19
324.482	855.19
324.71	1731.19
324.939	2286.19
325.168	860.19
325.397	258.19
325.626	161.19
325.855	139.19
326.084	141.19
326.313	129.19
326.542	156.19
326.77	241.19
326.999	445.19
327.228	906.19
327.457	1651.19
327.686	1321.19
327.914	479.19
328.143	419.19
328.372	494.19
328.6	303.19
328.829	146.19
329.058	161.19
329.287	196.19
329.515	167.19
329.744	202.19
329.972	376.19
330.201	723.19
330.43	1058.19
330.658	492.19
330.887	259.19
331.115	166.19
331.344	118.19
331.572	126.19
331.801	130.19
332.03	115.19
332.258	101.19
332.486	109.19
332.715	101.19
332.943	120.19
333.172	117.19
333.4	124.19
333.629	148.19
333.857	199.19
334.085	337.19
334.314	691.19
334.542	1344.19
334.771	1272.19
334.999	344.19
335.227	162.19
335.455	123.19
335.684	108.19
335.912	119.19
336.14	108.19
336.369	105.19
336.597	110.19
336.825	106.19
337.053	98.19
337.281	95.19
337.51	90.19
337.738	104.19
337.966	110.19
338.194	97.19
338.422	111.19
338.65	102.19
338.878	107.19
339.106	90.19
339.334	100.19
339.562	92.19
339.79	91.19
340.018	109.19
340.246	111.19
340.474	122.19
340.702	97.19
340.93	104.19
341.158	98.19
341.386	90.19
341.614	115.19
341.842	97.19
342.07	86.19
342.298	91.19
342.526	101.19
342.754	88.19
342.981	97.19
343.209	102.19
343.437	104.19
343.665	99.19
343.893	92.19
344.12	93.19
344.348	94.19
344.576	100.19
344.804	103.19
345.031	99.19
345.259	115.19
345.487	115.19
345.714	97.19
345.942	98.19
346.17	117.19
346.397	88.19
346.625	71.19
346.853	105.19
347.08	89.19
347.308	94.19
347.535	98.19
347.763	106.19
347.99	98.19
348.218	104.19
348.445	109.19
348.673	107.19
348.9	105.19
349.128	101.19
349.355	101.19
349.583	104.19
349.81	107.19
350.037	109.19
350.265	95.19
350.492	100.19
350.72	91.19
350.947	124.19
351.174	115.19
351.402	122.19
351.629	107.19
351.856	109.19
352.083	108.19
352.311	105.19
352.538	124.19
352.765	124.19
352.992	112.19
353.22	122.19
353.447	116.19
353.674	96.19
353.901	107.19
354.128	103.19
354.355	93.19
354.583	106.19
354.81	101.19
355.037	103.19
355.264	92.19
355.491	88.19
355.718	103.19
355.945	98.19
356.172	88.19
356.399	89.19
356.626	104.19
356.853	89.19
357.08	96.19
357.307	97.19
357.534	80.19
357.761	93.19
357.988	96.19
358.215	102.19
358.441	89.19
358.668	97.19
358.895	86.19
359.122	94.19
359.349	105.19
359.576	107.19
359.802	122.19
360.029	132.19
360.256	123.19
360.483	101.19
360.709	93.19
360.936	88.19
361.163	92.19
361.39	112.19
361.616	110.19
361.843	100.19
362.07	101.19
362.296	104.19
362.523	101.19
362.749	99.19
362.976	84.19
363.203	85.19
363.429	87.19
363.656	95.19
363.882	96.19
364.109	85.19
364.335	85.19
364.562	96.19
364.788	105.19
365.015	91.19
365.241	106.19
365.468	120.19
365.694	112.19
365.92	101.19
366.147	96.19
366.373	94.19
366.599	75.19
366.826	95.19
367.052	104.19
367.278	83.19
367.505	105.19
367.731	105.19
367.957	85.19
368.184	103.19
368.41	103.19
368.636	111.19
368.862	136.19
369.089	121.19
369.315	108.19
369.541	102.19
369.767	107.19
369.993	91.19
370.219	87.19
370.445	88.19
370.672	86.19
370.898	88.19
371.124	114.19
371.35	93.19
371.576	87.19
371.802	83.19
372.028	94.19
372.254	90.19
372.48	107.19
372.706	83.19
372.932	93.19
373.158	97.19
373.384	95.19
373.61	89.19
373.835	95.19
374.061	90.19
374.287	100.19
374.513	102.19
374.739	90.19
374.965	89.19
375.191	87.19
375.416	95.19
375.642	97.19
375.868	91.19
376.094	90.19
376.319	81.19
376.545	99.19
376.771	98.19
376.997	99.19
377.222	104.19
377.448	95.19
377.674	95.19
377.899	103.19
378.125	83.19
378.35	90.19
378.576	103.19
378.802	92.19
379.027	81.19
379.253	97.19
379.478	88.19
379.704	88.19
379.929	101.19
380.155	103.19
380.38	87.19
380.606	103.19
380.831	90.19
381.057	84.19
381.282	108.19
381.507	99.19
381.733	103.19
381.958	100.19
382.184	96.19
382.409	91.19
382.634	99.19
382.86	82.19
383.085	108.19
383.31	95.19
383.535	95.19
383.761	97.19
383.986	97.19
384.211	103.19
384.436	107.19
384.662	98.19
384.887	118.19
385.112	99.19
385.337	99.19
385.562	91.19
385.787	105.19
386.013	109.19
386.238	124.19
386.463	104.19
386.688	104.19
386.913	96.19
387.138	112.19
387.363	91.19
387.588	107.19
387.813	98.19
388.038	121.19
388.263	110.19
388.488	97.19
388.713	102.19
388.938	99.19
389.163	96.19
389.387	89.19
389.612	101.19
389.837	95.19
390.062	104.19
390.287	100.19
390.512	96.19
390.736	90.19
390.961	87.19
391.186	95.19
391.411	104.19
391.636	87.19
391.86	85.19
392.085	79.19
392.31	92.19
392.534	80.19
392.759	85.19
392.984	85.19
393.208	85.19
393.433	86.19
393.658	94.19
393.882	94.19
394.107	84.19
394.331	99.19
394.556	95.19
394.78	98.19
395.005	93.19
395.229	92.19
395.454	99.19
395.678	81.19
395.903	104.19
396.127	105.19
396.352	98.19
396.576	94.19
396.801	93.19
397.025	99.19
397.249	85.19
397.474	87.19
397.698	95.19
397.922	99.19
398.147	91.19
398.371	88.19
398.595	87.19
398.82	84.19
399.044	101.19
399.268	92.19
399.492	95.19
399.717	89.19
399.941	96.19
400.165	105.19
400.389	99.19
400.613	87.19
400.837	93.19
401.062	91.19
401.286	89.19
401.51	92.19
401.734	91.19
401.958	106.19
402.182	129.19
402.406	180.19
402.63	126.19
402.854	103.19
403.078	103.19
403.302	106.19
403.526	87.19
403.75	87.19
403.974	80.19
404.198	81.19
404.422	88.19
404.645	88.19
404.869	89.19
405.093	117.19
405.317	123.19
405.541	123.19
405.765	113.19
405.988	145.19
406.212	183.19
406.436	272.19
406.66	183.19
406.883	119.19
407.107	97.19
407.331	117.19
407.555	108.19
407.778	103.19
408.002	87.19
408.226	73.19
408.449	88.19
408.673	87.19
408.896	103.19
409.12	100.19
409.344	94.19
409.567	89.19
409.791	88.19
410.014	92.19
410.238	87.19
410.461	86.19
410.685	95.19
410.908	91.19
411.132	108.19
411.355	106.19
411.578	89.19
411.802	105.19
412.025	89.19
412.249	99.19
412.472	123.19
412.695	128.19
412.919	113.19
413.142	97.19
413.365	103.19
413.589	85.19
413.812	92.19
414.035	100.19
414.258	112.19
414.482	95.19
414.705	90.19
414.928	87.19
415.151	84.19
415.374	85.19
415.597	84.19
415.821	89.19
416.044	91.19
416.267	92.19
416.49	91.19
416.713	87.19
416.936	100.19
417.159	100.19
417.382	102.19
417.605	96.19
417.828	101.19
418.051	96.19
418.274	90.19
418.497	99.19
418.72	95.19
418.943	104.19
419.166	94.19
419.389	92.19
419.611	96.19
419.834	87.19
420.057	99.19
420.28	104.19
420.503	88.19
420.726	89.19
420.948	90.19
421.171	105.19
421.394	89.19
421.617	93.19
421.839	71.19
422.062	84.19
422.285	102.19
422.507	99.19
422.73	96.19
422.953	97.19
423.175	91.19
423.398	106.19
423.621	86.19
423.843	102.19
424.066	89.19
424.288	97.19
424.511	98.19
424.733	101.19
424.956	113.19
425.178	123.19
425.401	107.19
425.623	106.19
425.846	84.19
426.068	90.19
426.291	88.19
426.513	87.19
426.735	92.19
426.958	108.19
427.18	114.19
427.402	169.19
427.625	239.19
427.847	216.19
428.069	189.19
428.292	117.19
428.514	98.19
428.736	99.19
428.958	101.19
429.181	82.19
429.403	90.19
429.625	98.19
429.847	113.19
430.069	107.19
430.292	104.19
430.514	96.19
430.736	92.19
430.958	103.19
431.18	83.19
431.402	91.19
431.624	85.19
431.846	95.19
432.068	93.19
432.29	95.19
432.512	94.19
432.734	100.19
432.956	88.19
433.178	95.19
433.4	105.19
433.622	90.19
433.844	94.19
434.066	85.19
434.287	84.19
434.509	99.19
434.731	96.19
434.953	102.19
435.175	112.19
435.397	97.19
435.618	96.19
435.84	100.19
436.062	116.19
436.284	120.19
436.505	103.19
436.727	105.19
436.949	104.19
437.17	90.19
437.392	94.19
437.614	95.19
437.835	127.19
438.057	153.19
438.278	122.19
438.5	127.19
438.721	145.19
438.943	114.19
439.165	93.19
439.386	75.19
439.608	93.19
439.829	98.19
440.05	123.19
440.272	169.19
440.493	106.19
440.715	93.19
440.936	84.19
441.158	85.19
441.379	88.19
441.6	101.19
441.822	111.19
442.043	115.19
442.264	118.19
442.486	130.19
442.707	92.19
442.928	126.19
443.149	147.19
443.371	163.19
443.592	122.19
443.813	117.19
444.034	128.19
444.255	114.19
444.476	94.19
444.698	94.19
444.919	93.19
445.14	130.19
445.361	131.19
445.582	131.19
445.803	166.19
446.024	164.19
446.245	167.19
446.466	128.19
446.687	108.19
446.908	91.19
447.129	90.19
447.35	85.19
447.571	98.19
447.792	103.19
448.013	100.19
448.234	118.19
448.455	109.19
448.675	125.19
448.896	135.19
449.117	112.19
449.338	105.19
449.559	152.19
449.779	170.19
450	101.19
450.221	87.19
450.442	95.19
450.662	112.19
450.883	118.19
451.104	134.19
451.324	101.19
451.545	70.19
451.766	87.19
451.986	93.19
452.207	88.19
452.428	95.19
452.648	111.19
452.869	126.19
453.089	123.19
453.31	123.19
453.53	93.19
453.751	108.19
453.971	107.19
454.192	109.19
454.412	96.19
454.633	78.19
454.853	81.19
455.073	89.19
455.294	104.19
455.514	122.19
455.734	100.19
455.955	89.19
456.175	105.19
456.395	85.19
456.616	91.19
456.836	85.19
457.056	93.19
457.276	89.19
457.497	76.19
457.717	74.19
457.937	81.19
458.157	85.19
458.377	107.19
458.598	116.19
458.818	183.19
459.038	200.19
459.258	145.19
459.478	98.19
459.698	93.19
459.918	99.19
460.138	80.19
460.358	77.19
460.578	92.19
460.798	93.19
461.018	91.19
461.238	99.19
461.458	88.19
461.678	85.19
461.898	77.19
462.118	89.19
462.338	93.19
462.558	81.19
462.777	80.19
462.997	107.19
463.217	106.19
463.437	102.19
463.657	63.19
463.876	97.19
464.096	101.19
464.316	90.19
464.536	97.19
464.755	106.19
464.975	106.19
465.195	206.19
465.414	215.19
465.634	101.19
465.854	101.19
466.073	83.19
466.293	95.19
466.512	102.19
466.732	85.19
466.951	114.19
467.171	101.19
467.391	108.19
467.61	121.19
467.829	182.19
468.049	441.19
468.268	583.19
468.488	181.19
468.707	93.19
468.927	99.19
469.146	107.19
469.365	111.19
469.585	103.19
469.804	98.19
470.023	110.19
470.243	103.19
470.462	108.19
470.681	133.19
470.901	115.19
471.12	105.19
471.339	111.19
471.558	118.19
471.777	132.19
471.997	243.19
472.216	827.19
472.435	1856.19
472.654	462.19
472.873	149.19
473.092	99.19
473.311	106.19
473.53	86.19
473.749	104.19
473.968	103.19
474.187	130.19
474.406	107.19
474.625	98.19
474.844	96.19
475.063	92.19
475.282	82.19
475.501	75.19
475.72	80.19
475.939	100.19
476.158	87.19
476.377	98.19
476.596	85.19
476.814	107.19
477.033	109.19
477.252	98.19
477.471	86.19
477.69	91.19
477.908	97.19
478.127	108.19
478.346	98.19
478.564	98.19
478.783	109.19
479.002	98.19
479.22	100.19
479.439	129.19
479.658	139.19
479.876	108.19
480.095	112.19
480.313	116.19
480.532	154.19
480.751	240.19
480.969	759.19
481.188	3116.19
481.406	1821.19
481.624	292.19
481.843	134.19
482.061	107.19
482.28	109.19
482.498	90.19
482.717	107.19
482.935	99.19
483.153	111.19
483.372	100.19
483.59	95.19
483.808	92.19
484.027	77.19
484.245	109.19
484.463	100.19
484.681	100.19
484.9	102.19
485.118	98.19
485.336	111.19
485.554	98.19
485.772	96.19
485.99	107.19
486.209	107.19
486.427	118.19
486.645	112.19
486.863	117.19
487.081	118.19
487.299	105.19
487.517	102.19
487.735	98.19
487.953	92.19
488.171	86.19
488.389	97.19
488.607	103.19
488.825	92.19
489.043	95.19
489.261	109.19
489.479	120.19
489.696	101.19
489.914	96.19
490.132	86.19
490.35	91.19
490.568	82.19
490.786	92.19
491.003	92.19
491.221	84.19
491.439	99.19
491.657	99.19
491.874	92.19
492.092	92.19
492.31	96.19
492.527	102.19
492.745	103.19
492.963	97.19
493.18	89.19
493.398	87.19
493.615	109.19
493.833	86.19
494.05	101.19
494.268	92.19
494.485	99.19
494.703	98.19
494.92	112.19
495.138	92.19
495.355	93.19
495.573	87.19
495.79	97.19
496.008	101.19
496.225	97.19
496.442	92.19
496.66	92.19
496.877	86.19
497.094	84.19
497.312	76.19
497.529	93.19
497.746	99.19
497.963	101.19
498.181	105.19
498.398	106.19
498.615	110.19
498.832	106.19
499.049	84.19
499.267	83.19
499.484	81.19
499.701	84.19
499.918	101.19
500.135	87.19
500.352	102.19
500.569	100.19
500.786	114.19
501.003	98.19
501.22	91.19
501.437	91.19
501.654	109.19
501.871	127.19
502.088	108.19
502.305	101.19
502.522	99.19
502.739	77.19
502.956	99.19
503.172	88.19
503.389	102.19
503.606	120.19
503.823	109.19
504.04	89.19
504.256	86.19
504.473	91.19
504.69	92.19
504.907	100.19
505.123	113.19
505.34	92.19
505.557	97.19
505.773	95.19
505.99	96.19
506.207	87.19
506.423	96.19
506.64	89.19
506.856	92.19
507.073	87.19
507.289	92.19
507.506	93.19
507.722	126.19
507.939	130.19
508.155	110.19
508.372	96.19
508.588	112.19
508.805	98.19
509.021	114.19
509.238	104.19
509.454	113.19
509.67	124.19
509.887	124.19
510.103	138.19
510.319	227.19
510.536	866.19
510.752	2904.19
510.968	769.19
511.184	171.19
511.401	113.19
511.617	103.19
511.833	96.19
512.049	103.19
