Data from Circ_1987_H10_HRD10591_00052.txt Node
Date: Wed Jan 03 12:10:43 EST 2024
User: Yrep
Spectrometer: HR+D1059
Trigger mode: 1
Integration Time (sec): 1.000000E-1
Scans to average: 1
Electric dark correction enabled: true
Nonlinearity correction enabled: false
Boxcar width: 0
XAxis mode: Wavelengths
Number of Pixels in Spectrum: 2048
>>>>>Begin Spectral Data<<<<<
223.165	-21.19
223.4	-21.19
223.635	-21.19
223.869	-33.19
224.104	-24.19
224.338	-15.19
224.573	-25.19
224.808	-4.19
225.042	10.81
225.277	0.81
225.511	-1.19
225.746	9.81
225.98	7.81
226.215	11.81
226.449	21.81
226.683	20.81
226.918	20.81
227.152	19.81
227.387	25.81
227.621	38.81
227.856	52.81
228.09	51.81
228.324	60.81
228.559	59.81
228.793	56.81
229.027	55.81
229.262	70.81
229.496	57.81
229.73	92.81
229.964	85.81
230.199	80.81
230.433	81.81
230.667	77.81
230.901	80.81
231.136	84.81
231.37	82.81
231.604	76.81
231.838	85.81
232.072	84.81
232.306	81.81
232.541	100.81
232.775	87.81
233.009	75.81
233.243	70.81
233.477	77.81
233.711	80.81
233.945	72.81
234.179	81.81
234.413	72.81
234.647	81.81
234.881	86.81
235.115	87.81
235.349	79.81
235.583	78.81
235.817	73.81
236.051	79.81
236.285	81.81
236.519	82.81
236.753	69.81
236.987	76.81
237.221	96.81
237.455	84.81
237.689	80.81
237.922	77.81
238.156	80.81
238.39	81.81
238.624	75.81
238.858	83.81
239.091	90.81
239.325	88.81
239.559	79.81
239.793	68.81
240.027	78.81
240.26	77.81
240.494	78.81
240.728	59.81
240.961	61.81
241.195	67.81
241.429	68.81
241.662	78.81
241.896	81.81
242.13	76.81
242.363	59.81
242.597	62.81
242.83	79.81
243.064	76.81
243.298	81.81
243.531	67.81
243.765	87.81
243.998	80.81
244.232	82.81
244.465	80.81
244.699	76.81
244.932	86.81
245.166	75.81
245.399	85.81
245.633	86.81
245.866	85.81
246.099	84.81
246.333	85.81
246.566	86.81
246.8	80.81
247.033	79.81
247.266	76.81
247.5	87.81
247.733	82.81
247.966	77.81
248.2	85.81
248.433	80.81
248.666	83.81
248.899	87.81
249.133	92.81
249.366	109.81
249.599	94.81
249.832	83.81
250.066	93.81
250.299	84.81
250.532	79.81
250.765	75.81
250.998	83.81
251.231	85.81
251.465	69.81
251.698	65.81
251.931	73.81
252.164	75.81
252.397	86.81
252.63	88.81
252.863	75.81
253.096	79.81
253.329	86.81
253.562	82.81
253.795	84.81
254.028	84.81
254.261	65.81
254.494	69.81
254.727	91.81
254.96	82.81
255.193	83.81
255.426	70.81
255.659	69.81
255.892	88.81
256.124	88.81
256.357	96.81
256.59	88.81
256.823	85.81
257.056	92.81
257.289	102.81
257.521	89.81
257.754	81.81
257.987	83.81
258.22	94.81
258.452	86.81
258.685	85.81
258.918	92.81
259.151	78.81
259.383	82.81
259.616	91.81
259.849	85.81
260.081	88.81
260.314	79.81
260.547	82.81
260.779	87.81
261.012	101.81
261.244	108.81
261.477	99.81
261.71	103.81
261.942	120.81
262.175	144.81
262.407	112.81
262.64	94.81
262.872	88.81
263.105	88.81
263.337	84.81
263.57	73.81
263.802	83.81
264.035	88.81
264.267	86.81
264.499	92.81
264.732	94.81
264.964	83.81
265.197	75.81
265.429	90.81
265.661	83.81
265.894	81.81
266.126	79.81
266.358	73.81
266.591	63.81
266.823	83.81
267.055	65.81
267.287	80.81
267.52	87.81
267.752	85.81
267.984	82.81
268.216	98.81
268.448	89.81
268.681	94.81
268.913	94.81
269.145	81.81
269.377	92.81
269.609	86.81
269.841	77.81
270.073	83.81
270.306	90.81
270.538	75.81
270.77	80.81
271.002	82.81
271.234	80.81
271.466	77.81
271.698	88.81
271.93	89.81
272.162	73.81
272.394	91.81
272.626	86.81
272.858	82.81
273.09	95.81
273.322	81.81
273.553	87.81
273.785	81.81
274.017	67.81
274.249	85.81
274.481	89.81
274.713	84.81
274.945	81.81
275.176	92.81
275.408	126.81
275.64	112.81
275.872	128.81
276.104	91.81
276.335	104.81
276.567	100.81
276.799	127.81
277.031	163.81
277.262	173.81
277.494	127.81
277.726	91.81
277.957	96.81
278.189	92.81
278.421	80.81
278.652	89.81
278.884	83.81
279.115	89.81
279.347	90.81
279.579	92.81
279.81	99.81
280.042	173.81
280.273	220.81
280.505	154.81
280.736	95.81
280.968	83.81
281.199	99.81
281.431	96.81
281.662	91.81
281.894	75.81
282.125	97.81
282.356	122.81
282.588	165.81
282.819	128.81
283.051	102.81
283.282	92.81
283.513	97.81
283.745	87.81
283.976	89.81
284.207	84.81
284.439	79.81
284.67	83.81
284.901	94.81
285.132	83.81
285.364	87.81
285.595	88.81
285.826	71.81
286.057	82.81
286.288	91.81
286.52	88.81
286.751	84.81
286.982	89.81
287.213	83.81
287.444	80.81
287.675	98.81
287.906	84.81
288.138	80.81
288.369	92.81
288.6	104.81
288.831	91.81
289.062	75.81
289.293	70.81
289.524	80.81
289.755	88.81
289.986	88.81
290.217	95.81
290.448	77.81
290.679	83.81
290.91	97.81
291.141	87.81
291.371	92.81
291.602	79.81
291.833	89.81
292.064	93.81
292.295	83.81
292.526	88.81
292.757	88.81
292.987	81.81
293.218	67.81
293.449	75.81
293.68	91.81
293.91	86.81
294.141	102.81
294.372	86.81
294.603	80.81
294.833	98.81
295.064	79.81
295.295	78.81
295.525	94.81
295.756	96.81
295.987	126.81
296.217	169.81
296.448	128.81
296.679	86.81
296.909	97.81
297.14	83.81
297.37	92.81
297.601	93.81
297.831	87.81
298.062	87.81
298.292	94.81
298.523	89.81
298.753	81.81
298.984	87.81
299.214	82.81
299.445	79.81
299.675	98.81
299.905	95.81
300.136	101.81
300.366	84.81
300.597	97.81
300.827	101.81
301.057	98.81
301.288	119.81
301.518	103.81
301.748	87.81
301.979	111.81
302.209	88.81
302.439	82.81
302.669	91.81
302.9	91.81
303.13	115.81
303.36	117.81
303.59	126.81
303.82	144.81
304.051	96.81
304.281	79.81
304.511	78.81
304.741	95.81
304.971	91.81
305.201	92.81
305.431	100.81
305.661	88.81
305.891	103.81
306.121	100.81
306.352	116.81
306.582	105.81
306.812	96.81
307.042	120.81
307.272	144.81
307.502	139.81
307.731	161.81
307.961	116.81
308.191	93.81
308.421	81.81
308.651	93.81
308.881	96.81
309.111	109.81
309.341	97.81
309.571	92.81
309.8	110.81
310.03	95.81
310.26	107.81
310.49	86.81
310.72	100.81
310.949	117.81
311.179	101.81
311.409	87.81
311.639	106.81
311.868	110.81
312.098	103.81
312.328	97.81
312.557	103.81
312.787	98.81
313.017	116.81
313.246	98.81
313.476	97.81
313.706	91.81
313.935	92.81
314.165	111.81
314.394	104.81
314.624	87.81
314.853	93.81
315.083	97.81
315.312	79.81
315.542	92.81
315.771	93.81
316.001	92.81
316.23	84.81
316.46	95.81
316.689	78.81
316.919	102.81
317.148	109.81
317.377	90.81
317.607	91.81
317.836	94.81
318.065	97.81
318.295	94.81
318.524	95.81
318.753	88.81
318.983	87.81
319.212	107.81
319.441	113.81
319.67	111.81
319.9	116.81
320.129	89.81
320.358	85.81
320.587	91.81
320.816	99.81
321.046	105.81
321.275	115.81
321.504	111.81
321.733	89.81
321.962	100.81
322.191	105.81
322.42	111.81
322.649	113.81
322.878	103.81
323.108	108.81
323.337	135.81
323.566	122.81
323.795	153.81
324.024	214.81
324.253	362.81
324.482	721.81
324.71	1463.81
324.939	1965.81
325.168	759.81
325.397	238.81
325.626	143.81
325.855	126.81
326.084	136.81
326.313	139.81
326.542	139.81
326.77	226.81
326.999	373.81
327.228	765.81
327.457	1396.81
327.686	1146.81
327.914	405.81
328.143	413.81
328.372	543.81
328.6	323.81
328.829	170.81
329.058	161.81
329.287	179.81
329.515	139.81
329.744	213.81
329.972	374.81
330.201	756.81
330.43	1136.81
330.658	510.81
330.887	270.81
331.115	165.81
331.344	115.81
331.572	123.81
331.801	124.81
332.03	114.81
332.258	108.81
332.486	98.81
332.715	97.81
332.943	123.81
333.172	115.81
333.4	119.81
333.629	145.81
333.857	197.81
334.085	341.81
334.314	675.81
334.542	1351.81
334.771	1325.81
334.999	365.81
335.227	147.81
335.455	122.81
335.684	119.81
335.912	102.81
336.14	101.81
336.369	101.81
336.597	112.81
336.825	89.81
337.053	93.81
337.281	99.81
337.51	97.81
337.738	83.81
337.966	113.81
338.194	92.81
338.422	97.81
338.65	104.81
338.878	99.81
339.106	109.81
339.334	97.81
339.562	89.81
339.79	95.81
340.018	100.81
340.246	87.81
340.474	94.81
340.702	97.81
340.93	94.81
341.158	89.81
341.386	103.81
341.614	108.81
341.842	87.81
342.07	100.81
342.298	102.81
342.526	102.81
342.754	88.81
342.981	76.81
343.209	81.81
343.437	103.81
343.665	93.81
343.893	91.81
344.12	83.81
344.348	97.81
344.576	92.81
344.804	82.81
345.031	103.81
345.259	98.81
345.487	104.81
345.714	119.81
345.942	98.81
346.17	105.81
346.397	100.81
346.625	103.81
346.853	90.81
347.08	86.81
347.308	112.81
347.535	114.81
347.763	108.81
347.99	99.81
348.218	102.81
348.445	94.81
348.673	105.81
348.9	84.81
349.128	95.81
349.355	89.81
349.583	90.81
349.81	97.81
350.037	88.81
350.265	94.81
350.492	96.81
350.72	92.81
350.947	120.81
351.174	116.81
351.402	108.81
351.629	113.81
351.856	107.81
352.083	104.81
352.311	106.81
352.538	104.81
352.765	109.81
352.992	121.81
353.22	111.81
353.447	103.81
353.674	98.81
353.901	97.81
354.128	76.81
354.355	99.81
354.583	92.81
354.81	104.81
355.037	103.81
355.264	86.81
355.491	94.81
355.718	93.81
355.945	101.81
356.172	82.81
356.399	104.81
356.626	113.81
356.853	102.81
357.08	86.81
357.307	94.81
357.534	89.81
357.761	98.81
357.988	110.81
358.215	89.81
358.441	80.81
358.668	93.81
358.895	87.81
359.122	99.81
359.349	78.81
359.576	85.81
359.802	120.81
360.029	131.81
360.256	119.81
360.483	112.81
360.709	87.81
360.936	82.81
361.163	83.81
361.39	106.81
361.616	109.81
361.843	97.81
362.07	111.81
362.296	101.81
362.523	93.81
362.749	103.81
362.976	87.81
363.203	99.81
363.429	96.81
363.656	78.81
363.882	102.81
364.109	94.81
364.335	84.81
364.562	89.81
364.788	83.81
365.015	92.81
365.241	110.81
365.468	116.81
365.694	111.81
365.92	91.81
366.147	95.81
366.373	94.81
366.599	84.81
366.826	92.81
367.052	79.81
367.278	93.81
367.505	94.81
367.731	103.81
367.957	81.81
368.184	108.81
368.41	89.81
368.636	103.81
368.862	125.81
369.089	114.81
369.315	101.81
369.541	92.81
369.767	82.81
369.993	82.81
370.219	84.81
370.445	84.81
370.672	80.81
370.898	94.81
371.124	88.81
371.35	87.81
371.576	84.81
371.802	93.81
372.028	95.81
372.254	86.81
372.48	97.81
372.706	86.81
372.932	93.81
373.158	83.81
373.384	97.81
373.61	91.81
373.835	96.81
374.061	91.81
374.287	82.81
374.513	91.81
374.739	107.81
374.965	76.81
375.191	65.81
375.416	93.81
375.642	79.81
375.868	96.81
376.094	87.81
376.319	86.81
376.545	78.81
376.771	81.81
376.997	79.81
377.222	94.81
377.448	96.81
377.674	93.81
377.899	89.81
378.125	87.81
378.35	99.81
378.576	97.81
378.802	91.81
379.027	83.81
379.253	92.81
379.478	81.81
379.704	102.81
379.929	85.81
380.155	90.81
380.38	83.81
380.606	94.81
380.831	91.81
381.057	93.81
381.282	102.81
381.507	96.81
381.733	88.81
381.958	89.81
382.184	105.81
382.409	93.81
382.634	99.81
382.86	100.81
383.085	100.81
383.31	101.81
383.535	106.81
383.761	105.81
383.986	89.81
384.211	87.81
384.436	90.81
384.662	97.81
384.887	108.81
385.112	108.81
385.337	95.81
385.562	98.81
385.787	115.81
386.013	123.81
386.238	115.81
386.463	110.81
386.688	103.81
386.913	110.81
387.138	100.81
387.363	92.81
387.588	98.81
387.813	100.81
388.038	76.81
388.263	102.81
388.488	95.81
388.713	101.81
388.938	103.81
389.163	105.81
389.387	93.81
389.612	88.81
389.837	81.81
390.062	93.81
390.287	93.81
390.512	92.81
390.736	80.81
390.961	94.81
391.186	85.81
391.411	92.81
391.636	86.81
391.86	87.81
392.085	101.81
392.31	85.81
392.534	86.81
392.759	93.81
392.984	79.81
393.208	93.81
393.433	104.81
393.658	100.81
393.882	80.81
394.107	92.81
394.331	79.81
394.556	88.81
394.78	95.81
395.005	89.81
395.229	88.81
395.454	83.81
395.678	100.81
395.903	84.81
396.127	76.81
396.352	84.81
396.576	90.81
396.801	97.81
397.025	100.81
397.249	76.81
397.474	94.81
397.698	95.81
397.922	91.81
398.147	68.81
398.371	73.81
398.595	88.81
398.82	81.81
399.044	85.81
399.268	82.81
399.492	99.81
399.717	110.81
399.941	80.81
400.165	92.81
400.389	96.81
400.613	85.81
400.837	80.81
401.062	96.81
401.286	94.81
401.51	95.81
401.734	92.81
401.958	101.81
402.182	127.81
402.406	170.81
402.63	139.81
402.854	99.81
403.078	88.81
403.302	76.81
403.526	89.81
403.75	84.81
403.974	93.81
404.198	80.81
404.422	95.81
404.645	92.81
404.869	91.81
405.093	96.81
405.317	127.81
405.541	119.81
405.765	95.81
405.988	123.81
406.212	184.81
406.436	281.81
406.66	169.81
406.883	105.81
407.107	104.81
407.331	111.81
407.555	92.81
407.778	112.81
408.002	100.81
408.226	88.81
408.449	87.81
408.673	87.81
408.896	86.81
409.12	84.81
409.344	100.81
409.567	101.81
409.791	87.81
410.014	93.81
410.238	78.81
410.461	94.81
410.685	100.81
410.908	88.81
411.132	102.81
411.355	93.81
411.578	89.81
411.802	78.81
412.025	91.81
412.249	96.81
412.472	113.81
412.695	125.81
412.919	105.81
413.142	96.81
413.365	92.81
413.589	85.81
413.812	104.81
414.035	103.81
414.258	95.81
414.482	83.81
414.705	94.81
414.928	102.81
415.151	89.81
415.374	95.81
415.597	86.81
415.821	88.81
416.044	90.81
416.267	79.81
416.49	72.81
416.713	85.81
416.936	88.81
417.159	97.81
417.382	99.81
417.605	94.81
417.828	103.81
418.051	95.81
418.274	91.81
418.497	82.81
418.72	91.81
418.943	87.81
419.166	88.81
419.389	91.81
419.611	99.81
419.834	85.81
420.057	96.81
420.28	100.81
420.503	80.81
420.726	103.81
420.948	88.81
421.171	100.81
421.394	105.81
421.617	84.81
421.839	89.81
422.062	92.81
422.285	105.81
422.507	90.81
422.73	111.81
422.953	96.81
423.175	83.81
423.398	72.81
423.621	91.81
423.843	85.81
424.066	73.81
424.288	92.81
424.511	93.81
424.733	101.81
424.956	122.81
425.178	107.81
425.401	105.81
425.623	106.81
425.846	101.81
426.068	99.81
426.291	92.81
426.513	94.81
426.735	101.81
426.958	113.81
427.18	95.81
427.402	149.81
427.625	225.81
427.847	203.81
428.069	187.81
428.292	115.81
428.514	94.81
428.736	87.81
428.958	97.81
429.181	88.81
429.403	89.81
429.625	101.81
429.847	99.81
430.069	116.81
430.292	103.81
430.514	86.81
430.736	89.81
430.958	86.81
431.18	79.81
431.402	87.81
431.624	87.81
431.846	83.81
432.068	77.81
432.29	85.81
432.512	79.81
432.734	98.81
432.956	88.81
433.178	92.81
433.4	94.81
433.622	77.81
433.844	91.81
434.066	91.81
434.287	89.81
434.509	91.81
434.731	83.81
434.953	80.81
435.175	86.81
435.397	83.81
435.618	102.81
435.84	87.81
436.062	118.81
436.284	121.81
436.505	101.81
436.727	100.81
436.949	97.81
437.17	76.81
437.392	90.81
437.614	96.81
437.835	112.81
438.057	134.81
438.278	123.81
438.5	101.81
438.721	125.81
438.943	115.81
439.165	83.81
439.386	95.81
439.608	108.81
439.829	94.81
440.05	125.81
440.272	158.81
440.493	109.81
440.715	109.81
440.936	92.81
441.158	89.81
441.379	88.81
441.6	92.81
441.822	94.81
442.043	99.81
442.264	96.81
442.486	114.81
442.707	100.81
442.928	108.81
443.149	145.81
443.371	146.81
443.592	133.81
443.813	112.81
444.034	101.81
444.255	94.81
444.476	89.81
444.698	76.81
444.919	93.81
445.14	116.81
445.361	118.81
445.582	116.81
445.803	147.81
446.024	143.81
446.245	150.81
446.466	114.81
446.687	96.81
446.908	93.81
447.129	95.81
447.35	79.81
447.571	88.81
447.792	99.81
448.013	111.81
448.234	104.81
448.455	105.81
448.675	132.81
448.896	119.81
449.117	95.81
449.338	86.81
449.559	142.81
449.779	127.81
450	99.81
450.221	97.81
450.442	96.81
450.662	108.81
450.883	117.81
451.104	128.81
451.324	106.81
451.545	91.81
451.766	83.81
451.986	89.81
452.207	77.81
452.428	96.81
452.648	99.81
452.869	127.81
453.089	131.81
453.31	128.81
453.53	95.81
453.751	97.81
453.971	120.81
454.192	118.81
454.412	102.81
454.633	89.81
454.853	89.81
455.073	96.81
455.294	87.81
455.514	107.81
455.734	104.81
455.955	70.81
456.175	73.81
456.395	90.81
456.616	86.81
456.836	83.81
457.056	94.81
457.276	94.81
457.497	94.81
457.717	97.81
457.937	83.81
458.157	88.81
458.377	99.81
458.598	124.81
458.818	179.81
459.038	207.81
459.258	131.81
459.478	95.81
459.698	88.81
459.918	80.81
460.138	80.81
460.358	96.81
460.578	87.81
460.798	98.81
461.018	93.81
461.238	87.81
461.458	86.81
461.678	84.81
461.898	76.81
462.118	78.81
462.338	88.81
462.558	71.81
462.777	66.81
462.997	104.81
463.217	99.81
463.437	96.81
463.657	85.81
463.876	92.81
464.096	92.81
464.316	94.81
464.536	102.81
464.755	102.81
464.975	127.81
465.195	194.81
465.414	231.81
465.634	118.81
465.854	104.81
466.073	87.81
466.293	70.81
466.512	77.81
466.732	88.81
466.951	96.81
467.171	99.81
467.391	111.81
467.61	133.81
467.829	160.81
468.049	433.81
468.268	687.81
468.488	191.81
468.707	114.81
468.927	111.81
469.146	72.81
469.365	84.81
469.585	99.81
469.804	102.81
470.023	109.81
470.243	101.81
470.462	119.81
470.681	127.81
470.901	116.81
471.12	89.81
471.339	88.81
471.558	111.81
471.777	133.81
471.997	250.81
472.216	818.81
472.435	2017.81
472.654	483.81
472.873	142.81
473.092	104.81
473.311	104.81
473.53	95.81
473.749	83.81
473.968	91.81
474.187	104.81
474.406	120.81
474.625	95.81
474.844	94.81
475.063	75.81
475.282	66.81
475.501	86.81
475.72	107.81
475.939	95.81
476.158	71.81
476.377	78.81
476.596	76.81
476.814	103.81
477.033	103.81
477.252	89.81
477.471	95.81
477.69	102.81
477.908	95.81
478.127	96.81
478.346	99.81
478.564	97.81
478.783	103.81
479.002	90.81
479.22	120.81
479.439	121.81
479.658	126.81
479.876	119.81
480.095	95.81
480.313	125.81
480.532	147.81
480.751	221.81
480.969	754.81
481.188	3336.81
481.406	1931.81
481.624	298.81
481.843	126.81
482.061	106.81
482.28	92.81
482.498	94.81
482.717	88.81
482.935	82.81
483.153	93.81
483.372	97.81
483.59	89.81
483.808	102.81
484.027	84.81
484.245	89.81
484.463	108.81
484.681	99.81
484.9	89.81
485.118	100.81
485.336	96.81
485.554	94.81
485.772	102.81
485.99	109.81
486.209	106.81
486.427	105.81
486.645	112.81
486.863	113.81
487.081	122.81
487.299	99.81
487.517	81.81
487.735	98.81
487.953	96.81
488.171	101.81
488.389	99.81
488.607	95.81
488.825	94.81
489.043	101.81
489.261	95.81
489.479	71.81
489.696	96.81
489.914	105.81
490.132	88.81
490.35	88.81
490.568	86.81
490.786	95.81
491.003	105.81
491.221	82.81
491.439	90.81
491.657	90.81
491.874	103.81
492.092	81.81
492.31	96.81
492.527	101.81
492.745	87.81
492.963	96.81
493.18	93.81
493.398	73.81
493.615	87.81
493.833	92.81
494.05	94.81
494.268	100.81
494.485	95.81
494.703	84.81
494.92	99.81
495.138	93.81
495.355	103.81
495.573	86.81
495.79	86.81
496.008	90.81
496.225	103.81
496.442	105.81
496.66	86.81
496.877	82.81
497.094	90.81
497.312	93.81
497.529	96.81
497.746	89.81
497.963	97.81
498.181	95.81
498.398	90.81
498.615	99.81
498.832	99.81
499.049	103.81
499.267	96.81
499.484	81.81
499.701	103.81
499.918	109.81
500.135	69.81
500.352	96.81
500.569	104.81
500.786	104.81
501.003	87.81
501.22	86.81
501.437	93.81
501.654	93.81
501.871	115.81
502.088	98.81
502.305	79.81
502.522	71.81
502.739	99.81
502.956	98.81
503.172	93.81
503.389	98.81
503.606	115.81
503.823	92.81
504.04	92.81
504.256	88.81
504.473	107.81
504.69	91.81
504.907	100.81
505.123	76.81
505.34	95.81
505.557	86.81
505.773	106.81
505.99	80.81
506.207	95.81
506.423	96.81
506.64	93.81
506.856	95.81
507.073	81.81
507.289	87.81
507.506	103.81
507.722	131.81
507.939	122.81
508.155	106.81
508.372	87.81
508.588	91.81
508.805	87.81
509.021	88.81
509.238	107.81
509.454	95.81
509.67	105.81
509.887	122.81
510.103	147.81
510.319	222.81
510.536	839.81
510.752	2899.81
510.968	791.81
511.184	179.81
511.401	120.81
511.617	103.81
511.833	106.81
512.049	91.81
512.265	100.81
512.481	92.81
512.698	99.81
512.914	95.81
513.13	93.81
513.346	93.81
513.562	113.81
513.778	101.81
513.994	106.81
