Data from Circ_1987_H10_HRD10591_00040.txt Node
Date: Wed Jan 03 12:10:40 EST 2024
User: Yrep
Spectrometer: HR+D1059
Trigger mode: 1
Integration Time (sec): 1.000000E-1
Scans to average: 1
Electric dark correction enabled: true
Nonlinearity correction enabled: false
Boxcar width: 0
XAxis mode: Wavelengths
Number of Pixels in Spectrum: 2048
>>>>>Begin Spectral Data<<<<<
223.165	-11.88
223.4	-11.88
223.635	-11.88
223.869	-15.88
224.104	-18.88
224.338	-1.88
224.573	-22.88
224.808	-23.88
225.042	-8.88
225.277	-5.88
225.511	-6.88
225.746	10.12
225.98	21.12
226.215	12.12
226.449	11.12
226.683	13.12
226.918	24.12
227.152	25.12
227.387	47.12
227.621	27.12
227.856	39.12
228.09	46.12
228.324	55.12
228.559	64.12
228.793	53.12
229.027	67.12
229.262	70.12
229.496	77.12
229.73	109.12
229.964	106.12
230.199	83.12
230.433	62.12
230.667	92.12
230.901	88.12
231.136	77.12
231.37	81.12
231.604	81.12
231.838	97.12
232.072	95.12
232.306	81.12
232.541	82.12
232.775	78.12
233.009	82.12
233.243	83.12
233.477	68.12
233.711	83.12
233.945	78.12
234.179	89.12
234.413	88.12
234.647	74.12
234.881	102.12
235.115	86.12
235.349	86.12
235.583	73.12
235.817	87.12
236.051	85.12
236.285	77.12
236.519	85.12
236.753	86.12
236.987	86.12
237.221	85.12
237.455	97.12
237.689	104.12
237.922	76.12
238.156	90.12
238.39	93.12
238.624	81.12
238.858	56.12
239.091	79.12
239.325	88.12
239.559	92.12
239.793	81.12
240.027	90.12
240.26	94.12
240.494	92.12
240.728	86.12
240.961	80.12
241.195	92.12
241.429	83.12
241.662	81.12
241.896	84.12
242.13	82.12
242.363	72.12
242.597	70.12
242.83	75.12
243.064	66.12
243.298	87.12
243.531	92.12
243.765	76.12
243.998	88.12
244.232	92.12
244.465	94.12
244.699	89.12
244.932	97.12
245.166	85.12
245.399	76.12
245.633	85.12
245.866	91.12
246.099	99.12
246.333	91.12
246.566	87.12
246.8	86.12
247.033	88.12
247.266	74.12
247.5	81.12
247.733	87.12
247.966	89.12
248.2	78.12
248.433	82.12
248.666	91.12
248.899	95.12
249.133	97.12
249.366	94.12
249.599	107.12
249.832	82.12
250.066	92.12
250.299	87.12
250.532	103.12
250.765	90.12
250.998	76.12
251.231	95.12
251.465	74.12
251.698	86.12
251.931	87.12
252.164	81.12
252.397	74.12
252.63	77.12
252.863	83.12
253.096	67.12
253.329	79.12
253.562	81.12
253.795	95.12
254.028	72.12
254.261	87.12
254.494	99.12
254.727	84.12
254.96	90.12
255.193	73.12
255.426	65.12
255.659	73.12
255.892	84.12
256.124	91.12
256.357	99.12
256.59	81.12
256.823	86.12
257.056	87.12
257.289	102.12
257.521	83.12
257.754	98.12
257.987	112.12
258.22	106.12
258.452	98.12
258.685	91.12
258.918	91.12
259.151	78.12
259.383	78.12
259.616	95.12
259.849	92.12
260.081	82.12
260.314	96.12
260.547	101.12
260.779	97.12
261.012	109.12
261.244	99.12
261.477	97.12
261.71	102.12
261.942	146.12
262.175	151.12
262.407	109.12
262.64	105.12
262.872	76.12
263.105	102.12
263.337	93.12
263.57	87.12
263.802	90.12
264.035	84.12
264.267	86.12
264.499	90.12
264.732	98.12
264.964	87.12
265.197	75.12
265.429	90.12
265.661	66.12
265.894	87.12
266.126	99.12
266.358	94.12
266.591	84.12
266.823	102.12
267.055	89.12
267.287	85.12
267.52	89.12
267.752	86.12
267.984	91.12
268.216	93.12
268.448	94.12
268.681	99.12
268.913	85.12
269.145	99.12
269.377	90.12
269.609	103.12
269.841	83.12
270.073	87.12
270.306	88.12
270.538	78.12
270.77	83.12
271.002	96.12
271.234	87.12
271.466	94.12
271.698	90.12
271.93	91.12
272.162	86.12
272.394	75.12
272.626	89.12
272.858	81.12
273.09	94.12
273.322	97.12
273.553	94.12
273.785	91.12
274.017	89.12
274.249	83.12
274.481	87.12
274.713	93.12
274.945	95.12
275.176	113.12
275.408	102.12
275.64	115.12
275.872	115.12
276.104	102.12
276.335	112.12
276.567	138.12
276.799	153.12
277.031	187.12
277.262	212.12
277.494	169.12
277.726	83.12
277.957	89.12
278.189	101.12
278.421	102.12
278.652	86.12
278.884	93.12
279.115	91.12
279.347	93.12
279.579	105.12
279.81	123.12
280.042	173.12
280.273	248.12
280.505	165.12
280.736	112.12
280.968	101.12
281.199	93.12
281.431	109.12
281.662	83.12
281.894	104.12
282.125	113.12
282.356	150.12
282.588	197.12
282.819	153.12
283.051	100.12
283.282	97.12
283.513	93.12
283.745	81.12
283.976	71.12
284.207	84.12
284.439	96.12
284.67	93.12
284.901	95.12
285.132	87.12
285.364	82.12
285.595	82.12
285.826	86.12
286.057	92.12
286.288	87.12
286.52	92.12
286.751	94.12
286.982	91.12
287.213	86.12
287.444	106.12
287.675	92.12
287.906	103.12
288.138	86.12
288.369	104.12
288.6	111.12
288.831	89.12
289.062	90.12
289.293	106.12
289.524	91.12
289.755	83.12
289.986	93.12
290.217	83.12
290.448	92.12
290.679	94.12
290.91	97.12
291.141	109.12
291.371	94.12
291.602	86.12
291.833	89.12
292.064	90.12
292.295	102.12
292.526	96.12
292.757	98.12
292.987	93.12
293.218	77.12
293.449	95.12
293.68	90.12
293.91	98.12
294.141	101.12
294.372	99.12
294.603	90.12
294.833	87.12
295.064	93.12
295.295	94.12
295.525	102.12
295.756	93.12
295.987	131.12
296.217	194.12
296.448	171.12
296.679	107.12
296.909	90.12
297.14	103.12
297.37	103.12
297.601	111.12
297.831	100.12
298.062	99.12
298.292	98.12
298.523	79.12
298.753	95.12
298.984	91.12
299.214	100.12
299.445	102.12
299.675	107.12
299.905	113.12
300.136	90.12
300.366	99.12
300.597	98.12
300.827	107.12
301.057	127.12
301.288	135.12
301.518	111.12
301.748	112.12
301.979	115.12
302.209	91.12
302.439	108.12
302.669	99.12
302.9	88.12
303.13	95.12
303.36	121.12
303.59	141.12
303.82	166.12
304.051	111.12
304.281	106.12
304.511	110.12
304.741	79.12
304.971	103.12
305.201	93.12
305.431	102.12
305.661	94.12
305.891	96.12
306.121	109.12
306.352	107.12
306.582	125.12
306.812	110.12
307.042	131.12
307.272	162.12
307.502	177.12
307.731	171.12
307.961	116.12
308.191	109.12
308.421	104.12
308.651	93.12
308.881	85.12
309.111	100.12
309.341	104.12
309.571	130.12
309.8	104.12
310.03	125.12
310.26	110.12
310.49	133.12
310.72	118.12
310.949	130.12
311.179	131.12
311.409	116.12
311.639	115.12
311.868	126.12
312.098	105.12
312.328	116.12
312.557	129.12
312.787	150.12
313.017	127.12
313.246	119.12
313.476	108.12
313.706	112.12
313.935	122.12
314.165	123.12
314.394	126.12
314.624	114.12
314.853	118.12
315.083	109.12
315.312	107.12
315.542	98.12
315.771	95.12
316.001	102.12
316.23	105.12
316.46	97.12
316.689	104.12
316.919	107.12
317.148	115.12
317.377	97.12
317.607	105.12
317.836	102.12
318.065	103.12
318.295	98.12
318.524	95.12
318.753	94.12
318.983	112.12
319.212	115.12
319.441	124.12
319.67	141.12
319.9	107.12
320.129	94.12
320.358	108.12
320.587	114.12
320.816	123.12
321.046	129.12
321.275	110.12
321.504	107.12
321.733	93.12
321.962	102.12
322.191	119.12
322.42	112.12
322.649	142.12
322.878	127.12
323.108	126.12
323.337	149.12
323.566	161.12
323.795	188.12
324.024	231.12
324.253	402.12
324.482	894.12
324.71	1732.12
324.939	2270.12
325.168	863.12
325.397	283.12
325.626	166.12
325.855	154.12
326.084	131.12
326.313	141.12
326.542	174.12
326.77	265.12
326.999	429.12
327.228	861.12
327.457	1555.12
327.686	1325.12
327.914	519.12
328.143	495.12
328.372	659.12
328.6	350.12
328.829	198.12
329.058	209.12
329.287	221.12
329.515	180.12
329.744	221.12
329.972	441.12
330.201	872.12
330.43	1318.12
330.658	596.12
330.887	306.12
331.115	230.12
331.344	148.12
331.572	125.12
331.801	133.12
332.03	136.12
332.258	121.12
332.486	109.12
332.715	118.12
332.943	115.12
333.172	112.12
333.4	123.12
333.629	150.12
333.857	221.12
334.085	396.12
334.314	808.12
334.542	1577.12
334.771	1494.12
334.999	430.12
335.227	193.12
335.455	121.12
335.684	119.12
335.912	113.12
336.14	122.12
336.369	117.12
336.597	126.12
336.825	137.12
337.053	97.12
337.281	103.12
337.51	106.12
337.738	102.12
337.966	110.12
338.194	117.12
338.422	101.12
338.65	104.12
338.878	114.12
339.106	101.12
339.334	104.12
339.562	105.12
339.79	102.12
340.018	113.12
340.246	102.12
340.474	106.12
340.702	107.12
340.93	98.12
341.158	101.12
341.386	127.12
341.614	113.12
341.842	110.12
342.07	107.12
342.298	93.12
342.526	95.12
342.754	107.12
342.981	107.12
343.209	102.12
343.437	120.12
343.665	91.12
343.893	94.12
344.12	97.12
344.348	98.12
344.576	101.12
344.804	87.12
345.031	124.12
345.259	122.12
345.487	109.12
345.714	118.12
345.942	100.12
346.17	104.12
346.397	106.12
346.625	97.12
346.853	103.12
347.08	103.12
347.308	90.12
347.535	111.12
347.763	124.12
347.99	118.12
348.218	118.12
348.445	130.12
348.673	108.12
348.9	106.12
349.128	120.12
349.355	106.12
349.583	95.12
349.81	103.12
350.037	95.12
350.265	98.12
350.492	107.12
350.72	105.12
350.947	111.12
351.174	114.12
351.402	134.12
351.629	123.12
351.856	132.12
352.083	125.12
352.311	115.12
352.538	127.12
352.765	140.12
352.992	129.12
353.22	121.12
353.447	129.12
353.674	117.12
353.901	101.12
354.128	82.12
354.355	95.12
354.583	105.12
354.81	90.12
355.037	106.12
355.264	107.12
355.491	105.12
355.718	109.12
355.945	96.12
356.172	83.12
356.399	96.12
356.626	104.12
356.853	93.12
357.08	99.12
357.307	94.12
357.534	107.12
357.761	99.12
357.988	92.12
358.215	99.12
358.441	92.12
358.668	89.12
358.895	105.12
359.122	99.12
359.349	99.12
359.576	117.12
359.802	115.12
360.029	172.12
360.256	158.12
360.483	111.12
360.709	113.12
360.936	100.12
361.163	102.12
361.39	110.12
361.616	99.12
361.843	108.12
362.07	115.12
362.296	120.12
362.523	104.12
362.749	108.12
362.976	109.12
363.203	105.12
363.429	105.12
363.656	113.12
363.882	99.12
364.109	101.12
364.335	96.12
364.562	92.12
364.788	106.12
365.015	116.12
365.241	109.12
365.468	126.12
365.694	125.12
365.92	121.12
366.147	102.12
366.373	104.12
366.599	101.12
366.826	99.12
367.052	96.12
367.278	111.12
367.505	105.12
367.731	114.12
367.957	98.12
368.184	134.12
368.41	118.12
368.636	145.12
368.862	148.12
369.089	148.12
369.315	115.12
369.541	109.12
369.767	120.12
369.993	92.12
370.219	105.12
370.445	92.12
370.672	97.12
370.898	91.12
371.124	103.12
371.35	87.12
371.576	75.12
371.802	93.12
372.028	92.12
372.254	101.12
372.48	94.12
372.706	99.12
372.932	90.12
373.158	90.12
373.384	106.12
373.61	105.12
373.835	91.12
374.061	88.12
374.287	105.12
374.513	103.12
374.739	83.12
374.965	97.12
375.191	98.12
375.416	94.12
375.642	91.12
375.868	103.12
376.094	91.12
376.319	104.12
376.545	99.12
376.771	108.12
376.997	97.12
377.222	107.12
377.448	101.12
377.674	91.12
377.899	98.12
378.125	86.12
378.35	93.12
378.576	99.12
378.802	85.12
379.027	91.12
379.253	103.12
379.478	92.12
379.704	96.12
379.929	111.12
380.155	94.12
380.38	95.12
380.606	122.12
380.831	110.12
381.057	99.12
381.282	106.12
381.507	108.12
381.733	97.12
381.958	109.12
382.184	96.12
382.409	113.12
382.634	104.12
382.86	103.12
383.085	109.12
383.31	105.12
383.535	108.12
383.761	106.12
383.986	123.12
384.211	113.12
384.436	98.12
384.662	109.12
384.887	109.12
385.112	102.12
385.337	112.12
385.562	110.12
385.787	118.12
386.013	117.12
386.238	131.12
386.463	99.12
386.688	120.12
386.913	109.12
387.138	119.12
387.363	111.12
387.588	111.12
387.813	103.12
388.038	119.12
388.263	127.12
388.488	117.12
388.713	106.12
388.938	103.12
389.163	77.12
389.387	109.12
389.612	98.12
389.837	83.12
390.062	90.12
390.287	83.12
390.512	86.12
390.736	90.12
390.961	90.12
391.186	99.12
391.411	107.12
391.636	96.12
391.86	85.12
392.085	90.12
392.31	87.12
392.534	91.12
392.759	94.12
392.984	93.12
393.208	101.12
393.433	104.12
393.658	89.12
393.882	92.12
394.107	91.12
394.331	81.12
394.556	104.12
394.78	119.12
395.005	91.12
395.229	94.12
395.454	94.12
395.678	99.12
395.903	89.12
396.127	101.12
396.352	98.12
396.576	85.12
396.801	90.12
397.025	110.12
397.249	93.12
397.474	94.12
397.698	102.12
397.922	83.12
398.147	80.12
398.371	93.12
398.595	86.12
398.82	82.12
399.044	102.12
399.268	90.12
399.492	94.12
399.717	111.12
399.941	89.12
400.165	120.12
400.389	104.12
400.613	101.12
400.837	88.12
401.062	91.12
401.286	102.12
401.51	107.12
401.734	94.12
401.958	118.12
402.182	164.12
402.406	240.12
402.63	181.12
402.854	99.12
403.078	89.12
403.302	97.12
403.526	116.12
403.75	86.12
403.974	90.12
404.198	92.12
404.422	86.12
404.645	94.12
404.869	111.12
405.093	127.12
405.317	151.12
405.541	142.12
405.765	113.12
405.988	163.12
406.212	245.12
406.436	390.12
406.66	233.12
406.883	114.12
407.107	119.12
407.331	112.12
407.555	98.12
407.778	112.12
408.002	105.12
408.226	94.12
408.449	94.12
408.673	116.12
408.896	89.12
409.12	101.12
409.344	97.12
409.567	94.12
409.791	97.12
410.014	105.12
410.238	108.12
410.461	93.12
410.685	106.12
410.908	105.12
411.132	112.12
411.355	113.12
411.578	95.12
411.802	90.12
412.025	94.12
412.249	109.12
412.472	134.12
412.695	135.12
412.919	116.12
413.142	100.12
413.365	107.12
413.589	94.12
413.812	92.12
414.035	109.12
414.258	93.12
414.482	97.12
414.705	98.12
414.928	106.12
415.151	82.12
415.374	117.12
415.597	90.12
415.821	108.12
416.044	87.12
416.267	110.12
416.49	105.12
416.713	87.12
416.936	87.12
417.159	93.12
417.382	109.12
417.605	109.12
417.828	110.12
418.051	101.12
418.274	88.12
418.497	94.12
418.72	100.12
418.943	92.12
419.166	83.12
419.389	99.12
419.611	101.12
419.834	83.12
420.057	98.12
420.28	113.12
420.503	98.12
420.726	101.12
420.948	95.12
421.171	111.12
421.394	114.12
421.617	105.12
421.839	91.12
422.062	83.12
422.285	101.12
422.507	115.12
422.73	117.12
422.953	100.12
423.175	99.12
423.398	98.12
423.621	98.12
423.843	94.12
424.066	81.12
424.288	78.12
424.511	92.12
424.733	103.12
424.956	126.12
425.178	139.12
425.401	120.12
425.623	117.12
425.846	104.12
426.068	115.12
426.291	106.12
426.513	110.12
426.735	99.12
426.958	117.12
427.18	114.12
427.402	172.12
427.625	273.12
427.847	227.12
428.069	180.12
428.292	123.12
428.514	106.12
428.736	100.12
428.958	104.12
429.181	87.12
429.403	85.12
429.625	105.12
429.847	83.12
430.069	118.12
430.292	103.12
430.514	100.12
430.736	86.12
430.958	86.12
431.18	94.12
431.402	93.12
431.624	81.12
431.846	90.12
432.068	90.12
432.29	96.12
432.512	89.12
432.734	88.12
432.956	92.12
433.178	103.12
433.4	101.12
433.622	120.12
433.844	102.12
434.066	93.12
434.287	98.12
434.509	106.12
434.731	82.12
434.953	100.12
435.175	100.12
435.397	96.12
435.618	91.12
435.84	117.12
436.062	126.12
436.284	130.12
436.505	106.12
436.727	105.12
436.949	92.12
437.17	100.12
437.392	96.12
437.614	110.12
437.835	146.12
438.057	155.12
438.278	142.12
438.5	121.12
438.721	153.12
438.943	117.12
439.165	92.12
439.386	94.12
439.608	95.12
439.829	119.12
440.05	132.12
440.272	160.12
440.493	103.12
440.715	110.12
440.936	114.12
441.158	105.12
441.379	90.12
441.6	121.12
441.822	109.12
442.043	112.12
442.264	133.12
442.486	119.12
442.707	107.12
442.928	129.12
443.149	159.12
443.371	180.12
443.592	147.12
443.813	130.12
444.034	116.12
444.255	89.12
444.476	101.12
444.698	100.12
444.919	90.12
445.14	141.12
445.361	141.12
445.582	136.12
445.803	179.12
446.024	167.12
446.245	172.12
446.466	135.12
446.687	101.12
446.908	94.12
447.129	92.12
447.35	99.12
447.571	102.12
447.792	96.12
448.013	121.12
448.234	122.12
448.455	122.12
448.675	135.12
448.896	146.12
449.117	111.12
449.338	115.12
449.559	152.12
449.779	147.12
450	94.12
450.221	86.12
450.442	96.12
450.662	115.12
450.883	139.12
451.104	174.12
451.324	121.12
451.545	85.12
451.766	105.12
451.986	98.12
452.207	97.12
452.428	111.12
452.648	98.12
452.869	144.12
453.089	163.12
453.31	168.12
453.53	113.12
453.751	124.12
453.971	133.12
454.192	149.12
454.412	114.12
454.633	93.12
454.853	99.12
455.073	100.12
455.294	110.12
455.514	125.12
455.734	107.12
455.955	100.12
456.175	93.12
456.395	99.12
456.616	92.12
456.836	74.12
457.056	97.12
457.276	90.12
457.497	81.12
457.717	83.12
457.937	83.12
458.157	100.12
458.377	111.12
458.598	131.12
458.818	251.12
459.038	252.12
459.258	156.12
459.478	97.12
459.698	105.12
459.918	86.12
460.138	94.12
460.358	91.12
460.578	97.12
460.798	104.12
461.018	87.12
461.238	89.12
461.458	94.12
461.678	102.12
461.898	95.12
462.118	82.12
462.338	79.12
462.558	96.12
462.777	105.12
462.997	99.12
463.217	115.12
463.437	94.12
463.657	109.12
463.876	103.12
464.096	93.12
464.316	107.12
464.536	118.12
464.755	103.12
464.975	140.12
465.195	277.12
465.414	297.12
465.634	117.12
465.854	94.12
466.073	101.12
466.293	104.12
466.512	89.12
466.732	77.12
466.951	89.12
467.171	113.12
467.391	122.12
467.61	176.12
467.829	209.12
468.049	540.12
468.268	769.12
468.488	217.12
468.707	119.12
468.927	94.12
469.146	97.12
469.365	103.12
469.585	95.12
469.804	100.12
470.023	117.12
470.243	106.12
470.462	118.12
470.681	149.12
470.901	124.12
471.12	107.12
471.339	118.12
471.558	121.12
471.777	170.12
471.997	277.12
472.216	997.12
472.435	2378.12
472.654	555.12
472.873	167.12
473.092	108.12
473.311	100.12
473.53	98.12
473.749	98.12
473.968	123.12
474.187	129.12
474.406	107.12
474.625	81.12
474.844	94.12
475.063	103.12
475.282	79.12
475.501	99.12
475.72	105.12
475.939	97.12
476.158	87.12
476.377	101.12
476.596	98.12
476.814	113.12
477.033	105.12
477.252	109.12
477.471	104.12
477.69	116.12
477.908	101.12
478.127	107.12
478.346	97.12
478.564	104.12
478.783	120.12
479.002	121.12
479.22	91.12
479.439	123.12
479.658	149.12
479.876	126.12
480.095	121.12
480.313	133.12
480.532	164.12
480.751	276.12
480.969	939.12
481.188	3946.12
481.406	2251.12
481.624	336.12
481.843	136.12
482.061	97.12
482.28	110.12
482.498	100.12
482.717	90.12
482.935	105.12
483.153	114.12
483.372	106.12
483.59	106.12
483.808	94.12
484.027	93.12
484.245	98.12
484.463	106.12
484.681	90.12
484.9	89.12
485.118	103.12
485.336	105.12
485.554	97.12
485.772	122.12
485.99	115.12
486.209	116.12
486.427	111.12
486.645	128.12
486.863	140.12
487.081	124.12
487.299	108.12
487.517	115.12
487.735	93.12
487.953	98.12
488.171	98.12
488.389	109.12
488.607	121.12
488.825	98.12
489.043	116.12
489.261	96.12
489.479	99.12
489.696	92.12
489.914	93.12
490.132	107.12
490.35	94.12
490.568	87.12
490.786	103.12
491.003	90.12
491.221	90.12
491.439	94.12
491.657	109.12
491.874	100.12
492.092	89.12
492.31	98.12
492.527	97.12
492.745	95.12
492.963	94.12
493.18	89.12
493.398	107.12
493.615	107.12
493.833	90.12
494.05	96.12
494.268	103.12
494.485	109.12
494.703	100.12
494.92	90.12
495.138	97.12
495.355	95.12
495.573	97.12
495.79	99.12
496.008	101.12
496.225	90.12
496.442	81.12
496.66	104.12
496.877	109.12
497.094	107.12
497.312	95.12
497.529	104.12
497.746	104.12
497.963	91.12
498.181	108.12
498.398	106.12
498.615	114.12
498.832	104.12
499.049	97.12
499.267	98.12
499.484	93.12
499.701	87.12
499.918	94.12
500.135	94.12
500.352	92.12
500.569	103.12
500.786	103.12
501.003	98.12
501.22	84.12
501.437	97.12
501.654	109.12
501.871	145.12
502.088	103.12
502.305	95.12
502.522	96.12
502.739	93.12
502.956	92.12
503.172	102.12
503.389	104.12
503.606	142.12
503.823	109.12
504.04	103.12
504.256	102.12
504.473	91.12
504.69	102.12
504.907	119.12
505.123	92.12
505.34	84.12
505.557	90.12
505.773	107.12
505.99	97.12
506.207	86.12
506.423	97.12
506.64	90.12
506.856	92.12
507.073	90.12
507.289	101.12
507.506	118.12
507.722	156.12
507.939	162.12
508.155	122.12
508.372	103.12
508.588	110.12
508.805	109.12
509.021	100.12
509.238	116.12
509.454	113.12
509.67	110.12
509.887	126.12
510.103	154.12
510.319	278.12
