Data from Circ_1987_H10_HRD10591_00041.txt Node
Date: Wed Jan 03 12:10:41 EST 2024
User: Yrep
Spectrometer: HR+D1059
Trigger mode: 1
Integration Time (sec): 1.000000E-1
Scans to average: 1
Electric dark correction enabled: true
Nonlinearity correction enabled: false
Boxcar width: 0
XAxis mode: Wavelengths
Number of Pixels in Spectrum: 2048
>>>>>Begin Spectral Data<<<<<
223.165	-26.25
223.4	-26.25
223.635	-26.25
223.869	-21.25
224.104	-22.25
224.338	-19.25
224.573	-7.25
224.808	-14.25
225.042	3.75
225.277	-12.25
225.511	1.75
225.746	1.75
225.98	14.75
226.215	11.75
226.449	22.75
226.683	22.75
226.918	19.75
227.152	23.75
227.387	34.75
227.621	33.75
227.856	42.75
228.09	62.75
228.324	57.75
228.559	54.75
228.793	60.75
229.027	59.75
229.262	80.75
229.496	79.75
229.73	95.75
229.964	84.75
230.199	74.75
230.433	69.75
230.667	86.75
230.901	75.75
231.136	80.75
231.37	84.75
231.604	95.75
231.838	81.75
232.072	80.75
232.306	95.75
232.541	89.75
232.775	78.75
233.009	94.75
233.243	73.75
233.477	84.75
233.711	85.75
233.945	85.75
234.179	78.75
234.413	75.75
234.647	86.75
234.881	93.75
235.115	98.75
235.349	73.75
235.583	80.75
235.817	78.75
236.051	79.75
236.285	70.75
236.519	73.75
236.753	83.75
236.987	84.75
237.221	96.75
237.455	93.75
237.689	82.75
237.922	76.75
238.156	73.75
238.39	82.75
238.624	75.75
238.858	69.75
239.091	76.75
239.325	91.75
239.559	83.75
239.793	88.75
240.027	86.75
240.26	80.75
240.494	82.75
240.728	66.75
240.961	81.75
241.195	81.75
241.429	67.75
241.662	76.75
241.896	77.75
242.13	89.75
242.363	81.75
242.597	71.75
242.83	74.75
243.064	81.75
243.298	83.75
243.531	82.75
243.765	84.75
243.998	82.75
244.232	97.75
244.465	81.75
244.699	95.75
244.932	82.75
245.166	80.75
245.399	84.75
245.633	67.75
245.866	103.75
246.099	74.75
246.333	76.75
246.566	79.75
246.8	100.75
247.033	78.75
247.266	82.75
247.5	81.75
247.733	84.75
247.966	81.75
248.2	65.75
248.433	86.75
248.666	72.75
248.899	93.75
249.133	105.75
249.366	109.75
249.599	110.75
249.832	91.75
250.066	86.75
250.299	89.75
250.532	84.75
250.765	73.75
250.998	81.75
251.231	84.75
251.465	91.75
251.698	82.75
251.931	82.75
252.164	75.75
252.397	89.75
252.63	77.75
252.863	82.75
253.096	90.75
253.329	82.75
253.562	80.75
253.795	90.75
254.028	73.75
254.261	78.75
254.494	84.75
254.727	92.75
254.96	82.75
255.193	68.75
255.426	80.75
255.659	81.75
255.892	88.75
256.124	101.75
256.357	91.75
256.59	104.75
256.823	79.75
257.056	89.75
257.289	96.75
257.521	90.75
257.754	83.75
257.987	85.75
258.22	91.75
258.452	110.75
258.685	94.75
258.918	101.75
259.151	93.75
259.383	87.75
259.616	88.75
259.849	76.75
260.081	93.75
260.314	99.75
260.547	76.75
260.779	90.75
261.012	111.75
261.244	101.75
261.477	100.75
261.71	101.75
261.942	137.75
262.175	147.75
262.407	85.75
262.64	92.75
262.872	84.75
263.105	89.75
263.337	78.75
263.57	81.75
263.802	81.75
264.035	82.75
264.267	94.75
264.499	88.75
264.732	84.75
264.964	87.75
265.197	87.75
265.429	93.75
265.661	88.75
265.894	90.75
266.126	86.75
266.358	95.75
266.591	82.75
266.823	81.75
267.055	79.75
267.287	96.75
267.52	110.75
267.752	93.75
267.984	91.75
268.216	89.75
268.448	88.75
268.681	82.75
268.913	86.75
269.145	86.75
269.377	69.75
269.609	78.75
269.841	87.75
270.073	98.75
270.306	89.75
270.538	81.75
270.77	81.75
271.002	75.75
271.234	94.75
271.466	99.75
271.698	100.75
271.93	93.75
272.162	83.75
272.394	87.75
272.626	90.75
272.858	89.75
273.09	86.75
273.322	82.75
273.553	80.75
273.785	97.75
274.017	83.75
274.249	87.75
274.481	84.75
274.713	94.75
274.945	92.75
275.176	82.75
275.408	90.75
275.64	108.75
275.872	136.75
276.104	115.75
276.335	105.75
276.567	106.75
276.799	152.75
277.031	179.75
277.262	190.75
277.494	139.75
277.726	106.75
277.957	80.75
278.189	83.75
278.421	116.75
278.652	86.75
278.884	88.75
279.115	99.75
279.347	92.75
279.579	78.75
279.81	120.75
280.042	185.75
280.273	255.75
280.505	179.75
280.736	105.75
280.968	90.75
281.199	80.75
281.431	96.75
281.662	91.75
281.894	83.75
282.125	107.75
282.356	141.75
282.588	199.75
282.819	146.75
283.051	93.75
283.282	88.75
283.513	93.75
283.745	78.75
283.976	86.75
284.207	110.75
284.439	92.75
284.67	103.75
284.901	94.75
285.132	76.75
285.364	92.75
285.595	107.75
285.826	100.75
286.057	94.75
286.288	82.75
286.52	90.75
286.751	89.75
286.982	112.75
287.213	75.75
287.444	86.75
287.675	95.75
287.906	93.75
288.138	99.75
288.369	116.75
288.6	101.75
288.831	103.75
289.062	95.75
289.293	85.75
289.524	100.75
289.755	78.75
289.986	91.75
290.217	87.75
290.448	89.75
290.679	83.75
290.91	85.75
291.141	83.75
291.371	89.75
291.602	86.75
291.833	103.75
292.064	98.75
292.295	94.75
292.526	96.75
292.757	92.75
292.987	87.75
293.218	88.75
293.449	75.75
293.68	85.75
293.91	94.75
294.141	89.75
294.372	94.75
294.603	89.75
294.833	84.75
295.064	97.75
295.295	92.75
295.525	99.75
295.756	95.75
295.987	128.75
296.217	177.75
296.448	169.75
296.679	107.75
296.909	90.75
297.14	80.75
297.37	83.75
297.601	71.75
297.831	98.75
298.062	99.75
298.292	107.75
298.523	101.75
298.753	85.75
298.984	88.75
299.214	97.75
299.445	95.75
299.675	101.75
299.905	104.75
300.136	104.75
300.366	98.75
300.597	99.75
300.827	114.75
301.057	110.75
301.288	114.75
301.518	99.75
301.748	97.75
301.979	108.75
302.209	105.75
302.439	98.75
302.669	92.75
302.9	89.75
303.13	91.75
303.36	114.75
303.59	126.75
303.82	137.75
304.051	122.75
304.281	108.75
304.511	102.75
304.741	107.75
304.971	82.75
305.201	95.75
305.431	94.75
305.661	95.75
305.891	94.75
306.121	108.75
306.352	102.75
306.582	118.75
306.812	112.75
307.042	132.75
307.272	133.75
307.502	160.75
307.731	166.75
307.961	137.75
308.191	111.75
308.421	91.75
308.651	100.75
308.881	114.75
309.111	91.75
309.341	97.75
309.571	109.75
309.8	112.75
310.03	102.75
310.26	115.75
310.49	99.75
310.72	97.75
310.949	138.75
311.179	111.75
311.409	104.75
311.639	114.75
311.868	106.75
312.098	102.75
312.328	91.75
312.557	103.75
312.787	131.75
313.017	113.75
313.246	98.75
313.476	103.75
313.706	114.75
313.935	106.75
314.165	111.75
314.394	114.75
314.624	115.75
314.853	112.75
315.083	100.75
315.312	98.75
315.542	84.75
315.771	83.75
316.001	100.75
316.23	97.75
316.46	85.75
316.689	104.75
316.919	115.75
317.148	102.75
317.377	98.75
317.607	112.75
317.836	107.75
318.065	94.75
318.295	95.75
318.524	87.75
318.753	101.75
318.983	107.75
319.212	109.75
319.441	118.75
319.67	107.75
319.9	100.75
320.129	97.75
320.358	103.75
320.587	111.75
320.816	123.75
321.046	114.75
321.275	97.75
321.504	96.75
321.733	101.75
321.962	99.75
322.191	127.75
322.42	121.75
322.649	132.75
322.878	122.75
323.108	138.75
323.337	139.75
323.566	160.75
323.795	175.75
324.024	235.75
324.253	444.75
324.482	905.75
324.71	1890.75
324.939	2484.75
325.168	916.75
325.397	273.75
325.626	172.75
325.855	140.75
326.084	134.75
326.313	142.75
326.542	159.75
326.77	254.75
326.999	476.75
327.228	954.75
327.457	1733.75
327.686	1428.75
327.914	526.75
328.143	491.75
328.372	640.75
328.6	356.75
328.829	201.75
329.058	196.75
329.287	216.75
329.515	172.75
329.744	246.75
329.972	438.75
330.201	891.75
330.43	1410.75
330.658	638.75
330.887	311.75
331.115	202.75
331.344	133.75
331.572	111.75
331.801	136.75
332.03	137.75
332.258	121.75
332.486	107.75
332.715	108.75
332.943	120.75
333.172	130.75
333.4	127.75
333.629	183.75
333.857	206.75
334.085	402.75
334.314	834.75
334.542	1634.75
334.771	1584.75
334.999	420.75
335.227	178.75
335.455	125.75
335.684	107.75
335.912	118.75
336.14	106.75
336.369	106.75
336.597	118.75
336.825	116.75
337.053	110.75
337.281	90.75
337.51	99.75
337.738	99.75
337.966	89.75
338.194	84.75
338.422	115.75
338.65	92.75
338.878	100.75
339.106	102.75
339.334	104.75
339.562	88.75
339.79	82.75
340.018	78.75
340.246	98.75
340.474	107.75
340.702	92.75
340.93	83.75
341.158	88.75
341.386	112.75
341.614	101.75
341.842	109.75
342.07	93.75
342.298	94.75
342.526	94.75
342.754	100.75
342.981	103.75
343.209	103.75
343.437	100.75
343.665	90.75
343.893	97.75
344.12	83.75
344.348	88.75
344.576	97.75
344.804	116.75
345.031	112.75
345.259	126.75
345.487	104.75
345.714	82.75
345.942	93.75
346.17	118.75
346.397	86.75
346.625	98.75
346.853	113.75
347.08	102.75
347.308	96.75
347.535	95.75
347.763	110.75
347.99	104.75
348.218	102.75
348.445	133.75
348.673	120.75
348.9	113.75
349.128	104.75
349.355	93.75
349.583	94.75
349.81	81.75
350.037	95.75
350.265	83.75
350.492	91.75
350.72	98.75
350.947	104.75
351.174	116.75
351.402	130.75
351.629	100.75
351.856	96.75
352.083	120.75
352.311	114.75
352.538	116.75
352.765	108.75
352.992	122.75
353.22	130.75
353.447	116.75
353.674	93.75
353.901	100.75
354.128	96.75
354.355	103.75
354.583	83.75
354.81	99.75
355.037	105.75
355.264	101.75
355.491	89.75
355.718	96.75
355.945	78.75
356.172	87.75
356.399	100.75
356.626	94.75
356.853	97.75
357.08	93.75
357.307	90.75
357.534	98.75
357.761	94.75
357.988	81.75
358.215	104.75
358.441	92.75
358.668	91.75
358.895	85.75
359.122	87.75
359.349	94.75
359.576	83.75
359.802	119.75
360.029	143.75
360.256	149.75
360.483	123.75
360.709	84.75
360.936	86.75
361.163	94.75
361.39	112.75
361.616	95.75
361.843	98.75
362.07	133.75
362.296	114.75
362.523	112.75
362.749	100.75
362.976	85.75
363.203	106.75
363.429	87.75
363.656	92.75
363.882	100.75
364.109	92.75
364.335	103.75
364.562	104.75
364.788	83.75
365.015	94.75
365.241	112.75
365.468	125.75
365.694	130.75
365.92	105.75
366.147	102.75
366.373	90.75
366.599	97.75
366.826	87.75
367.052	75.75
367.278	94.75
367.505	90.75
367.731	96.75
367.957	107.75
368.184	100.75
368.41	111.75
368.636	134.75
368.862	146.75
369.089	127.75
369.315	118.75
369.541	103.75
369.767	87.75
369.993	86.75
370.219	98.75
370.445	96.75
370.672	101.75
370.898	87.75
371.124	84.75
371.35	98.75
371.576	78.75
371.802	81.75
372.028	79.75
372.254	85.75
372.48	97.75
372.706	92.75
372.932	105.75
373.158	92.75
373.384	94.75
373.61	96.75
373.835	81.75
374.061	84.75
374.287	105.75
374.513	87.75
374.739	88.75
374.965	87.75
375.191	86.75
375.416	85.75
375.642	94.75
375.868	90.75
376.094	87.75
376.319	91.75
376.545	99.75
376.771	91.75
376.997	95.75
377.222	72.75
377.448	102.75
377.674	103.75
377.899	74.75
378.125	98.75
378.35	94.75
378.576	97.75
378.802	98.75
379.027	90.75
379.253	93.75
379.478	82.75
379.704	90.75
379.929	106.75
380.155	98.75
380.38	96.75
380.606	83.75
380.831	97.75
381.057	104.75
381.282	100.75
381.507	96.75
381.733	121.75
381.958	93.75
382.184	102.75
382.409	112.75
382.634	111.75
382.86	95.75
383.085	89.75
383.31	92.75
383.535	95.75
383.761	85.75
383.986	98.75
384.211	98.75
384.436	103.75
384.662	106.75
384.887	86.75
385.112	97.75
385.337	104.75
385.562	108.75
385.787	93.75
386.013	114.75
386.238	118.75
386.463	105.75
386.688	116.75
386.913	98.75
387.138	107.75
387.363	108.75
387.588	99.75
387.813	92.75
388.038	101.75
388.263	112.75
388.488	108.75
388.713	103.75
388.938	83.75
389.163	86.75
389.387	107.75
389.612	81.75
389.837	90.75
390.062	97.75
390.287	85.75
390.512	99.75
390.736	100.75
390.961	104.75
391.186	106.75
391.411	72.75
391.636	94.75
391.86	85.75
392.085	98.75
392.31	75.75
392.534	89.75
392.759	87.75
392.984	77.75
393.208	93.75
393.433	90.75
393.658	84.75
393.882	94.75
394.107	86.75
394.331	106.75
394.556	100.75
394.78	88.75
395.005	102.75
395.229	89.75
395.454	84.75
395.678	67.75
395.903	82.75
396.127	93.75
396.352	85.75
396.576	73.75
396.801	88.75
397.025	89.75
397.249	97.75
397.474	86.75
397.698	101.75
397.922	100.75
398.147	94.75
398.371	87.75
398.595	104.75
398.82	103.75
399.044	85.75
399.268	94.75
399.492	103.75
399.717	101.75
399.941	74.75
400.165	109.75
400.389	91.75
400.613	96.75
400.837	96.75
401.062	93.75
401.286	98.75
401.51	109.75
401.734	90.75
401.958	112.75
402.182	139.75
402.406	190.75
402.63	147.75
402.854	104.75
403.078	92.75
403.302	94.75
403.526	95.75
403.75	89.75
403.974	78.75
404.198	92.75
404.422	88.75
404.645	96.75
404.869	112.75
405.093	132.75
405.317	137.75
405.541	130.75
405.765	115.75
405.988	134.75
406.212	217.75
406.436	316.75
406.66	220.75
406.883	120.75
407.107	103.75
407.331	113.75
407.555	114.75
407.778	114.75
408.002	115.75
408.226	103.75
408.449	99.75
408.673	98.75
408.896	92.75
409.12	101.75
409.344	92.75
409.567	90.75
409.791	88.75
410.014	96.75
410.238	99.75
410.461	81.75
410.685	106.75
410.908	98.75
411.132	117.75
411.355	103.75
411.578	95.75
411.802	105.75
412.025	98.75
412.249	107.75
412.472	126.75
412.695	136.75
412.919	120.75
413.142	113.75
413.365	88.75
413.589	92.75
413.812	90.75
414.035	82.75
414.258	103.75
414.482	85.75
414.705	90.75
414.928	89.75
415.151	89.75
415.374	104.75
415.597	76.75
415.821	92.75
416.044	84.75
416.267	102.75
416.49	105.75
416.713	94.75
416.936	91.75
417.159	110.75
417.382	90.75
417.605	104.75
417.828	111.75
418.051	99.75
418.274	92.75
418.497	97.75
418.72	88.75
418.943	85.75
419.166	91.75
419.389	90.75
419.611	94.75
419.834	95.75
420.057	91.75
420.28	106.75
420.503	75.75
420.726	86.75
420.948	89.75
421.171	116.75
421.394	87.75
421.617	98.75
421.839	98.75
422.062	90.75
422.285	98.75
422.507	117.75
422.73	115.75
422.953	108.75
423.175	91.75
423.398	79.75
423.621	87.75
423.843	95.75
424.066	86.75
424.288	104.75
424.511	95.75
424.733	112.75
424.956	115.75
425.178	127.75
425.401	113.75
425.623	115.75
425.846	94.75
426.068	108.75
426.291	89.75
426.513	84.75
426.735	88.75
426.958	99.75
427.18	130.75
427.402	186.75
427.625	245.75
427.847	231.75
428.069	201.75
428.292	133.75
428.514	108.75
428.736	95.75
428.958	75.75
429.181	91.75
429.403	95.75
429.625	102.75
429.847	107.75
430.069	108.75
430.292	89.75
430.514	88.75
430.736	88.75
430.958	89.75
431.18	74.75
431.402	89.75
431.624	88.75
431.846	97.75
432.068	92.75
432.29	89.75
432.512	86.75
432.734	99.75
432.956	94.75
433.178	99.75
433.4	86.75
433.622	101.75
433.844	109.75
434.066	94.75
434.287	79.75
434.509	91.75
434.731	83.75
434.953	74.75
435.175	82.75
435.397	93.75
435.618	92.75
435.84	111.75
436.062	147.75
436.284	124.75
436.505	107.75
436.727	106.75
436.949	86.75
437.17	85.75
437.392	94.75
437.614	104.75
437.835	136.75
438.057	155.75
438.278	116.75
438.5	109.75
438.721	143.75
438.943	129.75
439.165	95.75
439.386	81.75
439.608	75.75
439.829	127.75
440.05	137.75
440.272	162.75
440.493	123.75
440.715	91.75
440.936	97.75
441.158	105.75
441.379	97.75
441.6	99.75
441.822	97.75
442.043	105.75
442.264	122.75
442.486	109.75
442.707	108.75
442.928	108.75
443.149	178.75
443.371	178.75
443.592	119.75
443.813	126.75
444.034	118.75
444.255	100.75
444.476	80.75
444.698	88.75
444.919	105.75
445.14	126.75
445.361	142.75
445.582	131.75
445.803	169.75
446.024	179.75
446.245	150.75
446.466	128.75
446.687	102.75
446.908	94.75
447.129	106.75
447.35	103.75
447.571	105.75
447.792	107.75
448.013	112.75
448.234	111.75
448.455	93.75
448.675	126.75
448.896	131.75
449.117	113.75
449.338	125.75
449.559	156.75
449.779	159.75
450	114.75
450.221	102.75
450.442	90.75
450.662	95.75
450.883	135.75
451.104	131.75
451.324	106.75
451.545	82.75
451.766	90.75
451.986	98.75
452.207	91.75
452.428	92.75
452.648	106.75
452.869	137.75
453.089	139.75
453.31	137.75
453.53	101.75
453.751	91.75
453.971	124.75
454.192	144.75
454.412	108.75
454.633	94.75
454.853	87.75
455.073	82.75
455.294	96.75
455.514	110.75
455.734	107.75
455.955	90.75
456.175	84.75
456.395	81.75
456.616	95.75
456.836	86.75
457.056	100.75
457.276	98.75
457.497	92.75
457.717	86.75
457.937	89.75
458.157	87.75
458.377	89.75
458.598	113.75
458.818	231.75
459.038	239.75
459.258	152.75
459.478	94.75
459.698	91.75
459.918	94.75
460.138	83.75
460.358	77.75
460.578	96.75
460.798	99.75
461.018	94.75
461.238	94.75
461.458	84.75
461.678	91.75
461.898	91.75
462.118	88.75
462.338	82.75
462.558	88.75
462.777	93.75
462.997	74.75
463.217	94.75
463.437	95.75
463.657	86.75
463.876	73.75
464.096	102.75
464.316	104.75
464.536	103.75
464.755	114.75
464.975	126.75
465.195	252.75
465.414	255.75
465.634	102.75
465.854	88.75
466.073	86.75
466.293	87.75
466.512	80.75
466.732	79.75
466.951	101.75
467.171	98.75
467.391	131.75
467.61	136.75
467.829	199.75
468.049	499.75
468.268	790.75
468.488	226.75
468.707	101.75
468.927	104.75
469.146	106.75
469.365	92.75
469.585	107.75
469.804	117.75
470.023	120.75
470.243	102.75
470.462	126.75
470.681	131.75
470.901	118.75
471.12	102.75
471.339	105.75
471.558	135.75
471.777	149.75
471.997	267.75
472.216	1013.75
472.435	2346.75
472.654	540.75
472.873	176.75
473.092	106.75
473.311	100.75
473.53	83.75
473.749	86.75
473.968	110.75
474.187	134.75
474.406	103.75
474.625	100.75
474.844	95.75
475.063	88.75
475.282	80.75
475.501	96.75
475.72	95.75
475.939	89.75
476.158	101.75
476.377	100.75
476.596	91.75
476.814	100.75
477.033	124.75
477.252	85.75
477.471	91.75
477.69	83.75
477.908	108.75
478.127	111.75
478.346	108.75
478.564	101.75
478.783	107.75
479.002	108.75
479.22	108.75
479.439	124.75
479.658	136.75
479.876	135.75
480.095	112.75
480.313	131.75
480.532	160.75
480.751	278.75
480.969	899.75
481.188	4005.75
481.406	2320.75
481.624	344.75
481.843	140.75
482.061	110.75
482.28	110.75
482.498	115.75
482.717	108.75
482.935	107.75
483.153	115.75
483.372	87.75
483.59	111.75
483.808	110.75
484.027	98.75
484.245	97.75
484.463	96.75
484.681	94.75
484.9	88.75
485.118	110.75
485.336	100.75
485.554	102.75
485.772	126.75
485.99	113.75
486.209	119.75
486.427	100.75
486.645	131.75
486.863	129.75
487.081	102.75
487.299	97.75
487.517	107.75
487.735	88.75
487.953	90.75
488.171	90.75
488.389	103.75
488.607	99.75
488.825	104.75
489.043	97.75
489.261	109.75
489.479	86.75
489.696	95.75
489.914	99.75
490.132	92.75
490.35	104.75
490.568	89.75
490.786	103.75
491.003	102.75
491.221	95.75
491.439	95.75
491.657	102.75
491.874	106.75
492.092	88.75
492.31	98.75
492.527	102.75
492.745	104.75
492.963	110.75
493.18	101.75
493.398	100.75
493.615	109.75
493.833	113.75
494.05	94.75
494.268	102.75
494.485	101.75
494.703	103.75
494.92	85.75
495.138	83.75
495.355	94.75
495.573	89.75
495.79	102.75
496.008	94.75
496.225	98.75
496.442	100.75
496.66	93.75
496.877	98.75
497.094	88.75
497.312	102.75
497.529	89.75
497.746	95.75
497.963	106.75
498.181	103.75
498.398	100.75
498.615	119.75
498.832	125.75
499.049	94.75
499.267	78.75
499.484	103.75
499.701	91.75
499.918	110.75
500.135	99.75
500.352	98.75
500.569	88.75
500.786	98.75
501.003	99.75
501.22	83.75
501.437	95.75
501.654	103.75
501.871	138.75
502.088	111.75
502.305	89.75
502.522	86.75
502.739	98.75
502.956	99.75
503.172	100.75
503.389	112.75
503.606	126.75
503.823	122.75
504.04	100.75
504.256	88.75
504.473	88.75
504.69	97.75
504.907	92.75
505.123	107.75
505.34	106.75
505.557	98.75
505.773	95.75
505.99	100.75
506.207	98.75
506.423	94.75
506.64	97.75
506.856	103.75
507.073	91.75
507.289	114.75
507.506	102.75
507.722	126.75
507.939	138.75
508.155	98.75
508.372	90.75
508.588	100.75
508.805	121.75
509.021	110.75
509.238	94.75
509.454	96.75
509.67	123.75
509.887	120.75
510.103	135.75
510.319	249.75
510.536	965.75
510.752	3302.75
510.968	873.75
511.184	185.75
511.401	137.75
511.617	111.75
511.833	123.75
