Data from Circ_1987_H10_HRD10591_00084.txt Node
Date: Wed Jan 03 12:10:49 EST 2024
User: Yrep
Spectrometer: HR+D1059
Trigger mode: 1
Integration Time (sec): 1.000000E-1
Scans to average: 1
Electric dark correction enabled: true
Nonlinearity correction enabled: false
Boxcar width: 0
XAxis mode: Wavelengths
Number of Pixels in Spectrum: 2048
>>>>>Begin Spectral Data<<<<<
223.165	-13.25
223.4	-13.25
223.635	-13.25
223.869	-6.25
224.104	-32.25
224.338	-20.25
224.573	-11.25
224.808	-8.25
225.042	-2.25
225.277	-4.25
225.511	-4.25
225.746	2.75
225.98	8.75
226.215	15.75
226.449	6.75
226.683	22.75
226.918	20.75
227.152	24.75
227.387	26.75
227.621	49.75
227.856	25.75
228.09	28.75
228.324	47.75
228.559	48.75
228.793	65.75
229.027	61.75
229.262	68.75
229.496	88.75
229.73	93.75
229.964	85.75
230.199	79.75
230.433	66.75
230.667	85.75
230.901	78.75
231.136	84.75
231.37	65.75
231.604	70.75
231.838	76.75
232.072	81.75
232.306	77.75
232.541	69.75
232.775	85.75
233.009	69.75
233.243	73.75
233.477	79.75
233.711	86.75
233.945	93.75
234.179	95.75
234.413	84.75
234.647	82.75
234.881	82.75
235.115	70.75
235.349	87.75
235.583	94.75
235.817	71.75
236.051	63.75
236.285	78.75
236.519	79.75
236.753	84.75
236.987	74.75
237.221	101.75
237.455	91.75
237.689	76.75
237.922	80.75
238.156	82.75
238.39	81.75
238.624	86.75
238.858	60.75
239.091	69.75
239.325	81.75
239.559	86.75
239.793	78.75
240.027	82.75
240.26	76.75
240.494	82.75
240.728	90.75
240.961	82.75
241.195	77.75
241.429	76.75
241.662	80.75
241.896	85.75
242.13	74.75
242.363	78.75
242.597	79.75
242.83	81.75
243.064	72.75
243.298	85.75
243.531	66.75
243.765	63.75
243.998	77.75
244.232	78.75
244.465	89.75
244.699	96.75
244.932	81.75
245.166	85.75
245.399	68.75
245.633	98.75
245.866	77.75
246.099	89.75
246.333	78.75
246.566	74.75
246.8	84.75
247.033	71.75
247.266	76.75
247.5	83.75
247.733	80.75
247.966	69.75
248.2	80.75
248.433	86.75
248.666	86.75
248.899	92.75
249.133	94.75
249.366	103.75
249.599	113.75
249.832	93.75
250.066	70.75
250.299	80.75
250.532	92.75
250.765	95.75
250.998	85.75
251.231	64.75
251.465	87.75
251.698	80.75
251.931	86.75
252.164	85.75
252.397	73.75
252.63	72.75
252.863	76.75
253.096	64.75
253.329	86.75
253.562	80.75
253.795	82.75
254.028	90.75
254.261	76.75
254.494	80.75
254.727	80.75
254.96	81.75
255.193	72.75
255.426	89.75
255.659	90.75
255.892	91.75
256.124	104.75
256.357	92.75
256.59	81.75
256.823	83.75
257.056	68.75
257.289	84.75
257.521	107.75
257.754	82.75
257.987	84.75
258.22	96.75
258.452	99.75
258.685	74.75
258.918	84.75
259.151	83.75
259.383	81.75
259.616	81.75
259.849	87.75
260.081	93.75
260.314	73.75
260.547	82.75
260.779	95.75
261.012	109.75
261.244	117.75
261.477	98.75
261.71	103.75
261.942	146.75
262.175	144.75
262.407	94.75
262.64	79.75
262.872	81.75
263.105	96.75
263.337	100.75
263.57	94.75
263.802	79.75
264.035	80.75
264.267	72.75
264.499	85.75
264.732	91.75
264.964	78.75
265.197	97.75
265.429	88.75
265.661	86.75
265.894	88.75
266.126	79.75
266.358	80.75
266.591	80.75
266.823	81.75
267.055	78.75
267.287	93.75
267.52	92.75
267.752	89.75
267.984	96.75
268.216	88.75
268.448	71.75
268.681	80.75
268.913	82.75
269.145	99.75
269.377	85.75
269.609	80.75
269.841	78.75
270.073	77.75
270.306	85.75
270.538	102.75
270.77	86.75
271.002	94.75
271.234	93.75
271.466	88.75
271.698	104.75
271.93	101.75
272.162	97.75
272.394	101.75
272.626	84.75
272.858	80.75
273.09	87.75
273.322	88.75
273.553	80.75
273.785	83.75
274.017	81.75
274.249	72.75
274.481	72.75
274.713	74.75
274.945	95.75
275.176	92.75
275.408	108.75
275.64	118.75
275.872	127.75
276.104	106.75
276.335	105.75
276.567	129.75
276.799	160.75
277.031	194.75
277.262	206.75
277.494	160.75
277.726	104.75
277.957	102.75
278.189	85.75
278.421	103.75
278.652	89.75
278.884	96.75
279.115	95.75
279.347	93.75
279.579	102.75
279.81	125.75
280.042	195.75
280.273	295.75
280.505	190.75
280.736	109.75
280.968	97.75
281.199	92.75
281.431	105.75
281.662	96.75
281.894	96.75
282.125	112.75
282.356	122.75
282.588	160.75
282.819	125.75
283.051	86.75
283.282	88.75
283.513	84.75
283.745	86.75
283.976	84.75
284.207	85.75
284.439	95.75
284.67	92.75
284.901	87.75
285.132	87.75
285.364	98.75
285.595	87.75
285.826	72.75
286.057	88.75
286.288	82.75
286.52	87.75
286.751	76.75
286.982	81.75
287.213	95.75
287.444	94.75
287.675	88.75
287.906	101.75
288.138	89.75
288.369	94.75
288.6	114.75
288.831	88.75
289.062	87.75
289.293	76.75
289.524	101.75
289.755	86.75
289.986	97.75
290.217	82.75
290.448	79.75
290.679	89.75
290.91	93.75
291.141	82.75
291.371	81.75
291.602	83.75
291.833	77.75
292.064	95.75
292.295	99.75
292.526	92.75
292.757	92.75
292.987	85.75
293.218	82.75
293.449	91.75
293.68	81.75
293.91	104.75
294.141	91.75
294.372	80.75
294.603	89.75
294.833	92.75
295.064	84.75
295.295	84.75
295.525	73.75
295.756	101.75
295.987	129.75
296.217	178.75
296.448	157.75
296.679	99.75
296.909	102.75
297.14	87.75
297.37	94.75
297.601	92.75
297.831	95.75
298.062	80.75
298.292	84.75
298.523	87.75
298.753	76.75
298.984	93.75
299.214	93.75
299.445	100.75
299.675	101.75
299.905	102.75
300.136	106.75
300.366	85.75
300.597	89.75
300.827	95.75
301.057	105.75
301.288	120.75
301.518	101.75
301.748	99.75
301.979	103.75
302.209	100.75
302.439	97.75
302.669	84.75
302.9	93.75
303.13	105.75
303.36	118.75
303.59	125.75
303.82	150.75
304.051	105.75
304.281	110.75
304.511	88.75
304.741	100.75
304.971	73.75
305.201	93.75
305.431	87.75
305.661	84.75
305.891	93.75
306.121	117.75
306.352	111.75
306.582	125.75
306.812	117.75
307.042	117.75
307.272	169.75
307.502	189.75
307.731	184.75
307.961	127.75
308.191	96.75
308.421	87.75
308.651	89.75
308.881	100.75
309.111	103.75
309.341	99.75
309.571	111.75
309.8	104.75
310.03	104.75
310.26	106.75
310.49	99.75
310.72	114.75
310.949	106.75
311.179	118.75
311.409	104.75
311.639	106.75
311.868	116.75
312.098	108.75
312.328	101.75
312.557	124.75
312.787	118.75
313.017	121.75
313.246	103.75
313.476	98.75
313.706	86.75
313.935	102.75
314.165	101.75
314.394	113.75
314.624	97.75
314.853	102.75
315.083	99.75
315.312	97.75
315.542	103.75
315.771	95.75
316.001	89.75
316.23	76.75
316.46	97.75
316.689	95.75
316.919	92.75
317.148	94.75
317.377	109.75
317.607	116.75
317.836	93.75
318.065	93.75
318.295	104.75
318.524	102.75
318.753	95.75
318.983	96.75
319.212	112.75
319.441	111.75
319.67	115.75
319.9	96.75
320.129	93.75
320.358	92.75
320.587	103.75
320.816	110.75
321.046	118.75
321.275	106.75
321.504	95.75
321.733	92.75
321.962	101.75
322.191	117.75
322.42	110.75
322.649	116.75
322.878	136.75
323.108	129.75
323.337	135.75
323.566	155.75
323.795	188.75
324.024	226.75
324.253	445.75
324.482	940.75
324.71	1909.75
324.939	2486.75
325.168	908.75
325.397	273.75
325.626	160.75
325.855	144.75
326.084	146.75
326.313	153.75
326.542	182.75
326.77	250.75
326.999	462.75
327.228	985.75
327.457	1770.75
327.686	1449.75
327.914	529.75
328.143	554.75
328.372	698.75
328.6	424.75
328.829	182.75
329.058	209.75
329.287	197.75
329.515	206.75
329.744	262.75
329.972	537.75
330.201	1120.75
330.43	1626.75
330.658	740.75
330.887	320.75
331.115	206.75
331.344	131.75
331.572	110.75
331.801	135.75
332.03	138.75
332.258	121.75
332.486	120.75
332.715	100.75
332.943	106.75
333.172	121.75
333.4	122.75
333.629	177.75
333.857	249.75
334.085	497.75
334.314	1034.75
334.542	2064.75
334.771	1944.75
334.999	481.75
335.227	192.75
335.455	144.75
335.684	107.75
335.912	114.75
336.14	107.75
336.369	103.75
336.597	133.75
336.825	105.75
337.053	108.75
337.281	98.75
337.51	88.75
337.738	93.75
337.966	98.75
338.194	110.75
338.422	111.75
338.65	94.75
338.878	106.75
339.106	104.75
339.334	86.75
339.562	84.75
339.79	85.75
340.018	89.75
340.246	107.75
340.474	113.75
340.702	103.75
340.93	100.75
341.158	106.75
341.386	111.75
341.614	105.75
341.842	104.75
342.07	92.75
342.298	86.75
342.526	90.75
342.754	96.75
342.981	94.75
343.209	93.75
343.437	93.75
343.665	93.75
343.893	90.75
344.12	89.75
344.348	105.75
344.576	96.75
344.804	106.75
345.031	116.75
345.259	104.75
345.487	102.75
345.714	91.75
345.942	97.75
346.17	91.75
346.397	87.75
346.625	102.75
346.853	103.75
347.08	91.75
347.308	98.75
347.535	113.75
347.763	103.75
347.99	108.75
348.218	114.75
348.445	125.75
348.673	117.75
348.9	103.75
349.128	104.75
349.355	97.75
349.583	91.75
349.81	86.75
350.037	97.75
350.265	99.75
350.492	102.75
350.72	94.75
350.947	106.75
351.174	120.75
351.402	126.75
351.629	115.75
351.856	106.75
352.083	105.75
352.311	117.75
352.538	135.75
352.765	114.75
352.992	119.75
353.22	127.75
353.447	109.75
353.674	100.75
353.901	97.75
354.128	102.75
354.355	104.75
354.583	94.75
354.81	91.75
355.037	92.75
355.264	96.75
355.491	103.75
355.718	82.75
355.945	94.75
356.172	100.75
356.399	85.75
356.626	83.75
356.853	114.75
357.08	96.75
357.307	102.75
357.534	94.75
357.761	89.75
357.988	94.75
358.215	91.75
358.441	101.75
358.668	94.75
358.895	90.75
359.122	78.75
359.349	96.75
359.576	99.75
359.802	114.75
360.029	156.75
360.256	150.75
360.483	109.75
360.709	101.75
360.936	96.75
361.163	105.75
361.39	103.75
361.616	111.75
361.843	97.75
362.07	104.75
362.296	97.75
362.523	94.75
362.749	105.75
362.976	97.75
363.203	79.75
363.429	96.75
363.656	96.75
363.882	85.75
364.109	86.75
364.335	96.75
364.562	91.75
364.788	93.75
365.015	101.75
365.241	110.75
365.468	123.75
365.694	127.75
365.92	124.75
366.147	98.75
366.373	80.75
366.599	90.75
366.826	91.75
367.052	85.75
367.278	91.75
367.505	78.75
367.731	92.75
367.957	89.75
368.184	94.75
368.41	121.75
368.636	116.75
368.862	136.75
369.089	117.75
369.315	97.75
369.541	108.75
369.767	110.75
369.993	98.75
370.219	101.75
370.445	91.75
370.672	93.75
370.898	97.75
371.124	97.75
371.35	88.75
371.576	76.75
371.802	84.75
372.028	85.75
372.254	91.75
372.48	91.75
372.706	90.75
372.932	85.75
373.158	87.75
373.384	92.75
373.61	89.75
373.835	100.75
374.061	101.75
374.287	104.75
374.513	91.75
374.739	85.75
374.965	85.75
375.191	89.75
375.416	102.75
375.642	86.75
375.868	112.75
376.094	102.75
376.319	82.75
376.545	89.75
376.771	88.75
376.997	93.75
377.222	109.75
377.448	91.75
377.674	94.75
377.899	100.75
378.125	85.75
378.35	92.75
378.576	84.75
378.802	98.75
379.027	90.75
379.253	97.75
379.478	102.75
379.704	78.75
379.929	106.75
380.155	106.75
380.38	95.75
380.606	102.75
380.831	92.75
381.057	87.75
381.282	82.75
381.507	87.75
381.733	84.75
381.958	81.75
382.184	111.75
382.409	101.75
382.634	86.75
382.86	88.75
383.085	93.75
383.31	118.75
383.535	99.75
383.761	86.75
383.986	97.75
384.211	123.75
384.436	86.75
384.662	97.75
384.887	88.75
385.112	86.75
385.337	95.75
385.562	112.75
385.787	97.75
386.013	116.75
386.238	97.75
386.463	113.75
386.688	122.75
386.913	91.75
387.138	104.75
387.363	114.75
387.588	111.75
387.813	112.75
388.038	103.75
388.263	109.75
388.488	95.75
388.713	98.75
388.938	101.75
389.163	82.75
389.387	88.75
389.612	108.75
389.837	109.75
390.062	92.75
390.287	88.75
390.512	92.75
390.736	94.75
390.961	88.75
391.186	73.75
391.411	90.75
391.636	87.75
391.86	95.75
392.085	79.75
392.31	89.75
392.534	83.75
392.759	75.75
392.984	82.75
393.208	97.75
393.433	98.75
393.658	98.75
393.882	83.75
394.107	90.75
394.331	86.75
394.556	92.75
394.78	90.75
395.005	93.75
395.229	78.75
395.454	88.75
395.678	91.75
395.903	85.75
396.127	94.75
396.352	90.75
396.576	87.75
396.801	88.75
397.025	88.75
397.249	77.75
397.474	92.75
397.698	101.75
397.922	86.75
398.147	84.75
398.371	88.75
398.595	84.75
398.82	103.75
399.044	100.75
399.268	96.75
399.492	96.75
399.717	87.75
399.941	101.75
400.165	88.75
400.389	88.75
400.613	90.75
400.837	92.75
401.062	79.75
401.286	94.75
401.51	96.75
401.734	100.75
401.958	110.75
402.182	161.75
402.406	206.75
402.63	149.75
402.854	111.75
403.078	89.75
403.302	84.75
403.526	100.75
403.75	99.75
403.974	90.75
404.198	74.75
404.422	88.75
404.645	90.75
404.869	91.75
405.093	125.75
405.317	163.75
405.541	143.75
405.765	122.75
405.988	133.75
406.212	232.75
406.436	321.75
406.66	209.75
406.883	121.75
407.107	109.75
407.331	88.75
407.555	127.75
407.778	121.75
408.002	104.75
408.226	84.75
408.449	93.75
408.673	98.75
408.896	100.75
409.12	93.75
409.344	96.75
409.567	85.75
409.791	83.75
410.014	92.75
410.238	81.75
410.461	86.75
410.685	99.75
410.908	106.75
411.132	117.75
411.355	109.75
411.578	97.75
411.802	84.75
412.025	87.75
412.249	98.75
412.472	114.75
412.695	138.75
412.919	114.75
413.142	98.75
413.365	86.75
413.589	87.75
413.812	87.75
414.035	99.75
414.258	101.75
414.482	98.75
414.705	89.75
414.928	91.75
415.151	82.75
415.374	105.75
415.597	98.75
415.821	94.75
416.044	98.75
416.267	91.75
416.49	101.75
416.713	93.75
416.936	88.75
417.159	85.75
417.382	94.75
417.605	119.75
417.828	114.75
418.051	98.75
418.274	86.75
418.497	80.75
418.72	94.75
418.943	85.75
419.166	88.75
419.389	89.75
419.611	89.75
419.834	101.75
420.057	91.75
420.28	88.75
420.503	82.75
420.726	92.75
420.948	91.75
421.171	108.75
421.394	111.75
421.617	96.75
421.839	100.75
422.062	88.75
422.285	89.75
422.507	97.75
422.73	113.75
422.953	97.75
423.175	104.75
423.398	92.75
423.621	86.75
423.843	94.75
424.066	82.75
424.288	95.75
424.511	88.75
424.733	105.75
424.956	113.75
425.178	114.75
425.401	101.75
425.623	103.75
425.846	90.75
426.068	101.75
426.291	107.75
426.513	105.75
426.735	94.75
426.958	92.75
427.18	131.75
427.402	207.75
427.625	270.75
427.847	255.75
428.069	210.75
428.292	116.75
428.514	102.75
428.736	76.75
428.958	83.75
429.181	84.75
429.403	82.75
429.625	100.75
429.847	82.75
430.069	105.75
430.292	111.75
430.514	88.75
430.736	84.75
430.958	86.75
431.18	87.75
431.402	80.75
431.624	79.75
431.846	66.75
432.068	88.75
432.29	92.75
432.512	93.75
432.734	101.75
432.956	97.75
433.178	106.75
433.4	110.75
433.622	98.75
433.844	92.75
434.066	80.75
434.287	88.75
434.509	92.75
434.731	111.75
434.953	92.75
435.175	86.75
435.397	101.75
435.618	85.75
435.84	115.75
436.062	130.75
436.284	136.75
436.505	92.75
436.727	103.75
436.949	88.75
437.17	99.75
437.392	80.75
437.614	113.75
437.835	127.75
438.057	165.75
438.278	129.75
438.5	118.75
438.721	140.75
438.943	112.75
439.165	96.75
439.386	99.75
439.608	108.75
439.829	109.75
440.05	158.75
440.272	167.75
440.493	104.75
440.715	82.75
440.936	95.75
441.158	86.75
441.379	99.75
441.6	103.75
441.822	114.75
442.043	104.75
442.264	128.75
442.486	127.75
442.707	109.75
442.928	126.75
443.149	185.75
443.371	184.75
443.592	140.75
443.813	144.75
444.034	124.75
444.255	105.75
444.476	96.75
444.698	96.75
444.919	85.75
445.14	134.75
445.361	135.75
445.582	142.75
445.803	201.75
446.024	175.75
446.245	186.75
446.466	133.75
446.687	104.75
446.908	80.75
447.129	96.75
447.35	91.75
447.571	94.75
447.792	102.75
448.013	110.75
448.234	132.75
448.455	127.75
448.675	131.75
448.896	139.75
449.117	116.75
449.338	116.75
449.559	157.75
449.779	164.75
450	113.75
450.221	80.75
450.442	92.75
450.662	108.75
450.883	126.75
451.104	133.75
451.324	119.75
451.545	84.75
451.766	90.75
451.986	97.75
452.207	106.75
452.428	84.75
452.648	114.75
452.869	143.75
453.089	146.75
453.31	155.75
453.53	97.75
453.751	106.75
453.971	118.75
454.192	145.75
454.412	96.75
454.633	96.75
454.853	92.75
455.073	87.75
455.294	95.75
455.514	109.75
455.734	102.75
455.955	117.75
456.175	86.75
456.395	92.75
456.616	75.75
456.836	75.75
457.056	82.75
457.276	90.75
457.497	105.75
457.717	94.75
457.937	96.75
458.157	96.75
458.377	95.75
458.598	133.75
458.818	211.75
459.038	256.75
459.258	142.75
459.478	92.75
459.698	83.75
459.918	96.75
460.138	92.75
460.358	79.75
460.578	87.75
460.798	97.75
461.018	93.75
461.238	93.75
461.458	93.75
461.678	86.75
461.898	88.75
462.118	80.75
462.338	92.75
462.558	92.75
462.777	89.75
462.997	102.75
463.217	116.75
463.437	97.75
463.657	92.75
463.876	97.75
464.096	104.75
464.316	102.75
464.536	104.75
464.755	104.75
464.975	133.75
465.195	246.75
465.414	242.75
465.634	116.75
465.854	89.75
466.073	86.75
466.293	92.75
466.512	88.75
466.732	100.75
466.951	92.75
467.171	85.75
467.391	105.75
467.61	151.75
467.829	215.75
468.049	612.75
468.268	943.75
468.488	242.75
468.707	116.75
468.927	89.75
469.146	103.75
469.365	94.75
469.585	107.75
469.804	117.75
470.023	101.75
470.243	104.75
470.462	128.75
470.681	136.75
470.901	90.75
471.12	104.75
471.339	102.75
471.558	125.75
471.777	170.75
471.997	312.75
472.216	1227.75
472.435	2798.75
472.654	640.75
472.873	176.75
473.092	106.75
473.311	109.75
473.53	80.75
473.749	100.75
473.968	104.75
474.187	126.75
474.406	105.75
474.625	93.75
474.844	81.75
475.063	85.75
475.282	96.75
475.501	95.75
475.72	82.75
475.939	105.75
476.158	97.75
476.377	91.75
476.596	98.75
476.814	100.75
477.033	107.75
477.252	89.75
477.471	101.75
477.69	92.75
477.908	89.75
478.127	103.75
478.346	80.75
478.564	114.75
478.783	109.75
479.002	109.75
479.22	108.75
479.439	120.75
479.658	132.75
479.876	132.75
480.095	113.75
480.313	145.75
480.532	170.75
480.751	299.75
480.969	1058.75
481.188	4775.75
481.406	2719.75
481.624	399.75
481.843	142.75
482.061	111.75
482.28	103.75
482.498	104.75
482.717	91.75
482.935	97.75
483.153	87.75
483.372	99.75
483.59	89.75
483.808	95.75
484.027	100.75
484.245	94.75
484.463	109.75
484.681	92.75
484.9	100.75
485.118	103.75
485.336	96.75
485.554	112.75
485.772	107.75
485.99	111.75
486.209	97.75
486.427	115.75
486.645	128.75
486.863	121.75
487.081	112.75
487.299	82.75
487.517	106.75
487.735	104.75
487.953	103.75
488.171	98.75
488.389	112.75
488.607	112.75
488.825	96.75
489.043	97.75
489.261	99.75
489.479	84.75
489.696	94.75
489.914	87.75
490.132	87.75
490.35	84.75
490.568	79.75
490.786	72.75
491.003	90.75
491.221	102.75
491.439	91.75
491.657	101.75
491.874	96.75
492.092	95.75
492.31	96.75
492.527	89.75
492.745	102.75
492.963	104.75
493.18	110.75
493.398	91.75
493.615	94.75
493.833	100.75
494.05	92.75
494.268	88.75
494.485	94.75
494.703	80.75
494.92	97.75
495.138	78.75
495.355	86.75
495.573	90.75
495.79	97.75
496.008	100.75
496.225	92.75
496.442	88.75
496.66	93.75
496.877	92.75
497.094	94.75
497.312	88.75
497.529	95.75
497.746	89.75
497.963	78.75
498.181	93.75
498.398	104.75
498.615	111.75
498.832	112.75
499.049	97.75
499.267	94.75
499.484	89.75
499.701	98.75
499.918	87.75
500.135	102.75
500.352	94.75
500.569	98.75
500.786	96.75
501.003	77.75
501.22	95.75
501.437	93.75
501.654	109.75
501.871	134.75
502.088	110.75
502.305	106.75
502.522	91.75
502.739	84.75
502.956	89.75
503.172	104.75
503.389	122.75
503.606	132.75
503.823	120.75
504.04	106.75
504.256	97.75
504.473	93.75
504.69	91.75
504.907	100.75
505.123	103.75
505.34	93.75
505.557	95.75
505.773	96.75
505.99	89.75
506.207	96.75
506.423	89.75
506.64	96.75
506.856	87.75
507.073	78.75
507.289	100.75
507.506	100.75
507.722	135.75
507.939	131.75
508.155	109.75
508.372	103.75
508.588	98.75
508.805	103.75
509.021	104.75
509.238	104.75
509.454	114.75
509.67	102.75
509.887	105.75
510.103	144.75
510.319	241.75
510.536	914.75
510.752	3259.75
510.968	886.75
511.184	174.75
511.401	125.75
511.617	115.75
511.833	115.75
512.049	108.75
512.265	105.75
