Data from Circ_1987_H10_HRD10591_00054.txt Node
Date: Wed Jan 03 12:10:43 EST 2024
User: Yrep
Spectrometer: HR+D1059
Trigger mode: 1
Integration Time (sec): 1.000000E-1
Scans to average: 1
Electric dark correction enabled: true
Nonlinearity correction enabled: false
Boxcar width: 0
XAxis mode: Wavelengths
Number of Pixels in Spectrum: 2048
>>>>>Begin Spectral Data<<<<<
223.165	-9.38
223.4	-9.38
223.635	-9.38
223.869	-25.38
224.104	-24.38
224.338	-19.38
224.573	-21.38
224.808	-8.38
225.042	-13.38
225.277	-0.38
225.511	-4.38
225.746	2.62
225.98	12.62
226.215	14.62
226.449	22.62
226.683	21.62
226.918	24.62
227.152	27.62
227.387	30.62
227.621	32.62
227.856	51.62
228.09	40.62
228.324	39.62
228.559	58.62
228.793	57.62
229.027	59.62
229.262	87.62
229.496	71.62
229.73	98.62
229.964	95.62
230.199	60.62
230.433	71.62
230.667	79.62
230.901	83.62
231.136	78.62
231.37	77.62
231.604	69.62
231.838	84.62
232.072	78.62
232.306	88.62
232.541	69.62
232.775	83.62
233.009	70.62
233.243	66.62
233.477	100.62
233.711	87.62
233.945	82.62
234.179	76.62
234.413	73.62
234.647	79.62
234.881	71.62
235.115	83.62
235.349	70.62
235.583	94.62
235.817	65.62
236.051	69.62
236.285	92.62
236.519	88.62
236.753	71.62
236.987	72.62
237.221	85.62
237.455	97.62
237.689	88.62
237.922	84.62
238.156	71.62
238.39	78.62
238.624	98.62
238.858	69.62
239.091	66.62
239.325	75.62
239.559	85.62
239.793	87.62
240.027	78.62
240.26	70.62
240.494	75.62
240.728	87.62
240.961	84.62
241.195	74.62
241.429	83.62
241.662	67.62
241.896	78.62
242.13	70.62
242.363	78.62
242.597	78.62
242.83	63.62
243.064	72.62
243.298	73.62
243.531	78.62
243.765	82.62
243.998	78.62
244.232	81.62
244.465	78.62
244.699	76.62
244.932	72.62
245.166	80.62
245.399	74.62
245.633	82.62
245.866	74.62
246.099	87.62
246.333	91.62
246.566	64.62
246.8	66.62
247.033	75.62
247.266	67.62
247.5	84.62
247.733	76.62
247.966	78.62
248.2	87.62
248.433	70.62
248.666	70.62
248.899	74.62
249.133	90.62
249.366	94.62
249.599	99.62
249.832	81.62
250.066	93.62
250.299	92.62
250.532	92.62
250.765	84.62
250.998	67.62
251.231	78.62
251.465	70.62
251.698	83.62
251.931	80.62
252.164	73.62
252.397	85.62
252.63	74.62
252.863	65.62
253.096	77.62
253.329	75.62
253.562	81.62
253.795	69.62
254.028	71.62
254.261	72.62
254.494	80.62
254.727	66.62
254.96	78.62
255.193	77.62
255.426	83.62
255.659	84.62
255.892	76.62
256.124	91.62
256.357	77.62
256.59	81.62
256.823	69.62
257.056	66.62
257.289	78.62
257.521	82.62
257.754	92.62
257.987	85.62
258.22	86.62
258.452	82.62
258.685	99.62
258.918	82.62
259.151	66.62
259.383	87.62
259.616	82.62
259.849	78.62
260.081	87.62
260.314	86.62
260.547	90.62
260.779	94.62
261.012	102.62
261.244	94.62
261.477	87.62
261.71	107.62
261.942	119.62
262.175	136.62
262.407	90.62
262.64	89.62
262.872	75.62
263.105	87.62
263.337	79.62
263.57	96.62
263.802	92.62
264.035	83.62
264.267	86.62
264.499	85.62
264.732	83.62
264.964	90.62
265.197	92.62
265.429	85.62
265.661	87.62
265.894	82.62
266.126	71.62
266.358	84.62
266.591	86.62
266.823	77.62
267.055	86.62
267.287	76.62
267.52	80.62
267.752	85.62
267.984	87.62
268.216	88.62
268.448	99.62
268.681	76.62
268.913	84.62
269.145	101.62
269.377	86.62
269.609	91.62
269.841	84.62
270.073	80.62
270.306	93.62
270.538	78.62
270.77	87.62
271.002	80.62
271.234	80.62
271.466	101.62
271.698	101.62
271.93	81.62
272.162	86.62
272.394	85.62
272.626	78.62
272.858	83.62
273.09	87.62
273.322	83.62
273.553	76.62
273.785	82.62
274.017	70.62
274.249	95.62
274.481	86.62
274.713	99.62
274.945	107.62
275.176	92.62
275.408	100.62
275.64	112.62
275.872	110.62
276.104	110.62
276.335	103.62
276.567	125.62
276.799	150.62
277.031	167.62
277.262	189.62
277.494	147.62
277.726	103.62
277.957	76.62
278.189	78.62
278.421	89.62
278.652	100.62
278.884	98.62
279.115	90.62
279.347	85.62
279.579	100.62
279.81	116.62
280.042	172.62
280.273	229.62
280.505	180.62
280.736	110.62
280.968	94.62
281.199	93.62
281.431	69.62
281.662	93.62
281.894	95.62
282.125	110.62
282.356	127.62
282.588	168.62
282.819	131.62
283.051	107.62
283.282	86.62
283.513	93.62
283.745	82.62
283.976	77.62
284.207	95.62
284.439	74.62
284.67	89.62
284.901	89.62
285.132	86.62
285.364	92.62
285.595	92.62
285.826	80.62
286.057	101.62
286.288	94.62
286.52	80.62
286.751	69.62
286.982	102.62
287.213	75.62
287.444	88.62
287.675	83.62
287.906	87.62
288.138	90.62
288.369	96.62
288.6	96.62
288.831	84.62
289.062	96.62
289.293	101.62
289.524	83.62
289.755	91.62
289.986	83.62
290.217	87.62
290.448	89.62
290.679	78.62
290.91	85.62
291.141	100.62
291.371	109.62
291.602	88.62
291.833	82.62
292.064	101.62
292.295	82.62
292.526	93.62
292.757	80.62
292.987	87.62
293.218	94.62
293.449	90.62
293.68	82.62
293.91	71.62
294.141	92.62
294.372	84.62
294.603	83.62
294.833	100.62
295.064	79.62
295.295	85.62
295.525	86.62
295.756	107.62
295.987	134.62
296.217	172.62
296.448	135.62
296.679	99.62
296.909	102.62
297.14	93.62
297.37	103.62
297.601	85.62
297.831	96.62
298.062	94.62
298.292	92.62
298.523	78.62
298.753	93.62
298.984	86.62
299.214	104.62
299.445	86.62
299.675	86.62
299.905	91.62
300.136	109.62
300.366	91.62
300.597	96.62
300.827	93.62
301.057	107.62
301.288	112.62
301.518	110.62
301.748	88.62
301.979	106.62
302.209	102.62
302.439	98.62
302.669	89.62
302.9	106.62
303.13	92.62
303.36	102.62
303.59	124.62
303.82	149.62
304.051	113.62
304.281	83.62
304.511	99.62
304.741	95.62
304.971	86.62
305.201	90.62
305.431	91.62
305.661	102.62
305.891	99.62
306.121	103.62
306.352	112.62
306.582	117.62
306.812	106.62
307.042	124.62
307.272	157.62
307.502	157.62
307.731	163.62
307.961	118.62
308.191	98.62
308.421	98.62
308.651	87.62
308.881	100.62
309.111	106.62
309.341	102.62
309.571	112.62
309.8	102.62
310.03	117.62
310.26	101.62
310.49	105.62
310.72	116.62
310.949	131.62
311.179	100.62
311.409	85.62
311.639	93.62
311.868	102.62
312.098	103.62
312.328	110.62
312.557	120.62
312.787	114.62
313.017	113.62
313.246	96.62
313.476	88.62
313.706	88.62
313.935	93.62
314.165	112.62
314.394	111.62
314.624	108.62
314.853	102.62
315.083	104.62
315.312	101.62
315.542	89.62
315.771	88.62
316.001	91.62
316.23	87.62
316.46	98.62
316.689	96.62
316.919	107.62
317.148	104.62
317.377	90.62
317.607	98.62
317.836	93.62
318.065	94.62
318.295	85.62
318.524	82.62
318.753	99.62
318.983	100.62
319.212	120.62
319.441	116.62
319.67	121.62
319.9	103.62
320.129	94.62
320.358	95.62
320.587	104.62
320.816	94.62
321.046	103.62
321.275	95.62
321.504	104.62
321.733	92.62
321.962	93.62
322.191	100.62
322.42	122.62
322.649	123.62
322.878	121.62
323.108	139.62
323.337	123.62
323.566	127.62
323.795	151.62
324.024	239.62
324.253	414.62
324.482	854.62
324.71	1648.62
324.939	2224.62
325.168	826.62
325.397	263.62
325.626	166.62
325.855	135.62
326.084	144.62
326.313	133.62
326.542	152.62
326.77	236.62
326.999	419.62
327.228	854.62
327.457	1470.62
327.686	1256.62
327.914	499.62
328.143	492.62
328.372	639.62
328.6	354.62
328.829	184.62
329.058	180.62
329.287	197.62
329.515	178.62
329.744	238.62
329.972	441.62
330.201	875.62
330.43	1338.62
330.658	603.62
330.887	301.62
331.115	190.62
331.344	121.62
331.572	120.62
331.801	117.62
332.03	134.62
332.258	97.62
332.486	102.62
332.715	97.62
332.943	107.62
333.172	128.62
333.4	139.62
333.629	166.62
333.857	217.62
334.085	386.62
334.314	815.62
334.542	1640.62
334.771	1558.62
334.999	397.62
335.227	182.62
335.455	122.62
335.684	125.62
335.912	102.62
336.14	104.62
336.369	110.62
336.597	111.62
336.825	103.62
337.053	99.62
337.281	107.62
337.51	98.62
337.738	108.62
337.966	104.62
338.194	108.62
338.422	96.62
338.65	89.62
338.878	99.62
339.106	86.62
339.334	89.62
339.562	90.62
339.79	94.62
340.018	83.62
340.246	99.62
340.474	107.62
340.702	101.62
340.93	86.62
341.158	95.62
341.386	103.62
341.614	103.62
341.842	103.62
342.07	91.62
342.298	77.62
342.526	91.62
342.754	94.62
342.981	95.62
343.209	79.62
343.437	104.62
343.665	72.62
343.893	98.62
344.12	87.62
344.348	91.62
344.576	80.62
344.804	90.62
345.031	96.62
345.259	100.62
345.487	97.62
345.714	113.62
345.942	83.62
346.17	94.62
346.397	96.62
346.625	107.62
346.853	89.62
347.08	107.62
347.308	98.62
347.535	112.62
347.763	112.62
347.99	105.62
348.218	108.62
348.445	129.62
348.673	123.62
348.9	94.62
349.128	97.62
349.355	98.62
349.583	98.62
349.81	98.62
350.037	114.62
350.265	91.62
350.492	98.62
350.72	94.62
350.947	97.62
351.174	109.62
351.402	134.62
351.629	104.62
351.856	115.62
352.083	100.62
352.311	116.62
352.538	124.62
352.765	118.62
352.992	114.62
353.22	124.62
353.447	116.62
353.674	120.62
353.901	92.62
354.128	93.62
354.355	108.62
354.583	90.62
354.81	106.62
355.037	102.62
355.264	93.62
355.491	79.62
355.718	98.62
355.945	100.62
356.172	100.62
356.399	96.62
356.626	83.62
356.853	87.62
357.08	83.62
357.307	95.62
357.534	87.62
357.761	92.62
357.988	87.62
358.215	78.62
358.441	90.62
358.668	85.62
358.895	93.62
359.122	84.62
359.349	107.62
359.576	108.62
359.802	123.62
360.029	148.62
360.256	134.62
360.483	124.62
360.709	94.62
360.936	104.62
361.163	90.62
361.39	107.62
361.616	96.62
361.843	90.62
362.07	94.62
362.296	109.62
362.523	97.62
362.749	102.62
362.976	100.62
363.203	95.62
363.429	93.62
363.656	95.62
363.882	83.62
364.109	78.62
364.335	73.62
364.562	96.62
364.788	88.62
365.015	102.62
365.241	94.62
365.468	117.62
365.694	123.62
365.92	102.62
366.147	102.62
366.373	81.62
366.599	102.62
366.826	95.62
367.052	89.62
367.278	92.62
367.505	101.62
367.731	96.62
367.957	90.62
368.184	94.62
368.41	83.62
368.636	126.62
368.862	129.62
369.089	119.62
369.315	87.62
369.541	96.62
369.767	92.62
369.993	98.62
370.219	100.62
370.445	85.62
370.672	79.62
370.898	83.62
371.124	94.62
371.35	88.62
371.576	77.62
371.802	91.62
372.028	88.62
372.254	85.62
372.48	82.62
372.706	80.62
372.932	86.62
373.158	72.62
373.384	101.62
373.61	100.62
373.835	93.62
374.061	82.62
374.287	83.62
374.513	79.62
374.739	93.62
374.965	92.62
375.191	78.62
375.416	91.62
375.642	96.62
375.868	93.62
376.094	98.62
376.319	85.62
376.545	71.62
376.771	83.62
376.997	97.62
377.222	88.62
377.448	101.62
377.674	89.62
377.899	92.62
378.125	89.62
378.35	85.62
378.576	94.62
378.802	93.62
379.027	83.62
379.253	90.62
379.478	100.62
379.704	89.62
379.929	95.62
380.155	93.62
380.38	91.62
380.606	98.62
380.831	92.62
381.057	92.62
381.282	84.62
381.507	101.62
381.733	93.62
381.958	84.62
382.184	79.62
382.409	102.62
382.634	96.62
382.86	88.62
383.085	101.62
383.31	100.62
383.535	92.62
383.761	103.62
383.986	83.62
384.211	82.62
384.436	84.62
384.662	94.62
384.887	82.62
385.112	100.62
385.337	102.62
385.562	95.62
385.787	107.62
386.013	104.62
386.238	104.62
386.463	109.62
386.688	123.62
386.913	103.62
387.138	95.62
387.363	97.62
387.588	100.62
387.813	88.62
388.038	96.62
388.263	109.62
388.488	104.62
388.713	95.62
388.938	86.62
389.163	80.62
389.387	90.62
389.612	84.62
389.837	95.62
390.062	77.62
390.287	83.62
390.512	99.62
390.736	88.62
390.961	88.62
391.186	98.62
391.411	96.62
391.636	79.62
391.86	76.62
392.085	92.62
392.31	75.62
392.534	96.62
392.759	87.62
392.984	95.62
393.208	64.62
393.433	94.62
393.658	91.62
393.882	87.62
394.107	89.62
394.331	69.62
394.556	85.62
394.78	83.62
395.005	86.62
395.229	81.62
395.454	88.62
395.678	82.62
395.903	73.62
396.127	81.62
396.352	94.62
396.576	67.62
396.801	89.62
397.025	77.62
397.249	88.62
397.474	83.62
397.698	91.62
397.922	94.62
398.147	83.62
398.371	82.62
398.595	67.62
398.82	95.62
399.044	81.62
399.268	85.62
399.492	78.62
399.717	99.62
399.941	79.62
400.165	83.62
400.389	87.62
400.613	80.62
400.837	79.62
401.062	91.62
401.286	88.62
401.51	102.62
401.734	106.62
401.958	111.62
402.182	144.62
402.406	212.62
402.63	163.62
402.854	108.62
403.078	85.62
403.302	97.62
403.526	78.62
403.75	90.62
403.974	77.62
404.198	89.62
404.422	82.62
404.645	82.62
404.869	95.62
405.093	117.62
405.317	131.62
405.541	145.62
405.765	118.62
405.988	135.62
406.212	227.62
406.436	331.62
406.66	228.62
406.883	120.62
407.107	99.62
407.331	94.62
407.555	105.62
407.778	104.62
408.002	86.62
408.226	85.62
408.449	95.62
408.673	93.62
408.896	91.62
409.12	104.62
409.344	101.62
409.567	93.62
409.791	88.62
410.014	84.62
410.238	98.62
410.461	84.62
410.685	100.62
410.908	94.62
411.132	109.62
411.355	100.62
411.578	93.62
411.802	84.62
412.025	94.62
412.249	91.62
412.472	114.62
412.695	118.62
412.919	98.62
413.142	95.62
413.365	105.62
413.589	76.62
413.812	91.62
414.035	95.62
414.258	86.62
414.482	91.62
414.705	90.62
414.928	86.62
415.151	83.62
415.374	74.62
415.597	86.62
415.821	82.62
416.044	104.62
416.267	95.62
416.49	90.62
416.713	80.62
416.936	80.62
417.159	85.62
417.382	95.62
417.605	90.62
417.828	118.62
418.051	106.62
418.274	88.62
418.497	87.62
418.72	100.62
418.943	80.62
419.166	78.62
419.389	95.62
419.611	94.62
419.834	91.62
420.057	96.62
420.28	86.62
420.503	87.62
420.726	79.62
420.948	103.62
421.171	106.62
421.394	104.62
421.617	90.62
421.839	94.62
422.062	84.62
422.285	92.62
422.507	104.62
422.73	108.62
422.953	93.62
423.175	92.62
423.398	76.62
423.621	87.62
423.843	96.62
424.066	87.62
424.288	82.62
424.511	94.62
424.733	99.62
424.956	120.62
425.178	104.62
425.401	101.62
425.623	96.62
425.846	99.62
426.068	89.62
426.291	82.62
426.513	96.62
426.735	111.62
426.958	99.62
427.18	114.62
427.402	167.62
427.625	238.62
427.847	211.62
428.069	178.62
428.292	113.62
428.514	93.62
428.736	82.62
428.958	71.62
429.181	85.62
429.403	78.62
429.625	90.62
429.847	103.62
430.069	109.62
430.292	110.62
430.514	82.62
430.736	75.62
430.958	81.62
431.18	69.62
431.402	82.62
431.624	88.62
431.846	75.62
432.068	78.62
432.29	76.62
432.512	93.62
432.734	96.62
432.956	90.62
433.178	95.62
433.4	93.62
433.622	82.62
433.844	93.62
434.066	99.62
434.287	90.62
434.509	79.62
434.731	78.62
434.953	88.62
435.175	87.62
435.397	86.62
435.618	95.62
435.84	107.62
436.062	124.62
436.284	116.62
436.505	100.62
436.727	91.62
436.949	109.62
437.17	102.62
437.392	104.62
437.614	118.62
437.835	124.62
438.057	138.62
438.278	129.62
438.5	114.62
438.721	133.62
438.943	104.62
439.165	101.62
439.386	91.62
439.608	98.62
439.829	93.62
440.05	134.62
440.272	166.62
440.493	95.62
440.715	93.62
440.936	88.62
441.158	91.62
441.379	82.62
441.6	95.62
441.822	111.62
442.043	101.62
442.264	125.62
442.486	102.62
442.707	108.62
442.928	119.62
443.149	174.62
443.371	154.62
443.592	132.62
443.813	122.62
444.034	114.62
444.255	92.62
444.476	76.62
444.698	78.62
444.919	82.62
445.14	132.62
445.361	113.62
445.582	127.62
445.803	188.62
446.024	162.62
446.245	142.62
446.466	114.62
446.687	81.62
446.908	101.62
447.129	92.62
447.35	88.62
447.571	94.62
447.792	110.62
448.013	111.62
448.234	114.62
448.455	108.62
448.675	101.62
448.896	122.62
449.117	96.62
449.338	99.62
449.559	140.62
449.779	144.62
450	88.62
450.221	91.62
450.442	100.62
450.662	107.62
450.883	122.62
451.104	150.62
451.324	112.62
451.545	104.62
451.766	85.62
451.986	90.62
452.207	92.62
452.428	98.62
452.648	107.62
452.869	119.62
453.089	141.62
453.31	145.62
453.53	107.62
453.751	93.62
453.971	109.62
454.192	138.62
454.412	103.62
454.633	85.62
454.853	85.62
455.073	67.62
455.294	99.62
455.514	112.62
455.734	92.62
455.955	81.62
456.175	98.62
456.395	75.62
456.616	82.62
456.836	90.62
457.056	85.62
457.276	100.62
457.497	82.62
457.717	90.62
457.937	74.62
458.157	104.62
458.377	98.62
458.598	123.62
458.818	205.62
459.038	239.62
459.258	144.62
459.478	93.62
459.698	92.62
459.918	90.62
460.138	79.62
460.358	90.62
460.578	95.62
460.798	98.62
461.018	90.62
461.238	82.62
461.458	83.62
461.678	76.62
461.898	76.62
462.118	78.62
462.338	81.62
462.558	66.62
462.777	80.62
462.997	110.62
463.217	111.62
463.437	93.62
463.657	84.62
463.876	97.62
464.096	86.62
464.316	111.62
464.536	96.62
464.755	102.62
464.975	133.62
465.195	256.62
465.414	252.62
465.634	91.62
465.854	79.62
466.073	81.62
466.293	89.62
466.512	86.62
466.732	82.62
466.951	92.62
467.171	87.62
467.391	103.62
467.61	148.62
467.829	197.62
468.049	538.62
468.268	798.62
468.488	193.62
468.707	102.62
468.927	96.62
469.146	92.62
469.365	95.62
469.585	103.62
469.804	111.62
470.023	100.62
470.243	110.62
470.462	114.62
470.681	143.62
470.901	91.62
471.12	99.62
471.339	88.62
471.558	110.62
471.777	147.62
471.997	288.62
472.216	1001.62
472.435	2376.62
472.654	560.62
472.873	167.62
473.092	97.62
473.311	108.62
473.53	111.62
473.749	93.62
473.968	97.62
474.187	113.62
474.406	120.62
474.625	96.62
474.844	91.62
475.063	98.62
475.282	86.62
475.501	98.62
475.72	97.62
475.939	88.62
476.158	88.62
476.377	101.62
476.596	87.62
476.814	107.62
477.033	103.62
477.252	92.62
477.471	87.62
477.69	90.62
477.908	92.62
478.127	80.62
478.346	91.62
478.564	108.62
478.783	91.62
479.002	106.62
479.22	103.62
479.439	111.62
479.658	139.62
479.876	112.62
480.095	118.62
480.313	132.62
480.532	154.62
480.751	273.62
480.969	944.62
481.188	4030.62
481.406	2245.62
481.624	342.62
481.843	119.62
482.061	99.62
482.28	97.62
482.498	94.62
482.717	98.62
482.935	92.62
483.153	90.62
483.372	80.62
483.59	89.62
483.808	91.62
484.027	103.62
484.245	93.62
484.463	103.62
484.681	102.62
484.9	92.62
485.118	100.62
485.336	104.62
485.554	99.62
485.772	92.62
485.99	107.62
486.209	118.62
486.427	116.62
486.645	120.62
486.863	135.62
487.081	92.62
487.299	99.62
487.517	92.62
487.735	87.62
487.953	95.62
488.171	79.62
488.389	95.62
488.607	92.62
488.825	109.62
489.043	78.62
489.261	100.62
489.479	90.62
489.696	86.62
489.914	83.62
490.132	100.62
490.35	100.62
490.568	78.62
490.786	95.62
491.003	85.62
491.221	75.62
491.439	99.62
491.657	87.62
491.874	98.62
492.092	91.62
492.31	88.62
492.527	90.62
492.745	84.62
492.963	106.62
493.18	93.62
493.398	93.62
493.615	102.62
493.833	96.62
494.05	97.62
494.268	90.62
494.485	84.62
494.703	90.62
494.92	95.62
495.138	93.62
495.355	94.62
495.573	89.62
495.79	89.62
496.008	100.62
496.225	95.62
496.442	101.62
496.66	84.62
496.877	86.62
497.094	84.62
497.312	98.62
497.529	86.62
497.746	78.62
497.963	90.62
498.181	113.62
498.398	98.62
498.615	103.62
498.832	99.62
499.049	81.62
499.267	88.62
499.484	76.62
499.701	90.62
499.918	89.62
500.135	86.62
500.352	88.62
500.569	89.62
500.786	105.62
501.003	85.62
501.22	87.62
501.437	87.62
501.654	89.62
501.871	127.62
502.088	98.62
502.305	100.62
502.522	92.62
502.739	88.62
502.956	94.62
503.172	83.62
503.389	105.62
503.606	135.62
503.823	99.62
504.04	102.62
504.256	80.62
504.473	89.62
504.69	91.62
504.907	94.62
505.123	80.62
505.34	77.62
505.557	90.62
505.773	94.62
505.99	90.62
506.207	95.62
506.423	88.62
506.64	93.62
506.856	92.62
507.073	84.62
507.289	84.62
507.506	107.62
507.722	138.62
507.939	143.62
508.155	97.62
508.372	103.62
508.588	98.62
508.805	104.62
509.021	80.62
509.238	112.62
509.454	108.62
509.67	108.62
509.887	114.62
510.103	150.62
510.319	261.62
510.536	989.62
510.752	3545.62
510.968	907.62
511.184	182.62
511.401	128.62
511.617	119.62
511.833	114.62
512.049	104.62
512.265	98.62
512.481	91.62
512.698	100.62
512.914	85.62
513.13	103.62
513.346	113.62
513.562	90.62
