Data from Circ_1987_H10_HRD10591_00086.txt Node
Date: Wed Jan 03 12:10:50 EST 2024
User: Yrep
Spectrometer: HR+D1059
Trigger mode: 1
Integration Time (sec): 1.000000E-1
Scans to average: 1
Electric dark correction enabled: true
Nonlinearity correction enabled: false
Boxcar width: 0
XAxis mode: Wavelengths
Number of Pixels in Spectrum: 2048
>>>>>Begin Spectral Data<<<<<
223.165	-28.69
223.4	-28.69
223.635	-28.69
223.869	-23.69
224.104	-14.69
224.338	-10.69
224.573	-21.69
224.808	-22.69
225.042	-8.69
225.277	-8.69
225.511	-0.69
225.746	18.31
225.98	6.31
226.215	15.31
226.449	24.31
226.683	9.31
226.918	31.31
227.152	35.31
227.387	22.31
227.621	27.31
227.856	45.31
228.09	53.31
228.324	59.31
228.559	59.31
228.793	50.31
229.027	75.31
229.262	68.31
229.496	79.31
229.73	105.31
229.964	110.31
230.199	86.31
230.433	74.31
230.667	80.31
230.901	93.31
231.136	79.31
231.37	83.31
231.604	61.31
231.838	91.31
232.072	75.31
232.306	82.31
232.541	68.31
232.775	74.31
233.009	83.31
233.243	74.31
233.477	81.31
233.711	81.31
233.945	77.31
234.179	86.31
234.413	87.31
234.647	84.31
234.881	78.31
235.115	85.31
235.349	69.31
235.583	68.31
235.817	79.31
236.051	81.31
236.285	66.31
236.519	81.31
236.753	80.31
236.987	94.31
237.221	80.31
237.455	92.31
237.689	86.31
237.922	61.31
238.156	71.31
238.39	80.31
238.624	65.31
238.858	91.31
239.091	78.31
239.325	89.31
239.559	90.31
239.793	78.31
240.027	75.31
240.26	77.31
240.494	85.31
240.728	92.31
240.961	83.31
241.195	87.31
241.429	83.31
241.662	76.31
241.896	78.31
242.13	69.31
242.363	76.31
242.597	91.31
242.83	81.31
243.064	91.31
243.298	72.31
243.531	86.31
243.765	76.31
243.998	71.31
244.232	74.31
244.465	82.31
244.699	81.31
244.932	78.31
245.166	86.31
245.399	71.31
245.633	81.31
245.866	69.31
246.099	90.31
246.333	76.31
246.566	80.31
246.8	92.31
247.033	93.31
247.266	86.31
247.5	85.31
247.733	83.31
247.966	89.31
248.2	81.31
248.433	83.31
248.666	88.31
248.899	85.31
249.133	81.31
249.366	104.31
249.599	107.31
249.832	63.31
250.066	70.31
250.299	89.31
250.532	98.31
250.765	77.31
250.998	91.31
251.231	86.31
251.465	78.31
251.698	78.31
251.931	84.31
252.164	78.31
252.397	81.31
252.63	81.31
252.863	64.31
253.096	89.31
253.329	80.31
253.562	97.31
253.795	101.31
254.028	94.31
254.261	76.31
254.494	89.31
254.727	87.31
254.96	90.31
255.193	78.31
255.426	92.31
255.659	88.31
255.892	84.31
256.124	109.31
256.357	95.31
256.59	91.31
256.823	77.31
257.056	87.31
257.289	79.31
257.521	97.31
257.754	83.31
257.987	88.31
258.22	99.31
258.452	84.31
258.685	93.31
258.918	95.31
259.151	93.31
259.383	89.31
259.616	73.31
259.849	85.31
260.081	75.31
260.314	89.31
260.547	83.31
260.779	98.31
261.012	105.31
261.244	98.31
261.477	103.31
261.71	94.31
261.942	134.31
262.175	148.31
262.407	108.31
262.64	95.31
262.872	99.31
263.105	85.31
263.337	82.31
263.57	92.31
263.802	88.31
264.035	85.31
264.267	86.31
264.499	82.31
264.732	81.31
264.964	90.31
265.197	78.31
265.429	84.31
265.661	88.31
265.894	89.31
266.126	82.31
266.358	88.31
266.591	87.31
266.823	92.31
267.055	72.31
267.287	82.31
267.52	95.31
267.752	95.31
267.984	88.31
268.216	87.31
268.448	93.31
268.681	72.31
268.913	88.31
269.145	74.31
269.377	90.31
269.609	79.31
269.841	99.31
270.073	86.31
270.306	105.31
270.538	92.31
270.77	86.31
271.002	68.31
271.234	91.31
271.466	103.31
271.698	108.31
271.93	87.31
272.162	84.31
272.394	97.31
272.626	103.31
272.858	83.31
273.09	86.31
273.322	87.31
273.553	75.31
273.785	80.31
274.017	90.31
274.249	74.31
274.481	96.31
274.713	78.31
274.945	99.31
275.176	93.31
275.408	105.31
275.64	114.31
275.872	132.31
276.104	117.31
276.335	109.31
276.567	125.31
276.799	153.31
277.031	181.31
277.262	214.31
277.494	163.31
277.726	95.31
277.957	94.31
278.189	86.31
278.421	98.31
278.652	77.31
278.884	86.31
279.115	97.31
279.347	95.31
279.579	113.31
279.81	116.31
280.042	201.31
280.273	274.31
280.505	189.31
280.736	122.31
280.968	99.31
281.199	103.31
281.431	91.31
281.662	84.31
281.894	104.31
282.125	107.31
282.356	124.31
282.588	164.31
282.819	113.31
283.051	94.31
283.282	90.31
283.513	89.31
283.745	100.31
283.976	84.31
284.207	96.31
284.439	96.31
284.67	91.31
284.901	86.31
285.132	79.31
285.364	85.31
285.595	94.31
285.826	87.31
286.057	91.31
286.288	82.31
286.52	90.31
286.751	87.31
286.982	97.31
287.213	86.31
287.444	96.31
287.675	89.31
287.906	97.31
288.138	95.31
288.369	82.31
288.6	110.31
288.831	85.31
289.062	91.31
289.293	90.31
289.524	101.31
289.755	98.31
289.986	85.31
290.217	86.31
290.448	83.31
290.679	92.31
290.91	84.31
291.141	85.31
291.371	79.31
291.602	88.31
291.833	81.31
292.064	87.31
292.295	84.31
292.526	83.31
292.757	97.31
292.987	94.31
293.218	90.31
293.449	94.31
293.68	102.31
293.91	78.31
294.141	91.31
294.372	87.31
294.603	92.31
294.833	82.31
295.064	93.31
295.295	95.31
295.525	86.31
295.756	108.31
295.987	120.31
296.217	178.31
296.448	141.31
296.679	101.31
296.909	86.31
297.14	75.31
297.37	76.31
297.601	81.31
297.831	102.31
298.062	103.31
298.292	102.31
298.523	80.31
298.753	85.31
298.984	109.31
299.214	90.31
299.445	89.31
299.675	98.31
299.905	97.31
300.136	95.31
300.366	95.31
300.597	77.31
300.827	98.31
301.057	103.31
301.288	119.31
301.518	105.31
301.748	106.31
301.979	120.31
302.209	104.31
302.439	107.31
302.669	108.31
302.9	95.31
303.13	104.31
303.36	107.31
303.59	114.31
303.82	146.31
304.051	100.31
304.281	99.31
304.511	95.31
304.741	97.31
304.971	87.31
305.201	81.31
305.431	101.31
305.661	97.31
305.891	93.31
306.121	106.31
306.352	109.31
306.582	124.31
306.812	106.31
307.042	125.31
307.272	171.31
307.502	181.31
307.731	164.31
307.961	125.31
308.191	98.31
308.421	95.31
308.651	98.31
308.881	99.31
309.111	89.31
309.341	99.31
309.571	93.31
309.8	87.31
310.03	100.31
310.26	107.31
310.49	103.31
310.72	96.31
310.949	117.31
311.179	119.31
311.409	103.31
311.639	100.31
311.868	96.31
312.098	101.31
312.328	101.31
312.557	107.31
312.787	128.31
313.017	103.31
313.246	101.31
313.476	85.31
313.706	81.31
313.935	98.31
314.165	99.31
314.394	122.31
314.624	121.31
314.853	107.31
315.083	108.31
315.312	93.31
315.542	92.31
315.771	89.31
316.001	95.31
316.23	99.31
316.46	101.31
316.689	102.31
316.919	106.31
317.148	112.31
317.377	117.31
317.607	87.31
317.836	87.31
318.065	85.31
318.295	91.31
318.524	98.31
318.753	92.31
318.983	102.31
319.212	113.31
319.441	110.31
319.67	110.31
319.9	83.31
320.129	106.31
320.358	96.31
320.587	98.31
320.816	110.31
321.046	110.31
321.275	101.31
321.504	99.31
321.733	95.31
321.962	89.31
322.191	101.31
322.42	121.31
322.649	125.31
322.878	129.31
323.108	145.31
323.337	151.31
323.566	139.31
323.795	187.31
324.024	232.31
324.253	456.31
324.482	934.31
324.71	1951.31
324.939	2544.31
325.168	982.31
325.397	291.31
325.626	166.31
325.855	141.31
326.084	143.31
326.313	133.31
326.542	166.31
326.77	242.31
326.999	481.31
327.228	986.31
327.457	1827.31
327.686	1507.31
327.914	533.31
328.143	545.31
328.372	734.31
328.6	411.31
328.829	214.31
329.058	202.31
329.287	211.31
329.515	184.31
329.744	281.31
329.972	516.31
330.201	1057.31
330.43	1600.31
330.658	688.31
330.887	323.31
331.115	202.31
331.344	125.31
331.572	134.31
331.801	137.31
332.03	126.31
332.258	129.31
332.486	114.31
332.715	118.31
332.943	131.31
333.172	128.31
333.4	125.31
333.629	153.31
333.857	239.31
334.085	443.31
334.314	1006.31
334.542	1963.31
334.771	1891.31
334.999	485.31
335.227	183.31
335.455	127.31
335.684	120.31
335.912	101.31
336.14	104.31
336.369	107.31
336.597	128.31
336.825	112.31
337.053	97.31
337.281	101.31
337.51	98.31
337.738	117.31
337.966	113.31
338.194	100.31
338.422	105.31
338.65	99.31
338.878	98.31
339.106	78.31
339.334	100.31
339.562	100.31
339.79	99.31
340.018	98.31
340.246	101.31
340.474	97.31
340.702	95.31
340.93	90.31
341.158	93.31
341.386	93.31
341.614	118.31
341.842	101.31
342.07	93.31
342.298	90.31
342.526	85.31
342.754	92.31
342.981	93.31
343.209	98.31
343.437	86.31
343.665	83.31
343.893	93.31
344.12	99.31
344.348	98.31
344.576	100.31
344.804	93.31
345.031	104.31
345.259	114.31
345.487	107.31
345.714	116.31
345.942	105.31
346.17	101.31
346.397	91.31
346.625	90.31
346.853	93.31
347.08	103.31
347.308	111.31
347.535	102.31
347.763	112.31
347.99	85.31
348.218	104.31
348.445	115.31
348.673	116.31
348.9	97.31
349.128	92.31
349.355	81.31
349.583	110.31
349.81	103.31
350.037	104.31
350.265	98.31
350.492	102.31
350.72	106.31
350.947	102.31
351.174	110.31
351.402	125.31
351.629	111.31
351.856	95.31
352.083	105.31
352.311	105.31
352.538	118.31
352.765	121.31
352.992	111.31
353.22	122.31
353.447	122.31
353.674	88.31
353.901	103.31
354.128	106.31
354.355	88.31
354.583	89.31
354.81	104.31
355.037	86.31
355.264	105.31
355.491	94.31
355.718	96.31
355.945	99.31
356.172	95.31
356.399	95.31
356.626	91.31
356.853	102.31
357.08	96.31
357.307	88.31
357.534	89.31
357.761	86.31
357.988	91.31
358.215	83.31
358.441	92.31
358.668	72.31
358.895	93.31
359.122	87.31
359.349	89.31
359.576	97.31
359.802	111.31
360.029	161.31
360.256	143.31
360.483	100.31
360.709	81.31
360.936	99.31
361.163	107.31
361.39	100.31
361.616	113.31
361.843	85.31
362.07	115.31
362.296	116.31
362.523	109.31
362.749	98.31
362.976	100.31
363.203	87.31
363.429	91.31
363.656	95.31
363.882	102.31
364.109	89.31
364.335	89.31
364.562	97.31
364.788	103.31
365.015	94.31
365.241	99.31
365.468	131.31
365.694	131.31
365.92	116.31
366.147	95.31
366.373	94.31
366.599	100.31
366.826	89.31
367.052	105.31
367.278	72.31
367.505	96.31
367.731	98.31
367.957	99.31
368.184	110.31
368.41	121.31
368.636	110.31
368.862	122.31
369.089	118.31
369.315	99.31
369.541	103.31
369.767	101.31
369.993	98.31
370.219	93.31
370.445	105.31
370.672	106.31
370.898	89.31
371.124	95.31
371.35	95.31
371.576	73.31
371.802	94.31
372.028	93.31
372.254	99.31
372.48	89.31
372.706	93.31
372.932	90.31
373.158	87.31
373.384	85.31
373.61	97.31
373.835	96.31
374.061	77.31
374.287	98.31
374.513	95.31
374.739	88.31
374.965	85.31
375.191	81.31
375.416	82.31
375.642	83.31
375.868	87.31
376.094	88.31
376.319	90.31
376.545	103.31
376.771	81.31
376.997	81.31
377.222	91.31
377.448	83.31
377.674	85.31
377.899	86.31
378.125	91.31
378.35	98.31
378.576	93.31
378.802	82.31
379.027	96.31
379.253	98.31
379.478	86.31
379.704	86.31
379.929	103.31
380.155	98.31
380.38	97.31
380.606	90.31
380.831	89.31
381.057	93.31
381.282	98.31
381.507	105.31
381.733	94.31
381.958	90.31
382.184	102.31
382.409	98.31
382.634	98.31
382.86	106.31
383.085	94.31
383.31	80.31
383.535	87.31
383.761	91.31
383.986	97.31
384.211	85.31
384.436	94.31
384.662	91.31
384.887	88.31
385.112	98.31
385.337	109.31
385.562	105.31
385.787	105.31
386.013	106.31
386.238	115.31
386.463	119.31
386.688	106.31
386.913	110.31
387.138	103.31
387.363	105.31
387.588	88.31
387.813	95.31
388.038	104.31
388.263	117.31
388.488	87.31
388.713	88.31
388.938	102.31
389.163	83.31
389.387	97.31
389.612	92.31
389.837	97.31
390.062	86.31
390.287	86.31
390.512	87.31
390.736	93.31
390.961	75.31
391.186	93.31
391.411	99.31
391.636	91.31
391.86	93.31
392.085	91.31
392.31	89.31
392.534	91.31
392.759	98.31
392.984	91.31
393.208	79.31
393.433	102.31
393.658	100.31
393.882	80.31
394.107	89.31
394.331	81.31
394.556	84.31
394.78	85.31
395.005	85.31
395.229	90.31
395.454	91.31
395.678	73.31
395.903	93.31
396.127	77.31
396.352	101.31
396.576	94.31
396.801	88.31
397.025	91.31
397.249	74.31
397.474	92.31
397.698	93.31
397.922	88.31
398.147	87.31
398.371	83.31
398.595	80.31
398.82	91.31
399.044	89.31
399.268	94.31
399.492	72.31
399.717	85.31
399.941	89.31
400.165	94.31
400.389	102.31
400.613	101.31
400.837	88.31
401.062	81.31
401.286	92.31
401.51	83.31
401.734	113.31
401.958	101.31
402.182	139.31
402.406	215.31
402.63	166.31
402.854	132.31
403.078	97.31
403.302	89.31
403.526	95.31
403.75	105.31
403.974	95.31
404.198	90.31
404.422	97.31
404.645	96.31
404.869	98.31
405.093	113.31
405.317	141.31
405.541	153.31
405.765	130.31
405.988	133.31
406.212	220.31
406.436	327.31
406.66	209.31
406.883	142.31
407.107	106.31
407.331	103.31
407.555	118.31
407.778	112.31
408.002	92.31
408.226	98.31
408.449	90.31
408.673	95.31
408.896	106.31
409.12	104.31
409.344	86.31
409.567	90.31
409.791	80.31
410.014	85.31
410.238	98.31
410.461	90.31
410.685	99.31
410.908	99.31
411.132	111.31
411.355	90.31
411.578	97.31
411.802	87.31
412.025	98.31
412.249	96.31
412.472	120.31
412.695	131.31
412.919	117.31
413.142	107.31
413.365	82.31
413.589	92.31
413.812	72.31
414.035	94.31
414.258	108.31
414.482	86.31
414.705	97.31
414.928	79.31
415.151	77.31
415.374	93.31
415.597	91.31
415.821	100.31
416.044	89.31
416.267	103.31
416.49	93.31
416.713	102.31
416.936	84.31
417.159	97.31
417.382	115.31
417.605	112.31
417.828	114.31
418.051	102.31
418.274	85.31
418.497	87.31
418.72	100.31
418.943	79.31
419.166	89.31
419.389	90.31
419.611	108.31
419.834	100.31
420.057	93.31
420.28	93.31
420.503	81.31
420.726	100.31
420.948	94.31
421.171	115.31
421.394	101.31
421.617	93.31
421.839	100.31
422.062	87.31
422.285	87.31
422.507	96.31
422.73	91.31
422.953	104.31
423.175	96.31
423.398	98.31
423.621	88.31
423.843	86.31
424.066	84.31
424.288	91.31
424.511	85.31
424.733	117.31
424.956	117.31
425.178	106.31
425.401	110.31
425.623	98.31
425.846	87.31
426.068	121.31
426.291	113.31
426.513	81.31
426.735	91.31
426.958	97.31
427.18	112.31
427.402	157.31
427.625	271.31
427.847	253.31
428.069	216.31
428.292	132.31
428.514	91.31
428.736	91.31
428.958	89.31
429.181	91.31
429.403	104.31
429.625	107.31
429.847	105.31
430.069	120.31
430.292	93.31
430.514	85.31
430.736	81.31
430.958	93.31
431.18	89.31
431.402	90.31
431.624	89.31
431.846	90.31
432.068	77.31
432.29	81.31
432.512	93.31
432.734	77.31
432.956	80.31
433.178	112.31
433.4	104.31
433.622	102.31
433.844	83.31
434.066	110.31
434.287	92.31
434.509	93.31
434.731	87.31
434.953	83.31
435.175	84.31
435.397	82.31
435.618	105.31
435.84	118.31
436.062	136.31
436.284	121.31
436.505	89.31
436.727	100.31
436.949	95.31
437.17	97.31
437.392	105.31
437.614	101.31
437.835	127.31
438.057	145.31
438.278	131.31
438.5	100.31
438.721	127.31
438.943	113.31
439.165	96.31
439.386	79.31
439.608	95.31
439.829	122.31
440.05	143.31
440.272	191.31
440.493	114.31
440.715	89.31
440.936	106.31
441.158	96.31
441.379	96.31
441.6	105.31
441.822	111.31
442.043	98.31
442.264	112.31
442.486	105.31
442.707	99.31
442.928	137.31
443.149	158.31
443.371	173.31
443.592	138.31
443.813	141.31
444.034	117.31
444.255	95.31
444.476	94.31
444.698	93.31
444.919	94.31
445.14	120.31
445.361	125.31
445.582	150.31
445.803	189.31
446.024	170.31
446.245	166.31
446.466	120.31
446.687	77.31
446.908	89.31
447.129	87.31
447.35	88.31
447.571	103.31
447.792	105.31
448.013	106.31
448.234	118.31
448.455	114.31
448.675	136.31
448.896	144.31
449.117	119.31
449.338	127.31
449.559	154.31
449.779	157.31
450	90.31
450.221	100.31
450.442	93.31
450.662	90.31
450.883	130.31
451.104	139.31
451.324	103.31
451.545	93.31
451.766	96.31
451.986	91.31
452.207	103.31
452.428	114.31
452.648	112.31
452.869	121.31
453.089	129.31
453.31	151.31
453.53	113.31
453.751	93.31
453.971	106.31
454.192	141.31
454.412	95.31
454.633	95.31
454.853	99.31
455.073	105.31
455.294	108.31
455.514	119.31
455.734	98.31
455.955	92.31
456.175	102.31
456.395	97.31
456.616	96.31
456.836	100.31
457.056	83.31
457.276	79.31
457.497	82.31
457.717	94.31
457.937	81.31
458.157	90.31
458.377	96.31
458.598	124.31
458.818	225.31
459.038	232.31
459.258	137.31
459.478	91.31
459.698	89.31
459.918	90.31
460.138	91.31
460.358	86.31
460.578	89.31
460.798	102.31
461.018	95.31
461.238	86.31
461.458	101.31
461.678	109.31
461.898	83.31
462.118	91.31
462.338	70.31
462.558	95.31
462.777	82.31
462.997	108.31
463.217	110.31
463.437	106.31
463.657	99.31
463.876	81.31
464.096	95.31
464.316	111.31
464.536	104.31
464.755	92.31
464.975	132.31
465.195	242.31
465.414	264.31
465.634	115.31
465.854	81.31
466.073	89.31
466.293	84.31
466.512	86.31
466.732	93.31
466.951	102.31
467.171	101.31
467.391	109.31
467.61	143.31
467.829	219.31
468.049	591.31
468.268	886.31
468.488	234.31
468.707	118.31
468.927	105.31
469.146	79.31
469.365	82.31
469.585	93.31
469.804	114.31
470.023	124.31
470.243	125.31
470.462	108.31
470.681	144.31
470.901	104.31
471.12	91.31
471.339	101.31
471.558	130.31
471.777	165.31
471.997	305.31
472.216	1154.31
472.435	2682.31
472.654	623.31
472.873	158.31
473.092	116.31
473.311	83.31
473.53	104.31
473.749	90.31
473.968	110.31
474.187	120.31
474.406	107.31
474.625	94.31
474.844	93.31
475.063	83.31
475.282	86.31
475.501	89.31
475.72	88.31
475.939	90.31
476.158	75.31
476.377	84.31
476.596	101.31
476.814	101.31
477.033	97.31
477.252	107.31
477.471	99.31
477.69	90.31
477.908	99.31
478.127	99.31
478.346	89.31
478.564	94.31
478.783	106.31
479.002	101.31
479.22	121.31
479.439	129.31
479.658	143.31
479.876	127.31
480.095	130.31
480.313	143.31
480.532	173.31
480.751	275.31
480.969	1028.31
481.188	4597.31
481.406	2625.31
481.624	390.31
481.843	146.31
482.061	104.31
482.28	105.31
482.498	93.31
482.717	93.31
482.935	101.31
483.153	87.31
483.372	85.31
483.59	82.31
483.808	95.31
484.027	107.31
484.245	85.31
484.463	100.31
484.681	97.31
484.9	93.31
485.118	106.31
485.336	93.31
485.554	86.31
485.772	115.31
485.99	113.31
486.209	106.31
486.427	105.31
486.645	125.31
486.863	150.31
487.081	111.31
487.299	96.31
487.517	105.31
487.735	94.31
487.953	87.31
488.171	99.31
488.389	104.31
488.607	113.31
488.825	85.31
489.043	105.31
489.261	82.31
489.479	94.31
489.696	97.31
489.914	82.31
490.132	81.31
490.35	93.31
490.568	68.31
490.786	87.31
491.003	93.31
491.221	101.31
491.439	79.31
491.657	100.31
491.874	93.31
492.092	92.31
492.31	105.31
492.527	101.31
492.745	96.31
492.963	113.31
493.18	103.31
493.398	107.31
493.615	95.31
493.833	98.31
494.05	94.31
494.268	81.31
494.485	85.31
494.703	93.31
494.92	88.31
495.138	91.31
495.355	91.31
495.573	90.31
495.79	82.31
496.008	91.31
496.225	104.31
496.442	88.31
496.66	95.31
496.877	97.31
497.094	104.31
497.312	96.31
497.529	91.31
497.746	93.31
497.963	96.31
498.181	86.31
498.398	97.31
498.615	132.31
498.832	111.31
499.049	102.31
499.267	96.31
499.484	73.31
499.701	94.31
499.918	101.31
500.135	95.31
500.352	101.31
500.569	99.31
500.786	90.31
501.003	91.31
501.22	99.31
501.437	93.31
501.654	90.31
501.871	139.31
502.088	100.31
502.305	95.31
502.522	92.31
502.739	98.31
502.956	97.31
503.172	107.31
503.389	98.31
503.606	113.31
503.823	114.31
504.04	92.31
504.256	98.31
504.473	96.31
504.69	82.31
504.907	103.31
505.123	86.31
505.34	91.31
505.557	87.31
505.773	77.31
505.99	97.31
506.207	89.31
506.423	99.31
506.64	86.31
506.856	87.31
507.073	96.31
507.289	98.31
507.506	107.31
507.722	142.31
507.939	137.31
508.155	105.31
508.372	93.31
508.588	97.31
508.805	86.31
509.021	97.31
509.238	97.31
509.454	107.31
509.67	102.31
509.887	105.31
510.103	148.31
510.319	250.31
510.536	920.31
510.752	3198.31
510.968	853.31
511.184	180.31
511.401	132.31
511.617	110.31
511.833	107.31
512.049	104.31
512.265	86.31
512.481	93.31
512.698	93.31
