Data from Circ_1987_H10_HRD10591_00070.txt Node
Date: Wed Jan 03 12:10:46 EST 2024
User: Yrep
Spectrometer: HR+D1059
Trigger mode: 1
Integration Time (sec): 1.000000E-1
Scans to average: 1
Electric dark correction enabled: true
Nonlinearity correction enabled: false
Boxcar width: 0
XAxis mode: Wavelengths
Number of Pixels in Spectrum: 2048
>>>>>Begin Spectral Data<<<<<
223.165	-15.31
223.4	-15.31
223.635	-15.31
223.869	-9.31
224.104	-41.31
224.338	-24.31
224.573	-10.31
224.808	-22.31
225.042	-9.31
225.277	-5.31
225.511	-2.31
225.746	-3.31
225.98	11.69
226.215	14.69
226.449	15.69
226.683	27.69
226.918	38.69
227.152	34.69
227.387	45.69
227.621	34.69
227.856	55.69
228.09	54.69
228.324	44.69
228.559	52.69
228.793	54.69
229.027	67.69
229.262	63.69
229.496	90.69
229.73	82.69
229.964	98.69
230.199	83.69
230.433	70.69
230.667	72.69
230.901	71.69
231.136	81.69
231.37	79.69
231.604	89.69
231.838	86.69
232.072	84.69
232.306	96.69
232.541	74.69
232.775	90.69
233.009	87.69
233.243	100.69
233.477	84.69
233.711	96.69
233.945	81.69
234.179	91.69
234.413	87.69
234.647	68.69
234.881	82.69
235.115	79.69
235.349	71.69
235.583	64.69
235.817	88.69
236.051	86.69
236.285	77.69
236.519	73.69
236.753	81.69
236.987	81.69
237.221	86.69
237.455	104.69
237.689	86.69
237.922	88.69
238.156	75.69
238.39	78.69
238.624	65.69
238.858	68.69
239.091	90.69
239.325	80.69
239.559	98.69
239.793	80.69
240.027	83.69
240.26	74.69
240.494	86.69
240.728	66.69
240.961	89.69
241.195	72.69
241.429	87.69
241.662	71.69
241.896	82.69
242.13	76.69
242.363	70.69
242.597	79.69
242.83	85.69
243.064	83.69
243.298	86.69
243.531	84.69
243.765	75.69
243.998	102.69
244.232	79.69
244.465	96.69
244.699	78.69
244.932	73.69
245.166	89.69
245.399	70.69
245.633	95.69
245.866	80.69
246.099	84.69
246.333	79.69
246.566	74.69
246.8	76.69
247.033	79.69
247.266	66.69
247.5	88.69
247.733	80.69
247.966	80.69
248.2	78.69
248.433	79.69
248.666	84.69
248.899	83.69
249.133	84.69
249.366	100.69
249.599	103.69
249.832	83.69
250.066	89.69
250.299	86.69
250.532	90.69
250.765	88.69
250.998	81.69
251.231	84.69
251.465	82.69
251.698	89.69
251.931	73.69
252.164	98.69
252.397	78.69
252.63	81.69
252.863	74.69
253.096	70.69
253.329	82.69
253.562	80.69
253.795	90.69
254.028	96.69
254.261	77.69
254.494	88.69
254.727	81.69
254.96	92.69
255.193	87.69
255.426	78.69
255.659	87.69
255.892	102.69
256.124	102.69
256.357	96.69
256.59	79.69
256.823	72.69
257.056	87.69
257.289	105.69
257.521	95.69
257.754	80.69
257.987	88.69
258.22	90.69
258.452	97.69
258.685	95.69
258.918	76.69
259.151	99.69
259.383	93.69
259.616	94.69
259.849	97.69
260.081	89.69
260.314	89.69
260.547	92.69
260.779	93.69
261.012	105.69
261.244	114.69
261.477	86.69
261.71	104.69
261.942	136.69
262.175	135.69
262.407	97.69
262.64	92.69
262.872	76.69
263.105	104.69
263.337	95.69
263.57	87.69
263.802	82.69
264.035	99.69
264.267	91.69
264.499	81.69
264.732	87.69
264.964	80.69
265.197	82.69
265.429	84.69
265.661	86.69
265.894	89.69
266.126	84.69
266.358	86.69
266.591	78.69
266.823	76.69
267.055	86.69
267.287	80.69
267.52	90.69
267.752	95.69
267.984	84.69
268.216	83.69
268.448	88.69
268.681	94.69
268.913	95.69
269.145	96.69
269.377	86.69
269.609	75.69
269.841	91.69
270.073	89.69
270.306	84.69
270.538	89.69
270.77	78.69
271.002	73.69
271.234	106.69
271.466	89.69
271.698	95.69
271.93	95.69
272.162	87.69
272.394	85.69
272.626	83.69
272.858	74.69
273.09	91.69
273.322	77.69
273.553	89.69
273.785	75.69
274.017	85.69
274.249	90.69
274.481	82.69
274.713	92.69
274.945	84.69
275.176	84.69
275.408	100.69
275.64	111.69
275.872	116.69
276.104	105.69
276.335	102.69
276.567	105.69
276.799	144.69
277.031	174.69
277.262	186.69
277.494	126.69
277.726	86.69
277.957	88.69
278.189	87.69
278.421	95.69
278.652	95.69
278.884	89.69
279.115	87.69
279.347	85.69
279.579	117.69
279.81	127.69
280.042	182.69
280.273	245.69
280.505	163.69
280.736	121.69
280.968	102.69
281.199	78.69
281.431	86.69
281.662	91.69
281.894	88.69
282.125	114.69
282.356	129.69
282.588	150.69
282.819	124.69
283.051	85.69
283.282	98.69
283.513	74.69
283.745	83.69
283.976	83.69
284.207	108.69
284.439	100.69
284.67	95.69
284.901	90.69
285.132	102.69
285.364	84.69
285.595	95.69
285.826	96.69
286.057	90.69
286.288	86.69
286.52	89.69
286.751	86.69
286.982	86.69
287.213	108.69
287.444	88.69
287.675	86.69
287.906	108.69
288.138	83.69
288.369	100.69
288.6	101.69
288.831	96.69
289.062	82.69
289.293	95.69
289.524	86.69
289.755	90.69
289.986	92.69
290.217	99.69
290.448	94.69
290.679	97.69
290.91	90.69
291.141	99.69
291.371	87.69
291.602	97.69
291.833	98.69
292.064	87.69
292.295	102.69
292.526	86.69
292.757	89.69
292.987	76.69
293.218	72.69
293.449	79.69
293.68	90.69
293.91	99.69
294.141	103.69
294.372	84.69
294.603	102.69
294.833	91.69
295.064	90.69
295.295	84.69
295.525	108.69
295.756	110.69
295.987	122.69
296.217	163.69
296.448	135.69
296.679	103.69
296.909	83.69
297.14	81.69
297.37	80.69
297.601	101.69
297.831	88.69
298.062	86.69
298.292	72.69
298.523	100.69
298.753	96.69
298.984	96.69
299.214	95.69
299.445	92.69
299.675	102.69
299.905	112.69
300.136	97.69
300.366	91.69
300.597	74.69
300.827	98.69
301.057	108.69
301.288	108.69
301.518	95.69
301.748	105.69
301.979	113.69
302.209	116.69
302.439	94.69
302.669	90.69
302.9	90.69
303.13	93.69
303.36	113.69
303.59	122.69
303.82	153.69
304.051	104.69
304.281	98.69
304.511	112.69
304.741	88.69
304.971	99.69
305.201	82.69
305.431	109.69
305.661	109.69
305.891	80.69
306.121	96.69
306.352	110.69
306.582	120.69
306.812	112.69
307.042	120.69
307.272	160.69
307.502	165.69
307.731	137.69
307.961	119.69
308.191	96.69
308.421	91.69
308.651	100.69
308.881	94.69
309.111	94.69
309.341	91.69
309.571	106.69
309.8	114.69
310.03	105.69
310.26	103.69
310.49	113.69
310.72	109.69
310.949	121.69
311.179	112.69
311.409	98.69
311.639	115.69
311.868	103.69
312.098	103.69
312.328	95.69
312.557	115.69
312.787	104.69
313.017	108.69
313.246	100.69
313.476	99.69
313.706	77.69
313.935	87.69
314.165	100.69
314.394	107.69
314.624	95.69
314.853	107.69
315.083	102.69
315.312	114.69
315.542	112.69
315.771	89.69
316.001	98.69
316.23	84.69
316.46	95.69
316.689	96.69
316.919	89.69
317.148	101.69
317.377	87.69
317.607	96.69
317.836	87.69
318.065	91.69
318.295	87.69
318.524	90.69
318.753	94.69
318.983	100.69
319.212	107.69
319.441	117.69
319.67	107.69
319.9	102.69
320.129	106.69
320.358	105.69
320.587	123.69
320.816	114.69
321.046	112.69
321.275	126.69
321.504	94.69
321.733	96.69
321.962	108.69
322.191	107.69
322.42	112.69
322.649	107.69
322.878	123.69
323.108	141.69
323.337	131.69
323.566	151.69
323.795	172.69
324.024	201.69
324.253	367.69
324.482	759.69
324.71	1528.69
324.939	2026.69
325.168	787.69
325.397	241.69
325.626	158.69
325.855	116.69
326.084	123.69
326.313	155.69
326.542	156.69
326.77	228.69
326.999	408.69
327.228	804.69
327.457	1434.69
327.686	1174.69
327.914	459.69
328.143	444.69
328.372	592.69
328.6	331.69
328.829	178.69
329.058	174.69
329.287	197.69
329.515	169.69
329.744	222.69
329.972	428.69
330.201	839.69
330.43	1271.69
330.658	567.69
330.887	258.69
331.115	178.69
331.344	123.69
331.572	123.69
331.801	120.69
332.03	120.69
332.258	104.69
332.486	117.69
332.715	91.69
332.943	105.69
333.172	122.69
333.4	130.69
333.629	162.69
333.857	226.69
334.085	374.69
334.314	768.69
334.542	1504.69
334.771	1477.69
334.999	383.69
335.227	159.69
335.455	123.69
335.684	117.69
335.912	101.69
336.14	112.69
336.369	113.69
336.597	124.69
336.825	121.69
337.053	108.69
337.281	95.69
337.51	94.69
337.738	108.69
337.966	91.69
338.194	105.69
338.422	95.69
338.65	93.69
338.878	103.69
339.106	95.69
339.334	100.69
339.562	119.69
339.79	94.69
340.018	100.69
340.246	98.69
340.474	103.69
340.702	114.69
340.93	85.69
341.158	64.69
341.386	111.69
341.614	94.69
341.842	87.69
342.07	89.69
342.298	78.69
342.526	90.69
342.754	89.69
342.981	86.69
343.209	95.69
343.437	106.69
343.665	80.69
343.893	98.69
344.12	90.69
344.348	92.69
344.576	92.69
344.804	105.69
345.031	89.69
345.259	102.69
345.487	103.69
345.714	89.69
345.942	94.69
346.17	62.69
346.397	99.69
346.625	95.69
346.853	99.69
347.08	92.69
347.308	105.69
347.535	105.69
347.763	98.69
347.99	94.69
348.218	98.69
348.445	110.69
348.673	106.69
348.9	100.69
349.128	102.69
349.355	88.69
349.583	104.69
349.81	102.69
350.037	97.69
350.265	90.69
350.492	85.69
350.72	95.69
350.947	107.69
351.174	112.69
351.402	108.69
351.629	105.69
351.856	116.69
352.083	113.69
352.311	114.69
352.538	120.69
352.765	119.69
352.992	114.69
353.22	113.69
353.447	109.69
353.674	107.69
353.901	87.69
354.128	106.69
354.355	89.69
354.583	108.69
354.81	108.69
355.037	99.69
355.264	92.69
355.491	111.69
355.718	113.69
355.945	99.69
356.172	93.69
356.399	87.69
356.626	92.69
356.853	87.69
357.08	103.69
357.307	95.69
357.534	80.69
357.761	96.69
357.988	99.69
358.215	106.69
358.441	87.69
358.668	97.69
358.895	98.69
359.122	97.69
359.349	94.69
359.576	92.69
359.802	109.69
360.029	120.69
360.256	132.69
360.483	98.69
360.709	102.69
360.936	87.69
361.163	107.69
361.39	106.69
361.616	90.69
361.843	100.69
362.07	108.69
362.296	101.69
362.523	102.69
362.749	102.69
362.976	97.69
363.203	89.69
363.429	92.69
363.656	118.69
363.882	91.69
364.109	86.69
364.335	89.69
364.562	84.69
364.788	92.69
365.015	98.69
365.241	100.69
365.468	115.69
365.694	109.69
365.92	100.69
366.147	96.69
366.373	90.69
366.599	82.69
366.826	99.69
367.052	102.69
367.278	104.69
367.505	100.69
367.731	95.69
367.957	86.69
368.184	98.69
368.41	111.69
368.636	136.69
368.862	137.69
369.089	111.69
369.315	107.69
369.541	88.69
369.767	99.69
369.993	87.69
370.219	94.69
370.445	101.69
370.672	97.69
370.898	99.69
371.124	86.69
371.35	94.69
371.576	81.69
371.802	96.69
372.028	95.69
372.254	87.69
372.48	93.69
372.706	84.69
372.932	92.69
373.158	83.69
373.384	109.69
373.61	99.69
373.835	98.69
374.061	97.69
374.287	101.69
374.513	92.69
374.739	88.69
374.965	88.69
375.191	97.69
375.416	86.69
375.642	101.69
375.868	98.69
376.094	92.69
376.319	95.69
376.545	90.69
376.771	88.69
376.997	94.69
377.222	74.69
377.448	103.69
377.674	82.69
377.899	96.69
378.125	89.69
378.35	98.69
378.576	97.69
378.802	83.69
379.027	92.69
379.253	84.69
379.478	89.69
379.704	95.69
379.929	102.69
380.155	87.69
380.38	88.69
380.606	91.69
380.831	98.69
381.057	112.69
381.282	96.69
381.507	99.69
381.733	98.69
381.958	82.69
382.184	90.69
382.409	102.69
382.634	91.69
382.86	100.69
383.085	105.69
383.31	103.69
383.535	103.69
383.761	110.69
383.986	80.69
384.211	116.69
384.436	92.69
384.662	91.69
384.887	94.69
385.112	84.69
385.337	99.69
385.562	99.69
385.787	89.69
386.013	112.69
386.238	111.69
386.463	107.69
386.688	107.69
386.913	103.69
387.138	92.69
387.363	93.69
387.588	100.69
387.813	109.69
388.038	109.69
388.263	106.69
388.488	105.69
388.713	99.69
388.938	92.69
389.163	86.69
389.387	86.69
389.612	96.69
389.837	93.69
390.062	87.69
390.287	96.69
390.512	100.69
390.736	89.69
390.961	104.69
391.186	98.69
391.411	86.69
391.636	91.69
391.86	86.69
392.085	96.69
392.31	86.69
392.534	96.69
392.759	85.69
392.984	93.69
393.208	94.69
393.433	102.69
393.658	97.69
393.882	84.69
394.107	86.69
394.331	81.69
394.556	94.69
394.78	80.69
395.005	88.69
395.229	91.69
395.454	91.69
395.678	89.69
395.903	89.69
396.127	90.69
396.352	95.69
396.576	91.69
396.801	92.69
397.025	86.69
397.249	97.69
397.474	103.69
397.698	81.69
397.922	85.69
398.147	90.69
398.371	95.69
398.595	82.69
398.82	102.69
399.044	93.69
399.268	102.69
399.492	92.69
399.717	90.69
399.941	83.69
400.165	89.69
400.389	87.69
400.613	92.69
400.837	85.69
401.062	83.69
401.286	74.69
401.51	92.69
401.734	101.69
401.958	113.69
402.182	143.69
402.406	183.69
402.63	157.69
402.854	96.69
403.078	91.69
403.302	99.69
403.526	94.69
403.75	86.69
403.974	91.69
404.198	85.69
404.422	92.69
404.645	105.69
404.869	102.69
405.093	111.69
405.317	126.69
405.541	123.69
405.765	116.69
405.988	123.69
406.212	199.69
406.436	297.69
406.66	194.69
406.883	123.69
407.107	101.69
407.331	108.69
407.555	99.69
407.778	98.69
408.002	100.69
408.226	102.69
408.449	97.69
408.673	107.69
408.896	94.69
409.12	93.69
409.344	71.69
409.567	87.69
409.791	74.69
410.014	101.69
410.238	102.69
410.461	96.69
410.685	105.69
410.908	102.69
411.132	98.69
411.355	98.69
411.578	91.69
411.802	96.69
412.025	97.69
412.249	100.69
412.472	113.69
412.695	131.69
412.919	125.69
413.142	85.69
413.365	99.69
413.589	90.69
413.812	87.69
414.035	85.69
414.258	93.69
414.482	103.69
414.705	94.69
414.928	97.69
415.151	89.69
415.374	104.69
415.597	88.69
415.821	79.69
416.044	98.69
416.267	76.69
416.49	99.69
416.713	105.69
416.936	102.69
417.159	91.69
417.382	100.69
417.605	96.69
417.828	109.69
418.051	98.69
418.274	74.69
418.497	81.69
418.72	96.69
418.943	100.69
419.166	94.69
419.389	98.69
419.611	87.69
419.834	99.69
420.057	98.69
420.28	104.69
420.503	93.69
420.726	110.69
420.948	99.69
421.171	100.69
421.394	88.69
421.617	82.69
421.839	79.69
422.062	97.69
422.285	99.69
422.507	112.69
422.73	109.69
422.953	85.69
423.175	78.69
423.398	108.69
423.621	88.69
423.843	91.69
424.066	74.69
424.288	92.69
424.511	103.69
424.733	118.69
424.956	129.69
425.178	120.69
425.401	99.69
425.623	116.69
425.846	98.69
426.068	103.69
426.291	105.69
426.513	95.69
426.735	95.69
426.958	92.69
427.18	114.69
427.402	169.69
427.625	248.69
427.847	218.69
428.069	178.69
428.292	109.69
428.514	94.69
428.736	88.69
428.958	91.69
429.181	96.69
429.403	82.69
429.625	84.69
429.847	107.69
430.069	99.69
430.292	102.69
430.514	100.69
430.736	85.69
430.958	79.69
431.18	91.69
431.402	88.69
431.624	87.69
431.846	74.69
432.068	83.69
432.29	82.69
432.512	96.69
432.734	95.69
432.956	92.69
433.178	102.69
433.4	102.69
433.622	90.69
433.844	101.69
434.066	87.69
434.287	98.69
434.509	83.69
434.731	76.69
434.953	89.69
435.175	78.69
435.397	85.69
435.618	103.69
435.84	112.69
436.062	127.69
436.284	119.69
436.505	84.69
436.727	89.69
436.949	84.69
437.17	106.69
437.392	94.69
437.614	110.69
437.835	130.69
438.057	137.69
438.278	106.69
438.5	103.69
438.721	134.69
438.943	107.69
439.165	92.69
439.386	91.69
439.608	97.69
439.829	118.69
440.05	129.69
440.272	165.69
440.493	116.69
440.715	91.69
440.936	95.69
441.158	109.69
441.379	84.69
441.6	87.69
441.822	104.69
442.043	109.69
442.264	124.69
442.486	111.69
442.707	100.69
442.928	98.69
443.149	157.69
443.371	150.69
443.592	113.69
443.813	119.69
444.034	122.69
444.255	99.69
444.476	88.69
444.698	98.69
444.919	100.69
445.14	119.69
445.361	131.69
445.582	118.69
445.803	153.69
446.024	143.69
446.245	160.69
446.466	124.69
446.687	85.69
446.908	92.69
447.129	102.69
447.35	96.69
447.571	103.69
447.792	103.69
448.013	114.69
448.234	124.69
448.455	111.69
448.675	123.69
448.896	130.69
449.117	113.69
449.338	103.69
449.559	150.69
449.779	142.69
450	104.69
450.221	91.69
450.442	87.69
450.662	99.69
450.883	132.69
451.104	143.69
451.324	103.69
451.545	87.69
451.766	96.69
451.986	107.69
452.207	104.69
452.428	103.69
452.648	104.69
452.869	131.69
453.089	129.69
453.31	143.69
453.53	82.69
453.751	95.69
453.971	117.69
454.192	128.69
454.412	92.69
454.633	96.69
454.853	88.69
455.073	93.69
455.294	102.69
455.514	112.69
455.734	102.69
455.955	94.69
456.175	73.69
456.395	79.69
456.616	82.69
456.836	93.69
457.056	91.69
457.276	76.69
457.497	91.69
457.717	86.69
457.937	91.69
458.157	84.69
458.377	98.69
458.598	126.69
458.818	202.69
459.038	199.69
459.258	157.69
459.478	103.69
459.698	82.69
459.918	95.69
460.138	79.69
460.358	86.69
460.578	75.69
460.798	95.69
461.018	88.69
461.238	91.69
461.458	99.69
461.678	78.69
461.898	80.69
462.118	93.69
462.338	85.69
462.558	92.69
462.777	86.69
462.997	97.69
463.217	99.69
463.437	87.69
463.657	84.69
463.876	94.69
464.096	88.69
464.316	83.69
464.536	96.69
464.755	83.69
464.975	114.69
465.195	221.69
465.414	218.69
465.634	106.69
465.854	97.69
466.073	87.69
466.293	82.69
466.512	94.69
466.732	89.69
466.951	86.69
467.171	97.69
467.391	107.69
467.61	145.69
467.829	202.69
468.049	502.69
468.268	745.69
468.488	186.69
468.707	119.69
468.927	93.69
469.146	104.69
469.365	103.69
469.585	113.69
469.804	112.69
470.023	101.69
470.243	105.69
470.462	114.69
470.681	133.69
470.901	118.69
471.12	95.69
471.339	111.69
471.558	116.69
471.777	141.69
471.997	274.69
472.216	931.69
472.435	2198.69
472.654	507.69
472.873	158.69
473.092	100.69
473.311	94.69
473.53	89.69
473.749	92.69
473.968	117.69
474.187	129.69
474.406	111.69
474.625	99.69
474.844	105.69
475.063	94.69
475.282	103.69
475.501	88.69
475.72	89.69
475.939	99.69
476.158	75.69
476.377	94.69
476.596	95.69
476.814	99.69
477.033	99.69
477.252	104.69
477.471	95.69
477.69	94.69
477.908	98.69
478.127	88.69
478.346	94.69
478.564	85.69
478.783	104.69
479.002	112.69
479.22	102.69
479.439	115.69
479.658	134.69
479.876	119.69
480.095	104.69
480.313	124.69
480.532	163.69
480.751	260.69
480.969	855.69
481.188	3704.69
481.406	2114.69
481.624	296.69
481.843	129.69
482.061	113.69
482.28	108.69
482.498	93.69
482.717	89.69
482.935	86.69
483.153	94.69
483.372	103.69
483.59	100.69
483.808	104.69
484.027	94.69
484.245	99.69
484.463	107.69
484.681	111.69
484.9	91.69
485.118	104.69
485.336	102.69
485.554	95.69
485.772	103.69
485.99	107.69
486.209	97.69
486.427	108.69
486.645	126.69
486.863	130.69
487.081	121.69
487.299	95.69
487.517	111.69
487.735	101.69
487.953	80.69
488.171	87.69
488.389	105.69
488.607	96.69
488.825	90.69
489.043	86.69
489.261	94.69
489.479	95.69
489.696	94.69
489.914	92.69
490.132	107.69
490.35	83.69
490.568	74.69
490.786	90.69
491.003	103.69
491.221	94.69
491.439	103.69
491.657	87.69
491.874	101.69
492.092	91.69
492.31	85.69
492.527	107.69
492.745	100.69
492.963	92.69
493.18	80.69
493.398	87.69
493.615	95.69
493.833	95.69
494.05	79.69
494.268	94.69
494.485	88.69
494.703	89.69
494.92	92.69
495.138	92.69
495.355	85.69
495.573	101.69
495.79	85.69
496.008	97.69
496.225	86.69
496.442	107.69
496.66	95.69
496.877	101.69
497.094	80.69
497.312	92.69
497.529	93.69
497.746	103.69
497.963	95.69
498.181	94.69
498.398	110.69
498.615	98.69
498.832	98.69
499.049	95.69
499.267	87.69
499.484	91.69
499.701	78.69
499.918	83.69
500.135	107.69
500.352	90.69
500.569	108.69
500.786	92.69
501.003	80.69
501.22	90.69
501.437	103.69
501.654	104.69
501.871	142.69
502.088	103.69
502.305	92.69
502.522	99.69
502.739	82.69
502.956	99.69
503.172	95.69
503.389	95.69
503.606	143.69
503.823	108.69
504.04	101.69
504.256	102.69
504.473	105.69
504.69	101.69
504.907	84.69
505.123	88.69
505.34	90.69
505.557	92.69
505.773	95.69
505.99	89.69
506.207	91.69
506.423	90.69
506.64	87.69
506.856	102.69
507.073	102.69
507.289	95.69
507.506	82.69
507.722	128.69
507.939	136.69
508.155	110.69
508.372	103.69
508.588	90.69
508.805	87.69
509.021	95.69
509.238	97.69
509.454	96.69
509.67	100.69
509.887	126.69
510.103	138.69
510.319	225.69
510.536	871.69
510.752	2923.69
510.968	791.69
511.184	193.69
511.401	139.69
511.617	105.69
511.833	118.69
512.049	107.69
512.265	102.69
512.481	91.69
512.698	99.69
