Data from Circ_1987_H10_HRD10591_00036.txt Node
Date: Wed Jan 03 12:10:40 EST 2024
User: Yrep
Spectrometer: HR+D1059
Trigger mode: 1
Integration Time (sec): 1.000000E-1
Scans to average: 1
Electric dark correction enabled: true
Nonlinearity correction enabled: false
Boxcar width: 0
XAxis mode: Wavelengths
Number of Pixels in Spectrum: 2048
>>>>>Begin Spectral Data<<<<<
223.165	-12.75
223.4	-12.75
223.635	-12.75
223.869	-19.75
224.104	-25.75
224.338	-7.75
224.573	-10.75
224.808	-9.75
225.042	-21.75
225.277	-5.75
225.511	-21.75
225.746	14.25
225.98	16.25
226.215	15.25
226.449	11.25
226.683	17.25
226.918	30.25
227.152	31.25
227.387	35.25
227.621	57.25
227.856	42.25
228.09	49.25
228.324	40.25
228.559	54.25
228.793	62.25
229.027	80.25
229.262	71.25
229.496	60.25
229.73	92.25
229.964	73.25
230.199	68.25
230.433	68.25
230.667	83.25
230.901	78.25
231.136	71.25
231.37	70.25
231.604	95.25
231.838	96.25
232.072	71.25
232.306	83.25
232.541	100.25
232.775	88.25
233.009	78.25
233.243	91.25
233.477	83.25
233.711	66.25
233.945	76.25
234.179	81.25
234.413	76.25
234.647	96.25
234.881	80.25
235.115	72.25
235.349	63.25
235.583	64.25
235.817	84.25
236.051	90.25
236.285	92.25
236.519	70.25
236.753	85.25
236.987	88.25
237.221	78.25
237.455	79.25
237.689	74.25
237.922	83.25
238.156	59.25
238.39	72.25
238.624	82.25
238.858	66.25
239.091	71.25
239.325	78.25
239.559	84.25
239.793	78.25
240.027	85.25
240.26	69.25
240.494	74.25
240.728	76.25
240.961	79.25
241.195	72.25
241.429	72.25
241.662	65.25
241.896	78.25
242.13	86.25
242.363	71.25
242.597	76.25
242.83	87.25
243.064	77.25
243.298	92.25
243.531	80.25
243.765	58.25
243.998	84.25
244.232	75.25
244.465	74.25
244.699	77.25
244.932	71.25
245.166	66.25
245.399	66.25
245.633	74.25
245.866	64.25
246.099	89.25
246.333	74.25
246.566	82.25
246.8	67.25
247.033	68.25
247.266	81.25
247.5	71.25
247.733	79.25
247.966	60.25
248.2	77.25
248.433	83.25
248.666	85.25
248.899	89.25
249.133	79.25
249.366	88.25
249.599	99.25
249.832	86.25
250.066	85.25
250.299	80.25
250.532	101.25
250.765	83.25
250.998	91.25
251.231	74.25
251.465	81.25
251.698	84.25
251.931	82.25
252.164	74.25
252.397	88.25
252.63	86.25
252.863	80.25
253.096	77.25
253.329	93.25
253.562	78.25
253.795	70.25
254.028	79.25
254.261	72.25
254.494	81.25
254.727	96.25
254.96	76.25
255.193	78.25
255.426	69.25
255.659	80.25
255.892	97.25
256.124	109.25
256.357	103.25
256.59	74.25
256.823	79.25
257.056	86.25
257.289	96.25
257.521	98.25
257.754	71.25
257.987	65.25
258.22	95.25
258.452	100.25
258.685	106.25
258.918	88.25
259.151	75.25
259.383	85.25
259.616	84.25
259.849	86.25
260.081	78.25
260.314	87.25
260.547	77.25
260.779	78.25
261.012	93.25
261.244	93.25
261.477	98.25
261.71	94.25
261.942	129.25
262.175	105.25
262.407	87.25
262.64	81.25
262.872	89.25
263.105	92.25
263.337	82.25
263.57	84.25
263.802	99.25
264.035	86.25
264.267	86.25
264.499	83.25
264.732	89.25
264.964	88.25
265.197	78.25
265.429	96.25
265.661	78.25
265.894	85.25
266.126	85.25
266.358	86.25
266.591	77.25
266.823	90.25
267.055	96.25
267.287	85.25
267.52	78.25
267.752	87.25
267.984	78.25
268.216	84.25
268.448	84.25
268.681	89.25
268.913	76.25
269.145	86.25
269.377	85.25
269.609	88.25
269.841	90.25
270.073	77.25
270.306	92.25
270.538	85.25
270.77	84.25
271.002	78.25
271.234	79.25
271.466	88.25
271.698	86.25
271.93	84.25
272.162	86.25
272.394	88.25
272.626	92.25
272.858	78.25
273.09	103.25
273.322	85.25
273.553	82.25
273.785	91.25
274.017	86.25
274.249	86.25
274.481	92.25
274.713	73.25
274.945	72.25
275.176	100.25
275.408	79.25
275.64	96.25
275.872	101.25
276.104	107.25
276.335	82.25
276.567	104.25
276.799	111.25
277.031	136.25
277.262	158.25
277.494	126.25
277.726	109.25
277.957	104.25
278.189	98.25
278.421	94.25
278.652	76.25
278.884	77.25
279.115	87.25
279.347	93.25
279.579	82.25
279.81	115.25
280.042	146.25
280.273	197.25
280.505	153.25
280.736	92.25
280.968	89.25
281.199	84.25
281.431	95.25
281.662	82.25
281.894	73.25
282.125	107.25
282.356	120.25
282.588	156.25
282.819	136.25
283.051	98.25
283.282	82.25
283.513	86.25
283.745	82.25
283.976	98.25
284.207	86.25
284.439	79.25
284.67	98.25
284.901	86.25
285.132	90.25
285.364	83.25
285.595	79.25
285.826	97.25
286.057	81.25
286.288	89.25
286.52	87.25
286.751	70.25
286.982	87.25
287.213	84.25
287.444	81.25
287.675	82.25
287.906	81.25
288.138	91.25
288.369	88.25
288.6	76.25
288.831	83.25
289.062	81.25
289.293	88.25
289.524	79.25
289.755	81.25
289.986	82.25
290.217	78.25
290.448	105.25
290.679	87.25
290.91	88.25
291.141	82.25
291.371	90.25
291.602	101.25
291.833	86.25
292.064	83.25
292.295	94.25
292.526	84.25
292.757	92.25
292.987	86.25
293.218	75.25
293.449	82.25
293.68	88.25
293.91	92.25
294.141	91.25
294.372	85.25
294.603	60.25
294.833	80.25
295.064	87.25
295.295	89.25
295.525	84.25
295.756	91.25
295.987	124.25
296.217	156.25
296.448	132.25
296.679	78.25
296.909	98.25
297.14	95.25
297.37	87.25
297.601	89.25
297.831	94.25
298.062	103.25
298.292	102.25
298.523	101.25
298.753	89.25
298.984	88.25
299.214	94.25
299.445	90.25
299.675	92.25
299.905	101.25
300.136	77.25
300.366	84.25
300.597	79.25
300.827	102.25
301.057	115.25
301.288	103.25
301.518	95.25
301.748	103.25
301.979	99.25
302.209	93.25
302.439	84.25
302.669	105.25
302.9	69.25
303.13	102.25
303.36	92.25
303.59	106.25
303.82	120.25
304.051	86.25
304.281	84.25
304.511	89.25
304.741	96.25
304.971	79.25
305.201	100.25
305.431	93.25
305.661	94.25
305.891	90.25
306.121	94.25
306.352	104.25
306.582	105.25
306.812	112.25
307.042	114.25
307.272	126.25
307.502	147.25
307.731	140.25
307.961	103.25
308.191	86.25
308.421	87.25
308.651	88.25
308.881	89.25
309.111	84.25
309.341	106.25
309.571	120.25
309.8	111.25
310.03	87.25
310.26	94.25
310.49	87.25
310.72	105.25
310.949	112.25
311.179	94.25
311.409	94.25
311.639	106.25
311.868	91.25
312.098	99.25
312.328	100.25
312.557	112.25
312.787	104.25
313.017	108.25
313.246	92.25
313.476	102.25
313.706	85.25
313.935	89.25
314.165	93.25
314.394	113.25
314.624	94.25
314.853	97.25
315.083	96.25
315.312	94.25
315.542	95.25
315.771	89.25
316.001	88.25
316.23	99.25
316.46	77.25
316.689	88.25
316.919	95.25
317.148	97.25
317.377	113.25
317.607	93.25
317.836	82.25
318.065	102.25
318.295	82.25
318.524	94.25
318.753	91.25
318.983	89.25
319.212	99.25
319.441	117.25
319.67	96.25
319.9	90.25
320.129	94.25
320.358	95.25
320.587	85.25
320.816	90.25
321.046	111.25
321.275	104.25
321.504	89.25
321.733	97.25
321.962	97.25
322.191	110.25
322.42	95.25
322.649	122.25
322.878	106.25
323.108	125.25
323.337	126.25
323.566	131.25
323.795	174.25
324.024	221.25
324.253	387.25
324.482	904.25
324.71	1845.25
324.939	2484.25
325.168	872.25
325.397	276.25
325.626	161.25
325.855	137.25
326.084	113.25
326.313	135.25
326.542	164.25
326.77	240.25
326.999	468.25
327.228	983.25
327.457	1779.25
327.686	1466.25
327.914	478.25
328.143	386.25
328.372	493.25
328.6	296.25
328.829	154.25
329.058	148.25
329.287	158.25
329.515	147.25
329.744	204.25
329.972	356.25
330.201	708.25
330.43	1036.25
330.658	489.25
330.887	244.25
331.115	158.25
331.344	110.25
331.572	113.25
331.801	116.25
332.03	112.25
332.258	111.25
332.486	102.25
332.715	95.25
332.943	103.25
333.172	114.25
333.4	103.25
333.629	135.25
333.857	210.25
334.085	332.25
334.314	678.25
334.542	1304.25
334.771	1264.25
334.999	357.25
335.227	145.25
335.455	119.25
335.684	114.25
335.912	100.25
336.14	99.25
336.369	109.25
336.597	112.25
336.825	95.25
337.053	88.25
337.281	113.25
337.51	90.25
337.738	97.25
337.966	96.25
338.194	105.25
338.422	101.25
338.65	92.25
338.878	81.25
339.106	101.25
339.334	100.25
339.562	85.25
339.79	88.25
340.018	91.25
340.246	84.25
340.474	96.25
340.702	100.25
340.93	93.25
341.158	99.25
341.386	98.25
341.614	101.25
341.842	93.25
342.07	98.25
342.298	92.25
342.526	93.25
342.754	87.25
342.981	90.25
343.209	88.25
343.437	113.25
343.665	91.25
343.893	91.25
344.12	78.25
344.348	79.25
344.576	89.25
344.804	112.25
345.031	92.25
345.259	103.25
345.487	97.25
345.714	98.25
345.942	96.25
346.17	86.25
346.397	92.25
346.625	104.25
346.853	89.25
347.08	100.25
347.308	102.25
347.535	102.25
347.763	104.25
347.99	92.25
348.218	99.25
348.445	93.25
348.673	101.25
348.9	94.25
349.128	85.25
349.355	89.25
349.583	98.25
349.81	93.25
350.037	92.25
350.265	82.25
350.492	101.25
350.72	81.25
350.947	116.25
351.174	109.25
351.402	118.25
351.629	106.25
351.856	100.25
352.083	112.25
352.311	114.25
352.538	123.25
352.765	108.25
352.992	109.25
353.22	116.25
353.447	89.25
353.674	87.25
353.901	81.25
354.128	99.25
354.355	90.25
354.583	98.25
354.81	94.25
355.037	90.25
355.264	87.25
355.491	101.25
355.718	91.25
355.945	96.25
356.172	105.25
356.399	107.25
356.626	97.25
356.853	86.25
357.08	92.25
357.307	88.25
357.534	84.25
357.761	106.25
357.988	94.25
358.215	103.25
358.441	76.25
358.668	80.25
358.895	68.25
359.122	93.25
359.349	84.25
359.576	96.25
359.802	87.25
360.029	116.25
360.256	120.25
360.483	109.25
360.709	87.25
360.936	103.25
361.163	86.25
361.39	92.25
361.616	88.25
361.843	95.25
362.07	96.25
362.296	113.25
362.523	98.25
362.749	97.25
362.976	96.25
363.203	86.25
363.429	104.25
363.656	87.25
363.882	82.25
364.109	81.25
364.335	97.25
364.562	102.25
364.788	92.25
365.015	96.25
365.241	106.25
365.468	95.25
365.694	103.25
365.92	103.25
366.147	97.25
366.373	85.25
366.599	76.25
366.826	79.25
367.052	96.25
367.278	86.25
367.505	96.25
367.731	96.25
367.957	90.25
368.184	93.25
368.41	106.25
368.636	127.25
368.862	117.25
369.089	113.25
369.315	84.25
369.541	103.25
369.767	82.25
369.993	100.25
370.219	94.25
370.445	93.25
370.672	93.25
370.898	96.25
371.124	94.25
371.35	78.25
371.576	96.25
371.802	84.25
372.028	74.25
372.254	92.25
372.48	88.25
372.706	98.25
372.932	93.25
373.158	97.25
373.384	101.25
373.61	102.25
373.835	95.25
374.061	78.25
374.287	93.25
374.513	73.25
374.739	92.25
374.965	84.25
375.191	80.25
375.416	92.25
375.642	94.25
375.868	94.25
376.094	94.25
376.319	88.25
376.545	85.25
376.771	90.25
376.997	88.25
377.222	86.25
377.448	84.25
377.674	80.25
377.899	86.25
378.125	89.25
378.35	101.25
378.576	92.25
378.802	85.25
379.027	100.25
379.253	76.25
379.478	83.25
379.704	99.25
379.929	103.25
380.155	85.25
380.38	86.25
380.606	104.25
380.831	88.25
381.057	101.25
381.282	98.25
381.507	97.25
381.733	96.25
381.958	73.25
382.184	94.25
382.409	110.25
382.634	89.25
382.86	92.25
383.085	97.25
383.31	103.25
383.535	101.25
383.761	89.25
383.986	93.25
384.211	94.25
384.436	86.25
384.662	107.25
384.887	94.25
385.112	93.25
385.337	91.25
385.562	100.25
385.787	86.25
386.013	100.25
386.238	116.25
386.463	102.25
386.688	103.25
386.913	105.25
387.138	115.25
387.363	101.25
387.588	98.25
387.813	97.25
388.038	110.25
388.263	115.25
388.488	100.25
388.713	91.25
388.938	87.25
389.163	82.25
389.387	77.25
389.612	90.25
389.837	85.25
390.062	81.25
390.287	95.25
390.512	97.25
390.736	85.25
390.961	79.25
391.186	67.25
391.411	86.25
391.636	102.25
391.86	90.25
392.085	74.25
392.31	84.25
392.534	92.25
392.759	80.25
392.984	81.25
393.208	73.25
393.433	89.25
393.658	98.25
393.882	78.25
394.107	81.25
394.331	80.25
394.556	95.25
394.78	90.25
395.005	80.25
395.229	88.25
395.454	83.25
395.678	90.25
395.903	80.25
396.127	102.25
396.352	78.25
396.576	79.25
396.801	80.25
397.025	100.25
397.249	85.25
397.474	73.25
397.698	95.25
397.922	89.25
398.147	89.25
398.371	83.25
398.595	88.25
398.82	69.25
399.044	83.25
399.268	96.25
399.492	81.25
399.717	82.25
399.941	96.25
400.165	106.25
400.389	86.25
400.613	88.25
400.837	80.25
401.062	100.25
401.286	93.25
401.51	103.25
401.734	97.25
401.958	104.25
402.182	127.25
402.406	178.25
402.63	161.25
402.854	94.25
403.078	89.25
403.302	83.25
403.526	93.25
403.75	78.25
403.974	82.25
404.198	80.25
404.422	87.25
404.645	102.25
404.869	108.25
405.093	97.25
405.317	121.25
405.541	135.25
405.765	106.25
405.988	132.25
406.212	182.25
406.436	262.25
406.66	177.25
406.883	113.25
407.107	107.25
407.331	89.25
407.555	102.25
407.778	106.25
408.002	90.25
408.226	90.25
408.449	89.25
408.673	93.25
408.896	93.25
409.12	106.25
409.344	96.25
409.567	93.25
409.791	100.25
410.014	95.25
410.238	79.25
410.461	104.25
410.685	90.25
410.908	100.25
411.132	90.25
411.355	84.25
411.578	83.25
411.802	85.25
412.025	95.25
412.249	98.25
412.472	107.25
412.695	130.25
412.919	98.25
413.142	97.25
413.365	110.25
413.589	101.25
413.812	93.25
414.035	100.25
414.258	102.25
414.482	102.25
414.705	100.25
414.928	84.25
415.151	92.25
415.374	102.25
415.597	90.25
415.821	86.25
416.044	84.25
416.267	96.25
416.49	99.25
416.713	91.25
416.936	90.25
417.159	81.25
417.382	88.25
417.605	106.25
417.828	111.25
418.051	94.25
418.274	86.25
418.497	89.25
418.72	86.25
418.943	94.25
419.166	92.25
419.389	82.25
419.611	94.25
419.834	76.25
420.057	87.25
420.28	91.25
420.503	85.25
420.726	105.25
420.948	93.25
421.171	103.25
421.394	94.25
421.617	87.25
421.839	96.25
422.062	86.25
422.285	103.25
422.507	104.25
422.73	114.25
422.953	90.25
423.175	85.25
423.398	102.25
423.621	85.25
423.843	68.25
424.066	81.25
424.288	99.25
424.511	85.25
424.733	103.25
424.956	108.25
425.178	100.25
425.401	100.25
425.623	105.25
425.846	94.25
426.068	94.25
426.291	89.25
426.513	94.25
426.735	104.25
426.958	93.25
427.18	119.25
427.402	160.25
427.625	245.25
427.847	220.25
428.069	192.25
428.292	113.25
428.514	97.25
428.736	99.25
428.958	81.25
429.181	81.25
429.403	87.25
429.625	90.25
429.847	89.25
430.069	108.25
430.292	90.25
430.514	83.25
430.736	89.25
430.958	88.25
431.18	99.25
431.402	86.25
431.624	92.25
431.846	100.25
432.068	82.25
432.29	97.25
432.512	79.25
432.734	99.25
432.956	100.25
433.178	102.25
433.4	106.25
433.622	91.25
433.844	88.25
434.066	80.25
434.287	95.25
434.509	94.25
434.731	104.25
434.953	93.25
435.175	85.25
435.397	94.25
435.618	88.25
435.84	98.25
436.062	125.25
436.284	132.25
436.505	85.25
436.727	106.25
436.949	97.25
437.17	84.25
437.392	80.25
437.614	98.25
437.835	116.25
438.057	126.25
438.278	146.25
438.5	128.25
438.721	131.25
438.943	100.25
439.165	93.25
439.386	94.25
439.608	96.25
439.829	100.25
440.05	125.25
440.272	158.25
440.493	99.25
440.715	88.25
440.936	96.25
441.158	84.25
441.379	93.25
441.6	92.25
441.822	96.25
442.043	101.25
442.264	122.25
442.486	109.25
442.707	93.25
442.928	116.25
443.149	157.25
443.371	148.25
443.592	124.25
443.813	131.25
444.034	111.25
444.255	97.25
444.476	92.25
444.698	86.25
444.919	100.25
445.14	137.25
445.361	133.25
445.582	121.25
445.803	162.25
446.024	160.25
446.245	170.25
446.466	129.25
446.687	83.25
446.908	69.25
447.129	97.25
447.35	94.25
447.571	91.25
447.792	98.25
448.013	107.25
448.234	113.25
448.455	100.25
448.675	131.25
448.896	124.25
449.117	102.25
449.338	100.25
449.559	145.25
449.779	152.25
450	105.25
450.221	95.25
450.442	97.25
450.662	85.25
450.883	109.25
451.104	131.25
451.324	77.25
451.545	80.25
451.766	88.25
451.986	72.25
452.207	82.25
452.428	92.25
452.648	106.25
452.869	114.25
453.089	124.25
453.31	115.25
453.53	109.25
453.751	86.25
453.971	90.25
454.192	111.25
454.412	101.25
454.633	77.25
454.853	84.25
455.073	85.25
455.294	106.25
455.514	100.25
455.734	93.25
455.955	89.25
456.175	79.25
456.395	83.25
456.616	86.25
456.836	91.25
457.056	86.25
457.276	89.25
457.497	87.25
457.717	93.25
457.937	79.25
458.157	85.25
458.377	91.25
458.598	122.25
458.818	184.25
459.038	210.25
459.258	135.25
459.478	84.25
459.698	104.25
459.918	96.25
460.138	79.25
460.358	77.25
460.578	85.25
460.798	96.25
461.018	103.25
461.238	85.25
461.458	77.25
461.678	87.25
461.898	76.25
462.118	80.25
462.338	81.25
462.558	97.25
462.777	82.25
462.997	94.25
463.217	98.25
463.437	92.25
463.657	89.25
463.876	97.25
464.096	80.25
464.316	96.25
464.536	98.25
464.755	94.25
464.975	119.25
465.195	187.25
465.414	189.25
465.634	109.25
465.854	83.25
466.073	89.25
466.293	86.25
466.512	98.25
466.732	82.25
466.951	86.25
467.171	89.25
467.391	117.25
467.61	144.25
467.829	193.25
468.049	400.25
468.268	595.25
468.488	162.25
468.707	101.25
468.927	80.25
469.146	82.25
469.365	90.25
469.585	83.25
469.804	113.25
470.023	98.25
470.243	102.25
470.462	115.25
470.681	131.25
470.901	95.25
471.12	95.25
471.339	95.25
471.558	104.25
471.777	126.25
471.997	222.25
472.216	763.25
472.435	1735.25
472.654	439.25
472.873	134.25
473.092	91.25
473.311	92.25
473.53	97.25
473.749	111.25
473.968	108.25
474.187	115.25
474.406	91.25
474.625	92.25
474.844	84.25
475.063	82.25
475.282	94.25
475.501	93.25
475.72	77.25
475.939	102.25
476.158	96.25
476.377	91.25
476.596	97.25
476.814	97.25
477.033	95.25
477.252	101.25
477.471	101.25
477.69	92.25
477.908	89.25
478.127	105.25
478.346	86.25
478.564	105.25
478.783	89.25
479.002	91.25
479.22	103.25
479.439	109.25
479.658	116.25
479.876	112.25
480.095	112.25
480.313	112.25
480.532	125.25
480.751	217.25
480.969	718.25
481.188	3021.25
481.406	1754.25
481.624	286.25
481.843	148.25
482.061	106.25
482.28	96.25
482.498	84.25
482.717	86.25
482.935	96.25
483.153	89.25
483.372	93.25
483.59	91.25
483.808	81.25
484.027	87.25
484.245	97.25
484.463	89.25
484.681	116.25
484.9	101.25
485.118	105.25
485.336	100.25
485.554	110.25
485.772	101.25
485.99	96.25
486.209	104.25
486.427	105.25
486.645	112.25
486.863	131.25
487.081	113.25
487.299	107.25
487.517	97.25
487.735	85.25
487.953	101.25
488.171	102.25
488.389	92.25
488.607	109.25
488.825	100.25
489.043	96.25
489.261	82.25
489.479	104.25
489.696	92.25
489.914	105.25
490.132	99.25
490.35	95.25
490.568	92.25
490.786	94.25
491.003	101.25
491.221	99.25
491.439	101.25
491.657	88.25
491.874	96.25
492.092	95.25
492.31	87.25
492.527	101.25
492.745	98.25
492.963	96.25
493.18	95.25
493.398	82.25
493.615	87.25
493.833	88.25
494.05	90.25
494.268	89.25
494.485	98.25
494.703	86.25
494.92	90.25
495.138	82.25
495.355	100.25
495.573	88.25
495.79	94.25
496.008	91.25
496.225	93.25
496.442	98.25
496.66	98.25
496.877	87.25
497.094	101.25
497.312	86.25
497.529	102.25
497.746	74.25
497.963	84.25
498.181	92.25
498.398	97.25
498.615	102.25
498.832	96.25
499.049	93.25
499.267	97.25
499.484	76.25
499.701	86.25
499.918	88.25
500.135	85.25
500.352	75.25
500.569	84.25
500.786	88.25
501.003	98.25
501.22	77.25
501.437	93.25
501.654	94.25
501.871	114.25
502.088	92.25
502.305	93.25
502.522	96.25
502.739	101.25
502.956	99.25
503.172	89.25
503.389	117.25
503.606	115.25
503.823	92.25
504.04	89.25
504.256	78.25
504.473	100.25
504.69	86.25
504.907	93.25
505.123	98.25
505.34	96.25
505.557	89.25
505.773	96.25
505.99	84.25
506.207	95.25
506.423	93.25
506.64	94.25
506.856	89.25
507.073	81.25
507.289	83.25
507.506	111.25
507.722	122.25
507.939	125.25
508.155	97.25
508.372	97.25
508.588	97.25
508.805	99.25
509.021	92.25
509.238	97.25
509.454	101.25
509.67	98.25
509.887	99.25
510.103	141.25
510.319	222.25
510.536	821.25
510.752	2676.25
510.968	740.25
511.184	157.25
511.401	97.25
511.617	99.25
511.833	95.25
512.049	118.25
512.265	101.25
512.481	109.25
512.698	92.25
512.914	86.25
513.13	80.25
513.346	105.25
513.562	96.25
513.778	106.25
513.994	106.25
