Data from Circ_1987_H10_HRD10591_00077.txt Node
Date: Wed Jan 03 12:10:48 EST 2024
User: Yrep
Spectrometer: HR+D1059
Trigger mode: 1
Integration Time (sec): 1.000000E-1
Scans to average: 1
Electric dark correction enabled: true
Nonlinearity correction enabled: false
Boxcar width: 0
XAxis mode: Wavelengths
Number of Pixels in Spectrum: 2048
>>>>>Begin Spectral Data<<<<<
223.165	-25.75
223.4	-25.75
223.635	-25.75
223.869	-32.75
224.104	-15.75
224.338	-15.75
224.573	-15.75
224.808	-8.75
225.042	-5.75
225.277	-3.75
225.511	-1.75
225.746	-0.75
225.98	16.25
226.215	17.25
226.449	7.25
226.683	27.25
226.918	23.25
227.152	35.25
227.387	29.25
227.621	25.25
227.856	46.25
228.09	51.25
228.324	52.25
228.559	68.25
228.793	50.25
229.027	63.25
229.262	67.25
229.496	101.25
229.73	110.25
229.964	93.25
230.199	80.25
230.433	92.25
230.667	83.25
230.901	78.25
231.136	90.25
231.37	96.25
231.604	81.25
231.838	64.25
232.072	75.25
232.306	84.25
232.541	76.25
232.775	81.25
233.009	88.25
233.243	74.25
233.477	94.25
233.711	90.25
233.945	68.25
234.179	90.25
234.413	81.25
234.647	91.25
234.881	82.25
235.115	94.25
235.349	89.25
235.583	83.25
235.817	87.25
236.051	101.25
236.285	88.25
236.519	87.25
236.753	92.25
236.987	74.25
237.221	91.25
237.455	106.25
237.689	74.25
237.922	86.25
238.156	69.25
238.39	74.25
238.624	83.25
238.858	74.25
239.091	71.25
239.325	78.25
239.559	93.25
239.793	84.25
240.027	86.25
240.26	83.25
240.494	87.25
240.728	79.25
240.961	94.25
241.195	84.25
241.429	79.25
241.662	68.25
241.896	80.25
242.13	85.25
242.363	81.25
242.597	83.25
242.83	85.25
243.064	74.25
243.298	81.25
243.531	87.25
243.765	74.25
243.998	94.25
244.232	94.25
244.465	87.25
244.699	84.25
244.932	82.25
245.166	73.25
245.399	83.25
245.633	89.25
245.866	83.25
246.099	70.25
246.333	85.25
246.566	92.25
246.8	86.25
247.033	88.25
247.266	84.25
247.5	78.25
247.733	79.25
247.966	85.25
248.2	80.25
248.433	77.25
248.666	81.25
248.899	94.25
249.133	94.25
249.366	89.25
249.599	113.25
249.832	98.25
250.066	93.25
250.299	93.25
250.532	95.25
250.765	89.25
250.998	79.25
251.231	94.25
251.465	90.25
251.698	93.25
251.931	86.25
252.164	87.25
252.397	90.25
252.63	86.25
252.863	71.25
253.096	95.25
253.329	82.25
253.562	83.25
253.795	88.25
254.028	80.25
254.261	90.25
254.494	82.25
254.727	88.25
254.96	93.25
255.193	79.25
255.426	101.25
255.659	105.25
255.892	109.25
256.124	101.25
256.357	93.25
256.59	81.25
256.823	95.25
257.056	94.25
257.289	88.25
257.521	83.25
257.754	85.25
257.987	84.25
258.22	86.25
258.452	105.25
258.685	104.25
258.918	90.25
259.151	81.25
259.383	84.25
259.616	88.25
259.849	92.25
260.081	90.25
260.314	81.25
260.547	101.25
260.779	93.25
261.012	116.25
261.244	115.25
261.477	113.25
261.71	127.25
261.942	150.25
262.175	158.25
262.407	99.25
262.64	88.25
262.872	90.25
263.105	91.25
263.337	85.25
263.57	72.25
263.802	82.25
264.035	92.25
264.267	88.25
264.499	91.25
264.732	87.25
264.964	105.25
265.197	80.25
265.429	83.25
265.661	96.25
265.894	89.25
266.126	85.25
266.358	93.25
266.591	96.25
266.823	101.25
267.055	81.25
267.287	82.25
267.52	86.25
267.752	80.25
267.984	75.25
268.216	87.25
268.448	72.25
268.681	85.25
268.913	90.25
269.145	87.25
269.377	88.25
269.609	90.25
269.841	102.25
270.073	82.25
270.306	88.25
270.538	90.25
270.77	83.25
271.002	100.25
271.234	88.25
271.466	95.25
271.698	80.25
271.93	89.25
272.162	80.25
272.394	101.25
272.626	81.25
272.858	86.25
273.09	82.25
273.322	96.25
273.553	77.25
273.785	85.25
274.017	103.25
274.249	94.25
274.481	87.25
274.713	95.25
274.945	106.25
275.176	87.25
275.408	115.25
275.64	135.25
275.872	125.25
276.104	111.25
276.335	110.25
276.567	141.25
276.799	166.25
277.031	202.25
277.262	219.25
277.494	174.25
277.726	105.25
277.957	100.25
278.189	90.25
278.421	93.25
278.652	89.25
278.884	94.25
279.115	106.25
279.347	110.25
279.579	106.25
279.81	148.25
280.042	212.25
280.273	307.25
280.505	219.25
280.736	130.25
280.968	94.25
281.199	99.25
281.431	92.25
281.662	92.25
281.894	113.25
282.125	102.25
282.356	144.25
282.588	171.25
282.819	135.25
283.051	89.25
283.282	94.25
283.513	97.25
283.745	98.25
283.976	89.25
284.207	95.25
284.439	105.25
284.67	90.25
284.901	106.25
285.132	99.25
285.364	87.25
285.595	93.25
285.826	80.25
286.057	98.25
286.288	88.25
286.52	87.25
286.751	88.25
286.982	97.25
287.213	83.25
287.444	89.25
287.675	93.25
287.906	101.25
288.138	94.25
288.369	93.25
288.6	97.25
288.831	94.25
289.062	94.25
289.293	75.25
289.524	80.25
289.755	91.25
289.986	81.25
290.217	85.25
290.448	84.25
290.679	90.25
290.91	88.25
291.141	89.25
291.371	103.25
291.602	87.25
291.833	74.25
292.064	91.25
292.295	94.25
292.526	100.25
292.757	97.25
292.987	94.25
293.218	82.25
293.449	81.25
293.68	85.25
293.91	63.25
294.141	90.25
294.372	91.25
294.603	97.25
294.833	103.25
295.064	86.25
295.295	88.25
295.525	99.25
295.756	95.25
295.987	135.25
296.217	197.25
296.448	143.25
296.679	109.25
296.909	92.25
297.14	97.25
297.37	106.25
297.601	88.25
297.831	87.25
298.062	90.25
298.292	112.25
298.523	95.25
298.753	102.25
298.984	96.25
299.214	85.25
299.445	98.25
299.675	101.25
299.905	110.25
300.136	116.25
300.366	98.25
300.597	105.25
300.827	103.25
301.057	118.25
301.288	111.25
301.518	105.25
301.748	106.25
301.979	110.25
302.209	97.25
302.439	105.25
302.669	90.25
302.9	93.25
303.13	103.25
303.36	122.25
303.59	139.25
303.82	139.25
304.051	110.25
304.281	89.25
304.511	89.25
304.741	86.25
304.971	73.25
305.201	102.25
305.431	80.25
305.661	105.25
305.891	93.25
306.121	94.25
306.352	128.25
306.582	121.25
306.812	111.25
307.042	131.25
307.272	171.25
307.502	209.25
307.731	179.25
307.961	125.25
308.191	101.25
308.421	97.25
308.651	104.25
308.881	106.25
309.111	89.25
309.341	87.25
309.571	107.25
309.8	107.25
310.03	116.25
310.26	120.25
310.49	105.25
310.72	125.25
310.949	133.25
311.179	115.25
311.409	114.25
311.639	106.25
311.868	109.25
312.098	102.25
312.328	119.25
312.557	128.25
312.787	137.25
313.017	129.25
313.246	109.25
313.476	102.25
313.706	88.25
313.935	96.25
314.165	109.25
314.394	118.25
314.624	125.25
314.853	106.25
315.083	110.25
315.312	90.25
315.542	93.25
315.771	86.25
316.001	104.25
316.23	100.25
316.46	95.25
316.689	90.25
316.919	97.25
317.148	110.25
317.377	95.25
317.607	88.25
317.836	111.25
318.065	107.25
318.295	101.25
318.524	107.25
318.753	98.25
318.983	99.25
319.212	107.25
319.441	141.25
319.67	124.25
319.9	99.25
320.129	103.25
320.358	94.25
320.587	98.25
320.816	98.25
321.046	109.25
321.275	106.25
321.504	97.25
321.733	115.25
321.962	103.25
322.191	115.25
322.42	109.25
322.649	118.25
322.878	116.25
323.108	145.25
323.337	139.25
323.566	159.25
323.795	190.25
324.024	249.25
324.253	451.25
324.482	1003.25
324.71	1949.25
324.939	2646.25
325.168	982.25
325.397	298.25
325.626	155.25
325.855	162.25
326.084	155.25
326.313	149.25
326.542	172.25
326.77	253.25
326.999	490.25
327.228	956.25
327.457	1832.25
327.686	1498.25
327.914	582.25
328.143	650.25
328.372	837.25
328.6	446.25
328.829	232.25
329.058	219.25
329.287	242.25
329.515	226.25
329.744	282.25
329.972	571.25
330.201	1234.25
330.43	1801.25
330.658	797.25
330.887	360.25
331.115	239.25
331.344	138.25
331.572	135.25
331.801	127.25
332.03	139.25
332.258	138.25
332.486	118.25
332.715	130.25
332.943	120.25
333.172	132.25
333.4	125.25
333.629	165.25
333.857	262.25
334.085	495.25
334.314	1104.25
334.542	2193.25
334.771	2084.25
334.999	535.25
335.227	213.25
335.455	145.25
335.684	120.25
335.912	99.25
336.14	107.25
336.369	114.25
336.597	112.25
336.825	114.25
337.053	95.25
337.281	95.25
337.51	90.25
337.738	112.25
337.966	109.25
338.194	123.25
338.422	95.25
338.65	95.25
338.878	84.25
339.106	101.25
339.334	91.25
339.562	89.25
339.79	95.25
340.018	86.25
340.246	100.25
340.474	94.25
340.702	102.25
340.93	110.25
341.158	90.25
341.386	104.25
341.614	99.25
341.842	91.25
342.07	102.25
342.298	96.25
342.526	97.25
342.754	94.25
342.981	107.25
343.209	102.25
343.437	105.25
343.665	101.25
343.893	95.25
344.12	96.25
344.348	101.25
344.576	96.25
344.804	116.25
345.031	120.25
345.259	111.25
345.487	109.25
345.714	86.25
345.942	86.25
346.17	93.25
346.397	92.25
346.625	87.25
346.853	104.25
347.08	88.25
347.308	107.25
347.535	114.25
347.763	106.25
347.99	106.25
348.218	121.25
348.445	116.25
348.673	110.25
348.9	108.25
349.128	94.25
349.355	98.25
349.583	88.25
349.81	93.25
350.037	94.25
350.265	84.25
350.492	95.25
350.72	95.25
350.947	111.25
351.174	115.25
351.402	134.25
351.629	117.25
351.856	113.25
352.083	128.25
352.311	107.25
352.538	128.25
352.765	121.25
352.992	131.25
353.22	135.25
353.447	116.25
353.674	108.25
353.901	93.25
354.128	86.25
354.355	90.25
354.583	100.25
354.81	86.25
355.037	103.25
355.264	93.25
355.491	83.25
355.718	95.25
355.945	101.25
356.172	88.25
356.399	84.25
356.626	102.25
356.853	98.25
357.08	105.25
357.307	97.25
357.534	94.25
357.761	74.25
357.988	101.25
358.215	84.25
358.441	101.25
358.668	99.25
358.895	93.25
359.122	91.25
359.349	88.25
359.576	101.25
359.802	128.25
360.029	158.25
360.256	165.25
360.483	121.25
360.709	96.25
360.936	88.25
361.163	100.25
361.39	100.25
361.616	102.25
361.843	104.25
362.07	85.25
362.296	103.25
362.523	98.25
362.749	104.25
362.976	109.25
363.203	95.25
363.429	98.25
363.656	86.25
363.882	112.25
364.109	101.25
364.335	102.25
364.562	98.25
364.788	90.25
365.015	102.25
365.241	115.25
365.468	118.25
365.694	123.25
365.92	113.25
366.147	104.25
366.373	91.25
366.599	99.25
366.826	81.25
367.052	95.25
367.278	97.25
367.505	75.25
367.731	105.25
367.957	102.25
368.184	114.25
368.41	127.25
368.636	121.25
368.862	138.25
369.089	125.25
369.315	102.25
369.541	92.25
369.767	105.25
369.993	109.25
370.219	102.25
370.445	94.25
370.672	93.25
370.898	100.25
371.124	93.25
371.35	82.25
371.576	102.25
371.802	90.25
372.028	93.25
372.254	96.25
372.48	88.25
372.706	91.25
372.932	97.25
373.158	77.25
373.384	105.25
373.61	101.25
373.835	75.25
374.061	98.25
374.287	101.25
374.513	86.25
374.739	85.25
374.965	101.25
375.191	94.25
375.416	72.25
375.642	91.25
375.868	85.25
376.094	92.25
376.319	94.25
376.545	79.25
376.771	95.25
376.997	83.25
377.222	80.25
377.448	97.25
377.674	86.25
377.899	87.25
378.125	96.25
378.35	87.25
378.576	102.25
378.802	90.25
379.027	82.25
379.253	94.25
379.478	93.25
379.704	85.25
379.929	90.25
380.155	102.25
380.38	98.25
380.606	107.25
380.831	100.25
381.057	96.25
381.282	94.25
381.507	86.25
381.733	82.25
381.958	86.25
382.184	95.25
382.409	100.25
382.634	120.25
382.86	115.25
383.085	100.25
383.31	99.25
383.535	85.25
383.761	111.25
383.986	116.25
384.211	100.25
384.436	89.25
384.662	97.25
384.887	106.25
385.112	92.25
385.337	105.25
385.562	108.25
385.787	106.25
386.013	105.25
386.238	130.25
386.463	109.25
386.688	109.25
386.913	96.25
387.138	99.25
387.363	96.25
387.588	100.25
387.813	112.25
388.038	98.25
388.263	92.25
388.488	100.25
388.713	94.25
388.938	90.25
389.163	79.25
389.387	87.25
389.612	92.25
389.837	93.25
390.062	85.25
390.287	92.25
390.512	99.25
390.736	100.25
390.961	82.25
391.186	90.25
391.411	86.25
391.636	87.25
391.86	87.25
392.085	98.25
392.31	89.25
392.534	95.25
392.759	91.25
392.984	85.25
393.208	79.25
393.433	104.25
393.658	94.25
393.882	87.25
394.107	88.25
394.331	84.25
394.556	87.25
394.78	87.25
395.005	95.25
395.229	78.25
395.454	78.25
395.678	93.25
395.903	81.25
396.127	84.25
396.352	84.25
396.576	89.25
396.801	96.25
397.025	99.25
397.249	97.25
397.474	98.25
397.698	104.25
397.922	96.25
398.147	82.25
398.371	82.25
398.595	93.25
398.82	92.25
399.044	84.25
399.268	78.25
399.492	89.25
399.717	83.25
399.941	110.25
400.165	96.25
400.389	87.25
400.613	99.25
400.837	103.25
401.062	96.25
401.286	90.25
401.51	97.25
401.734	96.25
401.958	118.25
402.182	149.25
402.406	220.25
402.63	167.25
402.854	121.25
403.078	87.25
403.302	67.25
403.526	93.25
403.75	105.25
403.974	95.25
404.198	100.25
404.422	112.25
404.645	83.25
404.869	96.25
405.093	125.25
405.317	156.25
405.541	152.25
405.765	122.25
405.988	155.25
406.212	230.25
406.436	342.25
406.66	241.25
406.883	135.25
407.107	99.25
407.331	106.25
407.555	109.25
407.778	111.25
408.002	104.25
408.226	111.25
408.449	87.25
408.673	88.25
408.896	96.25
409.12	98.25
409.344	77.25
409.567	86.25
409.791	99.25
410.014	102.25
410.238	90.25
410.461	98.25
410.685	89.25
410.908	95.25
411.132	104.25
411.355	106.25
411.578	95.25
411.802	86.25
412.025	88.25
412.249	110.25
412.472	130.25
412.695	149.25
412.919	111.25
413.142	81.25
413.365	82.25
413.589	93.25
413.812	103.25
414.035	97.25
414.258	98.25
414.482	97.25
414.705	91.25
414.928	102.25
415.151	93.25
415.374	90.25
415.597	98.25
415.821	106.25
416.044	96.25
416.267	100.25
416.49	96.25
416.713	93.25
416.936	95.25
417.159	90.25
417.382	91.25
417.605	124.25
417.828	119.25
418.051	107.25
418.274	88.25
418.497	87.25
418.72	94.25
418.943	82.25
419.166	101.25
419.389	96.25
419.611	87.25
419.834	98.25
420.057	102.25
420.28	97.25
420.503	103.25
420.726	90.25
420.948	94.25
421.171	104.25
421.394	91.25
421.617	104.25
421.839	94.25
422.062	97.25
422.285	98.25
422.507	98.25
422.73	112.25
422.953	96.25
423.175	102.25
423.398	98.25
423.621	86.25
423.843	81.25
424.066	85.25
424.288	90.25
424.511	82.25
424.733	112.25
424.956	114.25
425.178	115.25
425.401	102.25
425.623	103.25
425.846	92.25
426.068	106.25
426.291	86.25
426.513	102.25
426.735	104.25
426.958	105.25
427.18	139.25
427.402	202.25
427.625	307.25
427.847	249.25
428.069	225.25
428.292	145.25
428.514	84.25
428.736	79.25
428.958	93.25
429.181	88.25
429.403	86.25
429.625	85.25
429.847	93.25
430.069	110.25
430.292	101.25
430.514	80.25
430.736	91.25
430.958	91.25
431.18	73.25
431.402	83.25
431.624	90.25
431.846	89.25
432.068	83.25
432.29	91.25
432.512	103.25
432.734	89.25
432.956	102.25
433.178	101.25
433.4	96.25
433.622	95.25
433.844	88.25
434.066	98.25
434.287	82.25
434.509	81.25
434.731	91.25
434.953	100.25
435.175	89.25
435.397	91.25
435.618	104.25
435.84	111.25
436.062	134.25
436.284	127.25
436.505	103.25
436.727	103.25
436.949	96.25
437.17	89.25
437.392	90.25
437.614	97.25
437.835	143.25
438.057	170.25
438.278	141.25
438.5	91.25
438.721	140.25
438.943	102.25
439.165	100.25
439.386	106.25
439.608	99.25
439.829	113.25
440.05	154.25
440.272	177.25
440.493	123.25
440.715	88.25
440.936	104.25
441.158	82.25
441.379	87.25
441.6	105.25
441.822	114.25
442.043	116.25
442.264	133.25
442.486	108.25
442.707	106.25
442.928	117.25
443.149	185.25
443.371	186.25
443.592	145.25
443.813	126.25
444.034	127.25
444.255	105.25
444.476	86.25
444.698	77.25
444.919	84.25
445.14	130.25
445.361	136.25
445.582	137.25
445.803	206.25
446.024	193.25
446.245	169.25
446.466	133.25
446.687	91.25
446.908	82.25
447.129	88.25
447.35	94.25
447.571	105.25
447.792	97.25
448.013	114.25
448.234	133.25
448.455	110.25
448.675	135.25
448.896	141.25
449.117	107.25
449.338	105.25
449.559	141.25
449.779	158.25
450	113.25
450.221	77.25
450.442	105.25
450.662	113.25
450.883	133.25
451.104	158.25
451.324	120.25
451.545	109.25
451.766	101.25
451.986	87.25
452.207	84.25
452.428	93.25
452.648	115.25
452.869	141.25
453.089	142.25
453.31	159.25
453.53	113.25
453.751	96.25
453.971	122.25
454.192	138.25
454.412	111.25
454.633	95.25
454.853	106.25
455.073	108.25
455.294	102.25
455.514	106.25
455.734	84.25
455.955	68.25
456.175	77.25
456.395	90.25
456.616	88.25
456.836	97.25
457.056	79.25
457.276	86.25
457.497	82.25
457.717	92.25
457.937	92.25
458.157	95.25
458.377	106.25
458.598	134.25
458.818	240.25
459.038	257.25
459.258	166.25
459.478	89.25
459.698	102.25
459.918	89.25
460.138	92.25
460.358	89.25
460.578	85.25
460.798	95.25
461.018	97.25
461.238	91.25
461.458	91.25
461.678	96.25
461.898	85.25
462.118	79.25
462.338	87.25
462.558	94.25
462.777	79.25
462.997	107.25
463.217	109.25
463.437	103.25
463.657	95.25
463.876	74.25
464.096	110.25
464.316	113.25
464.536	104.25
464.755	107.25
464.975	131.25
465.195	291.25
465.414	281.25
465.634	119.25
465.854	97.25
466.073	101.25
466.293	93.25
466.512	89.25
466.732	101.25
466.951	117.25
467.171	104.25
467.391	126.25
467.61	169.25
467.829	246.25
468.049	669.25
468.268	1067.25
468.488	279.25
468.707	129.25
468.927	109.25
469.146	95.25
469.365	97.25
469.585	111.25
469.804	120.25
470.023	129.25
470.243	114.25
470.462	133.25
470.681	154.25
470.901	121.25
471.12	98.25
471.339	114.25
471.558	124.25
471.777	173.25
471.997	338.25
472.216	1313.25
472.435	3055.25
472.654	689.25
472.873	191.25
473.092	109.25
473.311	97.25
473.53	97.25
473.749	99.25
473.968	112.25
474.187	113.25
474.406	110.25
474.625	100.25
474.844	91.25
475.063	81.25
475.282	84.25
475.501	100.25
475.72	94.25
475.939	84.25
476.158	102.25
476.377	90.25
476.596	93.25
476.814	106.25
477.033	127.25
477.252	93.25
477.471	99.25
477.69	105.25
477.908	98.25
478.127	89.25
478.346	95.25
478.564	90.25
478.783	104.25
479.002	108.25
479.22	111.25
479.439	131.25
479.658	137.25
479.876	125.25
480.095	134.25
480.313	147.25
480.532	184.25
480.751	305.25
480.969	1146.25
481.188	5086.25
481.406	2937.25
481.624	419.25
481.843	148.25
482.061	128.25
482.28	112.25
482.498	101.25
482.717	94.25
482.935	103.25
483.153	80.25
483.372	102.25
483.59	96.25
483.808	99.25
484.027	90.25
484.245	99.25
484.463	97.25
484.681	105.25
484.9	90.25
485.118	93.25
485.336	98.25
485.554	102.25
485.772	114.25
485.99	112.25
486.209	106.25
486.427	115.25
486.645	128.25
486.863	137.25
487.081	102.25
487.299	106.25
487.517	99.25
487.735	98.25
487.953	102.25
488.171	105.25
488.389	100.25
488.607	101.25
488.825	95.25
489.043	89.25
489.261	83.25
489.479	93.25
489.696	87.25
489.914	104.25
490.132	84.25
490.35	86.25
490.568	107.25
490.786	93.25
491.003	94.25
491.221	99.25
491.439	97.25
491.657	95.25
491.874	101.25
492.092	101.25
492.31	95.25
492.527	100.25
492.745	108.25
492.963	92.25
493.18	96.25
493.398	102.25
493.615	104.25
493.833	99.25
494.05	101.25
494.268	86.25
494.485	105.25
494.703	97.25
494.92	74.25
495.138	73.25
495.355	102.25
495.573	97.25
495.79	104.25
496.008	112.25
496.225	86.25
496.442	92.25
496.66	99.25
496.877	96.25
497.094	93.25
497.312	82.25
497.529	82.25
497.746	94.25
497.963	89.25
498.181	99.25
498.398	90.25
498.615	125.25
498.832	119.25
499.049	87.25
499.267	97.25
499.484	101.25
499.701	102.25
499.918	100.25
500.135	88.25
500.352	79.25
500.569	105.25
500.786	109.25
501.003	85.25
501.22	83.25
501.437	102.25
501.654	110.25
501.871	128.25
502.088	108.25
502.305	69.25
502.522	94.25
502.739	94.25
502.956	101.25
503.172	101.25
503.389	109.25
503.606	120.25
503.823	121.25
504.04	93.25
504.256	90.25
504.473	110.25
504.69	109.25
504.907	98.25
505.123	100.25
505.34	100.25
505.557	95.25
505.773	101.25
505.99	94.25
506.207	84.25
506.423	85.25
506.64	88.25
506.856	94.25
507.073	105.25
507.289	107.25
507.506	95.25
507.722	154.25
507.939	154.25
508.155	106.25
508.372	104.25
508.588	104.25
508.805	105.25
509.021	104.25
509.238	107.25
509.454	113.25
509.67	98.25
509.887	111.25
510.103	158.25
510.319	246.25
510.536	1051.25
510.752	3710.25
510.968	973.25
511.184	202.25
511.401	134.25
511.617	117.25
