Data from Circ_1987_H10_HRD10591_00090.txt Node
Date: Wed Jan 03 12:10:50 EST 2024
User: Yrep
Spectrometer: HR+D1059
Trigger mode: 1
Integration Time (sec): 1.000000E-1
Scans to average: 1
Electric dark correction enabled: true
Nonlinearity correction enabled: false
Boxcar width: 0
XAxis mode: Wavelengths
Number of Pixels in Spectrum: 2048
>>>>>Begin Spectral Data<<<<<
223.165	-12.12
223.4	-12.12
223.635	-12.12
223.869	-15.12
224.104	-25.12
224.338	-27.12
224.573	-2.12
224.808	-9.12
225.042	-3.12
225.277	2.88
225.511	-7.12
225.746	-1.12
225.98	17.88
226.215	-1.12
226.449	8.88
226.683	25.88
226.918	20.88
227.152	26.88
227.387	27.88
227.621	32.88
227.856	38.88
228.09	55.88
228.324	55.88
228.559	63.88
228.793	49.88
229.027	63.88
229.262	66.88
229.496	78.88
229.73	93.88
229.964	93.88
230.199	88.88
230.433	67.88
230.667	90.88
230.901	88.88
231.136	82.88
231.37	76.88
231.604	84.88
231.838	84.88
232.072	78.88
232.306	73.88
232.541	90.88
232.775	68.88
233.009	82.88
233.243	73.88
233.477	69.88
233.711	82.88
233.945	79.88
234.179	84.88
234.413	87.88
234.647	87.88
234.881	81.88
235.115	71.88
235.349	79.88
235.583	82.88
235.817	65.88
236.051	70.88
236.285	84.88
236.519	86.88
236.753	86.88
236.987	75.88
237.221	65.88
237.455	87.88
237.689	69.88
237.922	87.88
238.156	71.88
238.39	79.88
238.624	63.88
238.858	85.88
239.091	74.88
239.325	78.88
239.559	80.88
239.793	75.88
240.027	84.88
240.26	86.88
240.494	84.88
240.728	85.88
240.961	83.88
241.195	59.88
241.429	74.88
241.662	82.88
241.896	65.88
242.13	66.88
242.363	75.88
242.597	85.88
242.83	83.88
243.064	81.88
243.298	78.88
243.531	66.88
243.765	71.88
243.998	83.88
244.232	78.88
244.465	80.88
244.699	94.88
244.932	92.88
245.166	79.88
245.399	77.88
245.633	83.88
245.866	70.88
246.099	72.88
246.333	69.88
246.566	75.88
246.8	74.88
247.033	66.88
247.266	76.88
247.5	77.88
247.733	91.88
247.966	73.88
248.2	80.88
248.433	86.88
248.666	72.88
248.899	83.88
249.133	82.88
249.366	100.88
249.599	104.88
249.832	95.88
250.066	94.88
250.299	90.88
250.532	82.88
250.765	66.88
250.998	86.88
251.231	81.88
251.465	62.88
251.698	85.88
251.931	86.88
252.164	83.88
252.397	83.88
252.63	79.88
252.863	67.88
253.096	74.88
253.329	77.88
253.562	72.88
253.795	74.88
254.028	95.88
254.261	90.88
254.494	90.88
254.727	93.88
254.96	86.88
255.193	76.88
255.426	86.88
255.659	69.88
255.892	96.88
256.124	110.88
256.357	96.88
256.59	81.88
256.823	84.88
257.056	85.88
257.289	100.88
257.521	83.88
257.754	81.88
257.987	80.88
258.22	87.88
258.452	92.88
258.685	104.88
258.918	81.88
259.151	86.88
259.383	84.88
259.616	90.88
259.849	76.88
260.081	83.88
260.314	91.88
260.547	83.88
260.779	101.88
261.012	109.88
261.244	98.88
261.477	89.88
261.71	98.88
261.942	119.88
262.175	143.88
262.407	87.88
262.64	93.88
262.872	89.88
263.105	72.88
263.337	78.88
263.57	78.88
263.802	89.88
264.035	76.88
264.267	76.88
264.499	60.88
264.732	90.88
264.964	93.88
265.197	83.88
265.429	84.88
265.661	72.88
265.894	72.88
266.126	66.88
266.358	93.88
266.591	87.88
266.823	81.88
267.055	84.88
267.287	87.88
267.52	84.88
267.752	79.88
267.984	75.88
268.216	72.88
268.448	101.88
268.681	80.88
268.913	78.88
269.145	75.88
269.377	76.88
269.609	71.88
269.841	81.88
270.073	91.88
270.306	85.88
270.538	95.88
270.77	77.88
271.002	85.88
271.234	88.88
271.466	99.88
271.698	94.88
271.93	79.88
272.162	90.88
272.394	98.88
272.626	93.88
272.858	84.88
273.09	91.88
273.322	95.88
273.553	75.88
273.785	93.88
274.017	90.88
274.249	99.88
274.481	83.88
274.713	95.88
274.945	98.88
275.176	92.88
275.408	94.88
275.64	115.88
275.872	128.88
276.104	116.88
276.335	110.88
276.567	123.88
276.799	148.88
277.031	188.88
277.262	207.88
277.494	169.88
277.726	112.88
277.957	99.88
278.189	85.88
278.421	88.88
278.652	90.88
278.884	87.88
279.115	70.88
279.347	94.88
279.579	103.88
279.81	134.88
280.042	208.88
280.273	282.88
280.505	200.88
280.736	110.88
280.968	85.88
281.199	92.88
281.431	90.88
281.662	85.88
281.894	93.88
282.125	108.88
282.356	122.88
282.588	173.88
282.819	128.88
283.051	106.88
283.282	95.88
283.513	80.88
283.745	83.88
283.976	93.88
284.207	85.88
284.439	66.88
284.67	94.88
284.901	84.88
285.132	75.88
285.364	88.88
285.595	84.88
285.826	86.88
286.057	87.88
286.288	99.88
286.52	87.88
286.751	83.88
286.982	95.88
287.213	72.88
287.444	89.88
287.675	84.88
287.906	83.88
288.138	84.88
288.369	98.88
288.6	79.88
288.831	80.88
289.062	94.88
289.293	81.88
289.524	92.88
289.755	83.88
289.986	84.88
290.217	80.88
290.448	78.88
290.679	92.88
290.91	79.88
291.141	91.88
291.371	92.88
291.602	86.88
291.833	72.88
292.064	91.88
292.295	85.88
292.526	84.88
292.757	88.88
292.987	84.88
293.218	71.88
293.449	83.88
293.68	94.88
293.91	86.88
294.141	96.88
294.372	98.88
294.603	85.88
294.833	85.88
295.064	85.88
295.295	95.88
295.525	96.88
295.756	106.88
295.987	136.88
296.217	165.88
296.448	154.88
296.679	97.88
296.909	90.88
297.14	90.88
297.37	101.88
297.601	101.88
297.831	98.88
298.062	92.88
298.292	98.88
298.523	91.88
298.753	82.88
298.984	97.88
299.214	85.88
299.445	99.88
299.675	95.88
299.905	95.88
300.136	99.88
300.366	94.88
300.597	83.88
300.827	95.88
301.057	112.88
301.288	119.88
301.518	103.88
301.748	97.88
301.979	115.88
302.209	105.88
302.439	103.88
302.669	92.88
302.9	91.88
303.13	90.88
303.36	109.88
303.59	124.88
303.82	147.88
304.051	106.88
304.281	94.88
304.511	85.88
304.741	78.88
304.971	86.88
305.201	79.88
305.431	85.88
305.661	88.88
305.891	84.88
306.121	99.88
306.352	101.88
306.582	107.88
306.812	117.88
307.042	121.88
307.272	166.88
307.502	172.88
307.731	174.88
307.961	142.88
308.191	96.88
308.421	92.88
308.651	91.88
308.881	91.88
309.111	85.88
309.341	95.88
309.571	98.88
309.8	102.88
310.03	113.88
310.26	102.88
310.49	100.88
310.72	113.88
310.949	122.88
311.179	110.88
311.409	96.88
311.639	101.88
311.868	99.88
312.098	102.88
312.328	94.88
312.557	112.88
312.787	137.88
313.017	101.88
313.246	99.88
313.476	93.88
313.706	90.88
313.935	93.88
314.165	111.88
314.394	114.88
314.624	100.88
314.853	109.88
315.083	84.88
315.312	87.88
315.542	86.88
315.771	91.88
316.001	90.88
316.23	95.88
316.46	96.88
316.689	99.88
316.919	94.88
317.148	86.88
317.377	79.88
317.607	109.88
317.836	108.88
318.065	88.88
318.295	107.88
318.524	93.88
318.753	64.88
318.983	83.88
319.212	109.88
319.441	113.88
319.67	119.88
319.9	90.88
320.129	100.88
320.358	98.88
320.587	99.88
320.816	115.88
321.046	119.88
321.275	116.88
321.504	91.88
321.733	104.88
321.962	101.88
322.191	107.88
322.42	122.88
322.649	112.88
322.878	107.88
323.108	112.88
323.337	127.88
323.566	157.88
323.795	196.88
324.024	243.88
324.253	471.88
324.482	1005.88
324.71	2032.88
324.939	2650.88
325.168	966.88
325.397	274.88
325.626	163.88
325.855	135.88
326.084	130.88
326.313	133.88
326.542	171.88
326.77	252.88
326.999	475.88
327.228	1008.88
327.457	1878.88
327.686	1502.88
327.914	557.88
328.143	566.88
328.372	756.88
328.6	396.88
328.829	185.88
329.058	212.88
329.287	209.88
329.515	186.88
329.744	267.88
329.972	518.88
330.201	1118.88
330.43	1632.88
330.658	724.88
330.887	323.88
331.115	210.88
331.344	133.88
331.572	133.88
331.801	134.88
332.03	146.88
332.258	112.88
332.486	113.88
332.715	97.88
332.943	122.88
333.172	136.88
333.4	134.88
333.629	168.88
333.857	250.88
334.085	474.88
334.314	1023.88
334.542	2034.88
334.771	1962.88
334.999	488.88
335.227	182.88
335.455	133.88
335.684	120.88
335.912	123.88
336.14	109.88
336.369	116.88
336.597	115.88
336.825	114.88
337.053	84.88
337.281	90.88
337.51	95.88
337.738	102.88
337.966	112.88
338.194	99.88
338.422	101.88
338.65	101.88
338.878	104.88
339.106	100.88
339.334	88.88
339.562	100.88
339.79	101.88
340.018	94.88
340.246	86.88
340.474	96.88
340.702	84.88
340.93	88.88
341.158	91.88
341.386	98.88
341.614	104.88
341.842	104.88
342.07	94.88
342.298	110.88
342.526	89.88
342.754	78.88
342.981	96.88
343.209	99.88
343.437	94.88
343.665	110.88
343.893	101.88
344.12	80.88
344.348	82.88
344.576	101.88
344.804	95.88
345.031	81.88
345.259	111.88
345.487	104.88
345.714	93.88
345.942	110.88
346.17	101.88
346.397	98.88
346.625	99.88
346.853	92.88
347.08	97.88
347.308	95.88
347.535	100.88
347.763	103.88
347.99	84.88
348.218	88.88
348.445	122.88
348.673	111.88
348.9	100.88
349.128	80.88
349.355	98.88
349.583	89.88
349.81	91.88
350.037	96.88
350.265	97.88
350.492	101.88
350.72	95.88
350.947	91.88
351.174	104.88
351.402	126.88
351.629	95.88
351.856	106.88
352.083	103.88
352.311	110.88
352.538	123.88
352.765	130.88
352.992	122.88
353.22	103.88
353.447	103.88
353.674	94.88
353.901	99.88
354.128	90.88
354.355	97.88
354.583	92.88
354.81	83.88
355.037	96.88
355.264	80.88
355.491	98.88
355.718	85.88
355.945	92.88
356.172	97.88
356.399	90.88
356.626	104.88
356.853	101.88
357.08	87.88
357.307	101.88
357.534	83.88
357.761	95.88
357.988	92.88
358.215	75.88
358.441	88.88
358.668	88.88
358.895	88.88
359.122	82.88
359.349	88.88
359.576	99.88
359.802	119.88
360.029	162.88
360.256	149.88
360.483	111.88
360.709	94.88
360.936	92.88
361.163	99.88
361.39	106.88
361.616	99.88
361.843	93.88
362.07	109.88
362.296	107.88
362.523	104.88
362.749	102.88
362.976	94.88
363.203	80.88
363.429	98.88
363.656	113.88
363.882	95.88
364.109	82.88
364.335	90.88
364.562	103.88
364.788	94.88
365.015	86.88
365.241	104.88
365.468	110.88
365.694	116.88
365.92	98.88
366.147	106.88
366.373	91.88
366.599	92.88
366.826	91.88
367.052	97.88
367.278	103.88
367.505	98.88
367.731	95.88
367.957	106.88
368.184	84.88
368.41	108.88
368.636	113.88
368.862	123.88
369.089	122.88
369.315	95.88
369.541	90.88
369.767	80.88
369.993	95.88
370.219	99.88
370.445	86.88
370.672	99.88
370.898	84.88
371.124	76.88
371.35	81.88
371.576	78.88
371.802	96.88
372.028	93.88
372.254	82.88
372.48	84.88
372.706	86.88
372.932	85.88
373.158	86.88
373.384	83.88
373.61	110.88
373.835	90.88
374.061	99.88
374.287	103.88
374.513	80.88
374.739	80.88
374.965	88.88
375.191	86.88
375.416	91.88
375.642	94.88
375.868	93.88
376.094	104.88
376.319	79.88
376.545	90.88
376.771	94.88
376.997	88.88
377.222	70.88
377.448	78.88
377.674	81.88
377.899	96.88
378.125	74.88
378.35	95.88
378.576	82.88
378.802	81.88
379.027	84.88
379.253	76.88
379.478	77.88
379.704	80.88
379.929	92.88
380.155	86.88
380.38	80.88
380.606	103.88
380.831	69.88
381.057	96.88
381.282	86.88
381.507	88.88
381.733	86.88
381.958	76.88
382.184	98.88
382.409	92.88
382.634	106.88
382.86	93.88
383.085	91.88
383.31	81.88
383.535	99.88
383.761	92.88
383.986	98.88
384.211	88.88
384.436	93.88
384.662	107.88
384.887	93.88
385.112	89.88
385.337	99.88
385.562	104.88
385.787	108.88
386.013	116.88
386.238	118.88
386.463	98.88
386.688	88.88
386.913	75.88
387.138	102.88
387.363	114.88
387.588	104.88
387.813	97.88
388.038	94.88
388.263	91.88
388.488	106.88
388.713	93.88
388.938	88.88
389.163	86.88
389.387	93.88
389.612	93.88
389.837	82.88
390.062	94.88
390.287	93.88
390.512	79.88
390.736	93.88
390.961	68.88
391.186	82.88
391.411	94.88
391.636	98.88
391.86	73.88
392.085	92.88
392.31	92.88
392.534	85.88
392.759	92.88
392.984	94.88
393.208	87.88
393.433	93.88
393.658	104.88
393.882	82.88
394.107	86.88
394.331	84.88
394.556	84.88
394.78	95.88
395.005	77.88
395.229	91.88
395.454	87.88
395.678	96.88
395.903	85.88
396.127	95.88
396.352	90.88
396.576	78.88
396.801	83.88
397.025	96.88
397.249	82.88
397.474	84.88
397.698	93.88
397.922	83.88
398.147	89.88
398.371	78.88
398.595	88.88
398.82	82.88
399.044	90.88
399.268	78.88
399.492	106.88
399.717	71.88
399.941	78.88
400.165	84.88
400.389	84.88
400.613	92.88
400.837	82.88
401.062	91.88
401.286	85.88
401.51	90.88
401.734	97.88
401.958	105.88
402.182	145.88
402.406	188.88
402.63	132.88
402.854	99.88
403.078	92.88
403.302	105.88
403.526	86.88
403.75	102.88
403.974	85.88
404.198	97.88
404.422	105.88
404.645	96.88
404.869	101.88
405.093	119.88
405.317	138.88
405.541	138.88
405.765	120.88
405.988	125.88
406.212	204.88
406.436	306.88
406.66	192.88
406.883	119.88
407.107	108.88
407.331	103.88
407.555	114.88
407.778	121.88
408.002	93.88
408.226	112.88
408.449	97.88
408.673	84.88
408.896	98.88
409.12	99.88
409.344	85.88
409.567	92.88
409.791	82.88
410.014	95.88
410.238	88.88
410.461	96.88
410.685	81.88
410.908	84.88
411.132	94.88
411.355	113.88
411.578	100.88
411.802	88.88
412.025	94.88
412.249	94.88
412.472	128.88
412.695	155.88
412.919	118.88
413.142	89.88
413.365	84.88
413.589	87.88
413.812	97.88
414.035	84.88
414.258	93.88
414.482	76.88
414.705	73.88
414.928	80.88
415.151	91.88
415.374	95.88
415.597	92.88
415.821	86.88
416.044	98.88
416.267	80.88
416.49	74.88
416.713	93.88
416.936	93.88
417.159	107.88
417.382	88.88
417.605	99.88
417.828	106.88
418.051	88.88
418.274	84.88
418.497	80.88
418.72	80.88
418.943	62.88
419.166	94.88
419.389	94.88
419.611	83.88
419.834	93.88
420.057	79.88
420.28	85.88
420.503	98.88
420.726	98.88
420.948	103.88
421.171	125.88
421.394	97.88
421.617	95.88
421.839	94.88
422.062	88.88
422.285	86.88
422.507	95.88
422.73	121.88
422.953	86.88
423.175	84.88
423.398	103.88
423.621	82.88
423.843	82.88
424.066	87.88
424.288	80.88
424.511	97.88
424.733	103.88
424.956	110.88
425.178	113.88
425.401	117.88
425.623	106.88
425.846	101.88
426.068	102.88
426.291	102.88
426.513	102.88
426.735	97.88
426.958	110.88
427.18	115.88
427.402	185.88
427.625	278.88
427.847	253.88
428.069	238.88
428.292	142.88
428.514	99.88
428.736	97.88
428.958	93.88
429.181	103.88
429.403	94.88
429.625	89.88
429.847	95.88
430.069	107.88
430.292	97.88
430.514	89.88
430.736	85.88
430.958	80.88
431.18	78.88
431.402	95.88
431.624	84.88
431.846	70.88
432.068	91.88
432.29	102.88
432.512	91.88
432.734	95.88
432.956	101.88
433.178	89.88
433.4	95.88
433.622	99.88
433.844	96.88
434.066	90.88
434.287	94.88
434.509	82.88
434.731	64.88
434.953	91.88
435.175	92.88
435.397	93.88
435.618	94.88
435.84	107.88
436.062	152.88
436.284	126.88
436.505	114.88
436.727	99.88
436.949	102.88
437.17	84.88
437.392	74.88
437.614	101.88
437.835	138.88
438.057	172.88
438.278	131.88
438.5	110.88
438.721	150.88
438.943	96.88
439.165	90.88
439.386	92.88
439.608	86.88
439.829	112.88
440.05	156.88
440.272	190.88
440.493	115.88
440.715	80.88
440.936	93.88
441.158	100.88
441.379	99.88
441.6	109.88
441.822	95.88
442.043	107.88
442.264	114.88
442.486	140.88
442.707	101.88
442.928	110.88
443.149	177.88
443.371	168.88
443.592	138.88
443.813	135.88
444.034	125.88
444.255	103.88
444.476	88.88
444.698	84.88
444.919	80.88
445.14	121.88
445.361	134.88
445.582	138.88
445.803	191.88
446.024	198.88
446.245	180.88
446.466	129.88
446.687	94.88
446.908	89.88
447.129	88.88
447.35	108.88
447.571	104.88
447.792	95.88
448.013	103.88
448.234	123.88
448.455	124.88
448.675	117.88
448.896	144.88
449.117	114.88
449.338	124.88
449.559	162.88
449.779	154.88
450	112.88
450.221	82.88
450.442	94.88
450.662	100.88
450.883	120.88
451.104	155.88
451.324	104.88
451.545	107.88
451.766	80.88
451.986	92.88
452.207	109.88
452.428	93.88
452.648	112.88
452.869	121.88
453.089	128.88
453.31	138.88
453.53	106.88
453.751	102.88
453.971	111.88
454.192	134.88
454.412	112.88
454.633	107.88
454.853	82.88
455.073	88.88
455.294	104.88
455.514	112.88
455.734	81.88
455.955	76.88
456.175	88.88
456.395	102.88
456.616	69.88
456.836	98.88
457.056	91.88
457.276	88.88
457.497	94.88
457.717	81.88
457.937	77.88
458.157	95.88
458.377	92.88
458.598	127.88
458.818	202.88
459.038	236.88
459.258	143.88
459.478	90.88
459.698	96.88
459.918	106.88
460.138	85.88
460.358	91.88
460.578	88.88
460.798	94.88
461.018	103.88
461.238	90.88
461.458	90.88
461.678	83.88
461.898	77.88
462.118	82.88
462.338	84.88
462.558	92.88
462.777	88.88
462.997	103.88
463.217	99.88
463.437	83.88
463.657	86.88
463.876	101.88
464.096	97.88
464.316	100.88
464.536	99.88
464.755	98.88
464.975	122.88
465.195	240.88
465.414	253.88
465.634	117.88
465.854	83.88
466.073	103.88
466.293	88.88
466.512	96.88
466.732	94.88
466.951	95.88
467.171	102.88
467.391	115.88
467.61	130.88
467.829	216.88
468.049	562.88
468.268	879.88
468.488	246.88
468.707	126.88
468.927	96.88
469.146	78.88
469.365	92.88
469.585	94.88
469.804	118.88
470.023	99.88
470.243	106.88
470.462	121.88
470.681	156.88
470.901	114.88
471.12	105.88
471.339	125.88
471.558	123.88
471.777	151.88
471.997	302.88
472.216	1198.88
472.435	2809.88
472.654	667.88
472.873	171.88
473.092	110.88
473.311	108.88
473.53	70.88
473.749	82.88
473.968	106.88
474.187	125.88
474.406	99.88
474.625	82.88
474.844	85.88
475.063	102.88
475.282	92.88
475.501	99.88
475.72	111.88
475.939	78.88
476.158	90.88
476.377	90.88
476.596	76.88
476.814	108.88
477.033	102.88
477.252	108.88
477.471	99.88
477.69	96.88
477.908	99.88
478.127	76.88
478.346	96.88
478.564	102.88
478.783	99.88
479.002	114.88
479.22	107.88
479.439	123.88
479.658	148.88
479.876	135.88
480.095	119.88
480.313	141.88
480.532	175.88
480.751	311.88
480.969	1066.88
481.188	4764.88
481.406	2711.88
481.624	403.88
481.843	150.88
482.061	108.88
482.28	104.88
482.498	110.88
482.717	97.88
482.935	105.88
483.153	76.88
483.372	84.88
483.59	103.88
483.808	92.88
484.027	99.88
484.245	93.88
484.463	83.88
484.681	101.88
484.9	106.88
485.118	96.88
485.336	110.88
485.554	105.88
485.772	95.88
485.99	110.88
486.209	113.88
486.427	109.88
486.645	119.88
486.863	128.88
487.081	121.88
487.299	96.88
487.517	108.88
487.735	101.88
487.953	86.88
488.171	109.88
488.389	92.88
488.607	92.88
488.825	82.88
489.043	100.88
489.261	101.88
489.479	100.88
489.696	91.88
489.914	70.88
490.132	84.88
490.35	74.88
490.568	86.88
490.786	91.88
491.003	86.88
491.221	98.88
491.439	104.88
491.657	103.88
491.874	92.88
492.092	99.88
492.31	96.88
492.527	95.88
492.745	112.88
492.963	95.88
493.18	95.88
493.398	99.88
493.615	84.88
493.833	85.88
494.05	96.88
494.268	93.88
494.485	101.88
494.703	96.88
494.92	100.88
495.138	104.88
495.355	81.88
495.573	87.88
495.79	92.88
496.008	90.88
496.225	99.88
496.442	84.88
496.66	96.88
496.877	100.88
497.094	83.88
497.312	102.88
497.529	94.88
497.746	91.88
497.963	96.88
498.181	96.88
498.398	91.88
498.615	123.88
498.832	117.88
499.049	92.88
499.267	86.88
499.484	87.88
499.701	95.88
499.918	81.88
500.135	100.88
500.352	92.88
500.569	94.88
500.786	94.88
501.003	92.88
501.22	81.88
501.437	105.88
501.654	101.88
501.871	121.88
502.088	101.88
502.305	98.88
502.522	91.88
502.739	93.88
502.956	106.88
503.172	95.88
503.389	100.88
503.606	123.88
503.823	111.88
504.04	98.88
504.256	88.88
504.473	88.88
504.69	103.88
504.907	94.88
505.123	86.88
505.34	96.88
505.557	85.88
505.773	80.88
505.99	95.88
506.207	104.88
506.423	88.88
506.64	93.88
506.856	83.88
507.073	81.88
507.289	105.88
507.506	113.88
507.722	133.88
507.939	132.88
508.155	99.88
508.372	82.88
508.588	100.88
508.805	117.88
509.021	88.88
509.238	98.88
509.454	93.88
509.67	111.88
509.887	125.88
510.103	144.88
510.319	246.88
510.536	912.88
510.752	3107.88
510.968	846.88
511.184	189.88
511.401	130.88
511.617	90.88
511.833	123.88
512.049	88.88
512.265	82.88
512.481	93.88
512.698	100.88
512.914	106.88
513.13	103.88
513.346	95.88
