Data from Circ_1987_H10_HRD10591_00091.txt Node
Date: Wed Jan 03 12:10:51 EST 2024
User: Yrep
Spectrometer: HR+D1059
Trigger mode: 1
Integration Time (sec): 1.000000E-1
Scans to average: 1
Electric dark correction enabled: true
Nonlinearity correction enabled: false
Boxcar width: 0
XAxis mode: Wavelengths
Number of Pixels in Spectrum: 2048
>>>>>Begin Spectral Data<<<<<
223.165	-7.75
223.4	-7.75
223.635	-7.75
223.869	-21.75
224.104	-17.75
224.338	-37.75
224.573	5.25
224.808	-11.75
225.042	-13.75
225.277	-6.75
225.511	5.25
225.746	7.25
225.98	17.25
226.215	5.25
226.449	20.25
226.683	19.25
226.918	17.25
227.152	20.25
227.387	52.25
227.621	42.25
227.856	50.25
228.09	37.25
228.324	32.25
228.559	60.25
228.793	65.25
229.027	71.25
229.262	57.25
229.496	78.25
229.73	99.25
229.964	99.25
230.199	87.25
230.433	80.25
230.667	99.25
230.901	85.25
231.136	79.25
231.37	100.25
231.604	70.25
231.838	71.25
232.072	83.25
232.306	89.25
232.541	82.25
232.775	82.25
233.009	97.25
233.243	79.25
233.477	89.25
233.711	84.25
233.945	94.25
234.179	86.25
234.413	87.25
234.647	92.25
234.881	85.25
235.115	69.25
235.349	76.25
235.583	71.25
235.817	86.25
236.051	82.25
236.285	92.25
236.519	88.25
236.753	71.25
236.987	86.25
237.221	104.25
237.455	100.25
237.689	97.25
237.922	60.25
238.156	80.25
238.39	70.25
238.624	71.25
238.858	90.25
239.091	89.25
239.325	80.25
239.559	95.25
239.793	82.25
240.027	94.25
240.26	68.25
240.494	84.25
240.728	70.25
240.961	90.25
241.195	80.25
241.429	59.25
241.662	78.25
241.896	84.25
242.13	82.25
242.363	82.25
242.597	88.25
242.83	92.25
243.064	83.25
243.298	86.25
243.531	74.25
243.765	72.25
243.998	84.25
244.232	92.25
244.465	76.25
244.699	98.25
244.932	75.25
245.166	82.25
245.399	91.25
245.633	79.25
245.866	75.25
246.099	86.25
246.333	75.25
246.566	86.25
246.8	88.25
247.033	94.25
247.266	83.25
247.5	82.25
247.733	64.25
247.966	84.25
248.2	75.25
248.433	78.25
248.666	80.25
248.899	93.25
249.133	96.25
249.366	124.25
249.599	122.25
249.832	94.25
250.066	88.25
250.299	95.25
250.532	85.25
250.765	78.25
250.998	92.25
251.231	74.25
251.465	81.25
251.698	86.25
251.931	87.25
252.164	86.25
252.397	77.25
252.63	85.25
252.863	94.25
253.096	85.25
253.329	91.25
253.562	88.25
253.795	87.25
254.028	89.25
254.261	79.25
254.494	97.25
254.727	100.25
254.96	99.25
255.193	92.25
255.426	84.25
255.659	94.25
255.892	120.25
256.124	105.25
256.357	74.25
256.59	94.25
256.823	107.25
257.056	82.25
257.289	113.25
257.521	93.25
257.754	97.25
257.987	94.25
258.22	106.25
258.452	114.25
258.685	100.25
258.918	78.25
259.151	73.25
259.383	99.25
259.616	84.25
259.849	101.25
260.081	97.25
260.314	82.25
260.547	84.25
260.779	104.25
261.012	118.25
261.244	103.25
261.477	106.25
261.71	107.25
261.942	161.25
262.175	169.25
262.407	108.25
262.64	83.25
262.872	96.25
263.105	79.25
263.337	88.25
263.57	82.25
263.802	75.25
264.035	86.25
264.267	89.25
264.499	84.25
264.732	84.25
264.964	108.25
265.197	79.25
265.429	92.25
265.661	82.25
265.894	76.25
266.126	87.25
266.358	83.25
266.591	90.25
266.823	99.25
267.055	86.25
267.287	83.25
267.52	91.25
267.752	93.25
267.984	82.25
268.216	92.25
268.448	96.25
268.681	75.25
268.913	97.25
269.145	95.25
269.377	86.25
269.609	84.25
269.841	99.25
270.073	92.25
270.306	84.25
270.538	82.25
270.77	98.25
271.002	89.25
271.234	92.25
271.466	101.25
271.698	78.25
271.93	86.25
272.162	80.25
272.394	94.25
272.626	86.25
272.858	90.25
273.09	95.25
273.322	91.25
273.553	75.25
273.785	84.25
274.017	96.25
274.249	87.25
274.481	78.25
274.713	88.25
274.945	97.25
275.176	98.25
275.408	113.25
275.64	121.25
275.872	139.25
276.104	108.25
276.335	104.25
276.567	133.25
276.799	180.25
277.031	201.25
277.262	240.25
277.494	178.25
277.726	122.25
277.957	98.25
278.189	111.25
278.421	106.25
278.652	87.25
278.884	95.25
279.115	94.25
279.347	102.25
279.579	112.25
279.81	162.25
280.042	248.25
280.273	348.25
280.505	241.25
280.736	134.25
280.968	98.25
281.199	90.25
281.431	98.25
281.662	89.25
281.894	106.25
282.125	116.25
282.356	155.25
282.588	183.25
282.819	140.25
283.051	94.25
283.282	96.25
283.513	104.25
283.745	107.25
283.976	81.25
284.207	74.25
284.439	90.25
284.67	83.25
284.901	90.25
285.132	87.25
285.364	99.25
285.595	98.25
285.826	84.25
286.057	93.25
286.288	89.25
286.52	84.25
286.751	89.25
286.982	92.25
287.213	84.25
287.444	99.25
287.675	97.25
287.906	98.25
288.138	101.25
288.369	102.25
288.6	101.25
288.831	87.25
289.062	85.25
289.293	87.25
289.524	100.25
289.755	82.25
289.986	86.25
290.217	95.25
290.448	84.25
290.679	85.25
290.91	91.25
291.141	83.25
291.371	86.25
291.602	86.25
291.833	99.25
292.064	74.25
292.295	88.25
292.526	96.25
292.757	97.25
292.987	75.25
293.218	91.25
293.449	96.25
293.68	100.25
293.91	92.25
294.141	82.25
294.372	103.25
294.603	90.25
294.833	97.25
295.064	86.25
295.295	87.25
295.525	82.25
295.756	127.25
295.987	128.25
296.217	166.25
296.448	167.25
296.679	106.25
296.909	94.25
297.14	93.25
297.37	87.25
297.601	89.25
297.831	98.25
298.062	112.25
298.292	104.25
298.523	102.25
298.753	81.25
298.984	96.25
299.214	86.25
299.445	102.25
299.675	103.25
299.905	94.25
300.136	98.25
300.366	107.25
300.597	111.25
300.827	105.25
301.057	104.25
301.288	125.25
301.518	104.25
301.748	106.25
301.979	130.25
302.209	120.25
302.439	109.25
302.669	115.25
302.9	95.25
303.13	106.25
303.36	122.25
303.59	152.25
303.82	181.25
304.051	125.25
304.281	108.25
304.511	106.25
304.741	85.25
304.971	89.25
305.201	92.25
305.431	88.25
305.661	90.25
305.891	101.25
306.121	108.25
306.352	115.25
306.582	122.25
306.812	124.25
307.042	145.25
307.272	183.25
307.502	218.25
307.731	208.25
307.961	159.25
308.191	114.25
308.421	102.25
308.651	111.25
308.881	102.25
309.111	83.25
309.341	98.25
309.571	115.25
309.8	116.25
310.03	108.25
310.26	116.25
310.49	105.25
310.72	121.25
310.949	131.25
311.179	130.25
311.409	99.25
311.639	108.25
311.868	104.25
312.098	100.25
312.328	114.25
312.557	118.25
312.787	134.25
313.017	129.25
313.246	106.25
313.476	110.25
313.706	109.25
313.935	112.25
314.165	107.25
314.394	128.25
314.624	117.25
314.853	112.25
315.083	100.25
315.312	93.25
315.542	91.25
315.771	94.25
316.001	109.25
316.23	104.25
316.46	100.25
316.689	106.25
316.919	102.25
317.148	97.25
317.377	117.25
317.607	121.25
317.836	114.25
318.065	108.25
318.295	96.25
318.524	102.25
318.753	103.25
318.983	109.25
319.212	103.25
319.441	129.25
319.67	115.25
319.9	104.25
320.129	111.25
320.358	106.25
320.587	93.25
320.816	112.25
321.046	116.25
321.275	100.25
321.504	100.25
321.733	114.25
321.962	120.25
322.191	117.25
322.42	125.25
322.649	148.25
322.878	132.25
323.108	154.25
323.337	163.25
323.566	181.25
323.795	216.25
324.024	283.25
324.253	556.25
324.482	1250.25
324.71	2602.25
324.939	3526.25
325.168	1252.25
325.397	358.25
325.626	206.25
325.855	182.25
326.084	166.25
326.313	167.25
326.542	210.25
326.77	321.25
326.999	614.25
327.228	1319.25
327.457	2464.25
327.686	2000.25
327.914	702.25
328.143	712.25
328.372	974.25
328.6	514.25
328.829	244.25
329.058	235.25
329.287	258.25
329.515	240.25
329.744	330.25
329.972	652.25
330.201	1391.25
330.43	2096.25
330.658	928.25
330.887	410.25
331.115	251.25
331.344	157.25
331.572	148.25
331.801	164.25
332.03	136.25
332.258	136.25
332.486	122.25
332.715	120.25
332.943	119.25
333.172	151.25
333.4	159.25
333.629	195.25
333.857	282.25
334.085	560.25
334.314	1280.25
334.542	2558.25
334.771	2475.25
334.999	602.25
335.227	227.25
335.455	156.25
335.684	144.25
335.912	117.25
336.14	138.25
336.369	115.25
336.597	130.25
336.825	136.25
337.053	87.25
337.281	109.25
337.51	111.25
337.738	100.25
337.966	100.25
338.194	127.25
338.422	116.25
338.65	112.25
338.878	102.25
339.106	91.25
339.334	87.25
339.562	104.25
339.79	107.25
340.018	89.25
340.246	107.25
340.474	122.25
340.702	119.25
340.93	95.25
341.158	111.25
341.386	92.25
341.614	108.25
341.842	105.25
342.07	90.25
342.298	101.25
342.526	92.25
342.754	91.25
342.981	98.25
343.209	97.25
343.437	104.25
343.665	96.25
343.893	96.25
344.12	97.25
344.348	105.25
344.576	111.25
344.804	106.25
345.031	110.25
345.259	119.25
345.487	96.25
345.714	101.25
345.942	92.25
346.17	99.25
346.397	99.25
346.625	111.25
346.853	97.25
347.08	105.25
347.308	114.25
347.535	105.25
347.763	130.25
347.99	139.25
348.218	117.25
348.445	123.25
348.673	114.25
348.9	100.25
349.128	101.25
349.355	115.25
349.583	101.25
349.81	103.25
350.037	94.25
350.265	109.25
350.492	98.25
350.72	98.25
350.947	111.25
351.174	114.25
351.402	139.25
351.629	120.25
351.856	114.25
352.083	129.25
352.311	124.25
352.538	139.25
352.765	136.25
352.992	144.25
353.22	114.25
353.447	117.25
353.674	105.25
353.901	100.25
354.128	111.25
354.355	98.25
354.583	101.25
354.81	101.25
355.037	88.25
355.264	81.25
355.491	97.25
355.718	100.25
355.945	96.25
356.172	91.25
356.399	98.25
356.626	94.25
356.853	95.25
357.08	91.25
357.307	80.25
357.534	96.25
357.761	91.25
357.988	98.25
358.215	95.25
358.441	102.25
358.668	101.25
358.895	84.25
359.122	94.25
359.349	86.25
359.576	119.25
359.802	126.25
360.029	180.25
360.256	170.25
360.483	122.25
360.709	97.25
360.936	104.25
361.163	114.25
361.39	105.25
361.616	108.25
361.843	92.25
362.07	105.25
362.296	123.25
362.523	118.25
362.749	90.25
362.976	105.25
363.203	96.25
363.429	88.25
363.656	99.25
363.882	94.25
364.109	93.25
364.335	105.25
364.562	106.25
364.788	100.25
365.015	93.25
365.241	108.25
365.468	133.25
365.694	132.25
365.92	120.25
366.147	99.25
366.373	103.25
366.599	98.25
366.826	95.25
367.052	77.25
367.278	96.25
367.505	102.25
367.731	106.25
367.957	127.25
368.184	103.25
368.41	119.25
368.636	141.25
368.862	158.25
369.089	137.25
369.315	106.25
369.541	100.25
369.767	106.25
369.993	106.25
370.219	118.25
370.445	91.25
370.672	87.25
370.898	108.25
371.124	100.25
371.35	100.25
371.576	103.25
371.802	88.25
372.028	93.25
372.254	101.25
372.48	93.25
372.706	83.25
372.932	78.25
373.158	89.25
373.384	104.25
373.61	78.25
373.835	100.25
374.061	103.25
374.287	94.25
374.513	86.25
374.739	90.25
374.965	93.25
375.191	83.25
375.416	100.25
375.642	100.25
375.868	91.25
376.094	100.25
376.319	97.25
376.545	102.25
376.771	89.25
376.997	87.25
377.222	94.25
377.448	88.25
377.674	86.25
377.899	98.25
378.125	94.25
378.35	86.25
378.576	78.25
378.802	93.25
379.027	93.25
379.253	107.25
379.478	100.25
379.704	90.25
379.929	83.25
380.155	95.25
380.38	99.25
380.606	101.25
380.831	103.25
381.057	106.25
381.282	93.25
381.507	106.25
381.733	89.25
381.958	91.25
382.184	82.25
382.409	111.25
382.634	116.25
382.86	98.25
383.085	98.25
383.31	97.25
383.535	114.25
383.761	114.25
383.986	92.25
384.211	83.25
384.436	107.25
384.662	94.25
384.887	89.25
385.112	99.25
385.337	99.25
385.562	117.25
385.787	102.25
386.013	127.25
386.238	137.25
386.463	122.25
386.688	114.25
386.913	96.25
387.138	95.25
387.363	97.25
387.588	96.25
387.813	99.25
388.038	114.25
388.263	116.25
388.488	112.25
388.713	100.25
388.938	102.25
389.163	90.25
389.387	74.25
389.612	87.25
389.837	102.25
390.062	80.25
390.287	97.25
390.512	92.25
390.736	94.25
390.961	94.25
391.186	90.25
391.411	87.25
391.636	82.25
391.86	78.25
392.085	91.25
392.31	77.25
392.534	94.25
392.759	94.25
392.984	88.25
393.208	89.25
393.433	102.25
393.658	91.25
393.882	85.25
394.107	89.25
394.331	80.25
394.556	86.25
394.78	90.25
395.005	89.25
395.229	82.25
395.454	87.25
395.678	89.25
395.903	103.25
396.127	100.25
396.352	98.25
396.576	97.25
396.801	100.25
397.025	82.25
397.249	94.25
397.474	92.25
397.698	96.25
397.922	109.25
398.147	96.25
398.371	85.25
398.595	86.25
398.82	75.25
399.044	63.25
399.268	87.25
399.492	91.25
399.717	105.25
399.941	116.25
400.165	91.25
400.389	104.25
400.613	100.25
400.837	97.25
401.062	98.25
401.286	108.25
401.51	98.25
401.734	107.25
401.958	117.25
402.182	167.25
402.406	236.25
402.63	176.25
402.854	101.25
403.078	94.25
403.302	128.25
403.526	103.25
403.75	95.25
403.974	96.25
404.198	101.25
404.422	95.25
404.645	105.25
404.869	101.25
405.093	136.25
405.317	160.25
405.541	176.25
405.765	133.25
405.988	162.25
406.212	267.25
406.436	370.25
406.66	267.25
406.883	150.25
407.107	134.25
407.331	126.25
407.555	127.25
407.778	104.25
408.002	106.25
408.226	103.25
408.449	97.25
408.673	105.25
408.896	107.25
409.12	96.25
409.344	83.25
409.567	90.25
409.791	95.25
410.014	98.25
410.238	106.25
410.461	104.25
410.685	94.25
410.908	91.25
411.132	109.25
411.355	106.25
411.578	109.25
411.802	89.25
412.025	90.25
412.249	111.25
412.472	130.25
412.695	164.25
412.919	116.25
413.142	103.25
413.365	101.25
413.589	78.25
413.812	90.25
414.035	105.25
414.258	95.25
414.482	92.25
414.705	82.25
414.928	102.25
415.151	92.25
415.374	91.25
415.597	102.25
415.821	78.25
416.044	102.25
416.267	103.25
416.49	88.25
416.713	95.25
416.936	89.25
417.159	94.25
417.382	106.25
417.605	116.25
417.828	126.25
418.051	93.25
418.274	94.25
418.497	91.25
418.72	89.25
418.943	90.25
419.166	79.25
419.389	94.25
419.611	110.25
419.834	91.25
420.057	97.25
420.28	98.25
420.503	104.25
420.726	76.25
420.948	106.25
421.171	118.25
421.394	100.25
421.617	90.25
421.839	98.25
422.062	83.25
422.285	83.25
422.507	97.25
422.73	118.25
422.953	98.25
423.175	105.25
423.398	85.25
423.621	97.25
423.843	91.25
424.066	98.25
424.288	99.25
424.511	105.25
424.733	101.25
424.956	143.25
425.178	113.25
425.401	139.25
425.623	126.25
425.846	103.25
426.068	94.25
426.291	94.25
426.513	100.25
426.735	107.25
426.958	97.25
427.18	128.25
427.402	212.25
427.625	347.25
427.847	304.25
428.069	295.25
428.292	144.25
428.514	117.25
428.736	107.25
428.958	111.25
429.181	80.25
429.403	107.25
429.625	95.25
429.847	97.25
430.069	129.25
430.292	109.25
430.514	96.25
430.736	82.25
430.958	102.25
431.18	114.25
431.402	76.25
431.624	103.25
431.846	106.25
432.068	102.25
432.29	101.25
432.512	95.25
432.734	83.25
432.956	103.25
433.178	110.25
433.4	114.25
433.622	104.25
433.844	90.25
434.066	93.25
434.287	88.25
434.509	92.25
434.731	107.25
434.953	93.25
435.175	101.25
435.397	106.25
435.618	106.25
435.84	119.25
436.062	161.25
436.284	140.25
436.505	129.25
436.727	115.25
436.949	106.25
437.17	95.25
437.392	100.25
437.614	107.25
437.835	126.25
438.057	176.25
438.278	144.25
438.5	126.25
438.721	158.25
438.943	121.25
439.165	102.25
439.386	91.25
439.608	112.25
439.829	132.25
440.05	182.25
440.272	224.25
440.493	137.25
440.715	98.25
440.936	94.25
441.158	105.25
441.379	100.25
441.6	112.25
441.822	114.25
442.043	112.25
442.264	130.25
442.486	122.25
442.707	112.25
442.928	135.25
443.149	233.25
443.371	206.25
443.592	150.25
443.813	161.25
444.034	128.25
444.255	120.25
444.476	84.25
444.698	98.25
444.919	106.25
445.14	128.25
445.361	139.25
445.582	164.25
445.803	232.25
446.024	223.25
446.245	197.25
446.466	135.25
446.687	105.25
446.908	110.25
447.129	87.25
447.35	88.25
447.571	100.25
447.792	110.25
448.013	129.25
448.234	149.25
448.455	127.25
448.675	144.25
448.896	161.25
449.117	130.25
449.338	120.25
449.559	165.25
449.779	168.25
450	103.25
450.221	94.25
450.442	84.25
450.662	101.25
450.883	155.25
451.104	182.25
451.324	128.25
451.545	95.25
451.766	99.25
451.986	78.25
452.207	101.25
452.428	110.25
452.648	102.25
452.869	148.25
453.089	145.25
453.31	175.25
453.53	107.25
453.751	106.25
453.971	147.25
454.192	161.25
454.412	126.25
454.633	104.25
454.853	104.25
455.073	91.25
455.294	102.25
455.514	106.25
455.734	110.25
455.955	89.25
456.175	85.25
456.395	94.25
456.616	96.25
456.836	107.25
457.056	97.25
457.276	96.25
457.497	87.25
457.717	101.25
457.937	90.25
458.157	89.25
458.377	100.25
458.598	164.25
458.818	253.25
459.038	303.25
459.258	167.25
459.478	109.25
459.698	84.25
459.918	94.25
460.138	100.25
460.358	81.25
460.578	91.25
460.798	102.25
461.018	90.25
461.238	95.25
461.458	89.25
461.678	99.25
461.898	93.25
462.118	94.25
462.338	75.25
462.558	89.25
462.777	101.25
462.997	97.25
463.217	118.25
463.437	112.25
463.657	88.25
463.876	105.25
464.096	110.25
464.316	104.25
464.536	118.25
464.755	117.25
464.975	143.25
465.195	297.25
465.414	311.25
465.634	128.25
465.854	100.25
466.073	103.25
466.293	91.25
466.512	107.25
466.732	95.25
466.951	112.25
467.171	111.25
467.391	131.25
467.61	178.25
467.829	260.25
468.049	734.25
468.268	1156.25
468.488	282.25
468.707	124.25
468.927	118.25
469.146	95.25
469.365	95.25
469.585	110.25
469.804	110.25
470.023	120.25
470.243	113.25
470.462	132.25
470.681	175.25
470.901	126.25
471.12	119.25
471.339	114.25
471.558	132.25
471.777	172.25
471.997	398.25
472.216	1456.25
472.435	3523.25
472.654	800.25
472.873	188.25
473.092	108.25
473.311	126.25
473.53	103.25
473.749	101.25
473.968	100.25
474.187	140.25
474.406	124.25
474.625	95.25
474.844	110.25
475.063	104.25
475.282	88.25
475.501	83.25
475.72	83.25
475.939	94.25
476.158	109.25
476.377	92.25
476.596	97.25
476.814	107.25
477.033	90.25
477.252	103.25
477.471	111.25
477.69	92.25
477.908	96.25
478.127	105.25
478.346	87.25
478.564	93.25
478.783	117.25
479.002	114.25
479.22	123.25
479.439	162.25
479.658	174.25
479.876	136.25
480.095	133.25
480.313	155.25
480.532	200.25
480.751	336.25
480.969	1262.25
481.188	5866.25
481.406	3399.25
481.624	462.25
481.843	158.25
482.061	123.25
482.28	108.25
482.498	98.25
482.717	100.25
482.935	91.25
483.153	86.25
483.372	92.25
483.59	107.25
483.808	99.25
484.027	98.25
484.245	102.25
484.463	112.25
484.681	107.25
484.9	90.25
485.118	108.25
485.336	111.25
485.554	102.25
485.772	117.25
485.99	107.25
486.209	121.25
486.427	122.25
486.645	131.25
486.863	151.25
487.081	108.25
487.299	107.25
487.517	102.25
487.735	89.25
487.953	98.25
488.171	108.25
488.389	95.25
488.607	105.25
488.825	99.25
489.043	94.25
489.261	100.25
489.479	88.25
489.696	102.25
489.914	111.25
490.132	99.25
490.35	94.25
490.568	92.25
490.786	105.25
491.003	99.25
491.221	97.25
491.439	109.25
491.657	101.25
491.874	103.25
492.092	108.25
492.31	98.25
492.527	105.25
492.745	133.25
492.963	105.25
493.18	96.25
493.398	98.25
493.615	84.25
493.833	89.25
494.05	96.25
494.268	98.25
494.485	103.25
494.703	88.25
494.92	87.25
495.138	107.25
495.355	94.25
495.573	99.25
495.79	95.25
496.008	93.25
496.225	100.25
496.442	95.25
496.66	85.25
496.877	94.25
497.094	110.25
497.312	95.25
497.529	91.25
497.746	88.25
497.963	97.25
498.181	100.25
498.398	117.25
498.615	125.25
498.832	120.25
499.049	104.25
499.267	105.25
499.484	95.25
499.701	99.25
499.918	111.25
500.135	86.25
500.352	94.25
500.569	95.25
500.786	105.25
501.003	85.25
501.22	111.25
501.437	91.25
501.654	100.25
501.871	150.25
502.088	82.25
502.305	91.25
502.522	91.25
502.739	107.25
502.956	91.25
503.172	97.25
503.389	104.25
503.606	136.25
503.823	122.25
504.04	98.25
504.256	83.25
504.473	103.25
504.69	103.25
504.907	90.25
505.123	95.25
505.34	96.25
505.557	86.25
505.773	89.25
505.99	110.25
506.207	93.25
506.423	105.25
506.64	89.25
506.856	95.25
507.073	102.25
507.289	90.25
507.506	115.25
507.722	160.25
507.939	149.25
508.155	111.25
508.372	115.25
508.588	95.25
508.805	105.25
509.021	114.25
509.238	98.25
509.454	118.25
509.67	111.25
509.887	129.25
510.103	160.25
510.319	296.25
