Data from Circ_1987_H10_HRD10591_00074.txt Node
Date: Wed Jan 03 12:10:47 EST 2024
User: Yrep
Spectrometer: HR+D1059
Trigger mode: 1
Integration Time (sec): 1.000000E-1
Scans to average: 1
Electric dark correction enabled: true
Nonlinearity correction enabled: false
Boxcar width: 0
XAxis mode: Wavelengths
Number of Pixels in Spectrum: 2048
>>>>>Begin Spectral Data<<<<<
223.165	-14.5
223.4	-14.5
223.635	-14.5
223.869	-20.5
224.104	-13.5
224.338	-17.5
224.573	-17.5
224.808	0.5
225.042	-15.5
225.277	-13.5
225.511	1.5
225.746	13.5
225.98	-10.5
226.215	23.5
226.449	12.5
226.683	31.5
226.918	12.5
227.152	27.5
227.387	32.5
227.621	35.5
227.856	47.5
228.09	42.5
228.324	54.5
228.559	58.5
228.793	55.5
229.027	61.5
229.262	73.5
229.496	73.5
229.73	108.5
229.964	89.5
230.199	69.5
230.433	69.5
230.667	83.5
230.901	82.5
231.136	76.5
231.37	74.5
231.604	73.5
231.838	86.5
232.072	77.5
232.306	72.5
232.541	84.5
232.775	79.5
233.009	71.5
233.243	86.5
233.477	84.5
233.711	87.5
233.945	88.5
234.179	85.5
234.413	80.5
234.647	83.5
234.881	81.5
235.115	73.5
235.349	79.5
235.583	70.5
235.817	76.5
236.051	78.5
236.285	87.5
236.519	72.5
236.753	85.5
236.987	84.5
237.221	105.5
237.455	109.5
237.689	92.5
237.922	74.5
238.156	81.5
238.39	82.5
238.624	69.5
238.858	74.5
239.091	67.5
239.325	77.5
239.559	89.5
239.793	82.5
240.027	92.5
240.26	76.5
240.494	83.5
240.728	86.5
240.961	76.5
241.195	93.5
241.429	72.5
241.662	64.5
241.896	82.5
242.13	78.5
242.363	75.5
242.597	70.5
242.83	77.5
243.064	73.5
243.298	77.5
243.531	88.5
243.765	87.5
243.998	77.5
244.232	94.5
244.465	94.5
244.699	70.5
244.932	75.5
245.166	89.5
245.399	70.5
245.633	85.5
245.866	76.5
246.099	86.5
246.333	102.5
246.566	89.5
246.8	86.5
247.033	81.5
247.266	77.5
247.5	79.5
247.733	93.5
247.966	78.5
248.2	84.5
248.433	84.5
248.666	72.5
248.899	103.5
249.133	88.5
249.366	93.5
249.599	106.5
249.832	82.5
250.066	96.5
250.299	86.5
250.532	103.5
250.765	68.5
250.998	87.5
251.231	81.5
251.465	77.5
251.698	84.5
251.931	88.5
252.164	81.5
252.397	86.5
252.63	69.5
252.863	71.5
253.096	93.5
253.329	88.5
253.562	66.5
253.795	82.5
254.028	91.5
254.261	72.5
254.494	87.5
254.727	97.5
254.96	68.5
255.193	63.5
255.426	87.5
255.659	77.5
255.892	101.5
256.124	102.5
256.357	98.5
256.59	100.5
256.823	91.5
257.056	90.5
257.289	94.5
257.521	82.5
257.754	90.5
257.987	89.5
258.22	97.5
258.452	94.5
258.685	106.5
258.918	96.5
259.151	83.5
259.383	99.5
259.616	98.5
259.849	65.5
260.081	77.5
260.314	86.5
260.547	94.5
260.779	94.5
261.012	114.5
261.244	109.5
261.477	105.5
261.71	112.5
261.942	135.5
262.175	145.5
262.407	96.5
262.64	87.5
262.872	85.5
263.105	88.5
263.337	83.5
263.57	81.5
263.802	85.5
264.035	78.5
264.267	82.5
264.499	76.5
264.732	76.5
264.964	81.5
265.197	89.5
265.429	88.5
265.661	83.5
265.894	80.5
266.126	99.5
266.358	81.5
266.591	96.5
266.823	82.5
267.055	89.5
267.287	94.5
267.52	101.5
267.752	94.5
267.984	83.5
268.216	84.5
268.448	82.5
268.681	82.5
268.913	110.5
269.145	82.5
269.377	77.5
269.609	100.5
269.841	88.5
270.073	85.5
270.306	80.5
270.538	98.5
270.77	90.5
271.002	91.5
271.234	86.5
271.466	100.5
271.698	80.5
271.93	92.5
272.162	101.5
272.394	101.5
272.626	92.5
272.858	94.5
273.09	81.5
273.322	94.5
273.553	100.5
273.785	76.5
274.017	104.5
274.249	88.5
274.481	89.5
274.713	103.5
274.945	97.5
275.176	96.5
275.408	104.5
275.64	114.5
275.872	105.5
276.104	106.5
276.335	112.5
276.567	118.5
276.799	143.5
277.031	204.5
277.262	198.5
277.494	168.5
277.726	112.5
277.957	99.5
278.189	86.5
278.421	98.5
278.652	76.5
278.884	83.5
279.115	100.5
279.347	98.5
279.579	100.5
279.81	126.5
280.042	210.5
280.273	291.5
280.505	181.5
280.736	112.5
280.968	92.5
281.199	87.5
281.431	94.5
281.662	78.5
281.894	97.5
282.125	101.5
282.356	123.5
282.588	177.5
282.819	133.5
283.051	100.5
283.282	87.5
283.513	85.5
283.745	94.5
283.976	84.5
284.207	81.5
284.439	96.5
284.67	87.5
284.901	89.5
285.132	93.5
285.364	84.5
285.595	81.5
285.826	78.5
286.057	83.5
286.288	95.5
286.52	78.5
286.751	87.5
286.982	92.5
287.213	81.5
287.444	98.5
287.675	100.5
287.906	88.5
288.138	99.5
288.369	101.5
288.6	103.5
288.831	98.5
289.062	103.5
289.293	91.5
289.524	85.5
289.755	98.5
289.986	95.5
290.217	86.5
290.448	92.5
290.679	100.5
290.91	97.5
291.141	92.5
291.371	96.5
291.602	83.5
291.833	83.5
292.064	86.5
292.295	99.5
292.526	94.5
292.757	93.5
292.987	93.5
293.218	94.5
293.449	88.5
293.68	82.5
293.91	109.5
294.141	76.5
294.372	90.5
294.603	85.5
294.833	99.5
295.064	104.5
295.295	107.5
295.525	90.5
295.756	106.5
295.987	124.5
296.217	171.5
296.448	145.5
296.679	96.5
296.909	97.5
297.14	80.5
297.37	96.5
297.601	92.5
297.831	88.5
298.062	101.5
298.292	92.5
298.523	70.5
298.753	87.5
298.984	84.5
299.214	101.5
299.445	107.5
299.675	98.5
299.905	104.5
300.136	94.5
300.366	82.5
300.597	99.5
300.827	107.5
301.057	110.5
301.288	115.5
301.518	103.5
301.748	99.5
301.979	122.5
302.209	98.5
302.439	106.5
302.669	78.5
302.9	95.5
303.13	107.5
303.36	109.5
303.59	130.5
303.82	162.5
304.051	109.5
304.281	97.5
304.511	117.5
304.741	96.5
304.971	106.5
305.201	92.5
305.431	96.5
305.661	84.5
305.891	96.5
306.121	98.5
306.352	117.5
306.582	104.5
306.812	101.5
307.042	129.5
307.272	168.5
307.502	190.5
307.731	178.5
307.961	132.5
308.191	103.5
308.421	98.5
308.651	97.5
308.881	82.5
309.111	99.5
309.341	98.5
309.571	96.5
309.8	96.5
310.03	103.5
310.26	93.5
310.49	87.5
310.72	102.5
310.949	125.5
311.179	116.5
311.409	106.5
311.639	89.5
311.868	103.5
312.098	104.5
312.328	115.5
312.557	119.5
312.787	129.5
313.017	103.5
313.246	109.5
313.476	108.5
313.706	104.5
313.935	93.5
314.165	127.5
314.394	127.5
314.624	108.5
314.853	100.5
315.083	108.5
315.312	108.5
315.542	105.5
315.771	103.5
316.001	93.5
316.23	107.5
316.46	78.5
316.689	87.5
316.919	97.5
317.148	100.5
317.377	100.5
317.607	100.5
317.836	98.5
318.065	100.5
318.295	89.5
318.524	99.5
318.753	80.5
318.983	104.5
319.212	95.5
319.441	123.5
319.67	128.5
319.9	107.5
320.129	100.5
320.358	101.5
320.587	116.5
320.816	97.5
321.046	108.5
321.275	115.5
321.504	100.5
321.733	104.5
321.962	125.5
322.191	112.5
322.42	140.5
322.649	140.5
322.878	111.5
323.108	128.5
323.337	152.5
323.566	179.5
323.795	198.5
324.024	293.5
324.253	545.5
324.482	1235.5
324.71	2583.5
324.939	3601.5
325.168	1238.5
325.397	326.5
325.626	192.5
325.855	148.5
326.084	156.5
326.313	171.5
326.542	176.5
326.77	286.5
326.999	617.5
327.228	1338.5
327.457	2540.5
327.686	2025.5
327.914	670.5
328.143	606.5
328.372	785.5
328.6	419.5
328.829	209.5
329.058	231.5
329.287	246.5
329.515	196.5
329.744	278.5
329.972	544.5
330.201	1118.5
330.43	1703.5
330.658	736.5
330.887	349.5
331.115	231.5
331.344	125.5
331.572	134.5
331.801	151.5
332.03	138.5
332.258	126.5
332.486	111.5
332.715	105.5
332.943	121.5
333.172	128.5
333.4	145.5
333.629	178.5
333.857	236.5
334.085	481.5
334.314	1042.5
334.542	2074.5
334.771	1970.5
334.999	503.5
335.227	206.5
335.455	143.5
335.684	131.5
335.912	121.5
336.14	124.5
336.369	128.5
336.597	125.5
336.825	119.5
337.053	104.5
337.281	109.5
337.51	100.5
337.738	100.5
337.966	117.5
338.194	117.5
338.422	117.5
338.65	109.5
338.878	105.5
339.106	88.5
339.334	102.5
339.562	105.5
339.79	80.5
340.018	97.5
340.246	103.5
340.474	115.5
340.702	91.5
340.93	87.5
341.158	90.5
341.386	90.5
341.614	121.5
341.842	109.5
342.07	99.5
342.298	90.5
342.526	101.5
342.754	91.5
342.981	100.5
343.209	93.5
343.437	109.5
343.665	101.5
343.893	90.5
344.12	81.5
344.348	86.5
344.576	89.5
344.804	99.5
345.031	96.5
345.259	120.5
345.487	105.5
345.714	95.5
345.942	105.5
346.17	94.5
346.397	94.5
346.625	96.5
346.853	87.5
347.08	102.5
347.308	104.5
347.535	96.5
347.763	112.5
347.99	117.5
348.218	113.5
348.445	130.5
348.673	124.5
348.9	121.5
349.128	85.5
349.355	99.5
349.583	95.5
349.81	85.5
350.037	95.5
350.265	109.5
350.492	96.5
350.72	121.5
350.947	117.5
351.174	117.5
351.402	133.5
351.629	108.5
351.856	105.5
352.083	105.5
352.311	129.5
352.538	131.5
352.765	135.5
352.992	129.5
353.22	131.5
353.447	106.5
353.674	111.5
353.901	97.5
354.128	90.5
354.355	96.5
354.583	94.5
354.81	92.5
355.037	90.5
355.264	99.5
355.491	82.5
355.718	94.5
355.945	88.5
356.172	93.5
356.399	88.5
356.626	81.5
356.853	84.5
357.08	104.5
357.307	93.5
357.534	91.5
357.761	88.5
357.988	91.5
358.215	90.5
358.441	88.5
358.668	100.5
358.895	90.5
359.122	90.5
359.349	80.5
359.576	105.5
359.802	113.5
360.029	149.5
360.256	146.5
360.483	143.5
360.709	88.5
360.936	114.5
361.163	108.5
361.39	107.5
361.616	98.5
361.843	101.5
362.07	111.5
362.296	106.5
362.523	107.5
362.749	97.5
362.976	103.5
363.203	96.5
363.429	92.5
363.656	98.5
363.882	83.5
364.109	86.5
364.335	82.5
364.562	85.5
364.788	87.5
365.015	104.5
365.241	113.5
365.468	117.5
365.694	128.5
365.92	114.5
366.147	103.5
366.373	105.5
366.599	94.5
366.826	102.5
367.052	93.5
367.278	97.5
367.505	89.5
367.731	114.5
367.957	107.5
368.184	101.5
368.41	111.5
368.636	126.5
368.862	129.5
369.089	130.5
369.315	96.5
369.541	101.5
369.767	90.5
369.993	91.5
370.219	101.5
370.445	95.5
370.672	78.5
370.898	85.5
371.124	77.5
371.35	79.5
371.576	85.5
371.802	79.5
372.028	78.5
372.254	96.5
372.48	90.5
372.706	84.5
372.932	85.5
373.158	87.5
373.384	74.5
373.61	92.5
373.835	77.5
374.061	96.5
374.287	100.5
374.513	102.5
374.739	95.5
374.965	88.5
375.191	85.5
375.416	86.5
375.642	99.5
375.868	94.5
376.094	108.5
376.319	97.5
376.545	85.5
376.771	78.5
376.997	87.5
377.222	85.5
377.448	98.5
377.674	86.5
377.899	93.5
378.125	86.5
378.35	100.5
378.576	101.5
378.802	86.5
379.027	90.5
379.253	90.5
379.478	98.5
379.704	106.5
379.929	87.5
380.155	91.5
380.38	93.5
380.606	112.5
380.831	84.5
381.057	95.5
381.282	100.5
381.507	96.5
381.733	103.5
381.958	101.5
382.184	96.5
382.409	97.5
382.634	102.5
382.86	106.5
383.085	108.5
383.31	101.5
383.535	88.5
383.761	94.5
383.986	87.5
384.211	93.5
384.436	106.5
384.662	104.5
384.887	92.5
385.112	96.5
385.337	96.5
385.562	79.5
385.787	103.5
386.013	112.5
386.238	134.5
386.463	99.5
386.688	116.5
386.913	85.5
387.138	102.5
387.363	83.5
387.588	94.5
387.813	94.5
388.038	104.5
388.263	106.5
388.488	97.5
388.713	85.5
388.938	90.5
389.163	102.5
389.387	95.5
389.612	97.5
389.837	81.5
390.062	96.5
390.287	88.5
390.512	89.5
390.736	89.5
390.961	80.5
391.186	88.5
391.411	94.5
391.636	83.5
391.86	93.5
392.085	85.5
392.31	76.5
392.534	85.5
392.759	86.5
392.984	88.5
393.208	91.5
393.433	106.5
393.658	104.5
393.882	81.5
394.107	86.5
394.331	86.5
394.556	84.5
394.78	98.5
395.005	80.5
395.229	76.5
395.454	88.5
395.678	82.5
395.903	85.5
396.127	85.5
396.352	82.5
396.576	84.5
396.801	94.5
397.025	95.5
397.249	87.5
397.474	89.5
397.698	90.5
397.922	96.5
398.147	94.5
398.371	78.5
398.595	82.5
398.82	87.5
399.044	98.5
399.268	77.5
399.492	91.5
399.717	91.5
399.941	84.5
400.165	98.5
400.389	95.5
400.613	89.5
400.837	89.5
401.062	87.5
401.286	86.5
401.51	97.5
401.734	105.5
401.958	113.5
402.182	133.5
402.406	208.5
402.63	152.5
402.854	107.5
403.078	102.5
403.302	101.5
403.526	92.5
403.75	92.5
403.974	89.5
404.198	99.5
404.422	104.5
404.645	88.5
404.869	109.5
405.093	121.5
405.317	154.5
405.541	146.5
405.765	123.5
405.988	132.5
406.212	214.5
406.436	317.5
406.66	219.5
406.883	131.5
407.107	101.5
407.331	116.5
407.555	125.5
407.778	118.5
408.002	98.5
408.226	93.5
408.449	104.5
408.673	96.5
408.896	99.5
409.12	107.5
409.344	99.5
409.567	74.5
409.791	85.5
410.014	100.5
410.238	87.5
410.461	85.5
410.685	93.5
410.908	102.5
411.132	103.5
411.355	97.5
411.578	94.5
411.802	87.5
412.025	104.5
412.249	97.5
412.472	115.5
412.695	154.5
412.919	122.5
413.142	94.5
413.365	104.5
413.589	97.5
413.812	81.5
414.035	95.5
414.258	83.5
414.482	91.5
414.705	81.5
414.928	90.5
415.151	92.5
415.374	98.5
415.597	93.5
415.821	109.5
416.044	81.5
416.267	79.5
416.49	100.5
416.713	85.5
416.936	98.5
417.159	83.5
417.382	95.5
417.605	102.5
417.828	118.5
418.051	100.5
418.274	97.5
418.497	78.5
418.72	73.5
418.943	71.5
419.166	84.5
419.389	101.5
419.611	90.5
419.834	86.5
420.057	100.5
420.28	109.5
420.503	87.5
420.726	88.5
420.948	99.5
421.171	102.5
421.394	111.5
421.617	84.5
421.839	97.5
422.062	81.5
422.285	88.5
422.507	115.5
422.73	121.5
422.953	101.5
423.175	85.5
423.398	89.5
423.621	99.5
423.843	80.5
424.066	94.5
424.288	94.5
424.511	98.5
424.733	110.5
424.956	121.5
425.178	124.5
425.401	118.5
425.623	118.5
425.846	90.5
426.068	105.5
426.291	103.5
426.513	100.5
426.735	91.5
426.958	108.5
427.18	110.5
427.402	220.5
427.625	304.5
427.847	284.5
428.069	250.5
428.292	158.5
428.514	93.5
428.736	93.5
428.958	99.5
429.181	86.5
429.403	106.5
429.625	91.5
429.847	94.5
430.069	134.5
430.292	96.5
430.514	89.5
430.736	96.5
430.958	80.5
431.18	81.5
431.402	71.5
431.624	102.5
431.846	82.5
432.068	85.5
432.29	85.5
432.512	88.5
432.734	101.5
432.956	103.5
433.178	112.5
433.4	114.5
433.622	106.5
433.844	88.5
434.066	94.5
434.287	96.5
434.509	91.5
434.731	85.5
434.953	92.5
435.175	84.5
435.397	80.5
435.618	91.5
435.84	110.5
436.062	150.5
436.284	136.5
436.505	113.5
436.727	119.5
436.949	101.5
437.17	88.5
437.392	96.5
437.614	109.5
437.835	129.5
438.057	164.5
438.278	154.5
438.5	117.5
438.721	156.5
438.943	110.5
439.165	95.5
439.386	95.5
439.608	103.5
439.829	113.5
440.05	181.5
440.272	223.5
440.493	122.5
440.715	85.5
440.936	105.5
441.158	85.5
441.379	87.5
441.6	92.5
441.822	109.5
442.043	108.5
442.264	117.5
442.486	118.5
442.707	106.5
442.928	139.5
443.149	177.5
443.371	195.5
443.592	144.5
443.813	142.5
444.034	131.5
444.255	97.5
444.476	87.5
444.698	85.5
444.919	86.5
445.14	151.5
445.361	140.5
445.582	153.5
445.803	220.5
446.024	190.5
446.245	195.5
446.466	132.5
446.687	105.5
446.908	103.5
447.129	95.5
447.35	86.5
447.571	103.5
447.792	115.5
448.013	116.5
448.234	131.5
448.455	112.5
448.675	148.5
448.896	136.5
449.117	105.5
449.338	119.5
449.559	164.5
449.779	149.5
450	88.5
450.221	101.5
450.442	103.5
450.662	96.5
450.883	126.5
451.104	154.5
451.324	110.5
451.545	90.5
451.766	93.5
451.986	82.5
452.207	92.5
452.428	93.5
452.648	113.5
452.869	134.5
453.089	139.5
453.31	148.5
453.53	100.5
453.751	121.5
453.971	121.5
454.192	154.5
454.412	107.5
454.633	96.5
454.853	83.5
455.073	83.5
455.294	102.5
455.514	116.5
455.734	104.5
455.955	86.5
456.175	101.5
456.395	88.5
456.616	85.5
456.836	77.5
457.056	93.5
457.276	67.5
457.497	84.5
457.717	86.5
457.937	78.5
458.157	94.5
458.377	104.5
458.598	129.5
458.818	229.5
459.038	257.5
459.258	174.5
459.478	96.5
459.698	92.5
459.918	78.5
460.138	82.5
460.358	84.5
460.578	87.5
460.798	96.5
461.018	84.5
461.238	95.5
461.458	100.5
461.678	91.5
461.898	82.5
462.118	93.5
462.338	93.5
462.558	85.5
462.777	98.5
462.997	88.5
463.217	103.5
463.437	94.5
463.657	89.5
463.876	85.5
464.096	90.5
464.316	97.5
464.536	85.5
464.755	86.5
464.975	127.5
465.195	247.5
465.414	249.5
465.634	129.5
465.854	87.5
466.073	95.5
466.293	93.5
466.512	81.5
466.732	93.5
466.951	94.5
467.171	91.5
467.391	106.5
467.61	172.5
467.829	228.5
468.049	568.5
468.268	901.5
468.488	238.5
468.707	118.5
468.927	87.5
469.146	97.5
469.365	104.5
469.585	99.5
469.804	107.5
470.023	106.5
470.243	103.5
470.462	117.5
470.681	148.5
470.901	89.5
471.12	121.5
471.339	102.5
471.558	130.5
471.777	147.5
471.997	323.5
472.216	1156.5
472.435	2761.5
472.654	614.5
472.873	175.5
473.092	124.5
473.311	110.5
473.53	97.5
473.749	108.5
473.968	115.5
474.187	134.5
474.406	107.5
474.625	96.5
474.844	82.5
475.063	93.5
475.282	81.5
475.501	94.5
475.72	85.5
475.939	101.5
476.158	102.5
476.377	98.5
476.596	92.5
476.814	100.5
477.033	101.5
477.252	94.5
477.471	102.5
477.69	91.5
477.908	78.5
478.127	87.5
478.346	100.5
478.564	102.5
478.783	105.5
479.002	103.5
479.22	109.5
479.439	127.5
479.658	145.5
479.876	126.5
480.095	105.5
480.313	143.5
480.532	162.5
480.751	312.5
480.969	1068.5
481.188	4687.5
481.406	2738.5
481.624	401.5
481.843	153.5
482.061	110.5
482.28	97.5
482.498	89.5
482.717	88.5
482.935	99.5
483.153	84.5
483.372	86.5
483.59	100.5
483.808	97.5
484.027	88.5
484.245	94.5
484.463	98.5
484.681	94.5
484.9	101.5
485.118	98.5
485.336	90.5
485.554	88.5
485.772	101.5
485.99	104.5
486.209	107.5
486.427	110.5
486.645	125.5
486.863	139.5
487.081	112.5
487.299	93.5
487.517	96.5
487.735	104.5
487.953	85.5
488.171	95.5
488.389	113.5
488.607	103.5
488.825	99.5
489.043	95.5
489.261	103.5
489.479	84.5
489.696	95.5
489.914	72.5
490.132	101.5
490.35	93.5
490.568	86.5
490.786	84.5
491.003	98.5
491.221	92.5
491.439	104.5
491.657	104.5
491.874	92.5
492.092	89.5
492.31	84.5
492.527	99.5
492.745	121.5
492.963	103.5
493.18	94.5
493.398	84.5
493.615	106.5
493.833	62.5
494.05	80.5
494.268	94.5
494.485	94.5
494.703	97.5
494.92	89.5
495.138	77.5
495.355	73.5
495.573	76.5
495.79	85.5
496.008	102.5
496.225	95.5
496.442	94.5
496.66	95.5
496.877	92.5
497.094	86.5
497.312	108.5
497.529	91.5
497.746	88.5
497.963	85.5
498.181	98.5
498.398	85.5
498.615	120.5
498.832	114.5
499.049	97.5
499.267	86.5
499.484	80.5
499.701	92.5
499.918	96.5
500.135	86.5
500.352	93.5
500.569	113.5
500.786	112.5
501.003	96.5
501.22	88.5
501.437	87.5
501.654	97.5
501.871	128.5
502.088	93.5
502.305	97.5
502.522	100.5
502.739	93.5
502.956	83.5
503.172	76.5
503.389	110.5
503.606	135.5
503.823	121.5
504.04	95.5
504.256	92.5
504.473	106.5
504.69	102.5
504.907	100.5
505.123	70.5
505.34	93.5
505.557	86.5
505.773	80.5
505.99	73.5
506.207	95.5
506.423	93.5
506.64	105.5
506.856	92.5
507.073	89.5
507.289	102.5
507.506	98.5
507.722	134.5
507.939	141.5
508.155	95.5
508.372	94.5
508.588	103.5
508.805	92.5
509.021	85.5
509.238	114.5
509.454	108.5
509.67	133.5
509.887	124.5
510.103	150.5
510.319	268.5
510.536	927.5
510.752	3261.5
510.968	875.5
511.184	186.5
511.401	130.5
511.617	118.5
511.833	115.5
512.049	102.5
512.265	103.5
512.481	99.5
512.698	109.5
512.914	96.5
513.13	91.5
513.346	104.5
513.562	105.5
513.778	100.5
513.994	104.5
514.21	124.5
514.426	149.5
514.642	193.5
514.858	166.5
515.074	229.5
515.29	774.5
515.506	2730.5
515.721	959.5
515.937	224.5
516.153	134.5
516.369	119.5
516.585	92.5
516.801	101.5
517.016	101.5
517.232	79.5
517.448	102.5
517.664	97.5
517.879	98.5
518.095	94.5
518.311	109.5
518.527	114.5
518.742	101.5
518.958	86.5
519.173	82.5
519.389	105.5
519.605	106.5
519.82	107.5
520.036	119.5
520.251	148.5
520.467	146.5
520.682	112.5
520.898	122.5
521.113	136.5
521.329	201.5
521.544	318.5
521.76	1047.5
521.975	4618.5
522.19	2720.5
522.406	550.5
522.621	160.5
522.836	116.5
523.052	119.5
523.267	113.5
523.482	104.5
523.698	123.5
523.913	152.5
524.128	120.5
524.343	106.5
524.559	100.5
524.774	102.5
524.989	102.5
525.204	125.5
525.419	120.5
525.634	100.5
525.849	99.5
526.064	81.5
526.28	99.5
526.495	86.5
526.71	84.5
526.925	102.5
527.14	105.5
527.355	85.5
527.57	93.5
527.785	100.5
527.999	93.5
528.214	110.5
528.429	102.5
528.644	111.5
528.859	98.5
529.074	97.5
529.289	170.5
529.503	302.5
529.718	138.5
529.933	87.5
530.148	101.5
530.363	97.5
530.577	92.5
530.792	94.5
