Data from Circ_1987_H10_HRD10591_00099.txt Node
Date: Wed Jan 03 12:10:52 EST 2024
User: Yrep
Spectrometer: HR+D1059
Trigger mode: 1
Integration Time (sec): 1.000000E-1
Scans to average: 1
Electric dark correction enabled: true
Nonlinearity correction enabled: false
Boxcar width: 0
XAxis mode: Wavelengths
Number of Pixels in Spectrum: 2048
>>>>>Begin Spectral Data<<<<<
223.165	-14.25
223.4	-14.25
223.635	-14.25
223.869	-19.25
224.104	-21.25
224.338	-19.25
224.573	-13.25
224.808	-3.25
225.042	5.75
225.277	-11.25
225.511	3.75
225.746	-6.25
225.98	6.75
226.215	17.75
226.449	12.75
226.683	16.75
226.918	24.75
227.152	19.75
227.387	37.75
227.621	48.75
227.856	62.75
228.09	45.75
228.324	49.75
228.559	58.75
228.793	63.75
229.027	67.75
229.262	76.75
229.496	83.75
229.73	94.75
229.964	108.75
230.199	84.75
230.433	80.75
230.667	83.75
230.901	88.75
231.136	74.75
231.37	74.75
231.604	71.75
231.838	80.75
232.072	85.75
232.306	90.75
232.541	96.75
232.775	95.75
233.009	73.75
233.243	86.75
233.477	84.75
233.711	83.75
233.945	81.75
234.179	84.75
234.413	77.75
234.647	75.75
234.881	90.75
235.115	88.75
235.349	72.75
235.583	94.75
235.817	90.75
236.051	83.75
236.285	81.75
236.519	70.75
236.753	65.75
236.987	87.75
237.221	86.75
237.455	111.75
237.689	85.75
237.922	80.75
238.156	85.75
238.39	94.75
238.624	78.75
238.858	87.75
239.091	86.75
239.325	71.75
239.559	100.75
239.793	84.75
240.027	70.75
240.26	83.75
240.494	82.75
240.728	84.75
240.961	81.75
241.195	87.75
241.429	91.75
241.662	84.75
241.896	81.75
242.13	74.75
242.363	78.75
242.597	86.75
242.83	89.75
243.064	87.75
243.298	79.75
243.531	82.75
243.765	85.75
243.998	87.75
244.232	74.75
244.465	86.75
244.699	81.75
244.932	83.75
245.166	84.75
245.399	86.75
245.633	87.75
245.866	80.75
246.099	83.75
246.333	75.75
246.566	64.75
246.8	94.75
247.033	80.75
247.266	84.75
247.5	90.75
247.733	81.75
247.966	88.75
248.2	91.75
248.433	81.75
248.666	64.75
248.899	90.75
249.133	100.75
249.366	100.75
249.599	110.75
249.832	82.75
250.066	79.75
250.299	87.75
250.532	90.75
250.765	83.75
250.998	90.75
251.231	82.75
251.465	82.75
251.698	80.75
251.931	90.75
252.164	80.75
252.397	75.75
252.63	89.75
252.863	90.75
253.096	94.75
253.329	105.75
253.562	92.75
253.795	88.75
254.028	67.75
254.261	89.75
254.494	96.75
254.727	92.75
254.96	110.75
255.193	85.75
255.426	89.75
255.659	94.75
255.892	101.75
256.124	97.75
256.357	85.75
256.59	106.75
256.823	91.75
257.056	98.75
257.289	82.75
257.521	87.75
257.754	93.75
257.987	85.75
258.22	108.75
258.452	104.75
258.685	88.75
258.918	91.75
259.151	98.75
259.383	97.75
259.616	81.75
259.849	84.75
260.081	96.75
260.314	90.75
260.547	88.75
260.779	110.75
261.012	124.75
261.244	109.75
261.477	114.75
261.71	114.75
261.942	136.75
262.175	169.75
262.407	112.75
262.64	91.75
262.872	105.75
263.105	87.75
263.337	90.75
263.57	93.75
263.802	89.75
264.035	76.75
264.267	88.75
264.499	82.75
264.732	95.75
264.964	84.75
265.197	98.75
265.429	78.75
265.661	74.75
265.894	92.75
266.126	85.75
266.358	88.75
266.591	85.75
266.823	90.75
267.055	82.75
267.287	104.75
267.52	92.75
267.752	74.75
267.984	100.75
268.216	94.75
268.448	88.75
268.681	95.75
268.913	78.75
269.145	71.75
269.377	96.75
269.609	73.75
269.841	90.75
270.073	87.75
270.306	76.75
270.538	93.75
270.77	83.75
271.002	107.75
271.234	89.75
271.466	103.75
271.698	95.75
271.93	99.75
272.162	80.75
272.394	98.75
272.626	90.75
272.858	73.75
273.09	95.75
273.322	102.75
273.553	82.75
273.785	80.75
274.017	85.75
274.249	83.75
274.481	82.75
274.713	94.75
274.945	106.75
275.176	91.75
275.408	118.75
275.64	123.75
275.872	148.75
276.104	131.75
276.335	113.75
276.567	138.75
276.799	178.75
277.031	221.75
277.262	240.75
277.494	186.75
277.726	115.75
277.957	89.75
278.189	86.75
278.421	100.75
278.652	91.75
278.884	102.75
279.115	94.75
279.347	105.75
279.579	118.75
279.81	143.75
280.042	227.75
280.273	332.75
280.505	212.75
280.736	114.75
280.968	92.75
281.199	89.75
281.431	94.75
281.662	88.75
281.894	98.75
282.125	115.75
282.356	147.75
282.588	194.75
282.819	144.75
283.051	95.75
283.282	101.75
283.513	78.75
283.745	78.75
283.976	90.75
284.207	93.75
284.439	92.75
284.67	95.75
284.901	85.75
285.132	94.75
285.364	102.75
285.595	100.75
285.826	112.75
286.057	79.75
286.288	90.75
286.52	69.75
286.751	92.75
286.982	107.75
287.213	95.75
287.444	96.75
287.675	90.75
287.906	90.75
288.138	98.75
288.369	100.75
288.6	96.75
288.831	104.75
289.062	100.75
289.293	86.75
289.524	83.75
289.755	88.75
289.986	84.75
290.217	81.75
290.448	91.75
290.679	93.75
290.91	101.75
291.141	92.75
291.371	98.75
291.602	96.75
291.833	104.75
292.064	90.75
292.295	94.75
292.526	88.75
292.757	91.75
292.987	82.75
293.218	95.75
293.449	94.75
293.68	82.75
293.91	89.75
294.141	96.75
294.372	93.75
294.603	99.75
294.833	97.75
295.064	85.75
295.295	88.75
295.525	103.75
295.756	92.75
295.987	130.75
296.217	178.75
296.448	164.75
296.679	113.75
296.909	100.75
297.14	83.75
297.37	89.75
297.601	96.75
297.831	88.75
298.062	105.75
298.292	95.75
298.523	104.75
298.753	108.75
298.984	106.75
299.214	105.75
299.445	108.75
299.675	98.75
299.905	104.75
300.136	106.75
300.366	97.75
300.597	98.75
300.827	103.75
301.057	116.75
301.288	118.75
301.518	110.75
301.748	84.75
301.979	111.75
302.209	119.75
302.439	105.75
302.669	97.75
302.9	102.75
303.13	101.75
303.36	104.75
303.59	168.75
303.82	153.75
304.051	121.75
304.281	108.75
304.511	108.75
304.741	89.75
304.971	84.75
305.201	86.75
305.431	100.75
305.661	83.75
305.891	93.75
306.121	106.75
306.352	113.75
306.582	131.75
306.812	120.75
307.042	127.75
307.272	190.75
307.502	203.75
307.731	200.75
307.961	132.75
308.191	105.75
308.421	107.75
308.651	95.75
308.881	88.75
309.111	109.75
309.341	113.75
309.571	115.75
309.8	121.75
310.03	106.75
310.26	112.75
310.49	110.75
310.72	113.75
310.949	143.75
311.179	126.75
311.409	106.75
311.639	102.75
311.868	98.75
312.098	123.75
312.328	112.75
312.557	129.75
312.787	140.75
313.017	118.75
313.246	103.75
313.476	107.75
313.706	94.75
313.935	106.75
314.165	131.75
314.394	116.75
314.624	131.75
314.853	114.75
315.083	98.75
315.312	94.75
315.542	99.75
315.771	92.75
316.001	111.75
316.23	104.75
316.46	98.75
316.689	113.75
316.919	103.75
317.148	99.75
317.377	93.75
317.607	108.75
317.836	108.75
318.065	112.75
318.295	91.75
318.524	92.75
318.753	108.75
318.983	98.75
319.212	119.75
319.441	115.75
319.67	127.75
319.9	105.75
320.129	102.75
320.358	100.75
320.587	100.75
320.816	111.75
321.046	112.75
321.275	110.75
321.504	104.75
321.733	101.75
321.962	109.75
322.191	125.75
322.42	116.75
322.649	114.75
322.878	113.75
323.108	140.75
323.337	150.75
323.566	174.75
323.795	187.75
324.024	254.75
324.253	510.75
324.482	1086.75
324.71	2178.75
324.939	2990.75
325.168	1090.75
325.397	319.75
325.626	179.75
325.855	158.75
326.084	158.75
326.313	160.75
326.542	185.75
326.77	275.75
326.999	514.75
327.228	1105.75
327.457	2109.75
327.686	1704.75
327.914	639.75
328.143	672.75
328.372	897.75
328.6	490.75
328.829	234.75
329.058	229.75
329.287	238.75
329.515	210.75
329.744	313.75
329.972	616.75
330.201	1335.75
330.43	1989.75
330.658	847.75
330.887	372.75
331.115	230.75
331.344	150.75
331.572	132.75
331.801	146.75
332.03	161.75
332.258	135.75
332.486	123.75
332.715	119.75
332.943	123.75
333.172	132.75
333.4	159.75
333.629	188.75
333.857	265.75
334.085	559.75
334.314	1202.75
334.542	2476.75
334.771	2311.75
334.999	570.75
335.227	191.75
335.455	136.75
335.684	125.75
335.912	113.75
336.14	102.75
336.369	100.75
336.597	122.75
336.825	118.75
337.053	108.75
337.281	100.75
337.51	100.75
337.738	111.75
337.966	107.75
338.194	117.75
338.422	127.75
338.65	110.75
338.878	103.75
339.106	100.75
339.334	90.75
339.562	98.75
339.79	92.75
340.018	99.75
340.246	106.75
340.474	129.75
340.702	98.75
340.93	94.75
341.158	96.75
341.386	106.75
341.614	130.75
341.842	110.75
342.07	103.75
342.298	102.75
342.526	99.75
342.754	92.75
342.981	102.75
343.209	105.75
343.437	90.75
343.665	94.75
343.893	101.75
344.12	95.75
344.348	102.75
344.576	88.75
344.804	93.75
345.031	107.75
345.259	112.75
345.487	116.75
345.714	111.75
345.942	94.75
346.17	106.75
346.397	86.75
346.625	105.75
346.853	102.75
347.08	97.75
347.308	110.75
347.535	116.75
347.763	99.75
347.99	114.75
348.218	123.75
348.445	133.75
348.673	102.75
348.9	104.75
349.128	84.75
349.355	91.75
349.583	88.75
349.81	109.75
350.037	110.75
350.265	104.75
350.492	110.75
350.72	112.75
350.947	114.75
351.174	127.75
351.402	130.75
351.629	123.75
351.856	129.75
352.083	116.75
352.311	129.75
352.538	145.75
352.765	132.75
352.992	135.75
353.22	118.75
353.447	115.75
353.674	99.75
353.901	98.75
354.128	95.75
354.355	105.75
354.583	89.75
354.81	101.75
355.037	107.75
355.264	98.75
355.491	91.75
355.718	97.75
355.945	97.75
356.172	103.75
356.399	89.75
356.626	103.75
356.853	87.75
357.08	110.75
357.307	94.75
357.534	89.75
357.761	98.75
357.988	100.75
358.215	92.75
358.441	109.75
358.668	92.75
358.895	100.75
359.122	95.75
359.349	99.75
359.576	96.75
359.802	132.75
360.029	157.75
360.256	148.75
360.483	123.75
360.709	108.75
360.936	86.75
361.163	97.75
361.39	105.75
361.616	102.75
361.843	102.75
362.07	107.75
362.296	113.75
362.523	110.75
362.749	102.75
362.976	94.75
363.203	99.75
363.429	100.75
363.656	114.75
363.882	106.75
364.109	104.75
364.335	93.75
364.562	100.75
364.788	100.75
365.015	112.75
365.241	114.75
365.468	124.75
365.694	139.75
365.92	122.75
366.147	130.75
366.373	103.75
366.599	98.75
366.826	108.75
367.052	99.75
367.278	85.75
367.505	106.75
367.731	101.75
367.957	103.75
368.184	103.75
368.41	106.75
368.636	148.75
368.862	144.75
369.089	126.75
369.315	103.75
369.541	92.75
369.767	102.75
369.993	102.75
370.219	92.75
370.445	92.75
370.672	96.75
370.898	97.75
371.124	90.75
371.35	97.75
371.576	92.75
371.802	91.75
372.028	93.75
372.254	98.75
372.48	80.75
372.706	89.75
372.932	91.75
373.158	90.75
373.384	99.75
373.61	102.75
373.835	88.75
374.061	90.75
374.287	98.75
374.513	99.75
374.739	71.75
374.965	83.75
375.191	88.75
375.416	86.75
375.642	87.75
375.868	98.75
376.094	97.75
376.319	88.75
376.545	80.75
376.771	94.75
376.997	104.75
377.222	85.75
377.448	105.75
377.674	91.75
377.899	89.75
378.125	89.75
378.35	108.75
378.576	102.75
378.802	97.75
379.027	72.75
379.253	95.75
379.478	88.75
379.704	87.75
379.929	94.75
380.155	113.75
380.38	98.75
380.606	104.75
380.831	91.75
381.057	95.75
381.282	99.75
381.507	88.75
381.733	90.75
381.958	82.75
382.184	97.75
382.409	90.75
382.634	97.75
382.86	100.75
383.085	92.75
383.31	97.75
383.535	106.75
383.761	111.75
383.986	92.75
384.211	108.75
384.436	89.75
384.662	89.75
384.887	97.75
385.112	95.75
385.337	96.75
385.562	96.75
385.787	106.75
386.013	117.75
386.238	127.75
386.463	106.75
386.688	102.75
386.913	98.75
387.138	87.75
387.363	86.75
387.588	92.75
387.813	99.75
388.038	95.75
388.263	100.75
388.488	92.75
388.713	97.75
388.938	90.75
389.163	94.75
389.387	88.75
389.612	91.75
389.837	85.75
390.062	92.75
390.287	94.75
390.512	86.75
390.736	95.75
390.961	94.75
391.186	88.75
391.411	95.75
391.636	74.75
391.86	82.75
392.085	101.75
392.31	92.75
392.534	84.75
392.759	79.75
392.984	74.75
393.208	90.75
393.433	96.75
393.658	81.75
393.882	92.75
394.107	100.75
394.331	88.75
394.556	94.75
394.78	97.75
395.005	70.75
395.229	90.75
395.454	92.75
395.678	95.75
395.903	90.75
396.127	103.75
396.352	108.75
396.576	80.75
396.801	92.75
397.025	90.75
397.249	82.75
397.474	87.75
397.698	90.75
397.922	85.75
398.147	96.75
398.371	83.75
398.595	90.75
398.82	106.75
399.044	91.75
399.268	95.75
399.492	88.75
399.717	98.75
399.941	89.75
400.165	107.75
400.389	106.75
400.613	95.75
400.837	96.75
401.062	95.75
401.286	95.75
401.51	101.75
401.734	97.75
401.958	118.75
402.182	159.75
402.406	229.75
402.63	171.75
402.854	104.75
403.078	100.75
403.302	99.75
403.526	92.75
403.75	92.75
403.974	81.75
404.198	102.75
404.422	102.75
404.645	98.75
404.869	108.75
405.093	130.75
405.317	160.75
405.541	150.75
405.765	132.75
405.988	156.75
406.212	246.75
406.436	354.75
406.66	244.75
406.883	129.75
407.107	107.75
407.331	104.75
407.555	121.75
407.778	113.75
408.002	105.75
408.226	104.75
408.449	100.75
408.673	105.75
408.896	107.75
409.12	114.75
409.344	98.75
409.567	89.75
409.791	99.75
410.014	96.75
410.238	83.75
410.461	92.75
410.685	90.75
410.908	88.75
411.132	117.75
411.355	107.75
411.578	90.75
411.802	98.75
412.025	99.75
412.249	114.75
412.472	128.75
412.695	146.75
412.919	125.75
413.142	96.75
413.365	100.75
413.589	83.75
413.812	102.75
414.035	100.75
414.258	91.75
414.482	98.75
414.705	90.75
414.928	87.75
415.151	98.75
415.374	97.75
415.597	87.75
415.821	82.75
416.044	82.75
416.267	82.75
416.49	100.75
416.713	98.75
416.936	91.75
417.159	87.75
417.382	97.75
417.605	113.75
417.828	144.75
418.051	105.75
418.274	92.75
418.497	82.75
418.72	84.75
418.943	87.75
419.166	82.75
419.389	96.75
419.611	108.75
419.834	108.75
420.057	100.75
420.28	91.75
420.503	100.75
420.726	100.75
420.948	94.75
421.171	97.75
421.394	101.75
421.617	101.75
421.839	99.75
422.062	102.75
422.285	84.75
422.507	107.75
422.73	115.75
422.953	108.75
423.175	88.75
423.398	89.75
423.621	86.75
423.843	85.75
424.066	94.75
424.288	89.75
424.511	98.75
424.733	87.75
424.956	121.75
425.178	119.75
425.401	115.75
425.623	137.75
425.846	100.75
426.068	113.75
426.291	91.75
426.513	99.75
426.735	100.75
426.958	103.75
427.18	126.75
427.402	199.75
427.625	307.75
427.847	275.75
428.069	260.75
428.292	132.75
428.514	84.75
428.736	94.75
428.958	100.75
429.181	96.75
429.403	82.75
429.625	78.75
429.847	93.75
430.069	115.75
430.292	97.75
430.514	102.75
430.736	100.75
430.958	99.75
431.18	82.75
431.402	90.75
431.624	92.75
431.846	98.75
432.068	96.75
432.29	91.75
432.512	84.75
432.734	92.75
432.956	104.75
433.178	93.75
433.4	99.75
433.622	105.75
433.844	86.75
434.066	96.75
434.287	104.75
434.509	87.75
434.731	105.75
434.953	98.75
435.175	98.75
435.397	99.75
435.618	98.75
435.84	121.75
436.062	147.75
436.284	142.75
436.505	100.75
436.727	110.75
436.949	98.75
437.17	88.75
437.392	99.75
437.614	104.75
437.835	130.75
438.057	166.75
438.278	132.75
438.5	137.75
438.721	151.75
438.943	117.75
439.165	99.75
439.386	103.75
439.608	88.75
439.829	125.75
440.05	174.75
440.272	209.75
440.493	130.75
440.715	113.75
440.936	78.75
441.158	91.75
441.379	86.75
441.6	101.75
441.822	107.75
442.043	120.75
442.264	99.75
442.486	118.75
442.707	107.75
442.928	134.75
443.149	192.75
443.371	200.75
443.592	156.75
443.813	135.75
444.034	131.75
444.255	103.75
444.476	98.75
444.698	93.75
444.919	96.75
445.14	124.75
445.361	146.75
445.582	170.75
445.803	214.75
446.024	212.75
446.245	202.75
446.466	133.75
446.687	114.75
446.908	96.75
447.129	82.75
447.35	80.75
447.571	105.75
447.792	104.75
448.013	112.75
448.234	138.75
448.455	124.75
448.675	129.75
448.896	160.75
449.117	108.75
449.338	114.75
449.559	158.75
449.779	150.75
450	90.75
450.221	83.75
450.442	102.75
450.662	98.75
450.883	143.75
451.104	158.75
451.324	113.75
451.545	98.75
451.766	93.75
451.986	84.75
452.207	92.75
452.428	104.75
452.648	114.75
452.869	147.75
453.089	141.75
453.31	163.75
453.53	120.75
453.751	98.75
453.971	133.75
454.192	156.75
454.412	103.75
454.633	93.75
454.853	103.75
455.073	99.75
455.294	91.75
455.514	127.75
455.734	91.75
455.955	88.75
456.175	87.75
456.395	86.75
456.616	84.75
456.836	95.75
457.056	89.75
457.276	90.75
457.497	83.75
457.717	90.75
457.937	82.75
458.157	98.75
458.377	114.75
458.598	135.75
458.818	248.75
459.038	274.75
459.258	169.75
459.478	118.75
459.698	96.75
459.918	95.75
460.138	84.75
460.358	82.75
460.578	105.75
460.798	110.75
461.018	95.75
461.238	95.75
461.458	91.75
461.678	92.75
461.898	94.75
462.118	94.75
462.338	81.75
462.558	99.75
462.777	101.75
462.997	105.75
463.217	113.75
463.437	100.75
463.657	97.75
463.876	91.75
464.096	94.75
464.316	114.75
464.536	97.75
464.755	112.75
464.975	142.75
465.195	279.75
465.414	290.75
465.634	115.75
465.854	86.75
466.073	88.75
466.293	88.75
466.512	83.75
466.732	86.75
466.951	89.75
467.171	101.75
467.391	118.75
467.61	155.75
467.829	247.75
468.049	725.75
468.268	1122.75
468.488	270.75
468.707	118.75
468.927	94.75
469.146	91.75
469.365	98.75
469.585	101.75
469.804	122.75
470.023	138.75
470.243	111.75
470.462	130.75
470.681	152.75
470.901	112.75
471.12	102.75
471.339	121.75
471.558	126.75
471.777	178.75
471.997	365.75
472.216	1415.75
472.435	3245.75
472.654	734.75
472.873	177.75
473.092	121.75
473.311	100.75
473.53	100.75
473.749	107.75
473.968	115.75
474.187	147.75
474.406	115.75
474.625	93.75
474.844	94.75
475.063	97.75
475.282	100.75
475.501	99.75
475.72	101.75
475.939	96.75
476.158	96.75
476.377	97.75
476.596	72.75
476.814	108.75
477.033	101.75
477.252	117.75
477.471	108.75
477.69	105.75
477.908	103.75
478.127	101.75
478.346	98.75
478.564	99.75
478.783	106.75
479.002	111.75
479.22	113.75
479.439	135.75
479.658	142.75
479.876	138.75
480.095	122.75
480.313	148.75
480.532	181.75
480.751	332.75
480.969	1242.75
481.188	5612.75
481.406	3166.75
481.624	436.75
481.843	152.75
482.061	133.75
482.28	105.75
482.498	103.75
482.717	111.75
482.935	99.75
483.153	100.75
483.372	105.75
483.59	87.75
483.808	85.75
484.027	102.75
484.245	82.75
484.463	88.75
484.681	107.75
484.9	94.75
485.118	88.75
485.336	103.75
485.554	103.75
485.772	104.75
485.99	98.75
486.209	118.75
486.427	111.75
486.645	142.75
486.863	142.75
487.081	103.75
487.299	89.75
487.517	99.75
487.735	94.75
487.953	102.75
488.171	102.75
488.389	93.75
488.607	110.75
488.825	97.75
489.043	87.75
489.261	96.75
489.479	102.75
489.696	90.75
489.914	96.75
490.132	87.75
490.35	88.75
490.568	94.75
490.786	95.75
491.003	106.75
491.221	95.75
491.439	106.75
491.657	98.75
491.874	96.75
492.092	101.75
492.31	95.75
492.527	90.75
492.745	113.75
492.963	99.75
493.18	105.75
493.398	101.75
493.615	97.75
493.833	97.75
494.05	103.75
494.268	97.75
494.485	83.75
494.703	82.75
494.92	90.75
495.138	83.75
495.355	86.75
495.573	76.75
495.79	86.75
496.008	91.75
496.225	96.75
496.442	87.75
496.66	99.75
496.877	104.75
497.094	99.75
497.312	101.75
497.529	95.75
497.746	103.75
497.963	104.75
498.181	115.75
498.398	94.75
498.615	129.75
498.832	118.75
499.049	97.75
499.267	104.75
499.484	88.75
499.701	102.75
499.918	92.75
500.135	94.75
500.352	88.75
500.569	91.75
500.786	113.75
501.003	108.75
501.22	101.75
501.437	85.75
501.654	106.75
501.871	128.75
502.088	111.75
502.305	94.75
502.522	94.75
502.739	75.75
502.956	95.75
503.172	99.75
503.389	114.75
503.606	135.75
503.823	136.75
504.04	102.75
504.256	83.75
504.473	76.75
504.69	76.75
504.907	92.75
505.123	98.75
505.34	78.75
505.557	80.75
505.773	95.75
505.99	96.75
506.207	80.75
506.423	96.75
506.64	86.75
506.856	78.75
507.073	92.75
507.289	98.75
507.506	106.75
507.722	145.75
507.939	151.75
508.155	104.75
508.372	89.75
508.588	95.75
508.805	110.75
509.021	96.75
509.238	98.75
509.454	108.75
509.67	102.75
509.887	109.75
510.103	158.75
510.319	267.75
510.536	1011.75
510.752	3669.75
510.968	950.75
511.184	204.75
