Data from Circ_1987_H10_HRD10591_00029.txt Node
Date: Wed Jan 03 12:10:38 EST 2024
User: Yrep
Spectrometer: HR+D1059
Trigger mode: 1
Integration Time (sec): 1.000000E-1
Scans to average: 1
Electric dark correction enabled: true
Nonlinearity correction enabled: false
Boxcar width: 0
XAxis mode: Wavelengths
Number of Pixels in Spectrum: 2048
>>>>>Begin Spectral Data<<<<<
223.165	-13.38
223.4	-13.38
223.635	-13.38
223.869	-31.38
224.104	-15.38
224.338	-10.38
224.573	-4.38
224.808	-13.38
225.042	-3.38
225.277	-13.38
225.511	-2.38
225.746	11.62
225.98	6.62
226.215	12.62
226.449	10.62
226.683	22.62
226.918	21.62
227.152	21.62
227.387	53.62
227.621	48.62
227.856	54.62
228.09	59.62
228.324	52.62
228.559	59.62
228.793	65.62
229.027	63.62
229.262	76.62
229.496	91.62
229.73	93.62
229.964	90.62
230.199	85.62
230.433	80.62
230.667	73.62
230.901	88.62
231.136	83.62
231.37	84.62
231.604	81.62
231.838	83.62
232.072	76.62
232.306	79.62
232.541	90.62
232.775	82.62
233.009	83.62
233.243	90.62
233.477	79.62
233.711	80.62
233.945	88.62
234.179	87.62
234.413	83.62
234.647	82.62
234.881	92.62
235.115	93.62
235.349	95.62
235.583	82.62
235.817	85.62
236.051	90.62
236.285	84.62
236.519	94.62
236.753	85.62
236.987	92.62
237.221	95.62
237.455	93.62
237.689	93.62
237.922	111.62
238.156	80.62
238.39	80.62
238.624	81.62
238.858	90.62
239.091	88.62
239.325	73.62
239.559	85.62
239.793	79.62
240.027	98.62
240.26	69.62
240.494	82.62
240.728	76.62
240.961	69.62
241.195	89.62
241.429	74.62
241.662	79.62
241.896	70.62
242.13	84.62
242.363	84.62
242.597	103.62
242.83	89.62
243.064	72.62
243.298	89.62
243.531	81.62
243.765	79.62
243.998	76.62
244.232	85.62
244.465	103.62
244.699	81.62
244.932	79.62
245.166	89.62
245.399	80.62
245.633	74.62
245.866	75.62
246.099	98.62
246.333	83.62
246.566	73.62
246.8	62.62
247.033	97.62
247.266	68.62
247.5	89.62
247.733	67.62
247.966	87.62
248.2	76.62
248.433	95.62
248.666	89.62
248.899	84.62
249.133	89.62
249.366	108.62
249.599	113.62
249.832	95.62
250.066	95.62
250.299	101.62
250.532	92.62
250.765	92.62
250.998	93.62
251.231	84.62
251.465	85.62
251.698	84.62
251.931	95.62
252.164	103.62
252.397	87.62
252.63	84.62
252.863	79.62
253.096	92.62
253.329	88.62
253.562	76.62
253.795	105.62
254.028	86.62
254.261	82.62
254.494	77.62
254.727	81.62
254.96	83.62
255.193	80.62
255.426	99.62
255.659	81.62
255.892	102.62
256.124	100.62
256.357	89.62
256.59	84.62
256.823	82.62
257.056	89.62
257.289	95.62
257.521	95.62
257.754	79.62
257.987	80.62
258.22	88.62
258.452	89.62
258.685	101.62
258.918	93.62
259.151	90.62
259.383	71.62
259.616	95.62
259.849	82.62
260.081	91.62
260.314	88.62
260.547	97.62
260.779	117.62
261.012	111.62
261.244	100.62
261.477	100.62
261.71	105.62
261.942	128.62
262.175	148.62
262.407	89.62
262.64	91.62
262.872	101.62
263.105	86.62
263.337	92.62
263.57	90.62
263.802	101.62
264.035	92.62
264.267	85.62
264.499	90.62
264.732	90.62
264.964	85.62
265.197	103.62
265.429	89.62
265.661	102.62
265.894	95.62
266.126	95.62
266.358	94.62
266.591	93.62
266.823	85.62
267.055	94.62
267.287	90.62
267.52	91.62
267.752	91.62
267.984	96.62
268.216	79.62
268.448	76.62
268.681	96.62
268.913	91.62
269.145	102.62
269.377	98.62
269.609	96.62
269.841	92.62
270.073	98.62
270.306	73.62
270.538	89.62
270.77	71.62
271.002	90.62
271.234	86.62
271.466	97.62
271.698	89.62
271.93	101.62
272.162	93.62
272.394	93.62
272.626	93.62
272.858	90.62
273.09	86.62
273.322	90.62
273.553	87.62
273.785	89.62
274.017	95.62
274.249	92.62
274.481	77.62
274.713	85.62
274.945	97.62
275.176	105.62
275.408	89.62
275.64	121.62
275.872	122.62
276.104	86.62
276.335	101.62
276.567	117.62
276.799	155.62
277.031	170.62
277.262	170.62
277.494	146.62
277.726	99.62
277.957	98.62
278.189	102.62
278.421	80.62
278.652	84.62
278.884	94.62
279.115	92.62
279.347	91.62
279.579	94.62
279.81	123.62
280.042	168.62
280.273	250.62
280.505	166.62
280.736	113.62
280.968	95.62
281.199	92.62
281.431	114.62
281.662	108.62
281.894	101.62
282.125	103.62
282.356	134.62
282.588	175.62
282.819	139.62
283.051	96.62
283.282	97.62
283.513	104.62
283.745	101.62
283.976	93.62
284.207	96.62
284.439	89.62
284.67	81.62
284.901	107.62
285.132	94.62
285.364	80.62
285.595	101.62
285.826	91.62
286.057	95.62
286.288	98.62
286.52	83.62
286.751	88.62
286.982	87.62
287.213	88.62
287.444	100.62
287.675	89.62
287.906	93.62
288.138	92.62
288.369	97.62
288.6	102.62
288.831	88.62
289.062	96.62
289.293	98.62
289.524	89.62
289.755	81.62
289.986	87.62
290.217	92.62
290.448	89.62
290.679	94.62
290.91	93.62
291.141	95.62
291.371	90.62
291.602	99.62
291.833	85.62
292.064	93.62
292.295	86.62
292.526	98.62
292.757	107.62
292.987	93.62
293.218	102.62
293.449	92.62
293.68	98.62
293.91	89.62
294.141	92.62
294.372	106.62
294.603	102.62
294.833	95.62
295.064	89.62
295.295	77.62
295.525	98.62
295.756	113.62
295.987	124.62
296.217	176.62
296.448	132.62
296.679	103.62
296.909	105.62
297.14	87.62
297.37	97.62
297.601	113.62
297.831	95.62
298.062	96.62
298.292	85.62
298.523	91.62
298.753	90.62
298.984	109.62
299.214	110.62
299.445	100.62
299.675	111.62
299.905	106.62
300.136	82.62
300.366	108.62
300.597	93.62
300.827	100.62
301.057	108.62
301.288	123.62
301.518	115.62
301.748	96.62
301.979	115.62
302.209	107.62
302.439	101.62
302.669	107.62
302.9	92.62
303.13	103.62
303.36	115.62
303.59	131.62
303.82	139.62
304.051	103.62
304.281	86.62
304.511	82.62
304.741	77.62
304.971	99.62
305.201	93.62
305.431	91.62
305.661	107.62
305.891	95.62
306.121	105.62
306.352	128.62
306.582	119.62
306.812	112.62
307.042	121.62
307.272	149.62
307.502	162.62
307.731	178.62
307.961	128.62
308.191	101.62
308.421	103.62
308.651	99.62
308.881	100.62
309.111	95.62
309.341	119.62
309.571	108.62
309.8	105.62
310.03	116.62
310.26	115.62
310.49	111.62
310.72	105.62
310.949	123.62
311.179	120.62
311.409	99.62
311.639	106.62
311.868	88.62
312.098	113.62
312.328	116.62
312.557	114.62
312.787	126.62
313.017	118.62
313.246	101.62
313.476	110.62
313.706	104.62
313.935	115.62
314.165	107.62
314.394	108.62
314.624	103.62
314.853	100.62
315.083	97.62
315.312	89.62
315.542	99.62
315.771	94.62
316.001	95.62
316.23	114.62
316.46	76.62
316.689	97.62
316.919	101.62
317.148	116.62
317.377	99.62
317.607	105.62
317.836	100.62
318.065	95.62
318.295	105.62
318.524	89.62
318.753	98.62
318.983	101.62
319.212	108.62
319.441	115.62
319.67	103.62
319.9	112.62
320.129	106.62
320.358	108.62
320.587	115.62
320.816	114.62
321.046	111.62
321.275	115.62
321.504	109.62
321.733	99.62
321.962	107.62
322.191	102.62
322.42	91.62
322.649	126.62
322.878	118.62
323.108	121.62
323.337	157.62
323.566	152.62
323.795	185.62
324.024	244.62
324.253	458.62
324.482	979.62
324.71	2007.62
324.939	2612.62
325.168	942.62
325.397	290.62
325.626	171.62
325.855	146.62
326.084	130.62
326.313	160.62
326.542	161.62
326.77	260.62
326.999	499.62
327.228	1052.62
327.457	1861.62
327.686	1495.62
327.914	533.62
328.143	490.62
328.372	631.62
328.6	345.62
328.829	174.62
329.058	201.62
329.287	204.62
329.515	188.62
329.744	264.62
329.972	463.62
330.201	907.62
330.43	1307.62
330.658	611.62
330.887	283.62
331.115	200.62
331.344	136.62
331.572	127.62
331.801	135.62
332.03	131.62
332.258	103.62
332.486	104.62
332.715	108.62
332.943	119.62
333.172	115.62
333.4	132.62
333.629	164.62
333.857	231.62
334.085	392.62
334.314	847.62
334.542	1688.62
334.771	1567.62
334.999	425.62
335.227	176.62
335.455	130.62
335.684	125.62
335.912	131.62
336.14	123.62
336.369	125.62
336.597	124.62
336.825	119.62
337.053	96.62
337.281	100.62
337.51	101.62
337.738	96.62
337.966	112.62
338.194	99.62
338.422	109.62
338.65	104.62
338.878	103.62
339.106	95.62
339.334	103.62
339.562	94.62
339.79	102.62
340.018	106.62
340.246	104.62
340.474	118.62
340.702	101.62
340.93	117.62
341.158	99.62
341.386	105.62
341.614	112.62
341.842	121.62
342.07	99.62
342.298	95.62
342.526	99.62
342.754	91.62
342.981	106.62
343.209	90.62
343.437	104.62
343.665	104.62
343.893	100.62
344.12	97.62
344.348	101.62
344.576	93.62
344.804	97.62
345.031	106.62
345.259	111.62
345.487	106.62
345.714	112.62
345.942	115.62
346.17	95.62
346.397	86.62
346.625	111.62
346.853	97.62
347.08	81.62
347.308	115.62
347.535	114.62
347.763	122.62
347.99	88.62
348.218	126.62
348.445	112.62
348.673	121.62
348.9	96.62
349.128	95.62
349.355	91.62
349.583	107.62
349.81	98.62
350.037	104.62
350.265	104.62
350.492	86.62
350.72	105.62
350.947	111.62
351.174	119.62
351.402	123.62
351.629	112.62
351.856	104.62
352.083	126.62
352.311	127.62
352.538	135.62
352.765	107.62
352.992	115.62
353.22	118.62
353.447	120.62
353.674	106.62
353.901	115.62
354.128	99.62
354.355	106.62
354.583	115.62
354.81	97.62
355.037	90.62
355.264	83.62
355.491	83.62
355.718	90.62
355.945	93.62
356.172	103.62
356.399	88.62
356.626	97.62
356.853	88.62
357.08	102.62
357.307	100.62
357.534	98.62
357.761	95.62
357.988	105.62
358.215	93.62
358.441	99.62
358.668	95.62
358.895	99.62
359.122	99.62
359.349	90.62
359.576	104.62
359.802	117.62
360.029	156.62
360.256	144.62
360.483	127.62
360.709	99.62
360.936	107.62
361.163	109.62
361.39	90.62
361.616	96.62
361.843	102.62
362.07	124.62
362.296	99.62
362.523	98.62
362.749	100.62
362.976	113.62
363.203	87.62
363.429	96.62
363.656	99.62
363.882	94.62
364.109	93.62
364.335	102.62
364.562	81.62
364.788	97.62
365.015	98.62
365.241	108.62
365.468	123.62
365.694	115.62
365.92	96.62
366.147	83.62
366.373	91.62
366.599	87.62
366.826	81.62
367.052	100.62
367.278	103.62
367.505	104.62
367.731	95.62
367.957	100.62
368.184	93.62
368.41	112.62
368.636	126.62
368.862	140.62
369.089	113.62
369.315	119.62
369.541	107.62
369.767	113.62
369.993	102.62
370.219	100.62
370.445	98.62
370.672	87.62
370.898	89.62
371.124	88.62
371.35	92.62
371.576	95.62
371.802	85.62
372.028	105.62
372.254	87.62
372.48	92.62
372.706	92.62
372.932	90.62
373.158	76.62
373.384	97.62
373.61	99.62
373.835	93.62
374.061	78.62
374.287	100.62
374.513	93.62
374.739	90.62
374.965	95.62
375.191	81.62
375.416	84.62
375.642	100.62
375.868	91.62
376.094	96.62
376.319	114.62
376.545	88.62
376.771	97.62
376.997	94.62
377.222	100.62
377.448	91.62
377.674	95.62
377.899	97.62
378.125	93.62
378.35	96.62
378.576	99.62
378.802	91.62
379.027	91.62
379.253	100.62
379.478	102.62
379.704	90.62
379.929	90.62
380.155	85.62
380.38	100.62
380.606	105.62
380.831	97.62
381.057	108.62
381.282	121.62
381.507	105.62
381.733	104.62
381.958	94.62
382.184	102.62
382.409	98.62
382.634	108.62
382.86	114.62
383.085	103.62
383.31	113.62
383.535	95.62
383.761	105.62
383.986	105.62
384.211	83.62
384.436	99.62
384.662	83.62
384.887	96.62
385.112	91.62
385.337	113.62
385.562	110.62
385.787	117.62
386.013	110.62
386.238	114.62
386.463	107.62
386.688	115.62
386.913	90.62
387.138	122.62
387.363	109.62
387.588	109.62
387.813	107.62
388.038	122.62
388.263	108.62
388.488	104.62
388.713	90.62
388.938	80.62
389.163	83.62
389.387	102.62
389.612	106.62
389.837	97.62
390.062	91.62
390.287	96.62
390.512	87.62
390.736	92.62
390.961	83.62
391.186	99.62
391.411	88.62
391.636	93.62
391.86	82.62
392.085	95.62
392.31	98.62
392.534	77.62
392.759	93.62
392.984	95.62
393.208	93.62
393.433	112.62
393.658	95.62
393.882	89.62
394.107	89.62
394.331	66.62
394.556	83.62
394.78	91.62
395.005	107.62
395.229	97.62
395.454	93.62
395.678	97.62
395.903	101.62
396.127	105.62
396.352	91.62
396.576	90.62
396.801	83.62
397.025	106.62
397.249	74.62
397.474	106.62
397.698	91.62
397.922	98.62
398.147	85.62
398.371	103.62
398.595	88.62
398.82	77.62
399.044	79.62
399.268	87.62
399.492	89.62
399.717	106.62
399.941	95.62
400.165	106.62
400.389	101.62
400.613	103.62
400.837	105.62
401.062	96.62
401.286	96.62
401.51	102.62
401.734	101.62
401.958	95.62
402.182	163.62
402.406	191.62
402.63	149.62
402.854	110.62
403.078	98.62
403.302	101.62
403.526	101.62
403.75	89.62
403.974	88.62
404.198	85.62
404.422	108.62
404.645	99.62
404.869	122.62
405.093	122.62
405.317	170.62
405.541	149.62
405.765	121.62
405.988	143.62
406.212	225.62
406.436	332.62
406.66	189.62
406.883	116.62
407.107	103.62
407.331	113.62
407.555	136.62
407.778	110.62
408.002	105.62
408.226	95.62
408.449	91.62
408.673	92.62
408.896	91.62
409.12	104.62
409.344	99.62
409.567	98.62
409.791	96.62
410.014	86.62
410.238	90.62
410.461	86.62
410.685	87.62
410.908	116.62
411.132	103.62
411.355	117.62
411.578	102.62
411.802	103.62
412.025	88.62
412.249	103.62
412.472	117.62
412.695	138.62
412.919	103.62
413.142	97.62
413.365	92.62
413.589	96.62
413.812	94.62
414.035	88.62
414.258	76.62
414.482	85.62
414.705	85.62
414.928	102.62
415.151	98.62
415.374	98.62
415.597	96.62
415.821	102.62
416.044	88.62
416.267	77.62
416.49	84.62
416.713	91.62
416.936	81.62
417.159	97.62
417.382	102.62
417.605	96.62
417.828	103.62
418.051	101.62
418.274	73.62
418.497	99.62
418.72	84.62
418.943	95.62
419.166	82.62
419.389	108.62
419.611	97.62
419.834	95.62
420.057	104.62
420.28	101.62
420.503	93.62
420.726	93.62
420.948	98.62
421.171	109.62
421.394	113.62
421.617	91.62
421.839	95.62
422.062	96.62
422.285	90.62
422.507	102.62
422.73	121.62
422.953	95.62
423.175	94.62
423.398	82.62
423.621	90.62
423.843	88.62
424.066	89.62
424.288	103.62
424.511	98.62
424.733	106.62
424.956	125.62
425.178	115.62
425.401	114.62
425.623	103.62
425.846	97.62
426.068	110.62
426.291	101.62
426.513	76.62
426.735	89.62
426.958	105.62
427.18	122.62
427.402	193.62
427.625	283.62
427.847	227.62
428.069	216.62
428.292	121.62
428.514	90.62
428.736	85.62
428.958	103.62
429.181	91.62
429.403	99.62
429.625	101.62
429.847	89.62
430.069	107.62
430.292	109.62
430.514	85.62
430.736	93.62
430.958	96.62
431.18	99.62
431.402	89.62
431.624	90.62
431.846	86.62
432.068	90.62
432.29	96.62
432.512	89.62
432.734	83.62
432.956	97.62
433.178	101.62
433.4	104.62
433.622	83.62
433.844	92.62
434.066	93.62
434.287	101.62
434.509	85.62
434.731	95.62
434.953	100.62
435.175	87.62
435.397	71.62
435.618	95.62
435.84	104.62
436.062	131.62
436.284	138.62
436.505	108.62
436.727	103.62
436.949	94.62
437.17	108.62
437.392	101.62
437.614	101.62
437.835	119.62
438.057	157.62
438.278	148.62
438.5	135.62
438.721	161.62
438.943	117.62
439.165	103.62
439.386	105.62
439.608	111.62
439.829	115.62
440.05	155.62
440.272	203.62
440.493	122.62
440.715	74.62
440.936	112.62
441.158	104.62
441.379	109.62
441.6	100.62
441.822	107.62
442.043	111.62
442.264	118.62
442.486	104.62
442.707	108.62
442.928	136.62
443.149	179.62
443.371	173.62
443.592	132.62
443.813	139.62
444.034	121.62
444.255	107.62
444.476	97.62
444.698	92.62
444.919	104.62
445.14	117.62
445.361	150.62
445.582	147.62
445.803	201.62
446.024	171.62
446.245	192.62
446.466	142.62
446.687	108.62
446.908	94.62
447.129	101.62
447.35	91.62
447.571	104.62
447.792	80.62
448.013	109.62
448.234	113.62
448.455	104.62
448.675	147.62
448.896	144.62
449.117	125.62
449.338	111.62
449.559	160.62
449.779	177.62
450	99.62
450.221	77.62
450.442	104.62
450.662	107.62
450.883	131.62
451.104	151.62
451.324	106.62
451.545	103.62
451.766	95.62
451.986	73.62
452.207	103.62
452.428	84.62
452.648	120.62
452.869	129.62
453.089	136.62
453.31	159.62
453.53	104.62
453.751	103.62
453.971	117.62
454.192	144.62
454.412	104.62
454.633	93.62
454.853	87.62
455.073	91.62
455.294	92.62
455.514	127.62
455.734	97.62
455.955	84.62
456.175	99.62
456.395	97.62
456.616	96.62
456.836	92.62
457.056	81.62
457.276	88.62
457.497	76.62
457.717	88.62
457.937	103.62
458.157	96.62
458.377	108.62
458.598	131.62
458.818	220.62
459.038	236.62
459.258	167.62
459.478	106.62
459.698	74.62
459.918	93.62
460.138	85.62
460.358	95.62
460.578	107.62
460.798	74.62
461.018	101.62
461.238	81.62
461.458	82.62
461.678	87.62
461.898	83.62
462.118	88.62
462.338	82.62
462.558	78.62
462.777	87.62
462.997	107.62
463.217	100.62
463.437	88.62
463.657	107.62
463.876	93.62
464.096	87.62
464.316	111.62
464.536	105.62
464.755	106.62
464.975	127.62
465.195	257.62
465.414	237.62
465.634	123.62
465.854	86.62
466.073	97.62
466.293	94.62
466.512	81.62
466.732	94.62
466.951	101.62
467.171	105.62
467.391	113.62
467.61	139.62
467.829	205.62
468.049	497.62
468.268	685.62
468.488	191.62
468.707	112.62
468.927	106.62
469.146	99.62
469.365	85.62
469.585	101.62
469.804	113.62
470.023	118.62
470.243	104.62
470.462	112.62
470.681	139.62
470.901	105.62
471.12	100.62
471.339	89.62
471.558	121.62
471.777	153.62
471.997	268.62
472.216	965.62
472.435	2167.62
472.654	504.62
472.873	165.62
473.092	93.62
473.311	95.62
473.53	101.62
473.749	102.62
473.968	111.62
474.187	138.62
474.406	122.62
474.625	109.62
474.844	90.62
475.063	108.62
475.282	99.62
475.501	85.62
475.72	92.62
475.939	93.62
476.158	95.62
476.377	100.62
476.596	89.62
476.814	124.62
477.033	103.62
477.252	85.62
477.471	87.62
477.69	98.62
477.908	83.62
478.127	99.62
478.346	112.62
478.564	86.62
478.783	121.62
479.002	121.62
479.22	112.62
479.439	121.62
479.658	136.62
479.876	129.62
480.095	131.62
480.313	134.62
480.532	138.62
480.751	251.62
480.969	866.62
481.188	3777.62
481.406	2134.62
481.624	327.62
481.843	141.62
482.061	103.62
482.28	102.62
482.498	85.62
482.717	85.62
482.935	83.62
483.153	86.62
483.372	96.62
483.59	90.62
483.808	93.62
484.027	91.62
484.245	94.62
484.463	102.62
484.681	104.62
484.9	104.62
485.118	98.62
485.336	101.62
485.554	104.62
485.772	99.62
485.99	106.62
486.209	104.62
486.427	116.62
486.645	128.62
486.863	124.62
487.081	114.62
487.299	109.62
487.517	111.62
487.735	99.62
487.953	99.62
488.171	105.62
488.389	104.62
488.607	99.62
488.825	88.62
489.043	90.62
489.261	98.62
489.479	93.62
489.696	92.62
489.914	74.62
490.132	79.62
490.35	94.62
490.568	95.62
490.786	90.62
491.003	108.62
491.221	104.62
491.439	97.62
491.657	104.62
491.874	87.62
492.092	87.62
492.31	99.62
492.527	90.62
492.745	103.62
492.963	105.62
493.18	91.62
493.398	97.62
493.615	112.62
493.833	98.62
494.05	97.62
494.268	99.62
494.485	91.62
494.703	93.62
494.92	104.62
495.138	85.62
495.355	86.62
495.573	92.62
495.79	97.62
496.008	92.62
496.225	80.62
496.442	98.62
496.66	87.62
496.877	100.62
497.094	97.62
497.312	92.62
497.529	102.62
497.746	84.62
497.963	96.62
498.181	84.62
498.398	110.62
498.615	122.62
498.832	112.62
499.049	99.62
499.267	105.62
499.484	86.62
499.701	100.62
499.918	101.62
500.135	98.62
500.352	102.62
500.569	99.62
500.786	109.62
501.003	91.62
501.22	94.62
501.437	104.62
501.654	105.62
501.871	122.62
502.088	103.62
502.305	92.62
502.522	98.62
502.739	102.62
502.956	99.62
503.172	117.62
503.389	110.62
503.606	138.62
503.823	111.62
504.04	98.62
504.256	95.62
504.473	93.62
504.69	103.62
504.907	100.62
505.123	94.62
505.34	95.62
505.557	112.62
505.773	90.62
505.99	95.62
506.207	89.62
506.423	106.62
506.64	97.62
506.856	81.62
507.073	82.62
507.289	97.62
507.506	114.62
507.722	140.62
507.939	140.62
508.155	110.62
508.372	97.62
508.588	99.62
508.805	104.62
509.021	110.62
509.238	102.62
509.454	105.62
509.67	107.62
509.887	121.62
510.103	160.62
510.319	239.62
510.536	931.62
510.752	3202.62
510.968	860.62
511.184	183.62
