Data from Circ_1987_H10_HRD10591_00085.txt Node
Date: Wed Jan 03 12:10:49 EST 2024
User: Yrep
Spectrometer: HR+D1059
Trigger mode: 1
Integration Time (sec): 1.000000E-1
Scans to average: 1
Electric dark correction enabled: true
Nonlinearity correction enabled: false
Boxcar width: 0
XAxis mode: Wavelengths
Number of Pixels in Spectrum: 2048
>>>>>Begin Spectral Data<<<<<
223.165	-30
223.4	-30
223.635	-30
223.869	-20
224.104	-22
224.338	-19
224.573	-24
224.808	-3
225.042	-11
225.277	-8
225.511	-1
225.746	7
225.98	17
226.215	20
226.449	13
226.683	23
226.918	19
227.152	39
227.387	33
227.621	50
227.856	42
228.09	53
228.324	41
228.559	44
228.793	56
229.027	63
229.262	72
229.496	89
229.73	92
229.964	91
230.199	67
230.433	70
230.667	73
230.901	69
231.136	78
231.37	64
231.604	85
231.838	84
232.072	74
232.306	81
232.541	74
232.775	94
233.009	82
233.243	87
233.477	82
233.711	87
233.945	82
234.179	72
234.413	75
234.647	83
234.881	90
235.115	84
235.349	81
235.583	80
235.817	85
236.051	86
236.285	74
236.519	94
236.753	77
236.987	81
237.221	104
237.455	87
237.689	75
237.922	88
238.156	62
238.39	84
238.624	72
238.858	80
239.091	81
239.325	91
239.559	72
239.793	85
240.027	74
240.26	82
240.494	81
240.728	88
240.961	85
241.195	65
241.429	88
241.662	89
241.896	78
242.13	75
242.363	88
242.597	64
242.83	71
243.064	70
243.298	80
243.531	78
243.765	91
243.998	100
244.232	98
244.465	104
244.699	91
244.932	80
245.166	78
245.399	87
245.633	81
245.866	83
246.099	86
246.333	88
246.566	71
246.8	75
247.033	90
247.266	89
247.5	87
247.733	87
247.966	96
248.2	90
248.433	74
248.666	98
248.899	84
249.133	97
249.366	79
249.599	105
249.832	94
250.066	98
250.299	73
250.532	78
250.765	75
250.998	74
251.231	85
251.465	89
251.698	90
251.931	92
252.164	83
252.397	83
252.63	75
252.863	89
253.096	88
253.329	98
253.562	76
253.795	95
254.028	83
254.261	83
254.494	95
254.727	86
254.96	69
255.193	93
255.426	80
255.659	85
255.892	105
256.124	99
256.357	76
256.59	67
256.823	85
257.056	81
257.289	80
257.521	87
257.754	86
257.987	88
258.22	95
258.452	112
258.685	103
258.918	89
259.151	84
259.383	80
259.616	89
259.849	62
260.081	98
260.314	78
260.547	76
260.779	86
261.012	109
261.244	102
261.477	99
261.71	114
261.942	126
262.175	115
262.407	99
262.64	87
262.872	92
263.105	84
263.337	90
263.57	94
263.802	91
264.035	74
264.267	82
264.499	91
264.732	85
264.964	86
265.197	106
265.429	84
265.661	78
265.894	104
266.126	86
266.358	78
266.591	81
266.823	83
267.055	73
267.287	76
267.52	76
267.752	74
267.984	91
268.216	87
268.448	86
268.681	112
268.913	89
269.145	84
269.377	79
269.609	84
269.841	86
270.073	80
270.306	87
270.538	75
270.77	83
271.002	86
271.234	96
271.466	92
271.698	87
271.93	91
272.162	83
272.394	86
272.626	83
272.858	100
273.09	92
273.322	74
273.553	80
273.785	82
274.017	92
274.249	93
274.481	100
274.713	95
274.945	93
275.176	99
275.408	98
275.64	108
275.872	100
276.104	113
276.335	105
276.567	112
276.799	138
277.031	164
277.262	165
277.494	131
277.726	82
277.957	87
278.189	88
278.421	84
278.652	81
278.884	94
279.115	99
279.347	101
279.579	108
279.81	120
280.042	173
280.273	224
280.505	160
280.736	112
280.968	98
281.199	90
281.431	96
281.662	86
281.894	102
282.125	100
282.356	132
282.588	156
282.819	121
283.051	100
283.282	93
283.513	91
283.745	96
283.976	75
284.207	88
284.439	101
284.67	88
284.901	82
285.132	91
285.364	72
285.595	99
285.826	84
286.057	93
286.288	92
286.52	94
286.751	76
286.982	82
287.213	86
287.444	92
287.675	83
287.906	90
288.138	92
288.369	100
288.6	95
288.831	97
289.062	84
289.293	89
289.524	81
289.755	74
289.986	76
290.217	83
290.448	84
290.679	87
290.91	82
291.141	99
291.371	94
291.602	97
291.833	96
292.064	103
292.295	97
292.526	88
292.757	121
292.987	96
293.218	84
293.449	87
293.68	93
293.91	98
294.141	106
294.372	92
294.603	84
294.833	101
295.064	92
295.295	89
295.525	92
295.756	104
295.987	122
296.217	160
296.448	139
296.679	92
296.909	99
297.14	98
297.37	96
297.601	91
297.831	94
298.062	116
298.292	104
298.523	91
298.753	93
298.984	96
299.214	89
299.445	95
299.675	106
299.905	111
300.136	93
300.366	103
300.597	105
300.827	95
301.057	100
301.288	115
301.518	106
301.748	114
301.979	112
302.209	89
302.439	104
302.669	97
302.9	93
303.13	102
303.36	103
303.59	128
303.82	148
304.051	114
304.281	91
304.511	96
304.741	91
304.971	83
305.201	97
305.431	99
305.661	74
305.891	100
306.121	104
306.352	94
306.582	115
306.812	108
307.042	128
307.272	150
307.502	168
307.731	156
307.961	119
308.191	95
308.421	86
308.651	96
308.881	95
309.111	95
309.341	97
309.571	107
309.8	108
310.03	90
310.26	97
310.49	87
310.72	104
310.949	116
311.179	106
311.409	98
311.639	115
311.868	104
312.098	98
312.328	101
312.557	103
312.787	114
313.017	98
313.246	112
313.476	96
313.706	97
313.935	100
314.165	98
314.394	114
314.624	100
314.853	102
315.083	104
315.312	93
315.542	87
315.771	92
316.001	91
316.23	108
316.46	95
316.689	97
316.919	96
317.148	99
317.377	89
317.607	110
317.836	80
318.065	100
318.295	100
318.524	102
318.753	99
318.983	97
319.212	102
319.441	106
319.67	115
319.9	90
320.129	96
320.358	107
320.587	92
320.816	101
321.046	115
321.275	108
321.504	100
321.733	91
321.962	101
322.191	106
322.42	108
322.649	113
322.878	110
323.108	122
323.337	143
323.566	128
323.795	168
324.024	214
324.253	367
324.482	744
324.71	1474
324.939	1874
325.168	722
325.397	251
325.626	155
325.855	122
326.084	120
326.313	130
326.542	148
326.77	233
326.999	398
327.228	785
327.457	1330
327.686	1108
327.914	435
328.143	435
328.372	557
328.6	326
328.829	177
329.058	169
329.287	174
329.515	160
329.744	243
329.972	403
330.201	807
330.43	1194
330.658	548
330.887	250
331.115	178
331.344	118
331.572	115
331.801	126
332.03	117
332.258	112
332.486	100
332.715	103
332.943	108
333.172	116
333.4	124
333.629	129
333.857	192
334.085	355
334.314	772
334.542	1458
334.771	1346
334.999	374
335.227	166
335.455	129
335.684	108
335.912	105
336.14	97
336.369	106
336.597	133
336.825	119
337.053	104
337.281	110
337.51	103
337.738	109
337.966	107
338.194	109
338.422	102
338.65	94
338.878	96
339.106	101
339.334	101
339.562	102
339.79	101
340.018	91
340.246	100
340.474	91
340.702	108
340.93	96
341.158	106
341.386	108
341.614	101
341.842	106
342.07	90
342.298	88
342.526	84
342.754	92
342.981	103
343.209	92
343.437	102
343.665	98
343.893	89
344.12	100
344.348	92
344.576	90
344.804	115
345.031	102
345.259	119
345.487	99
345.714	99
345.942	99
346.17	92
346.397	79
346.625	92
346.853	91
347.08	101
347.308	115
347.535	108
347.763	96
347.99	104
348.218	111
348.445	103
348.673	112
348.9	87
349.128	110
349.355	79
349.583	90
349.81	96
350.037	103
350.265	76
350.492	91
350.72	103
350.947	102
351.174	124
351.402	118
351.629	96
351.856	106
352.083	105
352.311	118
352.538	110
352.765	107
352.992	113
353.22	117
353.447	107
353.674	90
353.901	96
354.128	103
354.355	92
354.583	105
354.81	82
355.037	102
355.264	83
355.491	92
355.718	82
355.945	104
356.172	97
356.399	94
356.626	102
356.853	93
357.08	105
357.307	111
357.534	92
357.761	90
357.988	112
358.215	92
358.441	90
358.668	96
358.895	104
359.122	93
359.349	106
359.576	90
359.802	102
360.029	143
360.256	122
360.483	111
360.709	100
360.936	93
361.163	104
361.39	100
361.616	106
361.843	91
362.07	104
362.296	112
362.523	90
362.749	83
362.976	96
363.203	95
363.429	103
363.656	97
363.882	88
364.109	90
364.335	92
364.562	83
364.788	97
365.015	92
365.241	99
365.468	112
365.694	108
365.92	118
366.147	103
366.373	93
366.599	72
366.826	94
367.052	110
367.278	78
367.505	105
367.731	98
367.957	88
368.184	98
368.41	104
368.636	130
368.862	112
369.089	113
369.315	98
369.541	105
369.767	107
369.993	98
370.219	89
370.445	89
370.672	86
370.898	79
371.124	98
371.35	96
371.576	106
371.802	86
372.028	94
372.254	70
372.48	87
372.706	97
372.932	75
373.158	98
373.384	112
373.61	91
373.835	87
374.061	94
374.287	105
374.513	91
374.739	83
374.965	90
375.191	84
375.416	98
375.642	86
375.868	86
376.094	99
376.319	88
376.545	81
376.771	89
376.997	87
377.222	89
377.448	96
377.674	96
377.899	96
378.125	97
378.35	94
378.576	87
378.802	88
379.027	98
379.253	92
379.478	69
379.704	97
379.929	91
380.155	91
380.38	90
380.606	107
380.831	109
381.057	90
381.282	108
381.507	105
381.733	95
381.958	102
382.184	108
382.409	107
382.634	107
382.86	99
383.085	102
383.31	119
383.535	90
383.761	101
383.986	105
384.211	107
384.436	96
384.662	94
384.887	95
385.112	106
385.337	103
385.562	100
385.787	107
386.013	107
386.238	114
386.463	99
386.688	103
386.913	94
387.138	98
387.363	89
387.588	86
387.813	115
388.038	109
388.263	86
388.488	75
388.713	81
388.938	98
389.163	80
389.387	98
389.612	101
389.837	90
390.062	92
390.287	98
390.512	91
390.736	84
390.961	99
391.186	89
391.411	81
391.636	98
391.86	89
392.085	99
392.31	86
392.534	86
392.759	95
392.984	84
393.208	92
393.433	95
393.658	94
393.882	82
394.107	91
394.331	96
394.556	102
394.78	88
395.005	82
395.229	88
395.454	81
395.678	95
395.903	75
396.127	90
396.352	86
396.576	91
396.801	90
397.025	87
397.249	87
397.474	101
397.698	83
397.922	85
398.147	106
398.371	91
398.595	90
398.82	94
399.044	96
399.268	82
399.492	79
399.717	94
399.941	96
400.165	95
400.389	94
400.613	75
400.837	102
401.062	99
401.286	86
401.51	89
401.734	96
401.958	99
402.182	128
402.406	186
402.63	130
402.854	114
403.078	95
403.302	81
403.526	89
403.75	86
403.974	108
404.198	87
404.422	90
404.645	92
404.869	100
405.093	114
405.317	135
405.541	142
405.765	124
405.988	120
406.212	175
406.436	288
406.66	174
406.883	108
407.107	107
407.331	103
407.555	110
407.778	114
408.002	82
408.226	91
408.449	103
408.673	90
408.896	100
409.12	105
409.344	102
409.567	96
409.791	96
410.014	92
410.238	99
410.461	103
410.685	96
410.908	98
411.132	102
411.355	98
411.578	89
411.802	90
412.025	92
412.249	94
412.472	109
412.695	134
412.919	99
413.142	106
413.365	96
413.589	97
413.812	94
414.035	99
414.258	94
414.482	86
414.705	97
414.928	94
415.151	103
415.374	96
415.597	87
415.821	84
416.044	102
416.267	105
416.49	92
416.713	79
416.936	87
417.159	92
417.382	93
417.605	98
417.828	102
418.051	107
418.274	83
418.497	81
418.72	98
418.943	99
419.166	89
419.389	102
419.611	108
419.834	96
420.057	89
420.28	105
420.503	81
420.726	74
420.948	83
421.171	96
421.394	98
421.617	83
421.839	95
422.062	89
422.285	91
422.507	104
422.73	114
422.953	99
423.175	95
423.398	91
423.621	96
423.843	97
424.066	95
424.288	90
424.511	108
424.733	111
424.956	125
425.178	115
425.401	100
425.623	98
425.846	94
426.068	99
426.291	110
426.513	86
426.735	98
426.958	105
427.18	118
427.402	153
427.625	217
427.847	195
428.069	171
428.292	109
428.514	112
428.736	93
428.958	94
429.181	98
429.403	98
429.625	98
429.847	91
430.069	104
430.292	98
430.514	88
430.736	90
430.958	99
431.18	91
431.402	88
431.624	93
431.846	82
432.068	104
432.29	88
432.512	97
432.734	92
432.956	96
433.178	92
433.4	104
433.622	84
433.844	85
434.066	97
434.287	102
434.509	84
434.731	85
434.953	90
435.175	78
435.397	98
435.618	109
435.84	110
436.062	115
436.284	115
436.505	116
436.727	111
436.949	104
437.17	90
437.392	74
437.614	98
437.835	128
438.057	136
438.278	117
438.5	105
438.721	128
438.943	111
439.165	99
439.386	97
439.608	90
439.829	96
440.05	131
440.272	164
440.493	104
440.715	101
440.936	94
441.158	78
441.379	106
441.6	112
441.822	104
442.043	104
442.264	117
442.486	113
442.707	107
442.928	140
443.149	142
443.371	143
443.592	110
443.813	131
444.034	107
444.255	100
444.476	86
444.698	98
444.919	107
445.14	136
445.361	103
445.582	120
445.803	145
446.024	161
446.245	158
446.466	113
446.687	94
446.908	87
447.129	105
447.35	106
447.571	109
447.792	102
448.013	102
448.234	104
448.455	111
448.675	126
448.896	137
449.117	103
449.338	110
449.559	129
449.779	140
450	103
450.221	104
450.442	94
450.662	95
450.883	113
451.104	120
451.324	107
451.545	88
451.766	103
451.986	76
452.207	94
452.428	91
452.648	101
452.869	130
453.089	146
453.31	136
453.53	98
453.751	92
453.971	108
454.192	128
454.412	107
454.633	88
454.853	84
455.073	84
455.294	97
455.514	115
455.734	106
455.955	91
456.175	92
456.395	66
456.616	86
456.836	84
457.056	86
457.276	89
457.497	81
457.717	93
457.937	100
458.157	109
458.377	94
458.598	126
458.818	180
459.038	197
459.258	134
459.478	110
459.698	105
459.918	84
460.138	87
460.358	81
460.578	84
460.798	90
461.018	106
461.238	78
461.458	89
461.678	84
461.898	94
462.118	76
462.338	83
462.558	88
462.777	92
462.997	98
463.217	110
463.437	100
463.657	78
463.876	91
464.096	81
464.316	92
464.536	103
464.755	94
464.975	122
465.195	212
465.414	211
465.634	105
465.854	90
466.073	80
466.293	85
466.512	86
466.732	91
466.951	99
467.171	95
467.391	115
467.61	129
467.829	192
468.049	484
468.268	716
468.488	191
468.707	103
468.927	89
469.146	107
469.365	84
469.585	91
469.804	114
470.023	115
470.243	98
470.462	107
470.681	117
470.901	112
471.12	94
471.339	101
471.558	119
471.777	131
471.997	250
472.216	888
472.435	2096
472.654	480
472.873	153
473.092	105
473.311	97
473.53	95
473.749	98
473.968	114
474.187	118
474.406	112
474.625	106
474.844	97
475.063	91
475.282	97
475.501	82
475.72	79
475.939	106
476.158	90
476.377	89
476.596	82
476.814	85
477.033	107
477.252	85
477.471	80
477.69	111
477.908	87
478.127	90
478.346	89
478.564	102
478.783	95
479.002	109
479.22	124
479.439	118
479.658	127
479.876	127
480.095	126
480.313	133
480.532	147
480.751	257
480.969	860
481.188	3602
481.406	2019
481.624	306
481.843	124
482.061	119
482.28	101
482.498	102
482.717	111
482.935	91
483.153	96
483.372	101
483.59	92
483.808	94
484.027	84
484.245	96
484.463	95
484.681	94
484.9	101
485.118	105
485.336	90
485.554	108
485.772	101
485.99	112
486.209	103
486.427	108
486.645	122
486.863	132
487.081	107
487.299	99
487.517	88
487.735	103
487.953	97
488.171	106
488.389	105
488.607	114
488.825	105
489.043	91
489.261	83
489.479	91
489.696	102
489.914	80
490.132	86
490.35	89
490.568	86
490.786	89
491.003	88
491.221	98
491.439	104
491.657	96
491.874	93
492.092	83
492.31	95
492.527	100
492.745	102
492.963	99
493.18	99
493.398	103
493.615	104
493.833	92
494.05	104
494.268	94
494.485	90
494.703	93
494.92	105
495.138	80
495.355	81
495.573	80
495.79	102
496.008	101
496.225	98
496.442	97
496.66	82
496.877	94
497.094	87
497.312	106
497.529	100
497.746	98
497.963	91
498.181	106
498.398	101
498.615	105
498.832	118
499.049	88
499.267	101
499.484	88
499.701	105
499.918	92
500.135	80
500.352	87
500.569	96
500.786	97
501.003	108
501.22	86
501.437	87
501.654	86
501.871	126
502.088	93
502.305	101
502.522	91
502.739	103
502.956	95
503.172	85
503.389	97
503.606	128
503.823	98
504.04	104
504.256	113
504.473	101
504.69	98
504.907	104
505.123	83
505.34	103
505.557	88
505.773	109
505.99	107
506.207	93
506.423	101
506.64	90
506.856	86
507.073	97
507.289	86
507.506	100
507.722	120
507.939	128
508.155	102
508.372	107
508.588	94
508.805	99
509.021	97
509.238	96
509.454	96
509.67	112
509.887	105
510.103	138
510.319	218
510.536	831
510.752	2922
510.968	777
511.184	171
511.401	122
511.617	103
511.833	106
512.049	98
512.265	95
512.481	91
512.698	97
512.914	97
513.13	108
513.346	103
513.562	86
513.778	123
513.994	107
514.21	111
514.426	147
514.642	178
514.858	146
515.074	196
515.29	614
515.506	2160
515.721	763
515.937	195
516.153	132
516.369	106
516.585	106
516.801	104
517.016	93
517.232	89
517.448	99
517.664	103
517.879	105
518.095	91
518.311	98
518.527	114
518.742	90
518.958	95
519.173	83
519.389	99
519.605	109
519.82	102
520.036	117
520.251	140
520.467	127
520.682	106
520.898	127
521.113	115
521.329	162
521.544	272
521.76	783
521.975	3594
522.19	2102
522.406	425
522.621	150
522.836	126
523.052	96
523.267	104
523.482	105
523.698	104
523.913	127
524.128	102
524.343	100
524.559	105
524.774	87
524.989	105
525.204	114
525.419	116
525.634	96
525.849	99
526.064	88
526.28	94
526.495	89
526.71	90
526.925	91
527.14	78
527.355	80
527.57	99
527.785	100
527.999	105
528.214	94
528.429	89
528.644	89
528.859	100
529.074	106
529.289	159
529.503	229
529.718	137
529.933	87
530.148	82
530.363	87
530.577	97
530.792	98
531.007	99
531.221	86
531.436	92
531.651	95
531.865	79
532.08	95
532.295	108
532.509	98
532.724	82
532.938	104
533.153	97
533.367	85
533.582	96
533.796	99
534.011	100
534.225	90
534.44	89
534.654	92
534.868	90
535.083	106
535.297	101
535.511	111
535.726	81
535.94	100
536.154	113
536.369	92
536.583	82
536.797	91
537.011	90
537.225	90
537.44	89
537.654	102
537.868	84
538.082	97
538.296	85
538.51	94
538.724	95
538.938	98
539.153	93
539.367	127
539.581	112
539.795	106
540.009	93
540.222	102
540.436	105
540.65	90
540.864	105
541.078	93
541.292	103
541.506	94
541.72	95
541.934	86
542.147	95
542.361	80
542.575	95
542.789	101
543.002	101
543.216	111
543.43	101
543.644	107
543.857	85
544.071	87
544.285	104
544.498	98
544.712	82
544.925	85
545.139	88
545.352	97
545.566	90
545.779	93
545.993	91
546.206	104
546.42	87
546.633	90
546.847	88
547.06	97
547.274	94
547.487	103
547.7	100
547.914	90
548.127	97
548.34	84
548.554	97
548.767	89
548.98	84
549.193	94
549.407	86
549.62	103
549.833	103
550.046	82
550.259	86
550.473	93
550.686	88
550.899	84
551.112	104
551.325	108
551.538	90
551.751	82
551.964	104
552.177	93
552.39	96
552.603	91
552.816	101
553.029	91
553.242	95
553.455	99
553.667	112
553.88	115
554.093	103
554.306	104
554.519	103
554.732	96
554.944	94
555.157	81
555.37	86
555.583	93
555.795	92
556.008	72
556.221	86
556.433	95
556.646	107
556.859	111
557.071	78
557.284	92
557.496	105
557.709	101
557.921	89
558.134	89
558.346	86
558.559	103
558.771	90
558.984	96
559.196	103
559.409	86
559.621	100
559.833	93
560.046	96
560.258	98
560.47	118
560.683	110
560.895	91
561.107	89
561.32	85
561.532	87
561.744	89
561.956	84
562.168	77
562.381	73
562.593	100
562.805	98
563.017	93
563.229	103
563.441	102
563.653	85
563.865	89
564.077	92
564.289	88
564.501	93
564.713	95
564.925	78
565.137	120
565.349	98
565.561	75
565.773	94
565.985	87
566.197	93
566.408	91
566.62	88
566.832	90
567.044	89
567.255	96
567.467	91
567.679	92
567.891	91
568.102	92
568.314	84
568.526	102
568.737	94
568.949	71
569.161	105
569.372	86
569.584	86
569.795	88
570.007	134
570.218	283
570.43	150
570.641	100
570.853	98
571.064	97
571.276	102
571.487	92
571.698	94
571.91	88
572.121	89
572.333	84
572.544	93
572.755	86
572.966	77
573.178	101
573.389	104
573.6	86
573.811	85
574.023	95
574.234	99
574.445	92
574.656	91
574.867	84
575.078	72
575.289	91
575.501	86
575.712	96
575.923	92
576.134	98
576.345	99
576.556	85
576.767	91
576.978	105
577.188	107
577.399	99
577.61	100
577.821	95
578.032	127
578.243	311
578.454	889
578.665	242
578.875	104
579.086	95
579.297	91
