Data from Circ_1987_H10_HRD10591_00069.txt Node
Date: Wed Jan 03 12:10:46 EST 2024
User: Yrep
Spectrometer: HR+D1059
Trigger mode: 1
Integration Time (sec): 1.000000E-1
Scans to average: 1
Electric dark correction enabled: true
Nonlinearity correction enabled: false
Boxcar width: 0
XAxis mode: Wavelengths
Number of Pixels in Spectrum: 2048
>>>>>Begin Spectral Data<<<<<
223.165	-18.69
223.4	-18.69
223.635	-18.69
223.869	-8.69
224.104	-27.69
224.338	-16.69
224.573	-25.69
224.808	-18.69
225.042	8.31
225.277	-16.69
225.511	-5.69
225.746	7.31
225.98	15.31
226.215	6.31
226.449	27.31
226.683	25.31
226.918	26.31
227.152	22.31
227.387	30.31
227.621	58.31
227.856	52.31
228.09	44.31
228.324	50.31
228.559	67.31
228.793	71.31
229.027	71.31
229.262	64.31
229.496	80.31
229.73	91.31
229.964	100.31
230.199	92.31
230.433	74.31
230.667	76.31
230.901	80.31
231.136	90.31
231.37	76.31
231.604	90.31
231.838	87.31
232.072	91.31
232.306	83.31
232.541	83.31
232.775	90.31
233.009	88.31
233.243	80.31
233.477	73.31
233.711	96.31
233.945	94.31
234.179	84.31
234.413	92.31
234.647	88.31
234.881	77.31
235.115	93.31
235.349	74.31
235.583	82.31
235.817	79.31
236.051	82.31
236.285	85.31
236.519	95.31
236.753	88.31
236.987	78.31
237.221	80.31
237.455	94.31
237.689	82.31
237.922	81.31
238.156	84.31
238.39	78.31
238.624	73.31
238.858	82.31
239.091	93.31
239.325	89.31
239.559	87.31
239.793	94.31
240.027	88.31
240.26	74.31
240.494	92.31
240.728	84.31
240.961	91.31
241.195	81.31
241.429	88.31
241.662	73.31
241.896	76.31
242.13	89.31
242.363	90.31
242.597	75.31
242.83	82.31
243.064	71.31
243.298	84.31
243.531	87.31
243.765	86.31
243.998	82.31
244.232	78.31
244.465	90.31
244.699	79.31
244.932	77.31
245.166	84.31
245.399	88.31
245.633	86.31
245.866	94.31
246.099	83.31
246.333	80.31
246.566	70.31
246.8	74.31
247.033	83.31
247.266	79.31
247.5	88.31
247.733	73.31
247.966	91.31
248.2	89.31
248.433	66.31
248.666	84.31
248.899	69.31
249.133	87.31
249.366	104.31
249.599	102.31
249.832	91.31
250.066	97.31
250.299	83.31
250.532	87.31
250.765	97.31
250.998	85.31
251.231	84.31
251.465	106.31
251.698	93.31
251.931	83.31
252.164	100.31
252.397	77.31
252.63	81.31
252.863	86.31
253.096	78.31
253.329	84.31
253.562	88.31
253.795	86.31
254.028	93.31
254.261	99.31
254.494	83.31
254.727	78.31
254.96	105.31
255.193	68.31
255.426	80.31
255.659	104.31
255.892	96.31
256.124	93.31
256.357	106.31
256.59	86.31
256.823	96.31
257.056	83.31
257.289	88.31
257.521	104.31
257.754	88.31
257.987	90.31
258.22	91.31
258.452	99.31
258.685	88.31
258.918	86.31
259.151	84.31
259.383	72.31
259.616	88.31
259.849	103.31
260.081	97.31
260.314	88.31
260.547	102.31
260.779	95.31
261.012	109.31
261.244	113.31
261.477	106.31
261.71	99.31
261.942	134.31
262.175	152.31
262.407	94.31
262.64	102.31
262.872	92.31
263.105	83.31
263.337	97.31
263.57	92.31
263.802	82.31
264.035	91.31
264.267	86.31
264.499	88.31
264.732	105.31
264.964	88.31
265.197	84.31
265.429	107.31
265.661	98.31
265.894	78.31
266.126	100.31
266.358	105.31
266.591	68.31
266.823	82.31
267.055	93.31
267.287	80.31
267.52	101.31
267.752	89.31
267.984	92.31
268.216	82.31
268.448	76.31
268.681	86.31
268.913	109.31
269.145	94.31
269.377	83.31
269.609	96.31
269.841	88.31
270.073	87.31
270.306	98.31
270.538	84.31
270.77	94.31
271.002	72.31
271.234	103.31
271.466	90.31
271.698	88.31
271.93	86.31
272.162	104.31
272.394	85.31
272.626	81.31
272.858	99.31
273.09	99.31
273.322	92.31
273.553	87.31
273.785	93.31
274.017	92.31
274.249	93.31
274.481	102.31
274.713	104.31
274.945	98.31
275.176	88.31
275.408	106.31
275.64	113.31
275.872	132.31
276.104	103.31
276.335	100.31
276.567	121.31
276.799	160.31
277.031	166.31
277.262	182.31
277.494	149.31
277.726	100.31
277.957	94.31
278.189	87.31
278.421	89.31
278.652	99.31
278.884	95.31
279.115	97.31
279.347	94.31
279.579	99.31
279.81	124.31
280.042	172.31
280.273	252.31
280.505	182.31
280.736	120.31
280.968	113.31
281.199	94.31
281.431	97.31
281.662	91.31
281.894	99.31
282.125	108.31
282.356	129.31
282.588	172.31
282.819	138.31
283.051	94.31
283.282	84.31
283.513	105.31
283.745	88.31
283.976	95.31
284.207	104.31
284.439	105.31
284.67	106.31
284.901	109.31
285.132	103.31
285.364	96.31
285.595	91.31
285.826	87.31
286.057	88.31
286.288	76.31
286.52	93.31
286.751	89.31
286.982	99.31
287.213	73.31
287.444	82.31
287.675	98.31
287.906	88.31
288.138	87.31
288.369	99.31
288.6	97.31
288.831	97.31
289.062	98.31
289.293	88.31
289.524	83.31
289.755	94.31
289.986	106.31
290.217	89.31
290.448	84.31
290.679	96.31
290.91	106.31
291.141	95.31
291.371	97.31
291.602	110.31
291.833	78.31
292.064	85.31
292.295	104.31
292.526	97.31
292.757	97.31
292.987	93.31
293.218	98.31
293.449	81.31
293.68	102.31
293.91	77.31
294.141	97.31
294.372	94.31
294.603	92.31
294.833	89.31
295.064	89.31
295.295	93.31
295.525	90.31
295.756	113.31
295.987	118.31
296.217	165.31
296.448	144.31
296.679	106.31
296.909	100.31
297.14	87.31
297.37	93.31
297.601	92.31
297.831	94.31
298.062	101.31
298.292	97.31
298.523	104.31
298.753	91.31
298.984	92.31
299.214	97.31
299.445	91.31
299.675	109.31
299.905	105.31
300.136	78.31
300.366	84.31
300.597	102.31
300.827	113.31
301.057	113.31
301.288	111.31
301.518	113.31
301.748	96.31
301.979	114.31
302.209	107.31
302.439	108.31
302.669	117.31
302.9	106.31
303.13	101.31
303.36	116.31
303.59	118.31
303.82	127.31
304.051	114.31
304.281	95.31
304.511	104.31
304.741	89.31
304.971	85.31
305.201	81.31
305.431	103.31
305.661	94.31
305.891	113.31
306.121	108.31
306.352	113.31
306.582	96.31
306.812	92.31
307.042	122.31
307.272	148.31
307.502	150.31
307.731	164.31
307.961	129.31
308.191	101.31
308.421	103.31
308.651	89.31
308.881	97.31
309.111	95.31
309.341	104.31
309.571	101.31
309.8	98.31
310.03	106.31
310.26	112.31
310.49	103.31
310.72	111.31
310.949	124.31
311.179	127.31
311.409	91.31
311.639	105.31
311.868	116.31
312.098	103.31
312.328	111.31
312.557	121.31
312.787	118.31
313.017	112.31
313.246	109.31
313.476	96.31
313.706	106.31
313.935	114.31
314.165	110.31
314.394	110.31
314.624	107.31
314.853	106.31
315.083	103.31
315.312	89.31
315.542	85.31
315.771	100.31
316.001	101.31
316.23	87.31
316.46	101.31
316.689	97.31
316.919	89.31
317.148	93.31
317.377	89.31
317.607	111.31
317.836	103.31
318.065	92.31
318.295	92.31
318.524	94.31
318.753	91.31
318.983	89.31
319.212	101.31
319.441	123.31
319.67	116.31
319.9	98.31
320.129	104.31
320.358	98.31
320.587	98.31
320.816	116.31
321.046	116.31
321.275	105.31
321.504	105.31
321.733	110.31
321.962	92.31
322.191	117.31
322.42	109.31
322.649	103.31
322.878	125.31
323.108	139.31
323.337	131.31
323.566	153.31
323.795	176.31
324.024	224.31
324.253	453.31
324.482	948.31
324.71	1906.31
324.939	2555.31
325.168	948.31
325.397	293.31
325.626	166.31
325.855	139.31
326.084	115.31
326.313	144.31
326.542	167.31
326.77	262.31
326.999	491.31
327.228	988.31
327.457	1867.31
327.686	1488.31
327.914	522.31
328.143	477.31
328.372	618.31
328.6	353.31
328.829	171.31
329.058	198.31
329.287	187.31
329.515	180.31
329.744	235.31
329.972	460.31
330.201	936.31
330.43	1372.31
330.658	609.31
330.887	286.31
331.115	194.31
331.344	143.31
331.572	128.31
331.801	126.31
332.03	135.31
332.258	123.31
332.486	107.31
332.715	110.31
332.943	115.31
333.172	114.31
333.4	130.31
333.629	154.31
333.857	224.31
334.085	405.31
334.314	860.31
334.542	1625.31
334.771	1610.31
334.999	402.31
335.227	168.31
335.455	129.31
335.684	116.31
335.912	116.31
336.14	101.31
336.369	114.31
336.597	125.31
336.825	104.31
337.053	100.31
337.281	111.31
337.51	94.31
337.738	109.31
337.966	105.31
338.194	117.31
338.422	119.31
338.65	92.31
338.878	86.31
339.106	101.31
339.334	104.31
339.562	98.31
339.79	97.31
340.018	102.31
340.246	106.31
340.474	102.31
340.702	104.31
340.93	106.31
341.158	97.31
341.386	109.31
341.614	114.31
341.842	99.31
342.07	103.31
342.298	90.31
342.526	104.31
342.754	89.31
342.981	93.31
343.209	98.31
343.437	98.31
343.665	92.31
343.893	109.31
344.12	96.31
344.348	94.31
344.576	96.31
344.804	98.31
345.031	113.31
345.259	107.31
345.487	102.31
345.714	108.31
345.942	96.31
346.17	96.31
346.397	114.31
346.625	97.31
346.853	103.31
347.08	87.31
347.308	106.31
347.535	99.31
347.763	109.31
347.99	107.31
348.218	116.31
348.445	111.31
348.673	119.31
348.9	106.31
349.128	109.31
349.355	97.31
349.583	92.31
349.81	103.31
350.037	106.31
350.265	99.31
350.492	104.31
350.72	107.31
350.947	111.31
351.174	122.31
351.402	112.31
351.629	119.31
351.856	117.31
352.083	116.31
352.311	121.31
352.538	132.31
352.765	122.31
352.992	127.31
353.22	128.31
353.447	105.31
353.674	106.31
353.901	90.31
354.128	106.31
354.355	93.31
354.583	93.31
354.81	105.31
355.037	117.31
355.264	104.31
355.491	102.31
355.718	91.31
355.945	92.31
356.172	94.31
356.399	102.31
356.626	96.31
356.853	98.31
357.08	98.31
357.307	105.31
357.534	104.31
357.761	88.31
357.988	97.31
358.215	100.31
358.441	107.31
358.668	92.31
358.895	103.31
359.122	88.31
359.349	91.31
359.576	103.31
359.802	125.31
360.029	148.31
360.256	143.31
360.483	117.31
360.709	96.31
360.936	123.31
361.163	97.31
361.39	106.31
361.616	107.31
361.843	107.31
362.07	84.31
362.296	106.31
362.523	89.31
362.749	91.31
362.976	72.31
363.203	92.31
363.429	96.31
363.656	100.31
363.882	100.31
364.109	87.31
364.335	94.31
364.562	100.31
364.788	96.31
365.015	105.31
365.241	101.31
365.468	117.31
365.694	121.31
365.92	100.31
366.147	96.31
366.373	98.31
366.599	86.31
366.826	96.31
367.052	94.31
367.278	108.31
367.505	110.31
367.731	102.31
367.957	106.31
368.184	103.31
368.41	111.31
368.636	126.31
368.862	128.31
369.089	120.31
369.315	105.31
369.541	101.31
369.767	92.31
369.993	108.31
370.219	102.31
370.445	96.31
370.672	101.31
370.898	84.31
371.124	101.31
371.35	115.31
371.576	99.31
371.802	89.31
372.028	88.31
372.254	98.31
372.48	96.31
372.706	87.31
372.932	85.31
373.158	90.31
373.384	84.31
373.61	96.31
373.835	104.31
374.061	80.31
374.287	91.31
374.513	84.31
374.739	96.31
374.965	90.31
375.191	84.31
375.416	100.31
375.642	111.31
375.868	91.31
376.094	93.31
376.319	88.31
376.545	75.31
376.771	88.31
376.997	94.31
377.222	101.31
377.448	96.31
377.674	95.31
377.899	98.31
378.125	95.31
378.35	97.31
378.576	100.31
378.802	92.31
379.027	105.31
379.253	92.31
379.478	101.31
379.704	98.31
379.929	96.31
380.155	115.31
380.38	96.31
380.606	96.31
380.831	110.31
381.057	112.31
381.282	93.31
381.507	113.31
381.733	93.31
381.958	104.31
382.184	90.31
382.409	104.31
382.634	107.31
382.86	86.31
383.085	99.31
383.31	101.31
383.535	102.31
383.761	97.31
383.986	82.31
384.211	89.31
384.436	90.31
384.662	96.31
384.887	95.31
385.112	110.31
385.337	95.31
385.562	97.31
385.787	97.31
386.013	120.31
386.238	114.31
386.463	113.31
386.688	112.31
386.913	107.31
387.138	112.31
387.363	92.31
387.588	104.31
387.813	118.31
388.038	111.31
388.263	115.31
388.488	99.31
388.713	96.31
388.938	109.31
389.163	95.31
389.387	94.31
389.612	94.31
389.837	101.31
390.062	97.31
390.287	94.31
390.512	93.31
390.736	94.31
390.961	102.31
391.186	109.31
391.411	93.31
391.636	102.31
391.86	104.31
392.085	103.31
392.31	92.31
392.534	98.31
392.759	92.31
392.984	91.31
393.208	94.31
393.433	83.31
393.658	97.31
393.882	93.31
394.107	97.31
394.331	82.31
394.556	87.31
394.78	93.31
395.005	90.31
395.229	86.31
395.454	85.31
395.678	92.31
395.903	92.31
396.127	85.31
396.352	72.31
396.576	96.31
396.801	102.31
397.025	104.31
397.249	106.31
397.474	83.31
397.698	91.31
397.922	85.31
398.147	94.31
398.371	90.31
398.595	99.31
398.82	82.31
399.044	72.31
399.268	88.31
399.492	102.31
399.717	83.31
399.941	96.31
400.165	100.31
400.389	89.31
400.613	93.31
400.837	98.31
401.062	97.31
401.286	84.31
401.51	99.31
401.734	104.31
401.958	108.31
402.182	146.31
402.406	212.31
402.63	150.31
402.854	100.31
403.078	94.31
403.302	93.31
403.526	98.31
403.75	98.31
403.974	93.31
404.198	92.31
404.422	98.31
404.645	102.31
404.869	104.31
405.093	113.31
405.317	130.31
405.541	145.31
405.765	121.31
405.988	121.31
406.212	213.31
406.436	288.31
406.66	192.31
406.883	131.31
407.107	108.31
407.331	115.31
407.555	107.31
407.778	104.31
408.002	91.31
408.226	110.31
408.449	88.31
408.673	103.31
408.896	105.31
409.12	110.31
409.344	96.31
409.567	84.31
409.791	95.31
410.014	88.31
410.238	101.31
410.461	102.31
410.685	95.31
410.908	86.31
411.132	100.31
411.355	115.31
411.578	85.31
411.802	93.31
412.025	94.31
412.249	117.31
412.472	123.31
412.695	134.31
412.919	103.31
413.142	96.31
413.365	98.31
413.589	88.31
413.812	106.31
414.035	99.31
414.258	103.31
414.482	106.31
414.705	94.31
414.928	91.31
415.151	86.31
415.374	83.31
415.597	95.31
415.821	86.31
416.044	105.31
416.267	100.31
416.49	78.31
416.713	87.31
416.936	117.31
417.159	109.31
417.382	96.31
417.605	100.31
417.828	106.31
418.051	97.31
418.274	95.31
418.497	97.31
418.72	96.31
418.943	93.31
419.166	105.31
419.389	93.31
419.611	94.31
419.834	102.31
420.057	104.31
420.28	108.31
420.503	103.31
420.726	101.31
420.948	96.31
421.171	100.31
421.394	101.31
421.617	95.31
421.839	91.31
422.062	84.31
422.285	92.31
422.507	106.31
422.73	115.31
422.953	95.31
423.175	93.31
423.398	88.31
423.621	89.31
423.843	95.31
424.066	78.31
424.288	91.31
424.511	117.31
424.733	105.31
424.956	125.31
425.178	102.31
425.401	111.31
425.623	114.31
425.846	100.31
426.068	95.31
426.291	104.31
426.513	97.31
426.735	98.31
426.958	102.31
427.18	121.31
427.402	163.31
427.625	250.31
427.847	222.31
428.069	226.31
428.292	119.31
428.514	104.31
428.736	82.31
428.958	84.31
429.181	90.31
429.403	87.31
429.625	85.31
429.847	96.31
430.069	118.31
430.292	104.31
430.514	92.31
430.736	92.31
430.958	93.31
431.18	99.31
431.402	84.31
431.624	83.31
431.846	85.31
432.068	91.31
432.29	82.31
432.512	90.31
432.734	91.31
432.956	92.31
433.178	95.31
433.4	105.31
433.622	94.31
433.844	95.31
434.066	94.31
434.287	109.31
434.509	96.31
434.731	101.31
434.953	108.31
435.175	95.31
435.397	96.31
435.618	111.31
435.84	107.31
436.062	150.31
436.284	129.31
436.505	110.31
436.727	101.31
436.949	87.31
437.17	89.31
437.392	81.31
437.614	95.31
437.835	124.31
438.057	139.31
438.278	116.31
438.5	126.31
438.721	149.31
438.943	106.31
439.165	103.31
439.386	93.31
439.608	107.31
439.829	113.31
440.05	149.31
440.272	180.31
440.493	100.31
440.715	108.31
440.936	86.31
441.158	89.31
441.379	96.31
441.6	96.31
441.822	120.31
442.043	104.31
442.264	129.31
442.486	112.31
442.707	108.31
442.928	144.31
443.149	164.31
443.371	162.31
443.592	133.31
443.813	131.31
444.034	127.31
444.255	92.31
444.476	90.31
444.698	98.31
444.919	86.31
445.14	144.31
445.361	127.31
445.582	133.31
445.803	177.31
446.024	185.31
446.245	169.31
446.466	124.31
446.687	100.31
446.908	94.31
447.129	97.31
447.35	101.31
447.571	96.31
447.792	99.31
448.013	101.31
448.234	120.31
448.455	118.31
448.675	140.31
448.896	136.31
449.117	109.31
449.338	134.31
449.559	160.31
449.779	154.31
450	110.31
450.221	89.31
450.442	95.31
450.662	107.31
450.883	131.31
451.104	134.31
451.324	113.31
451.545	109.31
451.766	89.31
451.986	87.31
452.207	90.31
452.428	108.31
452.648	124.31
452.869	127.31
453.089	122.31
453.31	144.31
453.53	108.31
453.751	101.31
453.971	130.31
454.192	137.31
454.412	106.31
454.633	91.31
454.853	88.31
455.073	100.31
455.294	109.31
455.514	120.31
455.734	89.31
455.955	101.31
456.175	99.31
456.395	92.31
456.616	92.31
456.836	97.31
457.056	88.31
457.276	100.31
457.497	88.31
457.717	91.31
457.937	101.31
458.157	91.31
458.377	104.31
458.598	133.31
458.818	199.31
459.038	229.31
459.258	147.31
459.478	109.31
459.698	76.31
459.918	96.31
460.138	86.31
460.358	88.31
460.578	100.31
460.798	103.31
461.018	95.31
461.238	83.31
461.458	94.31
461.678	102.31
461.898	90.31
462.118	85.31
462.338	88.31
462.558	88.31
462.777	90.31
462.997	102.31
463.217	110.31
463.437	101.31
463.657	93.31
463.876	89.31
464.096	105.31
464.316	108.31
464.536	93.31
464.755	111.31
464.975	121.31
465.195	228.31
465.414	222.31
465.634	104.31
465.854	92.31
466.073	83.31
466.293	99.31
466.512	100.31
466.732	97.31
466.951	100.31
467.171	116.31
467.391	125.31
467.61	131.31
467.829	210.31
468.049	511.31
468.268	793.31
468.488	213.31
468.707	109.31
468.927	97.31
469.146	102.31
469.365	89.31
469.585	91.31
469.804	113.31
470.023	108.31
470.243	106.31
470.462	128.31
470.681	143.31
470.901	116.31
471.12	126.31
471.339	96.31
471.558	124.31
471.777	137.31
471.997	291.31
472.216	976.31
472.435	2316.31
472.654	548.31
472.873	146.31
473.092	122.31
473.311	100.31
473.53	93.31
473.749	105.31
473.968	100.31
474.187	132.31
474.406	102.31
474.625	97.31
474.844	95.31
475.063	90.31
475.282	73.31
475.501	90.31
475.72	85.31
475.939	84.31
476.158	97.31
476.377	101.31
476.596	94.31
476.814	100.31
477.033	114.31
477.252	89.31
477.471	92.31
477.69	95.31
477.908	83.31
478.127	112.31
478.346	91.31
478.564	105.31
478.783	112.31
479.002	105.31
479.22	111.31
479.439	111.31
479.658	130.31
479.876	123.31
480.095	121.31
480.313	130.31
480.532	159.31
480.751	261.31
480.969	919.31
481.188	3906.31
481.406	2274.31
481.624	340.31
481.843	135.31
482.061	108.31
482.28	99.31
482.498	109.31
482.717	86.31
482.935	99.31
483.153	85.31
483.372	94.31
483.59	84.31
483.808	98.31
484.027	111.31
484.245	92.31
484.463	106.31
484.681	104.31
484.9	86.31
485.118	98.31
485.336	93.31
485.554	109.31
485.772	113.31
485.99	113.31
486.209	110.31
486.427	108.31
486.645	121.31
486.863	140.31
487.081	105.31
487.299	100.31
487.517	109.31
487.735	100.31
487.953	93.31
488.171	108.31
488.389	105.31
488.607	103.31
488.825	97.31
489.043	86.31
489.261	97.31
489.479	108.31
489.696	93.31
489.914	92.31
490.132	93.31
490.35	99.31
490.568	86.31
490.786	90.31
491.003	91.31
491.221	98.31
491.439	114.31
491.657	91.31
491.874	99.31
492.092	100.31
492.31	101.31
492.527	120.31
492.745	103.31
492.963	103.31
493.18	114.31
493.398	104.31
493.615	104.31
493.833	100.31
494.05	89.31
494.268	94.31
494.485	99.31
494.703	92.31
494.92	93.31
495.138	94.31
495.355	100.31
495.573	90.31
495.79	105.31
496.008	102.31
496.225	84.31
496.442	94.31
496.66	96.31
496.877	67.31
497.094	97.31
497.312	104.31
497.529	90.31
497.746	103.31
497.963	97.31
498.181	88.31
498.398	94.31
498.615	121.31
498.832	103.31
499.049	105.31
499.267	93.31
499.484	74.31
499.701	96.31
499.918	98.31
500.135	99.31
500.352	93.31
500.569	98.31
500.786	108.31
501.003	98.31
501.22	93.31
501.437	95.31
501.654	118.31
501.871	140.31
502.088	108.31
502.305	105.31
502.522	91.31
502.739	91.31
502.956	105.31
503.172	100.31
503.389	113.31
503.606	116.31
503.823	103.31
504.04	100.31
504.256	94.31
504.473	102.31
504.69	102.31
504.907	98.31
505.123	110.31
505.34	96.31
505.557	92.31
505.773	88.31
505.99	106.31
506.207	101.31
506.423	100.31
506.64	94.31
506.856	105.31
507.073	106.31
507.289	94.31
507.506	108.31
507.722	114.31
507.939	142.31
508.155	95.31
508.372	96.31
508.588	109.31
508.805	101.31
509.021	106.31
509.238	120.31
509.454	114.31
509.67	109.31
509.887	109.31
510.103	145.31
510.319	250.31
510.536	912.31
510.752	3012.31
510.968	827.31
511.184	183.31
