Data from Circ_1987_H10_HRD10591_00056.txt Node
Date: Wed Jan 03 12:10:44 EST 2024
User: Yrep
Spectrometer: HR+D1059
Trigger mode: 1
Integration Time (sec): 1.000000E-1
Scans to average: 1
Electric dark correction enabled: true
Nonlinearity correction enabled: false
Boxcar width: 0
XAxis mode: Wavelengths
Number of Pixels in Spectrum: 2048
>>>>>Begin Spectral Data<<<<<
223.165	-29.06
223.4	-29.06
223.635	-29.06
223.869	-11.06
224.104	-27.06
224.338	-9.06
224.573	-19.06
224.808	-17.06
225.042	-8.06
225.277	-3.06
225.511	-16.06
225.746	-0.06
225.98	5.94
226.215	20.94
226.449	24.94
226.683	18.94
226.918	34.94
227.152	33.94
227.387	37.94
227.621	26.94
227.856	48.94
228.09	47.94
228.324	56.94
228.559	60.94
228.793	60.94
229.027	73.94
229.262	74.94
229.496	77.94
229.73	102.94
229.964	102.94
230.199	79.94
230.433	81.94
230.667	88.94
230.901	71.94
231.136	89.94
231.37	71.94
231.604	94.94
231.838	88.94
232.072	74.94
232.306	78.94
232.541	84.94
232.775	86.94
233.009	74.94
233.243	80.94
233.477	86.94
233.711	85.94
233.945	97.94
234.179	91.94
234.413	91.94
234.647	72.94
234.881	75.94
235.115	78.94
235.349	90.94
235.583	84.94
235.817	67.94
236.051	88.94
236.285	94.94
236.519	84.94
236.753	70.94
236.987	79.94
237.221	102.94
237.455	113.94
237.689	86.94
237.922	62.94
238.156	84.94
238.39	80.94
238.624	99.94
238.858	76.94
239.091	74.94
239.325	95.94
239.559	78.94
239.793	71.94
240.027	84.94
240.26	97.94
240.494	94.94
240.728	69.94
240.961	93.94
241.195	88.94
241.429	83.94
241.662	75.94
241.896	60.94
242.13	83.94
242.363	73.94
242.597	91.94
242.83	68.94
243.064	84.94
243.298	82.94
243.531	94.94
243.765	74.94
243.998	75.94
244.232	98.94
244.465	91.94
244.699	87.94
244.932	86.94
245.166	83.94
245.399	74.94
245.633	84.94
245.866	76.94
246.099	85.94
246.333	81.94
246.566	91.94
246.8	75.94
247.033	81.94
247.266	84.94
247.5	80.94
247.733	89.94
247.966	82.94
248.2	79.94
248.433	85.94
248.666	68.94
248.899	79.94
249.133	91.94
249.366	105.94
249.599	89.94
249.832	79.94
250.066	86.94
250.299	88.94
250.532	111.94
250.765	84.94
250.998	73.94
251.231	78.94
251.465	98.94
251.698	88.94
251.931	91.94
252.164	91.94
252.397	83.94
252.63	87.94
252.863	75.94
253.096	79.94
253.329	94.94
253.562	78.94
253.795	70.94
254.028	84.94
254.261	80.94
254.494	77.94
254.727	99.94
254.96	88.94
255.193	93.94
255.426	70.94
255.659	86.94
255.892	101.94
256.124	101.94
256.357	72.94
256.59	88.94
256.823	98.94
257.056	91.94
257.289	94.94
257.521	88.94
257.754	92.94
257.987	91.94
258.22	87.94
258.452	95.94
258.685	86.94
258.918	78.94
259.151	83.94
259.383	91.94
259.616	98.94
259.849	94.94
260.081	91.94
260.314	95.94
260.547	103.94
260.779	99.94
261.012	101.94
261.244	117.94
261.477	113.94
261.71	113.94
261.942	131.94
262.175	152.94
262.407	106.94
262.64	102.94
262.872	90.94
263.105	97.94
263.337	74.94
263.57	81.94
263.802	97.94
264.035	91.94
264.267	87.94
264.499	91.94
264.732	82.94
264.964	82.94
265.197	91.94
265.429	87.94
265.661	92.94
265.894	94.94
266.126	80.94
266.358	65.94
266.591	78.94
266.823	92.94
267.055	90.94
267.287	85.94
267.52	88.94
267.752	93.94
267.984	87.94
268.216	88.94
268.448	90.94
268.681	108.94
268.913	99.94
269.145	88.94
269.377	76.94
269.609	78.94
269.841	74.94
270.073	87.94
270.306	88.94
270.538	87.94
270.77	92.94
271.002	84.94
271.234	86.94
271.466	105.94
271.698	96.94
271.93	88.94
272.162	85.94
272.394	95.94
272.626	75.94
272.858	90.94
273.09	94.94
273.322	70.94
273.553	87.94
273.785	80.94
274.017	83.94
274.249	79.94
274.481	87.94
274.713	82.94
274.945	100.94
275.176	97.94
275.408	87.94
275.64	109.94
275.872	146.94
276.104	124.94
276.335	113.94
276.567	129.94
276.799	156.94
277.031	183.94
277.262	208.94
277.494	150.94
277.726	119.94
277.957	106.94
278.189	104.94
278.421	101.94
278.652	88.94
278.884	98.94
279.115	86.94
279.347	98.94
279.579	105.94
279.81	127.94
280.042	203.94
280.273	282.94
280.505	193.94
280.736	116.94
280.968	106.94
281.199	95.94
281.431	90.94
281.662	95.94
281.894	86.94
282.125	107.94
282.356	154.94
282.588	194.94
282.819	131.94
283.051	98.94
283.282	95.94
283.513	106.94
283.745	97.94
283.976	79.94
284.207	93.94
284.439	83.94
284.67	85.94
284.901	87.94
285.132	90.94
285.364	88.94
285.595	90.94
285.826	84.94
286.057	93.94
286.288	98.94
286.52	85.94
286.751	91.94
286.982	84.94
287.213	83.94
287.444	84.94
287.675	94.94
287.906	108.94
288.138	95.94
288.369	99.94
288.6	98.94
288.831	81.94
289.062	95.94
289.293	97.94
289.524	92.94
289.755	85.94
289.986	86.94
290.217	84.94
290.448	83.94
290.679	95.94
290.91	90.94
291.141	84.94
291.371	103.94
291.602	89.94
291.833	66.94
292.064	100.94
292.295	83.94
292.526	100.94
292.757	100.94
292.987	96.94
293.218	82.94
293.449	104.94
293.68	94.94
293.91	90.94
294.141	90.94
294.372	97.94
294.603	87.94
294.833	84.94
295.064	80.94
295.295	99.94
295.525	91.94
295.756	112.94
295.987	127.94
296.217	175.94
296.448	159.94
296.679	101.94
296.909	100.94
297.14	85.94
297.37	102.94
297.601	90.94
297.831	88.94
298.062	96.94
298.292	108.94
298.523	105.94
298.753	94.94
298.984	85.94
299.214	91.94
299.445	92.94
299.675	106.94
299.905	104.94
300.136	85.94
300.366	88.94
300.597	97.94
300.827	116.94
301.057	114.94
301.288	121.94
301.518	105.94
301.748	100.94
301.979	118.94
302.209	97.94
302.439	115.94
302.669	97.94
302.9	94.94
303.13	93.94
303.36	101.94
303.59	142.94
303.82	144.94
304.051	114.94
304.281	98.94
304.511	98.94
304.741	92.94
304.971	92.94
305.201	90.94
305.431	97.94
305.661	82.94
305.891	94.94
306.121	116.94
306.352	116.94
306.582	122.94
306.812	111.94
307.042	119.94
307.272	167.94
307.502	191.94
307.731	177.94
307.961	145.94
308.191	101.94
308.421	100.94
308.651	97.94
308.881	95.94
309.111	98.94
309.341	98.94
309.571	124.94
309.8	95.94
310.03	108.94
310.26	109.94
310.49	103.94
310.72	113.94
310.949	120.94
311.179	114.94
311.409	99.94
311.639	90.94
311.868	114.94
312.098	120.94
312.328	104.94
312.557	130.94
312.787	133.94
313.017	133.94
313.246	111.94
313.476	92.94
313.706	99.94
313.935	101.94
314.165	117.94
314.394	119.94
314.624	121.94
314.853	128.94
315.083	113.94
315.312	88.94
315.542	85.94
315.771	97.94
316.001	84.94
316.23	91.94
316.46	106.94
316.689	106.94
316.919	93.94
317.148	119.94
317.377	104.94
317.607	108.94
317.836	108.94
318.065	97.94
318.295	83.94
318.524	97.94
318.753	93.94
318.983	92.94
319.212	118.94
319.441	135.94
319.67	132.94
319.9	114.94
320.129	103.94
320.358	106.94
320.587	106.94
320.816	121.94
321.046	112.94
321.275	108.94
321.504	100.94
321.733	109.94
321.962	103.94
322.191	100.94
322.42	119.94
322.649	138.94
322.878	128.94
323.108	133.94
323.337	153.94
323.566	186.94
323.795	184.94
324.024	250.94
324.253	521.94
324.482	1080.94
324.71	2211.94
324.939	2949.94
325.168	1067.94
325.397	306.94
325.626	183.94
325.855	153.94
326.084	156.94
326.313	145.94
326.542	181.94
326.77	267.94
326.999	548.94
327.228	1110.94
327.457	2043.94
327.686	1697.94
327.914	592.94
328.143	610.94
328.372	764.94
328.6	418.94
328.829	200.94
329.058	218.94
329.287	216.94
329.515	205.94
329.744	286.94
329.972	536.94
330.201	1120.94
330.43	1639.94
330.658	752.94
330.887	355.94
331.115	232.94
331.344	136.94
331.572	123.94
331.801	129.94
332.03	132.94
332.258	117.94
332.486	103.94
332.715	107.94
332.943	128.94
333.172	122.94
333.4	146.94
333.629	192.94
333.857	238.94
334.085	505.94
334.314	1033.94
334.542	2042.94
334.771	1970.94
334.999	503.94
335.227	219.94
335.455	148.94
335.684	115.94
335.912	115.94
336.14	108.94
336.369	110.94
336.597	125.94
336.825	108.94
337.053	115.94
337.281	95.94
337.51	108.94
337.738	104.94
337.966	127.94
338.194	122.94
338.422	118.94
338.65	101.94
338.878	95.94
339.106	82.94
339.334	101.94
339.562	86.94
339.79	101.94
340.018	117.94
340.246	91.94
340.474	103.94
340.702	115.94
340.93	107.94
341.158	86.94
341.386	117.94
341.614	106.94
341.842	114.94
342.07	101.94
342.298	96.94
342.526	102.94
342.754	91.94
342.981	80.94
343.209	66.94
343.437	99.94
343.665	98.94
343.893	96.94
344.12	102.94
344.348	105.94
344.576	84.94
344.804	100.94
345.031	103.94
345.259	123.94
345.487	98.94
345.714	89.94
345.942	86.94
346.17	97.94
346.397	101.94
346.625	96.94
346.853	106.94
347.08	94.94
347.308	96.94
347.535	118.94
347.763	114.94
347.99	114.94
348.218	106.94
348.445	130.94
348.673	118.94
348.9	99.94
349.128	92.94
349.355	99.94
349.583	107.94
349.81	108.94
350.037	90.94
350.265	89.94
350.492	95.94
350.72	98.94
350.947	112.94
351.174	111.94
351.402	144.94
351.629	115.94
351.856	107.94
352.083	126.94
352.311	126.94
352.538	136.94
352.765	118.94
352.992	117.94
353.22	131.94
353.447	110.94
353.674	104.94
353.901	113.94
354.128	95.94
354.355	97.94
354.583	93.94
354.81	112.94
355.037	98.94
355.264	88.94
355.491	96.94
355.718	91.94
355.945	86.94
356.172	103.94
356.399	86.94
356.626	102.94
356.853	106.94
357.08	113.94
357.307	102.94
357.534	89.94
357.761	102.94
357.988	108.94
358.215	104.94
358.441	113.94
358.668	85.94
358.895	83.94
359.122	75.94
359.349	86.94
359.576	108.94
359.802	119.94
360.029	144.94
360.256	167.94
360.483	122.94
360.709	104.94
360.936	104.94
361.163	105.94
361.39	104.94
361.616	105.94
361.843	89.94
362.07	117.94
362.296	110.94
362.523	110.94
362.749	101.94
362.976	99.94
363.203	100.94
363.429	86.94
363.656	94.94
363.882	94.94
364.109	95.94
364.335	100.94
364.562	106.94
364.788	87.94
365.015	107.94
365.241	102.94
365.468	131.94
365.694	122.94
365.92	119.94
366.147	104.94
366.373	106.94
366.599	106.94
366.826	91.94
367.052	94.94
367.278	102.94
367.505	86.94
367.731	109.94
367.957	102.94
368.184	105.94
368.41	122.94
368.636	135.94
368.862	136.94
369.089	129.94
369.315	102.94
369.541	96.94
369.767	102.94
369.993	111.94
370.219	114.94
370.445	86.94
370.672	94.94
370.898	98.94
371.124	100.94
371.35	102.94
371.576	83.94
371.802	89.94
372.028	88.94
372.254	92.94
372.48	89.94
372.706	95.94
372.932	91.94
373.158	92.94
373.384	90.94
373.61	90.94
373.835	87.94
374.061	105.94
374.287	105.94
374.513	84.94
374.739	90.94
374.965	94.94
375.191	83.94
375.416	86.94
375.642	93.94
375.868	99.94
376.094	98.94
376.319	87.94
376.545	103.94
376.771	102.94
376.997	99.94
377.222	114.94
377.448	109.94
377.674	86.94
377.899	98.94
378.125	98.94
378.35	92.94
378.576	94.94
378.802	89.94
379.027	88.94
379.253	106.94
379.478	98.94
379.704	96.94
379.929	98.94
380.155	100.94
380.38	96.94
380.606	107.94
380.831	110.94
381.057	97.94
381.282	99.94
381.507	109.94
381.733	105.94
381.958	105.94
382.184	97.94
382.409	98.94
382.634	97.94
382.86	91.94
383.085	87.94
383.31	94.94
383.535	79.94
383.761	106.94
383.986	83.94
384.211	83.94
384.436	90.94
384.662	107.94
384.887	82.94
385.112	91.94
385.337	110.94
385.562	107.94
385.787	114.94
386.013	103.94
386.238	112.94
386.463	102.94
386.688	106.94
386.913	97.94
387.138	97.94
387.363	117.94
387.588	103.94
387.813	98.94
388.038	107.94
388.263	102.94
388.488	111.94
388.713	111.94
388.938	104.94
389.163	92.94
389.387	100.94
389.612	105.94
389.837	96.94
390.062	90.94
390.287	100.94
390.512	92.94
390.736	91.94
390.961	104.94
391.186	94.94
391.411	85.94
391.636	99.94
391.86	88.94
392.085	86.94
392.31	89.94
392.534	79.94
392.759	70.94
392.984	95.94
393.208	92.94
393.433	98.94
393.658	92.94
393.882	89.94
394.107	77.94
394.331	88.94
394.556	94.94
394.78	82.94
395.005	79.94
395.229	79.94
395.454	90.94
395.678	86.94
395.903	96.94
396.127	101.94
396.352	93.94
396.576	89.94
396.801	87.94
397.025	88.94
397.249	90.94
397.474	96.94
397.698	101.94
397.922	95.94
398.147	95.94
398.371	91.94
398.595	96.94
398.82	84.94
399.044	98.94
399.268	104.94
399.492	81.94
399.717	91.94
399.941	83.94
400.165	113.94
400.389	96.94
400.613	102.94
400.837	95.94
401.062	95.94
401.286	95.94
401.51	103.94
401.734	84.94
401.958	112.94
402.182	145.94
402.406	208.94
402.63	152.94
402.854	116.94
403.078	105.94
403.302	97.94
403.526	108.94
403.75	102.94
403.974	96.94
404.198	99.94
404.422	94.94
404.645	92.94
404.869	110.94
405.093	122.94
405.317	155.94
405.541	148.94
405.765	132.94
405.988	156.94
406.212	248.94
406.436	337.94
406.66	228.94
406.883	133.94
407.107	111.94
407.331	111.94
407.555	121.94
407.778	128.94
408.002	94.94
408.226	101.94
408.449	91.94
408.673	86.94
408.896	102.94
409.12	83.94
409.344	72.94
409.567	82.94
409.791	92.94
410.014	97.94
410.238	91.94
410.461	98.94
410.685	101.94
410.908	80.94
411.132	111.94
411.355	117.94
411.578	97.94
411.802	92.94
412.025	105.94
412.249	98.94
412.472	115.94
412.695	155.94
412.919	123.94
413.142	111.94
413.365	110.94
413.589	94.94
413.812	102.94
414.035	102.94
414.258	94.94
414.482	98.94
414.705	110.94
414.928	84.94
415.151	94.94
415.374	97.94
415.597	83.94
415.821	102.94
416.044	94.94
416.267	98.94
416.49	89.94
416.713	90.94
416.936	103.94
417.159	94.94
417.382	91.94
417.605	122.94
417.828	114.94
418.051	111.94
418.274	105.94
418.497	86.94
418.72	88.94
418.943	95.94
419.166	92.94
419.389	106.94
419.611	98.94
419.834	83.94
420.057	92.94
420.28	112.94
420.503	107.94
420.726	105.94
420.948	105.94
421.171	103.94
421.394	110.94
421.617	94.94
421.839	86.94
422.062	95.94
422.285	96.94
422.507	99.94
422.73	114.94
422.953	112.94
423.175	100.94
423.398	99.94
423.621	89.94
423.843	107.94
424.066	94.94
424.288	114.94
424.511	109.94
424.733	110.94
424.956	122.94
425.178	93.94
425.401	118.94
425.623	107.94
425.846	103.94
426.068	105.94
426.291	105.94
426.513	107.94
426.735	96.94
426.958	117.94
427.18	117.94
427.402	198.94
427.625	308.94
427.847	276.94
428.069	245.94
428.292	134.94
428.514	108.94
428.736	101.94
428.958	98.94
429.181	103.94
429.403	79.94
429.625	95.94
429.847	105.94
430.069	124.94
430.292	101.94
430.514	90.94
430.736	75.94
430.958	95.94
431.18	83.94
431.402	102.94
431.624	99.94
431.846	80.94
432.068	88.94
432.29	102.94
432.512	92.94
432.734	95.94
432.956	97.94
433.178	97.94
433.4	94.94
433.622	111.94
433.844	97.94
434.066	99.94
434.287	81.94
434.509	93.94
434.731	96.94
434.953	98.94
435.175	98.94
435.397	98.94
435.618	87.94
435.84	126.94
436.062	137.94
436.284	123.94
436.505	108.94
436.727	123.94
436.949	106.94
437.17	92.94
437.392	104.94
437.614	100.94
437.835	130.94
438.057	177.94
438.278	138.94
438.5	134.94
438.721	154.94
438.943	119.94
439.165	100.94
439.386	102.94
439.608	91.94
439.829	112.94
440.05	152.94
440.272	221.94
440.493	126.94
440.715	96.94
440.936	74.94
441.158	105.94
441.379	90.94
441.6	114.94
441.822	115.94
442.043	100.94
442.264	133.94
442.486	127.94
442.707	110.94
442.928	138.94
443.149	205.94
443.371	163.94
443.592	152.94
443.813	138.94
444.034	132.94
444.255	104.94
444.476	99.94
444.698	103.94
444.919	102.94
445.14	138.94
445.361	123.94
445.582	136.94
445.803	225.94
446.024	212.94
446.245	182.94
446.466	126.94
446.687	98.94
446.908	103.94
447.129	96.94
447.35	89.94
447.571	89.94
447.792	99.94
448.013	116.94
448.234	128.94
448.455	117.94
448.675	132.94
448.896	144.94
449.117	116.94
449.338	135.94
449.559	146.94
449.779	164.94
450	102.94
450.221	94.94
450.442	97.94
450.662	111.94
450.883	123.94
451.104	159.94
451.324	124.94
451.545	101.94
451.766	104.94
451.986	102.94
452.207	90.94
452.428	107.94
452.648	118.94
452.869	129.94
453.089	154.94
453.31	156.94
453.53	105.94
453.751	104.94
453.971	138.94
454.192	154.94
454.412	107.94
454.633	87.94
454.853	91.94
455.073	99.94
455.294	100.94
455.514	115.94
455.734	107.94
455.955	85.94
456.175	84.94
456.395	86.94
456.616	82.94
456.836	89.94
457.056	96.94
457.276	92.94
457.497	82.94
457.717	103.94
457.937	98.94
458.157	102.94
458.377	113.94
458.598	154.94
458.818	243.94
459.038	280.94
459.258	168.94
459.478	114.94
459.698	89.94
459.918	93.94
460.138	107.94
460.358	87.94
460.578	100.94
460.798	101.94
461.018	106.94
461.238	75.94
461.458	73.94
461.678	90.94
461.898	90.94
462.118	105.94
462.338	88.94
462.558	101.94
462.777	95.94
462.997	94.94
463.217	120.94
463.437	102.94
463.657	84.94
463.876	80.94
464.096	103.94
464.316	100.94
464.536	108.94
464.755	106.94
464.975	138.94
465.195	276.94
465.414	282.94
465.634	126.94
465.854	88.94
466.073	98.94
466.293	92.94
466.512	84.94
466.732	89.94
466.951	94.94
467.171	115.94
467.391	112.94
467.61	139.94
467.829	211.94
468.049	575.94
468.268	908.94
468.488	239.94
468.707	119.94
468.927	84.94
469.146	87.94
469.365	99.94
469.585	99.94
469.804	113.94
470.023	107.94
470.243	92.94
470.462	119.94
470.681	151.94
470.901	105.94
471.12	110.94
471.339	101.94
471.558	116.94
471.777	160.94
471.997	323.94
472.216	1152.94
472.435	2702.94
472.654	604.94
472.873	164.94
473.092	121.94
473.311	102.94
473.53	98.94
473.749	99.94
473.968	122.94
474.187	128.94
474.406	119.94
474.625	80.94
474.844	84.94
475.063	88.94
475.282	87.94
475.501	100.94
475.72	108.94
475.939	110.94
476.158	95.94
476.377	90.94
476.596	92.94
476.814	107.94
477.033	101.94
477.252	96.94
477.471	87.94
477.69	111.94
477.908	103.94
478.127	83.94
478.346	106.94
478.564	104.94
478.783	112.94
479.002	118.94
479.22	103.94
479.439	129.94
479.658	140.94
479.876	129.94
480.095	121.94
480.313	146.94
480.532	171.94
480.751	319.94
480.969	1014.94
481.188	4617.94
481.406	2693.94
481.624	392.94
481.843	139.94
482.061	110.94
482.28	97.94
482.498	92.94
482.717	95.94
482.935	100.94
483.153	97.94
483.372	101.94
483.59	98.94
483.808	108.94
484.027	80.94
484.245	104.94
484.463	96.94
484.681	98.94
484.9	100.94
485.118	105.94
485.336	90.94
485.554	97.94
485.772	107.94
485.99	113.94
486.209	116.94
486.427	120.94
486.645	129.94
486.863	140.94
487.081	121.94
487.299	114.94
487.517	86.94
487.735	86.94
487.953	92.94
488.171	99.94
488.389	77.94
488.607	117.94
488.825	89.94
489.043	87.94
489.261	89.94
489.479	106.94
489.696	96.94
489.914	100.94
490.132	98.94
490.35	91.94
490.568	79.94
490.786	87.94
491.003	100.94
491.221	101.94
491.439	100.94
491.657	103.94
491.874	92.94
492.092	91.94
492.31	104.94
492.527	104.94
492.745	108.94
492.963	97.94
493.18	87.94
493.398	97.94
493.615	106.94
493.833	86.94
494.05	90.94
494.268	91.94
494.485	85.94
494.703	80.94
494.92	83.94
495.138	100.94
495.355	96.94
495.573	96.94
495.79	101.94
496.008	101.94
496.225	97.94
496.442	87.94
496.66	101.94
496.877	93.94
497.094	116.94
497.312	106.94
497.529	106.94
497.746	88.94
497.963	100.94
498.181	112.94
498.398	99.94
498.615	122.94
498.832	120.94
499.049	108.94
499.267	89.94
499.484	103.94
499.701	89.94
499.918	93.94
500.135	75.94
500.352	99.94
500.569	106.94
500.786	104.94
501.003	99.94
501.22	82.94
501.437	88.94
501.654	103.94
501.871	133.94
502.088	116.94
502.305	90.94
502.522	96.94
502.739	109.94
502.956	103.94
503.172	107.94
503.389	94.94
503.606	123.94
503.823	97.94
504.04	97.94
504.256	103.94
504.473	85.94
504.69	78.94
504.907	97.94
505.123	98.94
505.34	98.94
505.557	96.94
505.773	95.94
505.99	78.94
506.207	95.94
506.423	79.94
506.64	76.94
506.856	94.94
507.073	90.94
507.289	116.94
507.506	107.94
507.722	140.94
507.939	149.94
508.155	104.94
508.372	107.94
508.588	99.94
508.805	107.94
509.021	107.94
509.238	112.94
509.454	96.94
509.67	111.94
509.887	132.94
510.103	152.94
510.319	262.94
510.536	1004.94
510.752	3484.94
510.968	904.94
