Data from Circ_1987_H10_HRD10591_00055.txt Node
Date: Wed Jan 03 12:10:43 EST 2024
User: Yrep
Spectrometer: HR+D1059
Trigger mode: 1
Integration Time (sec): 1.000000E-1
Scans to average: 1
Electric dark correction enabled: true
Nonlinearity correction enabled: false
Boxcar width: 0
XAxis mode: Wavelengths
Number of Pixels in Spectrum: 2048
>>>>>Begin Spectral Data<<<<<
223.165	-18.12
223.4	-18.12
223.635	-18.12
223.869	-23.12
224.104	-29.12
224.338	-11.12
224.573	-8.12
224.808	-18.12
225.042	-5.12
225.277	-3.12
225.511	-0.12
225.746	13.88
225.98	12.88
226.215	13.88
226.449	-0.12
226.683	8.88
226.918	22.88
227.152	43.88
227.387	34.88
227.621	40.88
227.856	53.88
228.09	54.88
228.324	34.88
228.559	47.88
228.793	61.88
229.027	61.88
229.262	54.88
229.496	67.88
229.73	82.88
229.964	96.88
230.199	82.88
230.433	68.88
230.667	74.88
230.901	80.88
231.136	85.88
231.37	71.88
231.604	81.88
231.838	82.88
232.072	86.88
232.306	90.88
232.541	75.88
232.775	71.88
233.009	78.88
233.243	84.88
233.477	83.88
233.711	72.88
233.945	63.88
234.179	74.88
234.413	64.88
234.647	86.88
234.881	71.88
235.115	64.88
235.349	83.88
235.583	78.88
235.817	69.88
236.051	88.88
236.285	71.88
236.519	82.88
236.753	70.88
236.987	90.88
237.221	90.88
237.455	84.88
237.689	72.88
237.922	82.88
238.156	62.88
238.39	72.88
238.624	63.88
238.858	59.88
239.091	81.88
239.325	84.88
239.559	88.88
239.793	66.88
240.027	92.88
240.26	70.88
240.494	84.88
240.728	80.88
240.961	69.88
241.195	82.88
241.429	94.88
241.662	61.88
241.896	74.88
242.13	82.88
242.363	82.88
242.597	75.88
242.83	78.88
243.064	70.88
243.298	83.88
243.531	88.88
243.765	79.88
243.998	93.88
244.232	108.88
244.465	90.88
244.699	61.88
244.932	76.88
245.166	96.88
245.399	74.88
245.633	72.88
245.866	81.88
246.099	62.88
246.333	64.88
246.566	85.88
246.8	75.88
247.033	78.88
247.266	83.88
247.5	93.88
247.733	87.88
247.966	74.88
248.2	92.88
248.433	66.88
248.666	72.88
248.899	71.88
249.133	95.88
249.366	92.88
249.599	116.88
249.832	86.88
250.066	99.88
250.299	83.88
250.532	88.88
250.765	86.88
250.998	75.88
251.231	76.88
251.465	76.88
251.698	82.88
251.931	76.88
252.164	81.88
252.397	78.88
252.63	82.88
252.863	78.88
253.096	76.88
253.329	89.88
253.562	73.88
253.795	81.88
254.028	62.88
254.261	71.88
254.494	82.88
254.727	100.88
254.96	76.88
255.193	67.88
255.426	79.88
255.659	79.88
255.892	107.88
256.124	105.88
256.357	97.88
256.59	59.88
256.823	78.88
257.056	96.88
257.289	79.88
257.521	79.88
257.754	83.88
257.987	80.88
258.22	85.88
258.452	96.88
258.685	95.88
258.918	78.88
259.151	81.88
259.383	70.88
259.616	79.88
259.849	77.88
260.081	81.88
260.314	90.88
260.547	89.88
260.779	100.88
261.012	89.88
261.244	92.88
261.477	99.88
261.71	102.88
261.942	123.88
262.175	146.88
262.407	90.88
262.64	80.88
262.872	97.88
263.105	98.88
263.337	88.88
263.57	76.88
263.802	87.88
264.035	79.88
264.267	92.88
264.499	77.88
264.732	86.88
264.964	70.88
265.197	84.88
265.429	86.88
265.661	87.88
265.894	93.88
266.126	77.88
266.358	91.88
266.591	80.88
266.823	83.88
267.055	84.88
267.287	93.88
267.52	96.88
267.752	85.88
267.984	92.88
268.216	90.88
268.448	86.88
268.681	95.88
268.913	87.88
269.145	84.88
269.377	67.88
269.609	69.88
269.841	74.88
270.073	78.88
270.306	85.88
270.538	83.88
270.77	91.88
271.002	87.88
271.234	94.88
271.466	100.88
271.698	90.88
271.93	93.88
272.162	83.88
272.394	95.88
272.626	88.88
272.858	82.88
273.09	78.88
273.322	90.88
273.553	74.88
273.785	87.88
274.017	88.88
274.249	88.88
274.481	80.88
274.713	86.88
274.945	90.88
275.176	97.88
275.408	99.88
275.64	110.88
275.872	119.88
276.104	107.88
276.335	90.88
276.567	117.88
276.799	163.88
277.031	167.88
277.262	189.88
277.494	149.88
277.726	100.88
277.957	88.88
278.189	74.88
278.421	92.88
278.652	74.88
278.884	88.88
279.115	95.88
279.347	92.88
279.579	113.88
279.81	111.88
280.042	194.88
280.273	264.88
280.505	186.88
280.736	116.88
280.968	100.88
281.199	85.88
281.431	91.88
281.662	99.88
281.894	87.88
282.125	91.88
282.356	161.88
282.588	184.88
282.819	141.88
283.051	99.88
283.282	79.88
283.513	68.88
283.745	80.88
283.976	81.88
284.207	78.88
284.439	96.88
284.67	83.88
284.901	87.88
285.132	87.88
285.364	84.88
285.595	86.88
285.826	99.88
286.057	80.88
286.288	78.88
286.52	79.88
286.751	92.88
286.982	89.88
287.213	114.88
287.444	95.88
287.675	84.88
287.906	81.88
288.138	91.88
288.369	103.88
288.6	94.88
288.831	84.88
289.062	87.88
289.293	90.88
289.524	92.88
289.755	71.88
289.986	85.88
290.217	95.88
290.448	104.88
290.679	78.88
290.91	94.88
291.141	82.88
291.371	88.88
291.602	85.88
291.833	77.88
292.064	90.88
292.295	79.88
292.526	88.88
292.757	86.88
292.987	92.88
293.218	90.88
293.449	78.88
293.68	91.88
293.91	78.88
294.141	86.88
294.372	90.88
294.603	84.88
294.833	89.88
295.064	86.88
295.295	103.88
295.525	91.88
295.756	95.88
295.987	120.88
296.217	161.88
296.448	131.88
296.679	85.88
296.909	102.88
297.14	103.88
297.37	82.88
297.601	88.88
297.831	102.88
298.062	104.88
298.292	95.88
298.523	94.88
298.753	94.88
298.984	102.88
299.214	102.88
299.445	83.88
299.675	90.88
299.905	110.88
300.136	90.88
300.366	91.88
300.597	95.88
300.827	96.88
301.057	93.88
301.288	119.88
301.518	92.88
301.748	75.88
301.979	98.88
302.209	95.88
302.439	93.88
302.669	99.88
302.9	71.88
303.13	80.88
303.36	95.88
303.59	124.88
303.82	157.88
304.051	108.88
304.281	99.88
304.511	90.88
304.741	96.88
304.971	80.88
305.201	96.88
305.431	97.88
305.661	83.88
305.891	77.88
306.121	87.88
306.352	111.88
306.582	114.88
306.812	96.88
307.042	128.88
307.272	144.88
307.502	159.88
307.731	165.88
307.961	114.88
308.191	109.88
308.421	98.88
308.651	92.88
308.881	90.88
309.111	110.88
309.341	101.88
309.571	109.88
309.8	102.88
310.03	90.88
310.26	104.88
310.49	94.88
310.72	99.88
310.949	125.88
311.179	104.88
311.409	93.88
311.639	106.88
311.868	106.88
312.098	103.88
312.328	96.88
312.557	115.88
312.787	115.88
313.017	120.88
313.246	117.88
313.476	95.88
313.706	96.88
313.935	84.88
314.165	120.88
314.394	118.88
314.624	102.88
314.853	101.88
315.083	101.88
315.312	96.88
315.542	96.88
315.771	100.88
316.001	76.88
316.23	91.88
316.46	93.88
316.689	91.88
316.919	101.88
317.148	91.88
317.377	99.88
317.607	108.88
317.836	96.88
318.065	79.88
318.295	75.88
318.524	88.88
318.753	100.88
318.983	100.88
319.212	116.88
319.441	107.88
319.67	120.88
319.9	80.88
320.129	94.88
320.358	108.88
320.587	97.88
320.816	105.88
321.046	114.88
321.275	91.88
321.504	94.88
321.733	89.88
321.962	108.88
322.191	114.88
322.42	107.88
322.649	124.88
322.878	136.88
323.108	142.88
323.337	142.88
323.566	173.88
323.795	186.88
324.024	258.88
324.253	485.88
324.482	1050.88
324.71	2167.88
324.939	2934.88
325.168	1059.88
325.397	306.88
325.626	173.88
325.855	146.88
326.084	130.88
326.313	164.88
326.542	168.88
326.77	266.88
326.999	526.88
327.228	1188.88
327.457	2131.88
327.686	1696.88
327.914	574.88
328.143	516.88
328.372	640.88
328.6	361.88
328.829	200.88
329.058	208.88
329.287	202.88
329.515	194.88
329.744	261.88
329.972	483.88
330.201	982.88
330.43	1447.88
330.658	670.88
330.887	304.88
331.115	200.88
331.344	132.88
331.572	122.88
331.801	130.88
332.03	112.88
332.258	118.88
332.486	101.88
332.715	100.88
332.943	107.88
333.172	119.88
333.4	126.88
333.629	153.88
333.857	234.88
334.085	459.88
334.314	960.88
334.542	1867.88
334.771	1762.88
334.999	448.88
335.227	178.88
335.455	141.88
335.684	131.88
335.912	104.88
336.14	117.88
336.369	93.88
336.597	120.88
336.825	107.88
337.053	95.88
337.281	98.88
337.51	100.88
337.738	95.88
337.966	90.88
338.194	120.88
338.422	109.88
338.65	95.88
338.878	86.88
339.106	98.88
339.334	91.88
339.562	100.88
339.79	100.88
340.018	96.88
340.246	101.88
340.474	103.88
340.702	100.88
340.93	96.88
341.158	102.88
341.386	101.88
341.614	109.88
341.842	98.88
342.07	90.88
342.298	92.88
342.526	91.88
342.754	97.88
342.981	94.88
343.209	88.88
343.437	108.88
343.665	96.88
343.893	107.88
344.12	98.88
344.348	82.88
344.576	99.88
344.804	94.88
345.031	135.88
345.259	99.88
345.487	93.88
345.714	111.88
345.942	98.88
346.17	90.88
346.397	82.88
346.625	101.88
346.853	96.88
347.08	88.88
347.308	103.88
347.535	109.88
347.763	123.88
347.99	112.88
348.218	109.88
348.445	119.88
348.673	104.88
348.9	89.88
349.128	96.88
349.355	96.88
349.583	84.88
349.81	106.88
350.037	93.88
350.265	87.88
350.492	100.88
350.72	92.88
350.947	104.88
351.174	104.88
351.402	132.88
351.629	123.88
351.856	110.88
352.083	110.88
352.311	119.88
352.538	118.88
352.765	118.88
352.992	111.88
353.22	115.88
353.447	111.88
353.674	107.88
353.901	100.88
354.128	96.88
354.355	99.88
354.583	94.88
354.81	96.88
355.037	79.88
355.264	97.88
355.491	101.88
355.718	88.88
355.945	93.88
356.172	79.88
356.399	79.88
356.626	98.88
356.853	91.88
357.08	80.88
357.307	93.88
357.534	74.88
357.761	83.88
357.988	92.88
358.215	92.88
358.441	90.88
358.668	73.88
358.895	82.88
359.122	100.88
359.349	101.88
359.576	86.88
359.802	124.88
360.029	141.88
360.256	140.88
360.483	116.88
360.709	94.88
360.936	100.88
361.163	104.88
361.39	102.88
361.616	114.88
361.843	85.88
362.07	110.88
362.296	112.88
362.523	103.88
362.749	88.88
362.976	104.88
363.203	84.88
363.429	85.88
363.656	92.88
363.882	86.88
364.109	84.88
364.335	85.88
364.562	94.88
364.788	97.88
365.015	97.88
365.241	107.88
365.468	124.88
365.694	115.88
365.92	100.88
366.147	83.88
366.373	95.88
366.599	96.88
366.826	94.88
367.052	77.88
367.278	98.88
367.505	107.88
367.731	113.88
367.957	93.88
368.184	85.88
368.41	102.88
368.636	124.88
368.862	117.88
369.089	119.88
369.315	98.88
369.541	92.88
369.767	102.88
369.993	103.88
370.219	80.88
370.445	86.88
370.672	91.88
370.898	93.88
371.124	83.88
371.35	91.88
371.576	90.88
371.802	83.88
372.028	91.88
372.254	88.88
372.48	87.88
372.706	76.88
372.932	68.88
373.158	77.88
373.384	97.88
373.61	91.88
373.835	99.88
374.061	92.88
374.287	108.88
374.513	84.88
374.739	98.88
374.965	94.88
375.191	88.88
375.416	81.88
375.642	76.88
375.868	88.88
376.094	85.88
376.319	81.88
376.545	87.88
376.771	88.88
376.997	97.88
377.222	100.88
377.448	106.88
377.674	87.88
377.899	80.88
378.125	85.88
378.35	83.88
378.576	87.88
378.802	99.88
379.027	84.88
379.253	95.88
379.478	78.88
379.704	92.88
379.929	95.88
380.155	92.88
380.38	96.88
380.606	87.88
380.831	98.88
381.057	111.88
381.282	94.88
381.507	88.88
381.733	80.88
381.958	81.88
382.184	99.88
382.409	97.88
382.634	94.88
382.86	102.88
383.085	108.88
383.31	107.88
383.535	85.88
383.761	107.88
383.986	96.88
384.211	96.88
384.436	112.88
384.662	91.88
384.887	92.88
385.112	107.88
385.337	86.88
385.562	92.88
385.787	91.88
386.013	102.88
386.238	112.88
386.463	101.88
386.688	102.88
386.913	99.88
387.138	101.88
387.363	110.88
387.588	97.88
387.813	104.88
388.038	98.88
388.263	107.88
388.488	94.88
388.713	94.88
388.938	90.88
389.163	92.88
389.387	80.88
389.612	90.88
389.837	76.88
390.062	88.88
390.287	90.88
390.512	68.88
390.736	91.88
390.961	88.88
391.186	100.88
391.411	79.88
391.636	77.88
391.86	90.88
392.085	88.88
392.31	91.88
392.534	95.88
392.759	86.88
392.984	97.88
393.208	100.88
393.433	94.88
393.658	88.88
393.882	79.88
394.107	76.88
394.331	81.88
394.556	85.88
394.78	82.88
395.005	71.88
395.229	95.88
395.454	86.88
395.678	86.88
395.903	72.88
396.127	95.88
396.352	81.88
396.576	76.88
396.801	87.88
397.025	86.88
397.249	83.88
397.474	94.88
397.698	74.88
397.922	100.88
398.147	88.88
398.371	83.88
398.595	88.88
398.82	85.88
399.044	89.88
399.268	82.88
399.492	78.88
399.717	92.88
399.941	85.88
400.165	88.88
400.389	95.88
400.613	96.88
400.837	92.88
401.062	90.88
401.286	96.88
401.51	88.88
401.734	87.88
401.958	102.88
402.182	124.88
402.406	202.88
402.63	153.88
402.854	112.88
403.078	94.88
403.302	98.88
403.526	83.88
403.75	68.88
403.974	78.88
404.198	94.88
404.422	87.88
404.645	104.88
404.869	102.88
405.093	135.88
405.317	152.88
405.541	145.88
405.765	118.88
405.988	123.88
406.212	197.88
406.436	308.88
406.66	202.88
406.883	112.88
407.107	98.88
407.331	109.88
407.555	115.88
407.778	97.88
408.002	115.88
408.226	86.88
408.449	90.88
408.673	98.88
408.896	99.88
409.12	102.88
409.344	96.88
409.567	83.88
409.791	70.88
410.014	97.88
410.238	74.88
410.461	98.88
410.685	92.88
410.908	98.88
411.132	104.88
411.355	113.88
411.578	90.88
411.802	89.88
412.025	83.88
412.249	114.88
412.472	122.88
412.695	146.88
412.919	124.88
413.142	99.88
413.365	102.88
413.589	84.88
413.812	83.88
414.035	94.88
414.258	91.88
414.482	100.88
414.705	97.88
414.928	86.88
415.151	83.88
415.374	86.88
415.597	86.88
415.821	84.88
416.044	90.88
416.267	80.88
416.49	96.88
416.713	82.88
416.936	95.88
417.159	100.88
417.382	91.88
417.605	101.88
417.828	115.88
418.051	95.88
418.274	88.88
418.497	76.88
418.72	77.88
418.943	95.88
419.166	89.88
419.389	79.88
419.611	101.88
419.834	90.88
420.057	101.88
420.28	90.88
420.503	101.88
420.726	82.88
420.948	91.88
421.171	105.88
421.394	85.88
421.617	86.88
421.839	91.88
422.062	90.88
422.285	86.88
422.507	109.88
422.73	105.88
422.953	102.88
423.175	88.88
423.398	81.88
423.621	93.88
423.843	89.88
424.066	90.88
424.288	92.88
424.511	87.88
424.733	97.88
424.956	124.88
425.178	115.88
425.401	109.88
425.623	100.88
425.846	98.88
426.068	106.88
426.291	93.88
426.513	90.88
426.735	107.88
426.958	109.88
427.18	133.88
427.402	185.88
427.625	278.88
427.847	258.88
428.069	231.88
428.292	128.88
428.514	99.88
428.736	84.88
428.958	89.88
429.181	95.88
429.403	76.88
429.625	86.88
429.847	103.88
430.069	108.88
430.292	104.88
430.514	87.88
430.736	91.88
430.958	102.88
431.18	107.88
431.402	81.88
431.624	82.88
431.846	81.88
432.068	84.88
432.29	86.88
432.512	85.88
432.734	86.88
432.956	86.88
433.178	85.88
433.4	114.88
433.622	88.88
433.844	104.88
434.066	89.88
434.287	78.88
434.509	95.88
434.731	92.88
434.953	91.88
435.175	110.88
435.397	94.88
435.618	87.88
435.84	117.88
436.062	128.88
436.284	136.88
436.505	101.88
436.727	118.88
436.949	92.88
437.17	78.88
437.392	101.88
437.614	90.88
437.835	129.88
438.057	166.88
438.278	138.88
438.5	124.88
438.721	155.88
438.943	120.88
439.165	107.88
439.386	90.88
439.608	99.88
439.829	110.88
440.05	172.88
440.272	199.88
440.493	117.88
440.715	87.88
440.936	77.88
441.158	92.88
441.379	91.88
441.6	107.88
441.822	110.88
442.043	108.88
442.264	131.88
442.486	136.88
442.707	110.88
442.928	115.88
443.149	169.88
443.371	178.88
443.592	121.88
443.813	142.88
444.034	136.88
444.255	92.88
444.476	92.88
444.698	92.88
444.919	82.88
445.14	134.88
445.361	139.88
445.582	152.88
445.803	220.88
446.024	207.88
446.245	166.88
446.466	128.88
446.687	82.88
446.908	86.88
447.129	93.88
447.35	90.88
447.571	95.88
447.792	101.88
448.013	107.88
448.234	118.88
448.455	116.88
448.675	140.88
448.896	145.88
449.117	108.88
449.338	117.88
449.559	170.88
449.779	156.88
450	101.88
450.221	93.88
450.442	87.88
450.662	106.88
450.883	120.88
451.104	140.88
451.324	112.88
451.545	87.88
451.766	79.88
451.986	91.88
452.207	102.88
452.428	99.88
452.648	104.88
452.869	107.88
453.089	117.88
453.31	143.88
453.53	95.88
453.751	110.88
453.971	128.88
454.192	140.88
454.412	96.88
454.633	86.88
454.853	85.88
455.073	70.88
455.294	93.88
455.514	110.88
455.734	99.88
455.955	86.88
456.175	88.88
456.395	85.88
456.616	89.88
456.836	83.88
457.056	86.88
457.276	87.88
457.497	78.88
457.717	81.88
457.937	104.88
458.157	91.88
458.377	93.88
458.598	122.88
458.818	207.88
459.038	251.88
459.258	161.88
459.478	100.88
459.698	90.88
459.918	86.88
460.138	79.88
460.358	76.88
460.578	78.88
460.798	89.88
461.018	90.88
461.238	87.88
461.458	89.88
461.678	71.88
461.898	75.88
462.118	85.88
462.338	76.88
462.558	101.88
462.777	88.88
462.997	88.88
463.217	104.88
463.437	89.88
463.657	86.88
463.876	77.88
464.096	87.88
464.316	97.88
464.536	95.88
464.755	93.88
464.975	128.88
465.195	243.88
465.414	256.88
465.634	103.88
465.854	89.88
466.073	84.88
466.293	92.88
466.512	76.88
466.732	99.88
466.951	82.88
467.171	102.88
467.391	107.88
467.61	173.88
467.829	198.88
468.049	510.88
468.268	773.88
468.488	207.88
468.707	98.88
468.927	85.88
469.146	94.88
469.365	98.88
469.585	95.88
469.804	104.88
470.023	109.88
470.243	100.88
470.462	118.88
470.681	140.88
470.901	107.88
471.12	98.88
471.339	109.88
471.558	109.88
471.777	134.88
471.997	280.88
472.216	1014.88
472.435	2373.88
472.654	549.88
472.873	169.88
473.092	92.88
473.311	92.88
473.53	97.88
473.749	88.88
473.968	103.88
474.187	124.88
474.406	119.88
474.625	88.88
474.844	91.88
475.063	76.88
475.282	85.88
475.501	90.88
475.72	74.88
475.939	75.88
476.158	93.88
476.377	70.88
476.596	95.88
476.814	90.88
477.033	101.88
477.252	98.88
477.471	93.88
477.69	88.88
477.908	88.88
478.127	83.88
478.346	77.88
478.564	91.88
478.783	96.88
479.002	95.88
479.22	114.88
479.439	103.88
479.658	122.88
479.876	120.88
480.095	108.88
480.313	119.88
480.532	152.88
480.751	275.88
480.969	973.88
481.188	4189.88
481.406	2365.88
481.624	334.88
481.843	133.88
482.061	98.88
482.28	104.88
482.498	104.88
482.717	104.88
482.935	97.88
483.153	94.88
483.372	85.88
483.59	88.88
483.808	80.88
484.027	98.88
484.245	99.88
484.463	89.88
484.681	92.88
484.9	82.88
485.118	95.88
485.336	94.88
485.554	88.88
485.772	96.88
485.99	104.88
486.209	100.88
486.427	107.88
486.645	135.88
486.863	139.88
487.081	108.88
487.299	92.88
487.517	94.88
487.735	99.88
487.953	91.88
488.171	91.88
488.389	98.88
488.607	103.88
488.825	85.88
489.043	86.88
489.261	66.88
489.479	80.88
489.696	90.88
489.914	90.88
490.132	84.88
490.35	93.88
490.568	78.88
490.786	86.88
491.003	95.88
491.221	98.88
491.439	106.88
491.657	100.88
491.874	93.88
492.092	95.88
492.31	92.88
492.527	110.88
492.745	107.88
492.963	95.88
493.18	85.88
493.398	90.88
493.615	93.88
493.833	96.88
494.05	98.88
494.268	80.88
494.485	91.88
494.703	95.88
494.92	87.88
495.138	81.88
495.355	89.88
495.573	91.88
495.79	85.88
496.008	80.88
496.225	90.88
496.442	92.88
496.66	86.88
496.877	92.88
497.094	70.88
497.312	80.88
497.529	88.88
497.746	90.88
497.963	95.88
498.181	104.88
498.398	96.88
498.615	108.88
498.832	97.88
499.049	82.88
499.267	85.88
499.484	86.88
499.701	90.88
499.918	104.88
500.135	92.88
500.352	90.88
500.569	86.88
500.786	97.88
501.003	93.88
501.22	103.88
501.437	92.88
501.654	107.88
501.871	120.88
502.088	92.88
502.305	87.88
502.522	87.88
502.739	82.88
502.956	96.88
503.172	87.88
503.389	114.88
503.606	115.88
503.823	109.88
504.04	88.88
504.256	91.88
504.473	95.88
504.69	88.88
504.907	87.88
505.123	88.88
505.34	92.88
505.557	88.88
505.773	80.88
505.99	77.88
506.207	96.88
506.423	90.88
506.64	103.88
506.856	106.88
507.073	86.88
507.289	88.88
507.506	104.88
507.722	151.88
507.939	141.88
508.155	92.88
508.372	94.88
508.588	94.88
508.805	97.88
509.021	92.88
509.238	103.88
509.454	115.88
509.67	116.88
509.887	126.88
510.103	136.88
510.319	241.88
510.536	845.88
510.752	3031.88
510.968	808.88
511.184	174.88
511.401	131.88
511.617	108.88
511.833	111.88
512.049	96.88
512.265	103.88
512.481	93.88
512.698	86.88
512.914	101.88
513.13	101.88
513.346	100.88
513.562	99.88
