Data from Circ_1987_H10_HRD10591_00098.txt Node
Date: Wed Jan 03 12:10:52 EST 2024
User: Yrep
Spectrometer: HR+D1059
Trigger mode: 1
Integration Time (sec): 1.000000E-1
Scans to average: 1
Electric dark correction enabled: true
Nonlinearity correction enabled: false
Boxcar width: 0
XAxis mode: Wavelengths
Number of Pixels in Spectrum: 2048
>>>>>Begin Spectral Data<<<<<
223.165	-25.75
223.4	-25.75
223.635	-25.75
223.869	-20.75
224.104	-11.75
224.338	-11.75
224.573	-10.75
224.808	-9.75
225.042	-9.75
225.277	-17.75
225.511	-6.75
225.746	13.25
225.98	12.25
226.215	11.25
226.449	27.25
226.683	24.25
226.918	18.25
227.152	18.25
227.387	28.25
227.621	30.25
227.856	50.25
228.09	46.25
228.324	48.25
228.559	63.25
228.793	50.25
229.027	70.25
229.262	72.25
229.496	70.25
229.73	97.25
229.964	106.25
230.199	74.25
230.433	79.25
230.667	72.25
230.901	80.25
231.136	73.25
231.37	78.25
231.604	78.25
231.838	79.25
232.072	64.25
232.306	86.25
232.541	96.25
232.775	81.25
233.009	76.25
233.243	83.25
233.477	76.25
233.711	90.25
233.945	86.25
234.179	81.25
234.413	91.25
234.647	72.25
234.881	80.25
235.115	84.25
235.349	79.25
235.583	73.25
235.817	89.25
236.051	74.25
236.285	80.25
236.519	79.25
236.753	82.25
236.987	84.25
237.221	87.25
237.455	87.25
237.689	77.25
237.922	96.25
238.156	85.25
238.39	74.25
238.624	73.25
238.858	68.25
239.091	71.25
239.325	69.25
239.559	87.25
239.793	89.25
240.027	93.25
240.26	90.25
240.494	78.25
240.728	96.25
240.961	77.25
241.195	71.25
241.429	79.25
241.662	84.25
241.896	65.25
242.13	80.25
242.363	68.25
242.597	70.25
242.83	100.25
243.064	62.25
243.298	71.25
243.531	82.25
243.765	84.25
243.998	69.25
244.232	92.25
244.465	92.25
244.699	77.25
244.932	73.25
245.166	77.25
245.399	77.25
245.633	76.25
245.866	78.25
246.099	84.25
246.333	83.25
246.566	91.25
246.8	89.25
247.033	69.25
247.266	73.25
247.5	82.25
247.733	68.25
247.966	75.25
248.2	97.25
248.433	92.25
248.666	90.25
248.899	84.25
249.133	89.25
249.366	91.25
249.599	103.25
249.832	91.25
250.066	83.25
250.299	84.25
250.532	91.25
250.765	83.25
250.998	84.25
251.231	76.25
251.465	81.25
251.698	96.25
251.931	86.25
252.164	81.25
252.397	83.25
252.63	87.25
252.863	93.25
253.096	82.25
253.329	84.25
253.562	77.25
253.795	96.25
254.028	80.25
254.261	84.25
254.494	79.25
254.727	96.25
254.96	81.25
255.193	79.25
255.426	76.25
255.659	85.25
255.892	93.25
256.124	101.25
256.357	80.25
256.59	91.25
256.823	89.25
257.056	90.25
257.289	101.25
257.521	84.25
257.754	81.25
257.987	87.25
258.22	94.25
258.452	112.25
258.685	89.25
258.918	94.25
259.151	80.25
259.383	80.25
259.616	88.25
259.849	81.25
260.081	93.25
260.314	77.25
260.547	95.25
260.779	100.25
261.012	108.25
261.244	109.25
261.477	97.25
261.71	101.25
261.942	129.25
262.175	126.25
262.407	113.25
262.64	85.25
262.872	83.25
263.105	74.25
263.337	96.25
263.57	76.25
263.802	76.25
264.035	82.25
264.267	85.25
264.499	77.25
264.732	80.25
264.964	70.25
265.197	95.25
265.429	76.25
265.661	84.25
265.894	96.25
266.126	79.25
266.358	99.25
266.591	83.25
266.823	65.25
267.055	96.25
267.287	90.25
267.52	85.25
267.752	78.25
267.984	76.25
268.216	85.25
268.448	92.25
268.681	84.25
268.913	82.25
269.145	89.25
269.377	90.25
269.609	85.25
269.841	86.25
270.073	75.25
270.306	100.25
270.538	108.25
270.77	78.25
271.002	88.25
271.234	94.25
271.466	71.25
271.698	94.25
271.93	88.25
272.162	102.25
272.394	100.25
272.626	85.25
272.858	85.25
273.09	81.25
273.322	88.25
273.553	85.25
273.785	90.25
274.017	80.25
274.249	95.25
274.481	85.25
274.713	78.25
274.945	86.25
275.176	97.25
275.408	117.25
275.64	109.25
275.872	101.25
276.104	89.25
276.335	83.25
276.567	119.25
276.799	136.25
277.031	157.25
277.262	186.25
277.494	150.25
277.726	94.25
277.957	99.25
278.189	85.25
278.421	90.25
278.652	101.25
278.884	85.25
279.115	93.25
279.347	89.25
279.579	111.25
279.81	109.25
280.042	189.25
280.273	257.25
280.505	170.25
280.736	105.25
280.968	82.25
281.199	89.25
281.431	95.25
281.662	81.25
281.894	84.25
282.125	104.25
282.356	109.25
282.588	159.25
282.819	115.25
283.051	93.25
283.282	100.25
283.513	84.25
283.745	100.25
283.976	79.25
284.207	73.25
284.439	81.25
284.67	89.25
284.901	68.25
285.132	82.25
285.364	95.25
285.595	90.25
285.826	86.25
286.057	90.25
286.288	91.25
286.52	89.25
286.751	90.25
286.982	82.25
287.213	84.25
287.444	87.25
287.675	94.25
287.906	102.25
288.138	102.25
288.369	102.25
288.6	84.25
288.831	83.25
289.062	90.25
289.293	92.25
289.524	87.25
289.755	93.25
289.986	94.25
290.217	88.25
290.448	88.25
290.679	94.25
290.91	86.25
291.141	81.25
291.371	80.25
291.602	84.25
291.833	84.25
292.064	87.25
292.295	90.25
292.526	79.25
292.757	97.25
292.987	85.25
293.218	85.25
293.449	90.25
293.68	77.25
293.91	89.25
294.141	101.25
294.372	92.25
294.603	80.25
294.833	89.25
295.064	96.25
295.295	88.25
295.525	86.25
295.756	98.25
295.987	122.25
296.217	158.25
296.448	142.25
296.679	106.25
296.909	105.25
297.14	90.25
297.37	98.25
297.601	86.25
297.831	104.25
298.062	85.25
298.292	86.25
298.523	87.25
298.753	100.25
298.984	101.25
299.214	96.25
299.445	93.25
299.675	99.25
299.905	90.25
300.136	92.25
300.366	96.25
300.597	86.25
300.827	87.25
301.057	97.25
301.288	121.25
301.518	105.25
301.748	86.25
301.979	110.25
302.209	112.25
302.439	104.25
302.669	92.25
302.9	93.25
303.13	88.25
303.36	123.25
303.59	135.25
303.82	140.25
304.051	106.25
304.281	91.25
304.511	88.25
304.741	101.25
304.971	73.25
305.201	85.25
305.431	85.25
305.661	92.25
305.891	82.25
306.121	98.25
306.352	108.25
306.582	111.25
306.812	118.25
307.042	130.25
307.272	154.25
307.502	186.25
307.731	146.25
307.961	117.25
308.191	84.25
308.421	89.25
308.651	79.25
308.881	97.25
309.111	108.25
309.341	81.25
309.571	103.25
309.8	105.25
310.03	110.25
310.26	94.25
310.49	100.25
310.72	99.25
310.949	111.25
311.179	111.25
311.409	101.25
311.639	110.25
311.868	101.25
312.098	83.25
312.328	104.25
312.557	109.25
312.787	125.25
313.017	110.25
313.246	96.25
313.476	100.25
313.706	96.25
313.935	94.25
314.165	110.25
314.394	105.25
314.624	111.25
314.853	103.25
315.083	101.25
315.312	80.25
315.542	109.25
315.771	99.25
316.001	80.25
316.23	73.25
316.46	78.25
316.689	91.25
316.919	104.25
317.148	118.25
317.377	90.25
317.607	100.25
317.836	96.25
318.065	98.25
318.295	93.25
318.524	85.25
318.753	94.25
318.983	88.25
319.212	94.25
319.441	114.25
319.67	133.25
319.9	94.25
320.129	84.25
320.358	94.25
320.587	99.25
320.816	114.25
321.046	100.25
321.275	93.25
321.504	101.25
321.733	98.25
321.962	89.25
322.191	94.25
322.42	111.25
322.649	112.25
322.878	114.25
323.108	113.25
323.337	131.25
323.566	150.25
323.795	181.25
324.024	226.25
324.253	519.25
324.482	1022.25
324.71	2170.25
324.939	2941.25
325.168	1052.25
325.397	315.25
325.626	170.25
325.855	146.25
326.084	142.25
326.313	140.25
326.542	176.25
326.77	256.25
326.999	531.25
327.228	1138.25
327.457	2149.25
327.686	1690.25
327.914	570.25
328.143	485.25
328.372	621.25
328.6	335.25
328.829	168.25
329.058	174.25
329.287	186.25
329.515	187.25
329.744	261.25
329.972	451.25
330.201	921.25
330.43	1384.25
330.658	625.25
330.887	274.25
331.115	180.25
331.344	134.25
331.572	113.25
331.801	127.25
332.03	131.25
332.258	114.25
332.486	112.25
332.715	103.25
332.943	120.25
333.172	127.25
333.4	145.25
333.629	154.25
333.857	236.25
334.085	425.25
334.314	883.25
334.542	1737.25
334.771	1632.25
334.999	423.25
335.227	178.25
335.455	129.25
335.684	113.25
335.912	101.25
336.14	108.25
336.369	101.25
336.597	104.25
336.825	103.25
337.053	82.25
337.281	96.25
337.51	112.25
337.738	86.25
337.966	100.25
338.194	106.25
338.422	101.25
338.65	87.25
338.878	112.25
339.106	87.25
339.334	93.25
339.562	95.25
339.79	99.25
340.018	90.25
340.246	102.25
340.474	93.25
340.702	93.25
340.93	82.25
341.158	91.25
341.386	101.25
341.614	102.25
341.842	95.25
342.07	85.25
342.298	93.25
342.526	98.25
342.754	111.25
342.981	89.25
343.209	91.25
343.437	82.25
343.665	102.25
343.893	81.25
344.12	91.25
344.348	90.25
344.576	95.25
344.804	96.25
345.031	110.25
345.259	106.25
345.487	88.25
345.714	98.25
345.942	96.25
346.17	89.25
346.397	89.25
346.625	94.25
346.853	101.25
347.08	93.25
347.308	99.25
347.535	96.25
347.763	113.25
347.99	92.25
348.218	100.25
348.445	125.25
348.673	105.25
348.9	109.25
349.128	74.25
349.355	85.25
349.583	98.25
349.81	80.25
350.037	100.25
350.265	97.25
350.492	89.25
350.72	104.25
350.947	100.25
351.174	97.25
351.402	120.25
351.629	103.25
351.856	92.25
352.083	111.25
352.311	101.25
352.538	100.25
352.765	106.25
352.992	107.25
353.22	115.25
353.447	105.25
353.674	94.25
353.901	97.25
354.128	97.25
354.355	83.25
354.583	93.25
354.81	95.25
355.037	95.25
355.264	101.25
355.491	98.25
355.718	84.25
355.945	94.25
356.172	91.25
356.399	81.25
356.626	96.25
356.853	87.25
357.08	91.25
357.307	82.25
357.534	92.25
357.761	99.25
357.988	96.25
358.215	90.25
358.441	87.25
358.668	85.25
358.895	85.25
359.122	94.25
359.349	96.25
359.576	91.25
359.802	111.25
360.029	127.25
360.256	127.25
360.483	114.25
360.709	89.25
360.936	90.25
361.163	101.25
361.39	100.25
361.616	101.25
361.843	92.25
362.07	103.25
362.296	95.25
362.523	93.25
362.749	106.25
362.976	86.25
363.203	92.25
363.429	96.25
363.656	91.25
363.882	97.25
364.109	83.25
364.335	95.25
364.562	98.25
364.788	95.25
365.015	104.25
365.241	98.25
365.468	102.25
365.694	107.25
365.92	94.25
366.147	95.25
366.373	96.25
366.599	87.25
366.826	92.25
367.052	86.25
367.278	99.25
367.505	80.25
367.731	89.25
367.957	94.25
368.184	99.25
368.41	106.25
368.636	115.25
368.862	117.25
369.089	110.25
369.315	102.25
369.541	94.25
369.767	103.25
369.993	94.25
370.219	92.25
370.445	80.25
370.672	78.25
370.898	77.25
371.124	95.25
371.35	84.25
371.576	84.25
371.802	85.25
372.028	68.25
372.254	78.25
372.48	95.25
372.706	82.25
372.932	69.25
373.158	81.25
373.384	87.25
373.61	100.25
373.835	86.25
374.061	90.25
374.287	96.25
374.513	92.25
374.739	93.25
374.965	81.25
375.191	76.25
375.416	72.25
375.642	80.25
375.868	89.25
376.094	85.25
376.319	79.25
376.545	99.25
376.771	76.25
376.997	78.25
377.222	78.25
377.448	94.25
377.674	97.25
377.899	82.25
378.125	79.25
378.35	94.25
378.576	80.25
378.802	94.25
379.027	110.25
379.253	96.25
379.478	77.25
379.704	81.25
379.929	85.25
380.155	98.25
380.38	87.25
380.606	94.25
380.831	80.25
381.057	83.25
381.282	88.25
381.507	94.25
381.733	87.25
381.958	90.25
382.184	87.25
382.409	105.25
382.634	98.25
382.86	87.25
383.085	102.25
383.31	102.25
383.535	105.25
383.761	101.25
383.986	92.25
384.211	83.25
384.436	100.25
384.662	100.25
384.887	102.25
385.112	92.25
385.337	87.25
385.562	110.25
385.787	102.25
386.013	100.25
386.238	119.25
386.463	93.25
386.688	97.25
386.913	93.25
387.138	93.25
387.363	97.25
387.588	100.25
387.813	95.25
388.038	96.25
388.263	98.25
388.488	104.25
388.713	88.25
388.938	104.25
389.163	85.25
389.387	89.25
389.612	80.25
389.837	99.25
390.062	87.25
390.287	86.25
390.512	80.25
390.736	87.25
390.961	89.25
391.186	83.25
391.411	92.25
391.636	68.25
391.86	67.25
392.085	89.25
392.31	86.25
392.534	85.25
392.759	80.25
392.984	87.25
393.208	85.25
393.433	86.25
393.658	81.25
393.882	82.25
394.107	79.25
394.331	89.25
394.556	85.25
394.78	81.25
395.005	79.25
395.229	78.25
395.454	84.25
395.678	79.25
395.903	83.25
396.127	82.25
396.352	78.25
396.576	79.25
396.801	92.25
397.025	78.25
397.249	85.25
397.474	87.25
397.698	88.25
397.922	81.25
398.147	89.25
398.371	88.25
398.595	81.25
398.82	94.25
399.044	80.25
399.268	70.25
399.492	86.25
399.717	83.25
399.941	89.25
400.165	85.25
400.389	93.25
400.613	91.25
400.837	79.25
401.062	93.25
401.286	90.25
401.51	97.25
401.734	105.25
401.958	103.25
402.182	131.25
402.406	185.25
402.63	134.25
402.854	98.25
403.078	93.25
403.302	92.25
403.526	108.25
403.75	83.25
403.974	77.25
404.198	98.25
404.422	82.25
404.645	81.25
404.869	102.25
405.093	103.25
405.317	136.25
405.541	129.25
405.765	111.25
405.988	140.25
406.212	192.25
406.436	270.25
406.66	190.25
406.883	112.25
407.107	92.25
407.331	102.25
407.555	110.25
407.778	97.25
408.002	92.25
408.226	85.25
408.449	99.25
408.673	96.25
408.896	96.25
409.12	101.25
409.344	83.25
409.567	90.25
409.791	91.25
410.014	72.25
410.238	83.25
410.461	101.25
410.685	102.25
410.908	90.25
411.132	105.25
411.355	112.25
411.578	95.25
411.802	94.25
412.025	93.25
412.249	101.25
412.472	130.25
412.695	153.25
412.919	105.25
413.142	99.25
413.365	92.25
413.589	89.25
413.812	72.25
414.035	98.25
414.258	91.25
414.482	81.25
414.705	85.25
414.928	95.25
415.151	92.25
415.374	87.25
415.597	97.25
415.821	76.25
416.044	94.25
416.267	96.25
416.49	88.25
416.713	93.25
416.936	79.25
417.159	77.25
417.382	92.25
417.605	110.25
417.828	99.25
418.051	94.25
418.274	93.25
418.497	87.25
418.72	89.25
418.943	81.25
419.166	82.25
419.389	100.25
419.611	90.25
419.834	93.25
420.057	97.25
420.28	92.25
420.503	97.25
420.726	100.25
420.948	90.25
421.171	99.25
421.394	99.25
421.617	92.25
421.839	95.25
422.062	80.25
422.285	85.25
422.507	96.25
422.73	109.25
422.953	110.25
423.175	99.25
423.398	100.25
423.621	96.25
423.843	89.25
424.066	90.25
424.288	81.25
424.511	84.25
424.733	98.25
424.956	93.25
425.178	119.25
425.401	103.25
425.623	111.25
425.846	102.25
426.068	92.25
426.291	96.25
426.513	84.25
426.735	95.25
426.958	95.25
427.18	119.25
427.402	168.25
427.625	255.25
427.847	244.25
428.069	234.25
428.292	130.25
428.514	89.25
428.736	93.25
428.958	87.25
429.181	80.25
429.403	86.25
429.625	90.25
429.847	99.25
430.069	113.25
430.292	107.25
430.514	90.25
430.736	95.25
430.958	94.25
431.18	98.25
431.402	83.25
431.624	78.25
431.846	90.25
432.068	82.25
432.29	95.25
432.512	86.25
432.734	93.25
432.956	84.25
433.178	92.25
433.4	98.25
433.622	84.25
433.844	82.25
434.066	94.25
434.287	88.25
434.509	94.25
434.731	97.25
434.953	98.25
435.175	102.25
435.397	78.25
435.618	108.25
435.84	113.25
436.062	140.25
436.284	125.25
436.505	111.25
436.727	108.25
436.949	79.25
437.17	83.25
437.392	89.25
437.614	92.25
437.835	113.25
438.057	160.25
438.278	126.25
438.5	130.25
438.721	124.25
438.943	99.25
439.165	90.25
439.386	101.25
439.608	92.25
439.829	118.25
440.05	150.25
440.272	167.25
440.493	111.25
440.715	89.25
440.936	98.25
441.158	79.25
441.379	90.25
441.6	86.25
441.822	104.25
442.043	101.25
442.264	98.25
442.486	118.25
442.707	100.25
442.928	118.25
443.149	166.25
443.371	135.25
443.592	110.25
443.813	126.25
444.034	117.25
444.255	95.25
444.476	108.25
444.698	94.25
444.919	88.25
445.14	125.25
445.361	126.25
445.582	128.25
445.803	197.25
446.024	169.25
446.245	173.25
446.466	120.25
446.687	101.25
446.908	82.25
447.129	94.25
447.35	80.25
447.571	79.25
447.792	96.25
448.013	88.25
448.234	110.25
448.455	120.25
448.675	139.25
448.896	137.25
449.117	101.25
449.338	99.25
449.559	146.25
449.779	157.25
450	90.25
450.221	84.25
450.442	77.25
450.662	96.25
450.883	124.25
451.104	138.25
451.324	104.25
451.545	87.25
451.766	97.25
451.986	85.25
452.207	94.25
452.428	99.25
452.648	102.25
452.869	117.25
453.089	122.25
453.31	130.25
453.53	110.25
453.751	101.25
453.971	119.25
454.192	126.25
454.412	102.25
454.633	104.25
454.853	102.25
455.073	90.25
455.294	84.25
455.514	110.25
455.734	98.25
455.955	93.25
456.175	80.25
456.395	84.25
456.616	84.25
456.836	81.25
457.056	83.25
457.276	82.25
457.497	104.25
457.717	78.25
457.937	94.25
458.157	94.25
458.377	98.25
458.598	117.25
458.818	187.25
459.038	193.25
459.258	149.25
459.478	103.25
459.698	95.25
459.918	90.25
460.138	81.25
460.358	88.25
460.578	86.25
460.798	93.25
461.018	101.25
461.238	86.25
461.458	70.25
461.678	84.25
461.898	90.25
462.118	78.25
462.338	79.25
462.558	89.25
462.777	95.25
462.997	98.25
463.217	100.25
463.437	98.25
463.657	86.25
463.876	85.25
464.096	92.25
464.316	104.25
464.536	91.25
464.755	92.25
464.975	106.25
465.195	211.25
465.414	224.25
465.634	105.25
465.854	100.25
466.073	97.25
466.293	87.25
466.512	82.25
466.732	86.25
466.951	95.25
467.171	105.25
467.391	113.25
467.61	148.25
467.829	185.25
468.049	504.25
468.268	775.25
468.488	193.25
468.707	106.25
468.927	81.25
469.146	90.25
469.365	93.25
469.585	101.25
469.804	104.25
470.023	114.25
470.243	96.25
470.462	104.25
470.681	129.25
470.901	89.25
471.12	94.25
471.339	110.25
471.558	104.25
471.777	160.25
471.997	292.25
472.216	1022.25
472.435	2337.25
472.654	559.25
472.873	162.25
473.092	99.25
473.311	93.25
473.53	95.25
473.749	86.25
473.968	112.25
474.187	115.25
474.406	100.25
474.625	101.25
474.844	88.25
475.063	77.25
475.282	87.25
475.501	86.25
475.72	82.25
475.939	92.25
476.158	102.25
476.377	86.25
476.596	96.25
476.814	92.25
477.033	99.25
477.252	104.25
477.471	98.25
477.69	102.25
477.908	97.25
478.127	102.25
478.346	98.25
478.564	102.25
478.783	97.25
479.002	94.25
479.22	106.25
479.439	116.25
479.658	136.25
479.876	126.25
480.095	121.25
480.313	136.25
480.532	160.25
480.751	287.25
480.969	946.25
481.188	4133.25
481.406	2330.25
481.624	364.25
481.843	133.25
482.061	104.25
482.28	93.25
482.498	94.25
482.717	91.25
482.935	96.25
483.153	95.25
483.372	97.25
483.59	92.25
483.808	89.25
484.027	92.25
484.245	88.25
484.463	107.25
484.681	95.25
484.9	97.25
485.118	105.25
485.336	95.25
485.554	88.25
485.772	109.25
485.99	103.25
486.209	113.25
486.427	109.25
486.645	120.25
486.863	119.25
487.081	114.25
487.299	111.25
487.517	105.25
487.735	91.25
487.953	83.25
488.171	101.25
488.389	90.25
488.607	102.25
488.825	92.25
489.043	95.25
489.261	85.25
489.479	104.25
489.696	106.25
489.914	95.25
490.132	99.25
490.35	88.25
490.568	89.25
490.786	97.25
491.003	84.25
491.221	78.25
491.439	89.25
491.657	91.25
491.874	93.25
492.092	85.25
492.31	72.25
492.527	100.25
492.745	95.25
492.963	93.25
493.18	96.25
493.398	95.25
493.615	100.25
493.833	97.25
494.05	81.25
494.268	93.25
494.485	103.25
494.703	104.25
494.92	81.25
495.138	92.25
495.355	95.25
495.573	91.25
495.79	104.25
496.008	92.25
496.225	85.25
496.442	97.25
496.66	75.25
496.877	94.25
497.094	96.25
497.312	88.25
497.529	92.25
497.746	96.25
497.963	95.25
498.181	88.25
498.398	110.25
498.615	114.25
498.832	117.25
499.049	101.25
499.267	90.25
499.484	107.25
499.701	84.25
499.918	90.25
500.135	101.25
500.352	101.25
500.569	84.25
500.786	117.25
501.003	90.25
501.22	89.25
501.437	102.25
501.654	110.25
501.871	122.25
502.088	91.25
502.305	108.25
502.522	94.25
502.739	90.25
502.956	99.25
503.172	98.25
503.389	104.25
503.606	121.25
503.823	100.25
504.04	95.25
504.256	108.25
504.473	95.25
504.69	81.25
504.907	89.25
505.123	85.25
505.34	92.25
505.557	103.25
505.773	91.25
505.99	98.25
506.207	96.25
506.423	90.25
506.64	76.25
506.856	84.25
507.073	92.25
507.289	95.25
507.506	111.25
507.722	120.25
507.939	128.25
508.155	104.25
508.372	89.25
508.588	100.25
508.805	101.25
509.021	104.25
509.238	108.25
509.454	95.25
509.67	101.25
509.887	105.25
510.103	144.25
510.319	220.25
510.536	770.25
510.752	2670.25
510.968	736.25
511.184	164.25
511.401	137.25
511.617	106.25
511.833	106.25
512.049	110.25
512.265	82.25
512.481	86.25
512.698	83.25
512.914	88.25
513.13	95.25
513.346	108.25
513.562	110.25
