Data from Circ_1987_H10_HRD10591_00012.txt Node
Date: Wed Jan 03 12:10:35 EST 2024
User: Yrep
Spectrometer: HR+D1059
Trigger mode: 1
Integration Time (sec): 1.000000E-1
Scans to average: 1
Electric dark correction enabled: true
Nonlinearity correction enabled: false
Boxcar width: 0
XAxis mode: Wavelengths
Number of Pixels in Spectrum: 2048
>>>>>Begin Spectral Data<<<<<
223.165	-8.44
223.4	-8.44
223.635	-8.44
223.869	-33.44
224.104	-18.44
224.338	-13.44
224.573	-16.44
224.808	-3.44
225.042	-13.44
225.277	-9.44
225.511	1.56
225.746	4.56
225.98	3.56
226.215	14.56
226.449	24.56
226.683	19.56
226.918	18.56
227.152	29.56
227.387	45.56
227.621	37.56
227.856	57.56
228.09	36.56
228.324	41.56
228.559	44.56
228.793	66.56
229.027	56.56
229.262	72.56
229.496	72.56
229.73	81.56
229.964	90.56
230.199	80.56
230.433	65.56
230.667	80.56
230.901	86.56
231.136	96.56
231.37	76.56
231.604	72.56
231.838	96.56
232.072	58.56
232.306	84.56
232.541	78.56
232.775	64.56
233.009	76.56
233.243	87.56
233.477	89.56
233.711	86.56
233.945	92.56
234.179	74.56
234.413	81.56
234.647	80.56
234.881	77.56
235.115	73.56
235.349	83.56
235.583	77.56
235.817	70.56
236.051	73.56
236.285	78.56
236.519	76.56
236.753	77.56
236.987	76.56
237.221	78.56
237.455	87.56
237.689	86.56
237.922	74.56
238.156	84.56
238.39	70.56
238.624	65.56
238.858	81.56
239.091	80.56
239.325	73.56
239.559	72.56
239.793	80.56
240.027	70.56
240.26	89.56
240.494	92.56
240.728	71.56
240.961	67.56
241.195	78.56
241.429	86.56
241.662	72.56
241.896	82.56
242.13	72.56
242.363	76.56
242.597	72.56
242.83	94.56
243.064	71.56
243.298	81.56
243.531	71.56
243.765	89.56
243.998	82.56
244.232	81.56
244.465	83.56
244.699	85.56
244.932	82.56
245.166	71.56
245.399	63.56
245.633	84.56
245.866	82.56
246.099	84.56
246.333	64.56
246.566	73.56
246.8	76.56
247.033	85.56
247.266	85.56
247.5	89.56
247.733	71.56
247.966	72.56
248.2	79.56
248.433	80.56
248.666	72.56
248.899	78.56
249.133	82.56
249.366	98.56
249.599	94.56
249.832	97.56
250.066	66.56
250.299	80.56
250.532	92.56
250.765	72.56
250.998	81.56
251.231	83.56
251.465	73.56
251.698	90.56
251.931	74.56
252.164	94.56
252.397	95.56
252.63	76.56
252.863	82.56
253.096	65.56
253.329	79.56
253.562	78.56
253.795	82.56
254.028	85.56
254.261	85.56
254.494	76.56
254.727	90.56
254.96	49.56
255.193	71.56
255.426	72.56
255.659	82.56
255.892	102.56
256.124	94.56
256.357	79.56
256.59	79.56
256.823	73.56
257.056	85.56
257.289	87.56
257.521	66.56
257.754	83.56
257.987	86.56
258.22	80.56
258.452	96.56
258.685	78.56
258.918	86.56
259.151	80.56
259.383	76.56
259.616	76.56
259.849	70.56
260.081	78.56
260.314	102.56
260.547	84.56
260.779	90.56
261.012	98.56
261.244	91.56
261.477	114.56
261.71	104.56
261.942	111.56
262.175	104.56
262.407	88.56
262.64	92.56
262.872	90.56
263.105	85.56
263.337	85.56
263.57	93.56
263.802	75.56
264.035	76.56
264.267	73.56
264.499	88.56
264.732	90.56
264.964	87.56
265.197	88.56
265.429	81.56
265.661	84.56
265.894	74.56
266.126	80.56
266.358	77.56
266.591	94.56
266.823	76.56
267.055	88.56
267.287	83.56
267.52	83.56
267.752	87.56
267.984	81.56
268.216	90.56
268.448	78.56
268.681	86.56
268.913	90.56
269.145	88.56
269.377	84.56
269.609	65.56
269.841	84.56
270.073	85.56
270.306	77.56
270.538	95.56
270.77	79.56
271.002	83.56
271.234	78.56
271.466	89.56
271.698	106.56
271.93	90.56
272.162	84.56
272.394	99.56
272.626	79.56
272.858	87.56
273.09	74.56
273.322	70.56
273.553	79.56
273.785	84.56
274.017	77.56
274.249	83.56
274.481	82.56
274.713	92.56
274.945	87.56
275.176	96.56
275.408	80.56
275.64	103.56
275.872	103.56
276.104	103.56
276.335	79.56
276.567	96.56
276.799	110.56
277.031	128.56
277.262	127.56
277.494	101.56
277.726	79.56
277.957	85.56
278.189	74.56
278.421	73.56
278.652	89.56
278.884	82.56
279.115	98.56
279.347	90.56
279.579	92.56
279.81	95.56
280.042	122.56
280.273	155.56
280.505	123.56
280.736	101.56
280.968	88.56
281.199	87.56
281.431	81.56
281.662	82.56
281.894	86.56
282.125	101.56
282.356	114.56
282.588	132.56
282.819	119.56
283.051	82.56
283.282	76.56
283.513	80.56
283.745	88.56
283.976	87.56
284.207	81.56
284.439	80.56
284.67	86.56
284.901	101.56
285.132	86.56
285.364	84.56
285.595	82.56
285.826	85.56
286.057	105.56
286.288	80.56
286.52	86.56
286.751	97.56
286.982	105.56
287.213	90.56
287.444	81.56
287.675	103.56
287.906	93.56
288.138	98.56
288.369	93.56
288.6	101.56
288.831	82.56
289.062	86.56
289.293	87.56
289.524	71.56
289.755	73.56
289.986	87.56
290.217	82.56
290.448	90.56
290.679	83.56
290.91	80.56
291.141	89.56
291.371	98.56
291.602	87.56
291.833	95.56
292.064	68.56
292.295	101.56
292.526	91.56
292.757	86.56
292.987	91.56
293.218	90.56
293.449	90.56
293.68	87.56
293.91	94.56
294.141	90.56
294.372	86.56
294.603	75.56
294.833	84.56
295.064	91.56
295.295	79.56
295.525	85.56
295.756	88.56
295.987	112.56
296.217	125.56
296.448	143.56
296.679	107.56
296.909	95.56
297.14	85.56
297.37	83.56
297.601	100.56
297.831	92.56
298.062	86.56
298.292	86.56
298.523	97.56
298.753	66.56
298.984	89.56
299.214	85.56
299.445	93.56
299.675	101.56
299.905	87.56
300.136	79.56
300.366	98.56
300.597	79.56
300.827	95.56
301.057	102.56
301.288	100.56
301.518	86.56
301.748	93.56
301.979	106.56
302.209	90.56
302.439	80.56
302.669	95.56
302.9	95.56
303.13	102.56
303.36	103.56
303.59	118.56
303.82	117.56
304.051	92.56
304.281	89.56
304.511	95.56
304.741	87.56
304.971	93.56
305.201	93.56
305.431	79.56
305.661	96.56
305.891	72.56
306.121	87.56
306.352	100.56
306.582	116.56
306.812	91.56
307.042	122.56
307.272	103.56
307.502	123.56
307.731	114.56
307.961	108.56
308.191	87.56
308.421	90.56
308.651	88.56
308.881	90.56
309.111	95.56
309.341	102.56
309.571	94.56
309.8	88.56
310.03	104.56
310.26	97.56
310.49	110.56
310.72	119.56
310.949	111.56
311.179	104.56
311.409	86.56
311.639	105.56
311.868	94.56
312.098	103.56
312.328	91.56
312.557	108.56
312.787	104.56
313.017	110.56
313.246	90.56
313.476	90.56
313.706	82.56
313.935	91.56
314.165	111.56
314.394	100.56
314.624	97.56
314.853	87.56
315.083	96.56
315.312	106.56
315.542	97.56
315.771	92.56
316.001	74.56
316.23	90.56
316.46	83.56
316.689	83.56
316.919	91.56
317.148	104.56
317.377	107.56
317.607	90.56
317.836	102.56
318.065	90.56
318.295	94.56
318.524	63.56
318.753	98.56
318.983	105.56
319.212	99.56
319.441	101.56
319.67	109.56
319.9	93.56
320.129	94.56
320.358	82.56
320.587	96.56
320.816	90.56
321.046	118.56
321.275	98.56
321.504	89.56
321.733	90.56
321.962	99.56
322.191	105.56
322.42	113.56
322.649	114.56
322.878	115.56
323.108	118.56
323.337	120.56
323.566	116.56
323.795	150.56
324.024	184.56
324.253	363.56
324.482	711.56
324.71	1466.56
324.939	1919.56
325.168	719.56
325.397	229.56
325.626	134.56
325.855	138.56
326.084	120.56
326.313	122.56
326.542	148.56
326.77	212.56
326.999	413.56
327.228	800.56
327.457	1458.56
327.686	1142.56
327.914	396.56
328.143	300.56
328.372	354.56
328.6	205.56
328.829	131.56
329.058	141.56
329.287	146.56
329.515	137.56
329.744	173.56
329.972	249.56
330.201	453.56
330.43	664.56
330.658	325.56
330.887	184.56
331.115	148.56
331.344	104.56
331.572	102.56
331.801	115.56
332.03	96.56
332.258	105.56
332.486	92.56
332.715	102.56
332.943	97.56
333.172	120.56
333.4	122.56
333.629	133.56
333.857	148.56
334.085	237.56
334.314	436.56
334.542	814.56
334.771	762.56
334.999	244.56
335.227	135.56
335.455	97.56
335.684	122.56
335.912	98.56
336.14	91.56
336.369	94.56
336.597	112.56
336.825	93.56
337.053	95.56
337.281	98.56
337.51	104.56
337.738	114.56
337.966	110.56
338.194	98.56
338.422	107.56
338.65	101.56
338.878	98.56
339.106	94.56
339.334	85.56
339.562	96.56
339.79	89.56
340.018	90.56
340.246	98.56
340.474	106.56
340.702	103.56
340.93	81.56
341.158	90.56
341.386	81.56
341.614	103.56
341.842	91.56
342.07	91.56
342.298	104.56
342.526	90.56
342.754	85.56
342.981	92.56
343.209	86.56
343.437	99.56
343.665	101.56
343.893	86.56
344.12	89.56
344.348	72.56
344.576	84.56
344.804	76.56
345.031	90.56
345.259	96.56
345.487	96.56
345.714	83.56
345.942	81.56
346.17	81.56
346.397	102.56
346.625	93.56
346.853	90.56
347.08	92.56
347.308	97.56
347.535	102.56
347.763	105.56
347.99	101.56
348.218	88.56
348.445	91.56
348.673	100.56
348.9	94.56
349.128	96.56
349.355	89.56
349.583	76.56
349.81	79.56
350.037	94.56
350.265	103.56
350.492	91.56
350.72	90.56
350.947	112.56
351.174	118.56
351.402	118.56
351.629	105.56
351.856	89.56
352.083	109.56
352.311	113.56
352.538	117.56
352.765	111.56
352.992	107.56
353.22	112.56
353.447	98.56
353.674	102.56
353.901	88.56
354.128	78.56
354.355	103.56
354.583	85.56
354.81	95.56
355.037	85.56
355.264	97.56
355.491	84.56
355.718	95.56
355.945	82.56
356.172	100.56
356.399	99.56
356.626	96.56
356.853	90.56
357.08	87.56
357.307	88.56
357.534	97.56
357.761	98.56
357.988	92.56
358.215	82.56
358.441	104.56
358.668	89.56
358.895	100.56
359.122	94.56
359.349	85.56
359.576	108.56
359.802	106.56
360.029	107.56
360.256	115.56
360.483	80.56
360.709	102.56
360.936	98.56
361.163	101.56
361.39	92.56
361.616	84.56
361.843	85.56
362.07	95.56
362.296	91.56
362.523	91.56
362.749	90.56
362.976	92.56
363.203	110.56
363.429	91.56
363.656	103.56
363.882	84.56
364.109	96.56
364.335	79.56
364.562	103.56
364.788	98.56
365.015	86.56
365.241	97.56
365.468	111.56
365.694	103.56
365.92	103.56
366.147	100.56
366.373	97.56
366.599	80.56
366.826	82.56
367.052	86.56
367.278	90.56
367.505	100.56
367.731	95.56
367.957	89.56
368.184	78.56
368.41	104.56
368.636	119.56
368.862	131.56
369.089	100.56
369.315	78.56
369.541	85.56
369.767	88.56
369.993	88.56
370.219	77.56
370.445	90.56
370.672	81.56
370.898	98.56
371.124	91.56
371.35	88.56
371.576	100.56
371.802	81.56
372.028	92.56
372.254	102.56
372.48	103.56
372.706	89.56
372.932	106.56
373.158	94.56
373.384	78.56
373.61	92.56
373.835	93.56
374.061	77.56
374.287	80.56
374.513	93.56
374.739	92.56
374.965	96.56
375.191	95.56
375.416	92.56
375.642	82.56
375.868	82.56
376.094	81.56
376.319	79.56
376.545	69.56
376.771	90.56
376.997	88.56
377.222	93.56
377.448	91.56
377.674	89.56
377.899	87.56
378.125	98.56
378.35	106.56
378.576	85.56
378.802	89.56
379.027	105.56
379.253	90.56
379.478	93.56
379.704	86.56
379.929	90.56
380.155	79.56
380.38	109.56
380.606	102.56
380.831	104.56
381.057	93.56
381.282	97.56
381.507	105.56
381.733	77.56
381.958	103.56
382.184	84.56
382.409	97.56
382.634	115.56
382.86	106.56
383.085	105.56
383.31	113.56
383.535	114.56
383.761	95.56
383.986	104.56
384.211	110.56
384.436	106.56
384.662	94.56
384.887	104.56
385.112	112.56
385.337	119.56
385.562	105.56
385.787	119.56
386.013	113.56
386.238	114.56
386.463	103.56
386.688	124.56
386.913	120.56
387.138	118.56
387.363	118.56
387.588	103.56
387.813	105.56
388.038	114.56
388.263	113.56
388.488	117.56
388.713	114.56
388.938	101.56
389.163	94.56
389.387	87.56
389.612	99.56
389.837	65.56
390.062	93.56
390.287	87.56
390.512	97.56
390.736	93.56
390.961	84.56
391.186	85.56
391.411	86.56
391.636	92.56
391.86	102.56
392.085	88.56
392.31	88.56
392.534	96.56
392.759	99.56
392.984	88.56
393.208	104.56
393.433	84.56
393.658	93.56
393.882	72.56
394.107	88.56
394.331	90.56
394.556	84.56
394.78	88.56
395.005	83.56
395.229	93.56
395.454	87.56
395.678	95.56
395.903	96.56
396.127	94.56
396.352	99.56
396.576	90.56
396.801	84.56
397.025	83.56
397.249	90.56
397.474	103.56
397.698	88.56
397.922	79.56
398.147	77.56
398.371	85.56
398.595	97.56
398.82	88.56
399.044	87.56
399.268	87.56
399.492	95.56
399.717	83.56
399.941	112.56
400.165	98.56
400.389	101.56
400.613	92.56
400.837	87.56
401.062	88.56
401.286	92.56
401.51	92.56
401.734	87.56
401.958	93.56
402.182	113.56
402.406	155.56
402.63	130.56
402.854	87.56
403.078	94.56
403.302	76.56
403.526	70.56
403.75	90.56
403.974	84.56
404.198	71.56
404.422	98.56
404.645	82.56
404.869	86.56
405.093	94.56
405.317	116.56
405.541	116.56
405.765	106.56
405.988	116.56
406.212	163.56
406.436	226.56
406.66	144.56
406.883	109.56
407.107	101.56
407.331	87.56
407.555	108.56
407.778	83.56
408.002	90.56
408.226	86.56
408.449	80.56
408.673	85.56
408.896	80.56
409.12	88.56
409.344	91.56
409.567	78.56
409.791	82.56
410.014	99.56
410.238	94.56
410.461	102.56
410.685	97.56
410.908	111.56
411.132	105.56
411.355	100.56
411.578	82.56
411.802	94.56
412.025	92.56
412.249	94.56
412.472	109.56
412.695	117.56
412.919	114.56
413.142	111.56
413.365	90.56
413.589	90.56
413.812	88.56
414.035	89.56
414.258	87.56
414.482	82.56
414.705	72.56
414.928	101.56
415.151	96.56
415.374	89.56
415.597	88.56
415.821	87.56
416.044	91.56
416.267	96.56
416.49	83.56
416.713	111.56
416.936	92.56
417.159	88.56
417.382	104.56
417.605	89.56
417.828	103.56
418.051	105.56
418.274	96.56
418.497	87.56
418.72	80.56
418.943	81.56
419.166	84.56
419.389	96.56
419.611	103.56
419.834	78.56
420.057	97.56
420.28	82.56
420.503	85.56
420.726	112.56
420.948	84.56
421.171	90.56
421.394	101.56
421.617	87.56
421.839	92.56
422.062	84.56
422.285	101.56
422.507	99.56
422.73	117.56
422.953	103.56
423.175	80.56
423.398	90.56
423.621	90.56
423.843	88.56
424.066	82.56
424.288	100.56
424.511	100.56
424.733	110.56
424.956	101.56
425.178	89.56
425.401	113.56
425.623	105.56
425.846	78.56
426.068	92.56
426.291	101.56
426.513	96.56
426.735	97.56
426.958	101.56
427.18	112.56
427.402	136.56
427.625	192.56
427.847	177.56
428.069	168.56
428.292	121.56
428.514	98.56
428.736	91.56
428.958	85.56
429.181	82.56
429.403	93.56
429.625	89.56
429.847	88.56
430.069	91.56
430.292	108.56
430.514	88.56
430.736	89.56
430.958	81.56
431.18	86.56
431.402	100.56
431.624	88.56
431.846	84.56
432.068	87.56
432.29	79.56
432.512	91.56
432.734	88.56
432.956	87.56
433.178	84.56
433.4	94.56
433.622	92.56
433.844	98.56
434.066	100.56
434.287	102.56
434.509	87.56
434.731	89.56
434.953	103.56
435.175	79.56
435.397	86.56
435.618	86.56
435.84	105.56
436.062	127.56
436.284	116.56
436.505	98.56
436.727	91.56
436.949	98.56
437.17	88.56
437.392	84.56
437.614	90.56
437.835	97.56
438.057	138.56
438.278	126.56
438.5	117.56
438.721	108.56
438.943	115.56
439.165	89.56
439.386	93.56
439.608	95.56
439.829	105.56
440.05	129.56
440.272	165.56
440.493	104.56
440.715	86.56
440.936	88.56
441.158	78.56
441.379	73.56
441.6	96.56
441.822	105.56
442.043	86.56
442.264	102.56
442.486	99.56
442.707	98.56
442.928	104.56
443.149	137.56
443.371	131.56
443.592	111.56
443.813	133.56
444.034	125.56
444.255	93.56
444.476	83.56
444.698	89.56
444.919	75.56
445.14	132.56
445.361	120.56
445.582	130.56
445.803	149.56
446.024	162.56
446.245	153.56
446.466	113.56
446.687	98.56
446.908	90.56
447.129	93.56
447.35	89.56
447.571	98.56
447.792	99.56
448.013	93.56
448.234	119.56
448.455	92.56
448.675	111.56
448.896	118.56
449.117	92.56
449.338	104.56
449.559	143.56
449.779	152.56
450	100.56
450.221	89.56
450.442	101.56
450.662	91.56
450.883	105.56
451.104	109.56
451.324	112.56
451.545	98.56
451.766	77.56
451.986	92.56
452.207	112.56
452.428	62.56
452.648	86.56
452.869	121.56
453.089	117.56
453.31	124.56
453.53	97.56
453.751	100.56
453.971	101.56
454.192	103.56
454.412	86.56
454.633	88.56
454.853	86.56
455.073	84.56
455.294	84.56
455.514	110.56
455.734	103.56
455.955	87.56
456.175	88.56
456.395	93.56
456.616	90.56
456.836	95.56
457.056	94.56
457.276	79.56
457.497	95.56
457.717	88.56
457.937	111.56
458.157	87.56
458.377	100.56
458.598	112.56
458.818	147.56
459.038	186.56
459.258	121.56
459.478	109.56
459.698	97.56
459.918	81.56
460.138	83.56
460.358	97.56
460.578	77.56
460.798	96.56
461.018	109.56
461.238	89.56
461.458	94.56
461.678	88.56
461.898	97.56
462.118	100.56
462.338	96.56
462.558	89.56
462.777	99.56
462.997	82.56
463.217	78.56
463.437	88.56
463.657	80.56
463.876	91.56
464.096	100.56
464.316	112.56
464.536	99.56
464.755	101.56
464.975	92.56
465.195	164.56
465.414	165.56
465.634	95.56
465.854	95.56
466.073	100.56
466.293	100.56
466.512	80.56
466.732	80.56
466.951	94.56
467.171	93.56
467.391	104.56
467.61	127.56
467.829	150.56
468.049	276.56
468.268	401.56
468.488	145.56
468.707	104.56
468.927	100.56
469.146	86.56
469.365	89.56
469.585	90.56
469.804	104.56
470.023	80.56
470.243	97.56
470.462	104.56
470.681	117.56
470.901	106.56
471.12	85.56
471.339	96.56
471.558	101.56
471.777	113.56
471.997	168.56
472.216	516.56
472.435	1156.56
472.654	304.56
472.873	123.56
473.092	98.56
473.311	84.56
473.53	99.56
473.749	91.56
473.968	100.56
474.187	113.56
474.406	105.56
474.625	84.56
474.844	95.56
475.063	83.56
475.282	90.56
475.501	100.56
475.72	92.56
475.939	78.56
476.158	81.56
476.377	81.56
476.596	87.56
476.814	84.56
477.033	104.56
477.252	89.56
477.471	86.56
477.69	92.56
477.908	86.56
478.127	79.56
478.346	97.56
478.564	97.56
478.783	98.56
479.002	102.56
479.22	112.56
479.439	114.56
479.658	109.56
479.876	103.56
480.095	106.56
480.313	117.56
480.532	131.56
480.751	161.56
480.969	488.56
481.188	1953.56
481.406	1151.56
481.624	211.56
481.843	96.56
482.061	108.56
482.28	114.56
482.498	93.56
482.717	71.56
482.935	77.56
483.153	88.56
483.372	91.56
483.59	79.56
483.808	98.56
484.027	78.56
484.245	103.56
484.463	90.56
484.681	110.56
484.9	95.56
485.118	94.56
485.336	108.56
485.554	100.56
485.772	98.56
485.99	119.56
486.209	106.56
486.427	113.56
486.645	96.56
486.863	116.56
487.081	109.56
487.299	94.56
487.517	100.56
487.735	91.56
487.953	90.56
488.171	98.56
488.389	93.56
488.607	92.56
488.825	97.56
489.043	94.56
489.261	103.56
489.479	80.56
489.696	87.56
489.914	85.56
490.132	103.56
490.35	97.56
490.568	100.56
490.786	78.56
491.003	89.56
491.221	93.56
491.439	98.56
491.657	87.56
491.874	90.56
492.092	92.56
492.31	95.56
492.527	105.56
492.745	98.56
492.963	89.56
493.18	89.56
493.398	91.56
493.615	100.56
493.833	96.56
494.05	94.56
494.268	73.56
494.485	91.56
494.703	112.56
494.92	84.56
495.138	86.56
495.355	83.56
495.573	95.56
495.79	101.56
496.008	91.56
496.225	89.56
496.442	90.56
496.66	93.56
496.877	95.56
497.094	90.56
497.312	87.56
497.529	82.56
497.746	88.56
497.963	96.56
498.181	91.56
498.398	88.56
498.615	107.56
498.832	96.56
499.049	78.56
499.267	86.56
499.484	97.56
499.701	92.56
499.918	99.56
500.135	87.56
500.352	92.56
500.569	97.56
500.786	93.56
501.003	92.56
501.22	91.56
501.437	95.56
501.654	108.56
501.871	104.56
502.088	85.56
502.305	76.56
502.522	80.56
502.739	85.56
502.956	85.56
503.172	77.56
503.389	102.56
503.606	121.56
503.823	104.56
504.04	104.56
504.256	81.56
504.473	80.56
504.69	94.56
504.907	97.56
505.123	85.56
505.34	89.56
505.557	81.56
505.773	96.56
505.99	84.56
506.207	80.56
506.423	80.56
506.64	94.56
506.856	81.56
507.073	86.56
507.289	95.56
507.506	102.56
507.722	115.56
507.939	124.56
508.155	92.56
508.372	108.56
508.588	93.56
508.805	86.56
509.021	90.56
509.238	93.56
509.454	92.56
509.67	103.56
509.887	106.56
510.103	136.56
510.319	197.56
510.536	697.56
510.752	2294.56
510.968	631.56
511.184	147.56
511.401	117.56
511.617	100.56
511.833	93.56
512.049	86.56
512.265	86.56
512.481	89.56
512.698	84.56
512.914	100.56
513.13	79.56
513.346	96.56
513.562	97.56
513.778	96.56
513.994	93.56
514.21	103.56
