Data from Circ_1987_H10_HRD10591_00030.txt Node
Date: Wed Jan 03 12:10:38 EST 2024
User: Yrep
Spectrometer: HR+D1059
Trigger mode: 1
Integration Time (sec): 1.000000E-1
Scans to average: 1
Electric dark correction enabled: true
Nonlinearity correction enabled: false
Boxcar width: 0
XAxis mode: Wavelengths
Number of Pixels in Spectrum: 2048
>>>>>Begin Spectral Data<<<<<
223.165	-19.69
223.4	-19.69
223.635	-19.69
223.869	-11.69
224.104	-34.69
224.338	-19.69
224.573	-22.69
224.808	-2.69
225.042	1.31
225.277	-2.69
225.511	-9.69
225.746	-0.69
225.98	11.31
226.215	15.31
226.449	15.31
226.683	24.31
226.918	27.31
227.152	29.31
227.387	25.31
227.621	50.31
227.856	59.31
228.09	41.31
228.324	55.31
228.559	49.31
228.793	59.31
229.027	61.31
229.262	71.31
229.496	64.31
229.73	79.31
229.964	94.31
230.199	67.31
230.433	75.31
230.667	77.31
230.901	63.31
231.136	81.31
231.37	96.31
231.604	96.31
231.838	88.31
232.072	79.31
232.306	88.31
232.541	80.31
232.775	83.31
233.009	77.31
233.243	81.31
233.477	65.31
233.711	79.31
233.945	97.31
234.179	71.31
234.413	69.31
234.647	82.31
234.881	71.31
235.115	68.31
235.349	85.31
235.583	88.31
235.817	81.31
236.051	64.31
236.285	91.31
236.519	78.31
236.753	76.31
236.987	77.31
237.221	85.31
237.455	96.31
237.689	91.31
237.922	87.31
238.156	87.31
238.39	64.31
238.624	70.31
238.858	87.31
239.091	84.31
239.325	74.31
239.559	72.31
239.793	91.31
240.027	75.31
240.26	72.31
240.494	81.31
240.728	78.31
240.961	63.31
241.195	92.31
241.429	79.31
241.662	79.31
241.896	79.31
242.13	79.31
242.363	68.31
242.597	61.31
242.83	61.31
243.064	78.31
243.298	81.31
243.531	60.31
243.765	79.31
243.998	83.31
244.232	88.31
244.465	93.31
244.699	82.31
244.932	91.31
245.166	72.31
245.399	77.31
245.633	84.31
245.866	79.31
246.099	84.31
246.333	90.31
246.566	75.31
246.8	74.31
247.033	78.31
247.266	93.31
247.5	89.31
247.733	73.31
247.966	85.31
248.2	79.31
248.433	85.31
248.666	79.31
248.899	88.31
249.133	86.31
249.366	94.31
249.599	113.31
249.832	78.31
250.066	81.31
250.299	79.31
250.532	80.31
250.765	84.31
250.998	78.31
251.231	93.31
251.465	84.31
251.698	76.31
251.931	87.31
252.164	83.31
252.397	84.31
252.63	73.31
252.863	85.31
253.096	83.31
253.329	84.31
253.562	72.31
253.795	72.31
254.028	66.31
254.261	75.31
254.494	91.31
254.727	73.31
254.96	87.31
255.193	88.31
255.426	75.31
255.659	68.31
255.892	94.31
256.124	102.31
256.357	87.31
256.59	87.31
256.823	99.31
257.056	89.31
257.289	83.31
257.521	93.31
257.754	82.31
257.987	83.31
258.22	96.31
258.452	103.31
258.685	85.31
258.918	71.31
259.151	84.31
259.383	93.31
259.616	73.31
259.849	83.31
260.081	69.31
260.314	92.31
260.547	94.31
260.779	97.31
261.012	84.31
261.244	95.31
261.477	97.31
261.71	101.31
261.942	119.31
262.175	153.31
262.407	97.31
262.64	91.31
262.872	89.31
263.105	85.31
263.337	80.31
263.57	87.31
263.802	88.31
264.035	77.31
264.267	82.31
264.499	80.31
264.732	88.31
264.964	82.31
265.197	67.31
265.429	80.31
265.661	85.31
265.894	83.31
266.126	88.31
266.358	85.31
266.591	84.31
266.823	82.31
267.055	78.31
267.287	84.31
267.52	81.31
267.752	83.31
267.984	82.31
268.216	85.31
268.448	91.31
268.681	92.31
268.913	93.31
269.145	85.31
269.377	90.31
269.609	77.31
269.841	87.31
270.073	73.31
270.306	91.31
270.538	88.31
270.77	88.31
271.002	79.31
271.234	79.31
271.466	81.31
271.698	91.31
271.93	82.31
272.162	82.31
272.394	98.31
272.626	93.31
272.858	87.31
273.09	69.31
273.322	102.31
273.553	83.31
273.785	73.31
274.017	89.31
274.249	94.31
274.481	81.31
274.713	90.31
274.945	89.31
275.176	83.31
275.408	101.31
275.64	101.31
275.872	115.31
276.104	100.31
276.335	100.31
276.567	110.31
276.799	140.31
277.031	151.31
277.262	175.31
277.494	140.31
277.726	93.31
277.957	96.31
278.189	101.31
278.421	89.31
278.652	100.31
278.884	77.31
279.115	104.31
279.347	91.31
279.579	116.31
279.81	113.31
280.042	160.31
280.273	232.31
280.505	166.31
280.736	102.31
280.968	93.31
281.199	84.31
281.431	92.31
281.662	87.31
281.894	87.31
282.125	96.31
282.356	143.31
282.588	167.31
282.819	128.31
283.051	102.31
283.282	83.31
283.513	85.31
283.745	86.31
283.976	85.31
284.207	75.31
284.439	91.31
284.67	83.31
284.901	96.31
285.132	93.31
285.364	101.31
285.595	84.31
285.826	81.31
286.057	73.31
286.288	79.31
286.52	93.31
286.751	91.31
286.982	97.31
287.213	91.31
287.444	94.31
287.675	92.31
287.906	85.31
288.138	79.31
288.369	99.31
288.6	100.31
288.831	80.31
289.062	95.31
289.293	88.31
289.524	77.31
289.755	84.31
289.986	84.31
290.217	88.31
290.448	91.31
290.679	91.31
290.91	93.31
291.141	98.31
291.371	85.31
291.602	88.31
291.833	93.31
292.064	86.31
292.295	81.31
292.526	88.31
292.757	83.31
292.987	92.31
293.218	81.31
293.449	108.31
293.68	85.31
293.91	57.31
294.141	91.31
294.372	109.31
294.603	95.31
294.833	104.31
295.064	77.31
295.295	86.31
295.525	85.31
295.756	94.31
295.987	125.31
296.217	147.31
296.448	153.31
296.679	93.31
296.909	97.31
297.14	92.31
297.37	86.31
297.601	95.31
297.831	97.31
298.062	94.31
298.292	93.31
298.523	86.31
298.753	81.31
298.984	100.31
299.214	89.31
299.445	98.31
299.675	98.31
299.905	103.31
300.136	96.31
300.366	101.31
300.597	83.31
300.827	92.31
301.057	100.31
301.288	104.31
301.518	92.31
301.748	97.31
301.979	113.31
302.209	105.31
302.439	107.31
302.669	108.31
302.9	101.31
303.13	102.31
303.36	92.31
303.59	114.31
303.82	144.31
304.051	100.31
304.281	93.31
304.511	97.31
304.741	78.31
304.971	81.31
305.201	86.31
305.431	93.31
305.661	95.31
305.891	88.31
306.121	86.31
306.352	112.31
306.582	90.31
306.812	111.31
307.042	119.31
307.272	142.31
307.502	166.31
307.731	159.31
307.961	131.31
308.191	94.31
308.421	92.31
308.651	97.31
308.881	92.31
309.111	83.31
309.341	99.31
309.571	115.31
309.8	94.31
310.03	104.31
310.26	96.31
310.49	97.31
310.72	110.31
310.949	115.31
311.179	117.31
311.409	104.31
311.639	100.31
311.868	94.31
312.098	100.31
312.328	107.31
312.557	122.31
312.787	124.31
313.017	108.31
313.246	87.31
313.476	101.31
313.706	89.31
313.935	85.31
314.165	107.31
314.394	107.31
314.624	91.31
314.853	109.31
315.083	100.31
315.312	98.31
315.542	94.31
315.771	98.31
316.001	96.31
316.23	90.31
316.46	97.31
316.689	96.31
316.919	99.31
317.148	113.31
317.377	99.31
317.607	97.31
317.836	103.31
318.065	102.31
318.295	99.31
318.524	92.31
318.753	99.31
318.983	112.31
319.212	96.31
319.441	123.31
319.67	112.31
319.9	89.31
320.129	98.31
320.358	101.31
320.587	101.31
320.816	100.31
321.046	101.31
321.275	113.31
321.504	87.31
321.733	99.31
321.962	108.31
322.191	100.31
322.42	132.31
322.649	120.31
322.878	111.31
323.108	128.31
323.337	129.31
323.566	136.31
323.795	167.31
324.024	218.31
324.253	398.31
324.482	848.31
324.71	1638.31
324.939	2176.31
325.168	821.31
325.397	264.31
325.626	144.31
325.855	136.31
326.084	134.31
326.313	151.31
326.542	174.31
326.77	246.31
326.999	438.31
327.228	849.31
327.457	1541.31
327.686	1271.31
327.914	450.31
328.143	465.31
328.372	581.31
328.6	321.31
328.829	179.31
329.058	173.31
329.287	194.31
329.515	188.31
329.744	219.31
329.972	423.31
330.201	840.31
330.43	1192.31
330.658	577.31
330.887	289.31
331.115	171.31
331.344	117.31
331.572	119.31
331.801	127.31
332.03	125.31
332.258	112.31
332.486	117.31
332.715	115.31
332.943	116.31
333.172	114.31
333.4	140.31
333.629	153.31
333.857	207.31
334.085	360.31
334.314	763.31
334.542	1514.31
334.771	1433.31
334.999	392.31
335.227	179.31
335.455	123.31
335.684	111.31
335.912	100.31
336.14	87.31
336.369	107.31
336.597	99.31
336.825	108.31
337.053	97.31
337.281	103.31
337.51	80.31
337.738	97.31
337.966	95.31
338.194	95.31
338.422	104.31
338.65	114.31
338.878	102.31
339.106	90.31
339.334	93.31
339.562	88.31
339.79	90.31
340.018	102.31
340.246	100.31
340.474	103.31
340.702	92.31
340.93	91.31
341.158	103.31
341.386	97.31
341.614	97.31
341.842	109.31
342.07	98.31
342.298	97.31
342.526	101.31
342.754	68.31
342.981	83.31
343.209	93.31
343.437	111.31
343.665	95.31
343.893	86.31
344.12	105.31
344.348	89.31
344.576	91.31
344.804	107.31
345.031	97.31
345.259	101.31
345.487	97.31
345.714	106.31
345.942	103.31
346.17	99.31
346.397	82.31
346.625	104.31
346.853	97.31
347.08	86.31
347.308	108.31
347.535	107.31
347.763	103.31
347.99	82.31
348.218	99.31
348.445	122.31
348.673	121.31
348.9	93.31
349.128	104.31
349.355	96.31
349.583	87.31
349.81	96.31
350.037	96.31
350.265	86.31
350.492	98.31
350.72	103.31
350.947	113.31
351.174	112.31
351.402	122.31
351.629	100.31
351.856	86.31
352.083	112.31
352.311	125.31
352.538	113.31
352.765	130.31
352.992	133.31
353.22	128.31
353.447	119.31
353.674	99.31
353.901	90.31
354.128	96.31
354.355	99.31
354.583	89.31
354.81	88.31
355.037	103.31
355.264	91.31
355.491	87.31
355.718	82.31
355.945	85.31
356.172	90.31
356.399	84.31
356.626	103.31
356.853	104.31
357.08	101.31
357.307	102.31
357.534	85.31
357.761	89.31
357.988	88.31
358.215	88.31
358.441	94.31
358.668	79.31
358.895	84.31
359.122	82.31
359.349	101.31
359.576	97.31
359.802	120.31
360.029	144.31
360.256	153.31
360.483	123.31
360.709	103.31
360.936	102.31
361.163	96.31
361.39	105.31
361.616	110.31
361.843	94.31
362.07	105.31
362.296	118.31
362.523	102.31
362.749	102.31
362.976	91.31
363.203	95.31
363.429	89.31
363.656	102.31
363.882	95.31
364.109	99.31
364.335	107.31
364.562	91.31
364.788	85.31
365.015	75.31
365.241	115.31
365.468	96.31
365.694	124.31
365.92	104.31
366.147	107.31
366.373	97.31
366.599	96.31
366.826	94.31
367.052	87.31
367.278	100.31
367.505	91.31
367.731	95.31
367.957	93.31
368.184	98.31
368.41	103.31
368.636	117.31
368.862	116.31
369.089	131.31
369.315	103.31
369.541	89.31
369.767	91.31
369.993	105.31
370.219	94.31
370.445	96.31
370.672	91.31
370.898	84.31
371.124	81.31
371.35	94.31
371.576	90.31
371.802	82.31
372.028	90.31
372.254	81.31
372.48	89.31
372.706	87.31
372.932	93.31
373.158	88.31
373.384	101.31
373.61	96.31
373.835	85.31
374.061	95.31
374.287	106.31
374.513	96.31
374.739	96.31
374.965	99.31
375.191	75.31
375.416	83.31
375.642	88.31
375.868	87.31
376.094	84.31
376.319	96.31
376.545	75.31
376.771	72.31
376.997	75.31
377.222	81.31
377.448	93.31
377.674	93.31
377.899	90.31
378.125	73.31
378.35	83.31
378.576	91.31
378.802	96.31
379.027	96.31
379.253	89.31
379.478	81.31
379.704	80.31
379.929	96.31
380.155	96.31
380.38	97.31
380.606	92.31
380.831	104.31
381.057	83.31
381.282	98.31
381.507	91.31
381.733	87.31
381.958	80.31
382.184	96.31
382.409	103.31
382.634	93.31
382.86	96.31
383.085	97.31
383.31	102.31
383.535	92.31
383.761	97.31
383.986	97.31
384.211	85.31
384.436	99.31
384.662	94.31
384.887	94.31
385.112	93.31
385.337	83.31
385.562	113.31
385.787	101.31
386.013	113.31
386.238	128.31
386.463	104.31
386.688	104.31
386.913	100.31
387.138	111.31
387.363	88.31
387.588	98.31
387.813	107.31
388.038	112.31
388.263	107.31
388.488	96.31
388.713	87.31
388.938	83.31
389.163	100.31
389.387	91.31
389.612	84.31
389.837	93.31
390.062	103.31
390.287	93.31
390.512	85.31
390.736	66.31
390.961	85.31
391.186	99.31
391.411	98.31
391.636	88.31
391.86	91.31
392.085	75.31
392.31	85.31
392.534	81.31
392.759	85.31
392.984	70.31
393.208	90.31
393.433	88.31
393.658	111.31
393.882	92.31
394.107	77.31
394.331	76.31
394.556	84.31
394.78	88.31
395.005	80.31
395.229	95.31
395.454	85.31
395.678	87.31
395.903	93.31
396.127	90.31
396.352	93.31
396.576	81.31
396.801	91.31
397.025	92.31
397.249	100.31
397.474	106.31
397.698	100.31
397.922	87.31
398.147	90.31
398.371	69.31
398.595	83.31
398.82	85.31
399.044	87.31
399.268	74.31
399.492	93.31
399.717	67.31
399.941	83.31
400.165	96.31
400.389	96.31
400.613	98.31
400.837	85.31
401.062	85.31
401.286	82.31
401.51	85.31
401.734	94.31
401.958	101.31
402.182	150.31
402.406	187.31
402.63	143.31
402.854	103.31
403.078	93.31
403.302	79.31
403.526	86.31
403.75	95.31
403.974	94.31
404.198	88.31
404.422	85.31
404.645	88.31
404.869	102.31
405.093	118.31
405.317	135.31
405.541	142.31
405.765	111.31
405.988	133.31
406.212	201.31
406.436	294.31
406.66	198.31
406.883	128.31
407.107	113.31
407.331	103.31
407.555	116.31
407.778	105.31
408.002	97.31
408.226	91.31
408.449	89.31
408.673	102.31
408.896	96.31
409.12	87.31
409.344	79.31
409.567	78.31
409.791	85.31
410.014	109.31
410.238	98.31
410.461	94.31
410.685	85.31
410.908	111.31
411.132	106.31
411.355	103.31
411.578	107.31
411.802	112.31
412.025	89.31
412.249	87.31
412.472	124.31
412.695	130.31
412.919	103.31
413.142	96.31
413.365	99.31
413.589	90.31
413.812	89.31
414.035	93.31
414.258	83.31
414.482	99.31
414.705	89.31
414.928	92.31
415.151	101.31
415.374	99.31
415.597	95.31
415.821	92.31
416.044	72.31
416.267	92.31
416.49	81.31
416.713	88.31
416.936	84.31
417.159	94.31
417.382	109.31
417.605	95.31
417.828	97.31
418.051	98.31
418.274	93.31
418.497	77.31
418.72	90.31
418.943	84.31
419.166	96.31
419.389	94.31
419.611	95.31
419.834	81.31
420.057	111.31
420.28	89.31
420.503	95.31
420.726	90.31
420.948	92.31
421.171	97.31
421.394	91.31
421.617	91.31
421.839	87.31
422.062	85.31
422.285	84.31
422.507	110.31
422.73	120.31
422.953	94.31
423.175	95.31
423.398	81.31
423.621	86.31
423.843	100.31
424.066	91.31
424.288	100.31
424.511	110.31
424.733	103.31
424.956	123.31
425.178	102.31
425.401	108.31
425.623	110.31
425.846	100.31
426.068	101.31
426.291	90.31
426.513	89.31
426.735	101.31
426.958	92.31
427.18	104.31
427.402	181.31
427.625	239.31
427.847	206.31
428.069	194.31
428.292	124.31
428.514	83.31
428.736	99.31
428.958	86.31
429.181	88.31
429.403	84.31
429.625	97.31
429.847	90.31
430.069	105.31
430.292	94.31
430.514	77.31
430.736	94.31
430.958	87.31
431.18	81.31
431.402	79.31
431.624	97.31
431.846	93.31
432.068	87.31
432.29	84.31
432.512	100.31
432.734	100.31
432.956	92.31
433.178	111.31
433.4	95.31
433.622	78.31
433.844	96.31
434.066	95.31
434.287	94.31
434.509	84.31
434.731	93.31
434.953	77.31
435.175	86.31
435.397	83.31
435.618	78.31
435.84	99.31
436.062	149.31
436.284	111.31
436.505	113.31
436.727	95.31
436.949	103.31
437.17	91.31
437.392	96.31
437.614	109.31
437.835	124.31
438.057	145.31
438.278	119.31
438.5	119.31
438.721	150.31
438.943	107.31
439.165	84.31
439.386	98.31
439.608	84.31
439.829	100.31
440.05	132.31
440.272	172.31
440.493	99.31
440.715	96.31
440.936	85.31
441.158	86.31
441.379	90.31
441.6	101.31
441.822	108.31
442.043	100.31
442.264	113.31
442.486	105.31
442.707	92.31
442.928	120.31
443.149	155.31
443.371	155.31
443.592	124.31
443.813	122.31
444.034	132.31
444.255	85.31
444.476	81.31
444.698	96.31
444.919	82.31
445.14	153.31
445.361	135.31
445.582	133.31
445.803	181.31
446.024	175.31
446.245	159.31
446.466	126.31
446.687	99.31
446.908	78.31
447.129	83.31
447.35	90.31
447.571	92.31
447.792	99.31
448.013	99.31
448.234	113.31
448.455	120.31
448.675	141.31
448.896	146.31
449.117	103.31
449.338	107.31
449.559	143.31
449.779	133.31
450	115.31
450.221	87.31
450.442	87.31
450.662	107.31
450.883	127.31
451.104	135.31
451.324	118.31
451.545	84.31
451.766	87.31
451.986	82.31
452.207	89.31
452.428	93.31
452.648	104.31
452.869	128.31
453.089	135.31
453.31	136.31
453.53	106.31
453.751	88.31
453.971	117.31
454.192	136.31
454.412	97.31
454.633	95.31
454.853	79.31
455.073	79.31
455.294	100.31
455.514	108.31
455.734	106.31
455.955	77.31
456.175	81.31
456.395	85.31
456.616	79.31
456.836	80.31
457.056	80.31
457.276	95.31
457.497	93.31
457.717	95.31
457.937	87.31
458.157	104.31
458.377	87.31
458.598	135.31
458.818	193.31
459.038	211.31
459.258	135.31
459.478	116.31
459.698	96.31
459.918	93.31
460.138	88.31
460.358	95.31
460.578	82.31
460.798	91.31
461.018	91.31
461.238	103.31
461.458	83.31
461.678	93.31
461.898	94.31
462.118	82.31
462.338	87.31
462.558	76.31
462.777	84.31
462.997	77.31
463.217	103.31
463.437	99.31
463.657	82.31
463.876	101.31
464.096	95.31
464.316	110.31
464.536	86.31
464.755	103.31
464.975	120.31
465.195	248.31
465.414	218.31
465.634	110.31
465.854	90.31
466.073	91.31
466.293	88.31
466.512	79.31
466.732	102.31
466.951	98.31
467.171	111.31
467.391	104.31
467.61	126.31
467.829	188.31
468.049	459.31
468.268	677.31
468.488	191.31
468.707	99.31
468.927	88.31
469.146	64.31
469.365	77.31
469.585	98.31
469.804	97.31
470.023	93.31
470.243	99.31
470.462	122.31
470.681	136.31
470.901	110.31
471.12	105.31
471.339	112.31
471.558	91.31
471.777	141.31
471.997	250.31
472.216	866.31
472.435	2019.31
472.654	503.31
472.873	152.31
473.092	103.31
473.311	99.31
473.53	95.31
473.749	89.31
473.968	104.31
474.187	138.31
474.406	115.31
474.625	88.31
474.844	93.31
475.063	86.31
475.282	81.31
475.501	86.31
475.72	87.31
475.939	93.31
476.158	93.31
476.377	88.31
476.596	92.31
476.814	88.31
477.033	100.31
477.252	99.31
477.471	96.31
477.69	94.31
477.908	103.31
478.127	90.31
478.346	70.31
478.564	97.31
478.783	110.31
479.002	103.31
479.22	102.31
479.439	124.31
479.658	124.31
479.876	115.31
480.095	117.31
480.313	132.31
480.532	148.31
480.751	252.31
480.969	794.31
481.188	3436.31
481.406	2022.31
481.624	307.31
481.843	111.31
482.061	111.31
482.28	98.31
482.498	97.31
482.717	86.31
482.935	96.31
483.153	96.31
483.372	88.31
483.59	72.31
483.808	93.31
484.027	108.31
484.245	91.31
484.463	93.31
484.681	90.31
484.9	100.31
485.118	87.31
485.336	86.31
485.554	99.31
485.772	104.31
485.99	99.31
486.209	104.31
486.427	104.31
486.645	116.31
486.863	132.31
487.081	89.31
487.299	103.31
487.517	105.31
487.735	96.31
487.953	94.31
488.171	96.31
488.389	91.31
488.607	106.31
488.825	87.31
489.043	95.31
489.261	101.31
489.479	93.31
489.696	71.31
489.914	70.31
490.132	95.31
490.35	89.31
490.568	85.31
490.786	99.31
491.003	79.31
491.221	89.31
491.439	88.31
491.657	92.31
491.874	77.31
492.092	103.31
492.31	89.31
492.527	103.31
492.745	121.31
492.963	91.31
493.18	106.31
493.398	91.31
493.615	96.31
493.833	89.31
494.05	93.31
494.268	86.31
494.485	84.31
494.703	104.31
494.92	91.31
495.138	87.31
495.355	95.31
495.573	78.31
495.79	85.31
496.008	91.31
496.225	93.31
496.442	84.31
496.66	99.31
496.877	91.31
497.094	93.31
497.312	82.31
497.529	83.31
497.746	88.31
497.963	89.31
498.181	99.31
498.398	89.31
498.615	112.31
498.832	105.31
499.049	84.31
499.267	107.31
499.484	89.31
499.701	97.31
499.918	108.31
500.135	95.31
500.352	91.31
500.569	104.31
500.786	96.31
501.003	96.31
501.22	97.31
501.437	85.31
501.654	91.31
501.871	120.31
502.088	96.31
502.305	98.31
502.522	96.31
502.739	97.31
502.956	71.31
503.172	83.31
503.389	106.31
503.606	127.31
503.823	104.31
504.04	95.31
504.256	101.31
504.473	88.31
504.69	89.31
504.907	92.31
505.123	86.31
505.34	79.31
505.557	87.31
505.773	80.31
505.99	99.31
506.207	116.31
506.423	98.31
506.64	87.31
506.856	89.31
507.073	88.31
507.289	90.31
507.506	97.31
507.722	115.31
507.939	124.31
508.155	87.31
508.372	100.31
508.588	93.31
508.805	87.31
509.021	103.31
509.238	103.31
509.454	103.31
509.67	111.31
509.887	121.31
510.103	142.31
510.319	232.31
510.536	873.31
510.752	3053.31
510.968	821.31
511.184	193.31
511.401	127.31
511.617	101.31
511.833	124.31
512.049	95.31
512.265	109.31
512.481	92.31
512.698	103.31
512.914	94.31
513.13	105.31
513.346	96.31
513.562	104.31
