Data from Circ_1987_H10_HRD10591_00076.txt Node
Date: Wed Jan 03 12:10:48 EST 2024
User: Yrep
Spectrometer: HR+D1059
Trigger mode: 1
Integration Time (sec): 1.000000E-1
Scans to average: 1
Electric dark correction enabled: true
Nonlinearity correction enabled: false
Boxcar width: 0
XAxis mode: Wavelengths
Number of Pixels in Spectrum: 2048
>>>>>Begin Spectral Data<<<<<
223.165	-19.5
223.4	-19.5
223.635	-19.5
223.869	-22.5
224.104	-17.5
224.338	-0.5
224.573	0.5
224.808	-4.5
225.042	-16.5
225.277	-10.5
225.511	-9.5
225.746	-9.5
225.98	5.5
226.215	14.5
226.449	20.5
226.683	12.5
226.918	30.5
227.152	26.5
227.387	22.5
227.621	32.5
227.856	27.5
228.09	50.5
228.324	47.5
228.559	46.5
228.793	53.5
229.027	62.5
229.262	87.5
229.496	75.5
229.73	98.5
229.964	97.5
230.199	74.5
230.433	82.5
230.667	84.5
230.901	79.5
231.136	82.5
231.37	72.5
231.604	82.5
231.838	83.5
232.072	78.5
232.306	90.5
232.541	84.5
232.775	86.5
233.009	93.5
233.243	81.5
233.477	61.5
233.711	78.5
233.945	78.5
234.179	78.5
234.413	81.5
234.647	81.5
234.881	84.5
235.115	84.5
235.349	82.5
235.583	78.5
235.817	78.5
236.051	76.5
236.285	65.5
236.519	80.5
236.753	78.5
236.987	75.5
237.221	85.5
237.455	86.5
237.689	76.5
237.922	78.5
238.156	80.5
238.39	79.5
238.624	80.5
238.858	76.5
239.091	72.5
239.325	77.5
239.559	92.5
239.793	82.5
240.027	76.5
240.26	72.5
240.494	81.5
240.728	81.5
240.961	78.5
241.195	86.5
241.429	79.5
241.662	59.5
241.896	68.5
242.13	71.5
242.363	78.5
242.597	75.5
242.83	90.5
243.064	85.5
243.298	86.5
243.531	74.5
243.765	79.5
243.998	83.5
244.232	87.5
244.465	92.5
244.699	83.5
244.932	66.5
245.166	104.5
245.399	76.5
245.633	77.5
245.866	69.5
246.099	67.5
246.333	74.5
246.566	95.5
246.8	90.5
247.033	79.5
247.266	73.5
247.5	83.5
247.733	67.5
247.966	76.5
248.2	85.5
248.433	84.5
248.666	69.5
248.899	78.5
249.133	91.5
249.366	98.5
249.599	106.5
249.832	90.5
250.066	98.5
250.299	75.5
250.532	84.5
250.765	89.5
250.998	80.5
251.231	78.5
251.465	83.5
251.698	87.5
251.931	86.5
252.164	64.5
252.397	82.5
252.63	72.5
252.863	82.5
253.096	90.5
253.329	81.5
253.562	95.5
253.795	85.5
254.028	81.5
254.261	83.5
254.494	90.5
254.727	90.5
254.96	72.5
255.193	87.5
255.426	78.5
255.659	91.5
255.892	95.5
256.124	91.5
256.357	79.5
256.59	87.5
256.823	88.5
257.056	91.5
257.289	97.5
257.521	81.5
257.754	100.5
257.987	80.5
258.22	77.5
258.452	96.5
258.685	93.5
258.918	96.5
259.151	82.5
259.383	79.5
259.616	75.5
259.849	96.5
260.081	88.5
260.314	78.5
260.547	95.5
260.779	97.5
261.012	111.5
261.244	112.5
261.477	113.5
261.71	113.5
261.942	141.5
262.175	174.5
262.407	110.5
262.64	90.5
262.872	75.5
263.105	78.5
263.337	78.5
263.57	74.5
263.802	68.5
264.035	84.5
264.267	79.5
264.499	71.5
264.732	70.5
264.964	76.5
265.197	79.5
265.429	72.5
265.661	70.5
265.894	84.5
266.126	78.5
266.358	80.5
266.591	83.5
266.823	91.5
267.055	82.5
267.287	80.5
267.52	78.5
267.752	84.5
267.984	74.5
268.216	77.5
268.448	86.5
268.681	91.5
268.913	80.5
269.145	93.5
269.377	78.5
269.609	103.5
269.841	96.5
270.073	89.5
270.306	92.5
270.538	95.5
270.77	82.5
271.002	70.5
271.234	97.5
271.466	103.5
271.698	89.5
271.93	100.5
272.162	82.5
272.394	76.5
272.626	92.5
272.858	84.5
273.09	94.5
273.322	103.5
273.553	82.5
273.785	81.5
274.017	97.5
274.249	85.5
274.481	83.5
274.713	79.5
274.945	95.5
275.176	107.5
275.408	112.5
275.64	124.5
275.872	136.5
276.104	119.5
276.335	108.5
276.567	132.5
276.799	158.5
277.031	195.5
277.262	238.5
277.494	160.5
277.726	98.5
277.957	90.5
278.189	105.5
278.421	103.5
278.652	95.5
278.884	98.5
279.115	90.5
279.347	94.5
279.579	118.5
279.81	139.5
280.042	231.5
280.273	327.5
280.505	219.5
280.736	118.5
280.968	105.5
281.199	87.5
281.431	94.5
281.662	98.5
281.894	92.5
282.125	100.5
282.356	149.5
282.588	202.5
282.819	139.5
283.051	94.5
283.282	90.5
283.513	81.5
283.745	85.5
283.976	94.5
284.207	74.5
284.439	84.5
284.67	95.5
284.901	87.5
285.132	66.5
285.364	85.5
285.595	82.5
285.826	98.5
286.057	104.5
286.288	94.5
286.52	68.5
286.751	92.5
286.982	81.5
287.213	78.5
287.444	92.5
287.675	96.5
287.906	86.5
288.138	84.5
288.369	95.5
288.6	106.5
288.831	98.5
289.062	79.5
289.293	90.5
289.524	88.5
289.755	85.5
289.986	90.5
290.217	94.5
290.448	91.5
290.679	84.5
290.91	84.5
291.141	79.5
291.371	91.5
291.602	86.5
291.833	86.5
292.064	95.5
292.295	86.5
292.526	103.5
292.757	87.5
292.987	93.5
293.218	77.5
293.449	94.5
293.68	85.5
293.91	78.5
294.141	97.5
294.372	95.5
294.603	88.5
294.833	91.5
295.064	82.5
295.295	102.5
295.525	90.5
295.756	119.5
295.987	131.5
296.217	182.5
296.448	178.5
296.679	100.5
296.909	92.5
297.14	98.5
297.37	94.5
297.601	95.5
297.831	78.5
298.062	101.5
298.292	88.5
298.523	81.5
298.753	91.5
298.984	69.5
299.214	81.5
299.445	93.5
299.675	90.5
299.905	104.5
300.136	94.5
300.366	92.5
300.597	97.5
300.827	96.5
301.057	106.5
301.288	133.5
301.518	103.5
301.748	100.5
301.979	110.5
302.209	108.5
302.439	104.5
302.669	82.5
302.9	108.5
303.13	103.5
303.36	103.5
303.59	139.5
303.82	164.5
304.051	114.5
304.281	84.5
304.511	83.5
304.741	85.5
304.971	76.5
305.201	84.5
305.431	90.5
305.661	95.5
305.891	100.5
306.121	106.5
306.352	108.5
306.582	124.5
306.812	108.5
307.042	136.5
307.272	192.5
307.502	188.5
307.731	195.5
307.961	127.5
308.191	98.5
308.421	115.5
308.651	82.5
308.881	92.5
309.111	92.5
309.341	114.5
309.571	111.5
309.8	107.5
310.03	104.5
310.26	119.5
310.49	86.5
310.72	113.5
310.949	131.5
311.179	113.5
311.409	81.5
311.639	101.5
311.868	136.5
312.098	94.5
312.328	109.5
312.557	114.5
312.787	128.5
313.017	112.5
313.246	103.5
313.476	101.5
313.706	91.5
313.935	101.5
314.165	106.5
314.394	123.5
314.624	110.5
314.853	110.5
315.083	104.5
315.312	91.5
315.542	102.5
315.771	85.5
316.001	95.5
316.23	90.5
316.46	99.5
316.689	103.5
316.919	96.5
317.148	95.5
317.377	86.5
317.607	108.5
317.836	110.5
318.065	81.5
318.295	110.5
318.524	92.5
318.753	92.5
318.983	110.5
319.212	115.5
319.441	128.5
319.67	131.5
319.9	74.5
320.129	107.5
320.358	112.5
320.587	92.5
320.816	110.5
321.046	114.5
321.275	96.5
321.504	107.5
321.733	85.5
321.962	97.5
322.191	115.5
322.42	113.5
322.649	129.5
322.878	144.5
323.108	139.5
323.337	157.5
323.566	173.5
323.795	205.5
324.024	264.5
324.253	520.5
324.482	1108.5
324.71	2310.5
324.939	3130.5
325.168	1144.5
325.397	319.5
325.626	190.5
325.855	163.5
326.084	160.5
326.313	158.5
326.542	187.5
326.77	295.5
326.999	552.5
327.228	1140.5
327.457	2160.5
327.686	1786.5
327.914	634.5
328.143	648.5
328.372	857.5
328.6	498.5
328.829	230.5
329.058	230.5
329.287	249.5
329.515	224.5
329.744	278.5
329.972	582.5
330.201	1251.5
330.43	1922.5
330.658	850.5
330.887	384.5
331.115	228.5
331.344	128.5
331.572	136.5
331.801	158.5
332.03	149.5
332.258	140.5
332.486	110.5
332.715	89.5
332.943	139.5
333.172	118.5
333.4	145.5
333.629	190.5
333.857	286.5
334.085	511.5
334.314	1115.5
334.542	2274.5
334.771	2184.5
334.999	552.5
335.227	196.5
335.455	147.5
335.684	120.5
335.912	120.5
336.14	116.5
336.369	111.5
336.597	115.5
336.825	117.5
337.053	103.5
337.281	94.5
337.51	99.5
337.738	106.5
337.966	113.5
338.194	108.5
338.422	100.5
338.65	99.5
338.878	99.5
339.106	95.5
339.334	89.5
339.562	94.5
339.79	98.5
340.018	85.5
340.246	98.5
340.474	95.5
340.702	115.5
340.93	98.5
341.158	94.5
341.386	96.5
341.614	114.5
341.842	95.5
342.07	112.5
342.298	93.5
342.526	86.5
342.754	105.5
342.981	107.5
343.209	83.5
343.437	95.5
343.665	84.5
343.893	83.5
344.12	102.5
344.348	93.5
344.576	84.5
344.804	104.5
345.031	105.5
345.259	99.5
345.487	96.5
345.714	115.5
345.942	109.5
346.17	94.5
346.397	94.5
346.625	112.5
346.853	118.5
347.08	98.5
347.308	106.5
347.535	97.5
347.763	120.5
347.99	117.5
348.218	113.5
348.445	129.5
348.673	123.5
348.9	92.5
349.128	100.5
349.355	87.5
349.583	99.5
349.81	100.5
350.037	97.5
350.265	103.5
350.492	95.5
350.72	95.5
350.947	112.5
351.174	125.5
351.402	113.5
351.629	113.5
351.856	111.5
352.083	110.5
352.311	132.5
352.538	154.5
352.765	135.5
352.992	117.5
353.22	140.5
353.447	116.5
353.674	122.5
353.901	89.5
354.128	93.5
354.355	97.5
354.583	95.5
354.81	86.5
355.037	105.5
355.264	92.5
355.491	105.5
355.718	98.5
355.945	100.5
356.172	99.5
356.399	87.5
356.626	90.5
356.853	96.5
357.08	83.5
357.307	90.5
357.534	98.5
357.761	103.5
357.988	82.5
358.215	100.5
358.441	104.5
358.668	90.5
358.895	83.5
359.122	87.5
359.349	84.5
359.576	96.5
359.802	114.5
360.029	157.5
360.256	176.5
360.483	119.5
360.709	105.5
360.936	107.5
361.163	97.5
361.39	97.5
361.616	99.5
361.843	84.5
362.07	105.5
362.296	122.5
362.523	111.5
362.749	108.5
362.976	85.5
363.203	92.5
363.429	85.5
363.656	92.5
363.882	96.5
364.109	95.5
364.335	82.5
364.562	105.5
364.788	104.5
365.015	92.5
365.241	102.5
365.468	105.5
365.694	133.5
365.92	125.5
366.147	109.5
366.373	107.5
366.599	83.5
366.826	81.5
367.052	97.5
367.278	85.5
367.505	99.5
367.731	101.5
367.957	108.5
368.184	110.5
368.41	104.5
368.636	133.5
368.862	143.5
369.089	126.5
369.315	100.5
369.541	99.5
369.767	93.5
369.993	98.5
370.219	90.5
370.445	84.5
370.672	95.5
370.898	85.5
371.124	89.5
371.35	96.5
371.576	88.5
371.802	90.5
372.028	93.5
372.254	86.5
372.48	85.5
372.706	85.5
372.932	96.5
373.158	86.5
373.384	103.5
373.61	84.5
373.835	79.5
374.061	102.5
374.287	90.5
374.513	95.5
374.739	95.5
374.965	91.5
375.191	86.5
375.416	93.5
375.642	94.5
375.868	92.5
376.094	79.5
376.319	84.5
376.545	98.5
376.771	86.5
376.997	89.5
377.222	79.5
377.448	95.5
377.674	92.5
377.899	86.5
378.125	78.5
378.35	102.5
378.576	94.5
378.802	93.5
379.027	80.5
379.253	80.5
379.478	87.5
379.704	79.5
379.929	95.5
380.155	104.5
380.38	93.5
380.606	82.5
380.831	83.5
381.057	98.5
381.282	88.5
381.507	94.5
381.733	91.5
381.958	96.5
382.184	77.5
382.409	91.5
382.634	100.5
382.86	97.5
383.085	80.5
383.31	80.5
383.535	103.5
383.761	87.5
383.986	98.5
384.211	86.5
384.436	118.5
384.662	83.5
384.887	85.5
385.112	100.5
385.337	95.5
385.562	99.5
385.787	94.5
386.013	100.5
386.238	119.5
386.463	118.5
386.688	115.5
386.913	107.5
387.138	93.5
387.363	93.5
387.588	106.5
387.813	98.5
388.038	81.5
388.263	101.5
388.488	104.5
388.713	100.5
388.938	90.5
389.163	101.5
389.387	88.5
389.612	86.5
389.837	87.5
390.062	99.5
390.287	90.5
390.512	94.5
390.736	84.5
390.961	84.5
391.186	91.5
391.411	81.5
391.636	79.5
391.86	94.5
392.085	76.5
392.31	87.5
392.534	97.5
392.759	92.5
392.984	89.5
393.208	92.5
393.433	96.5
393.658	63.5
393.882	85.5
394.107	88.5
394.331	86.5
394.556	84.5
394.78	90.5
395.005	91.5
395.229	92.5
395.454	97.5
395.678	88.5
395.903	91.5
396.127	94.5
396.352	87.5
396.576	87.5
396.801	86.5
397.025	69.5
397.249	82.5
397.474	89.5
397.698	77.5
397.922	90.5
398.147	84.5
398.371	86.5
398.595	104.5
398.82	88.5
399.044	70.5
399.268	95.5
399.492	80.5
399.717	87.5
399.941	89.5
400.165	91.5
400.389	97.5
400.613	86.5
400.837	93.5
401.062	79.5
401.286	85.5
401.51	92.5
401.734	104.5
401.958	117.5
402.182	174.5
402.406	227.5
402.63	167.5
402.854	115.5
403.078	100.5
403.302	80.5
403.526	105.5
403.75	76.5
403.974	85.5
404.198	86.5
404.422	95.5
404.645	99.5
404.869	122.5
405.093	120.5
405.317	157.5
405.541	138.5
405.765	141.5
405.988	144.5
406.212	245.5
406.436	368.5
406.66	233.5
406.883	135.5
407.107	101.5
407.331	100.5
407.555	104.5
407.778	99.5
408.002	101.5
408.226	90.5
408.449	88.5
408.673	82.5
408.896	91.5
409.12	96.5
409.344	85.5
409.567	84.5
409.791	83.5
410.014	92.5
410.238	81.5
410.461	84.5
410.685	83.5
410.908	95.5
411.132	104.5
411.355	109.5
411.578	96.5
411.802	91.5
412.025	80.5
412.249	118.5
412.472	114.5
412.695	133.5
412.919	111.5
413.142	88.5
413.365	93.5
413.589	100.5
413.812	93.5
414.035	92.5
414.258	96.5
414.482	91.5
414.705	93.5
414.928	81.5
415.151	88.5
415.374	85.5
415.597	94.5
415.821	92.5
416.044	94.5
416.267	91.5
416.49	81.5
416.713	85.5
416.936	83.5
417.159	83.5
417.382	91.5
417.605	115.5
417.828	116.5
418.051	100.5
418.274	109.5
418.497	90.5
418.72	70.5
418.943	98.5
419.166	86.5
419.389	98.5
419.611	102.5
419.834	99.5
420.057	85.5
420.28	101.5
420.503	86.5
420.726	90.5
420.948	89.5
421.171	104.5
421.394	102.5
421.617	87.5
421.839	96.5
422.062	86.5
422.285	86.5
422.507	103.5
422.73	106.5
422.953	92.5
423.175	88.5
423.398	87.5
423.621	107.5
423.843	87.5
424.066	78.5
424.288	88.5
424.511	102.5
424.733	106.5
424.956	112.5
425.178	119.5
425.401	107.5
425.623	93.5
425.846	90.5
426.068	96.5
426.291	111.5
426.513	87.5
426.735	88.5
426.958	101.5
427.18	123.5
427.402	187.5
427.625	311.5
427.847	286.5
428.069	243.5
428.292	126.5
428.514	114.5
428.736	103.5
428.958	84.5
429.181	89.5
429.403	86.5
429.625	88.5
429.847	85.5
430.069	115.5
430.292	114.5
430.514	88.5
430.736	95.5
430.958	77.5
431.18	94.5
431.402	78.5
431.624	88.5
431.846	82.5
432.068	94.5
432.29	82.5
432.512	92.5
432.734	84.5
432.956	85.5
433.178	105.5
433.4	105.5
433.622	101.5
433.844	100.5
434.066	90.5
434.287	84.5
434.509	92.5
434.731	85.5
434.953	90.5
435.175	94.5
435.397	91.5
435.618	94.5
435.84	122.5
436.062	126.5
436.284	120.5
436.505	98.5
436.727	112.5
436.949	83.5
437.17	88.5
437.392	90.5
437.614	103.5
437.835	142.5
438.057	176.5
438.278	132.5
438.5	124.5
438.721	132.5
438.943	118.5
439.165	102.5
439.386	97.5
439.608	78.5
439.829	133.5
440.05	179.5
440.272	181.5
440.493	125.5
440.715	92.5
440.936	84.5
441.158	88.5
441.379	92.5
441.6	93.5
441.822	96.5
442.043	110.5
442.264	112.5
442.486	118.5
442.707	105.5
442.928	130.5
443.149	190.5
443.371	204.5
443.592	153.5
443.813	128.5
444.034	125.5
444.255	97.5
444.476	94.5
444.698	97.5
444.919	92.5
445.14	130.5
445.361	124.5
445.582	143.5
445.803	204.5
446.024	185.5
446.245	182.5
446.466	122.5
446.687	94.5
446.908	94.5
447.129	95.5
447.35	98.5
447.571	101.5
447.792	101.5
448.013	114.5
448.234	124.5
448.455	93.5
448.675	124.5
448.896	140.5
449.117	108.5
449.338	111.5
449.559	144.5
449.779	148.5
450	88.5
450.221	86.5
450.442	86.5
450.662	115.5
450.883	153.5
451.104	135.5
451.324	112.5
451.545	95.5
451.766	83.5
451.986	86.5
452.207	85.5
452.428	112.5
452.648	107.5
452.869	130.5
453.089	156.5
453.31	173.5
453.53	114.5
453.751	104.5
453.971	113.5
454.192	146.5
454.412	113.5
454.633	92.5
454.853	88.5
455.073	75.5
455.294	109.5
455.514	113.5
455.734	107.5
455.955	98.5
456.175	82.5
456.395	82.5
456.616	97.5
456.836	85.5
457.056	84.5
457.276	82.5
457.497	79.5
457.717	87.5
457.937	74.5
458.157	86.5
458.377	94.5
458.598	128.5
458.818	235.5
459.038	282.5
459.258	183.5
459.478	106.5
459.698	89.5
459.918	80.5
460.138	81.5
460.358	88.5
460.578	90.5
460.798	106.5
461.018	98.5
461.238	78.5
461.458	82.5
461.678	88.5
461.898	93.5
462.118	87.5
462.338	88.5
462.558	72.5
462.777	92.5
462.997	106.5
463.217	98.5
463.437	88.5
463.657	93.5
463.876	89.5
464.096	102.5
464.316	98.5
464.536	109.5
464.755	104.5
464.975	133.5
465.195	288.5
465.414	292.5
465.634	117.5
465.854	108.5
466.073	91.5
466.293	87.5
466.512	80.5
466.732	87.5
466.951	94.5
467.171	102.5
467.391	126.5
467.61	178.5
467.829	242.5
468.049	698.5
468.268	1092.5
468.488	280.5
468.707	100.5
468.927	89.5
469.146	94.5
469.365	106.5
469.585	93.5
469.804	127.5
470.023	141.5
470.243	117.5
470.462	124.5
470.681	174.5
470.901	110.5
471.12	106.5
471.339	107.5
471.558	134.5
471.777	166.5
471.997	324.5
472.216	1340.5
472.435	3278.5
472.654	738.5
472.873	208.5
473.092	110.5
473.311	98.5
473.53	90.5
473.749	99.5
473.968	114.5
474.187	120.5
474.406	120.5
474.625	103.5
474.844	100.5
475.063	80.5
475.282	92.5
475.501	97.5
475.72	82.5
475.939	88.5
476.158	83.5
476.377	87.5
476.596	101.5
476.814	98.5
477.033	105.5
477.252	108.5
477.471	85.5
477.69	84.5
477.908	109.5
478.127	94.5
478.346	92.5
478.564	101.5
478.783	118.5
479.002	93.5
479.22	95.5
479.439	131.5
479.658	156.5
479.876	131.5
480.095	112.5
480.313	130.5
480.532	187.5
480.751	331.5
480.969	1192.5
481.188	5302.5
481.406	3124.5
481.624	440.5
481.843	154.5
482.061	108.5
482.28	95.5
482.498	104.5
482.717	89.5
482.935	84.5
483.153	96.5
483.372	102.5
483.59	93.5
483.808	88.5
484.027	93.5
484.245	101.5
484.463	95.5
484.681	100.5
484.9	98.5
485.118	102.5
485.336	102.5
485.554	110.5
485.772	101.5
485.99	116.5
486.209	101.5
486.427	108.5
486.645	125.5
486.863	137.5
487.081	112.5
487.299	107.5
487.517	108.5
487.735	103.5
487.953	108.5
488.171	96.5
488.389	106.5
488.607	118.5
488.825	97.5
489.043	94.5
489.261	87.5
489.479	88.5
489.696	80.5
489.914	86.5
490.132	109.5
490.35	95.5
490.568	87.5
490.786	93.5
491.003	78.5
491.221	100.5
491.439	92.5
491.657	104.5
491.874	90.5
492.092	98.5
492.31	96.5
492.527	102.5
492.745	83.5
492.963	89.5
493.18	94.5
493.398	91.5
493.615	90.5
493.833	100.5
494.05	84.5
494.268	84.5
494.485	87.5
494.703	86.5
494.92	86.5
495.138	92.5
495.355	92.5
495.573	90.5
495.79	89.5
496.008	87.5
496.225	88.5
496.442	90.5
496.66	85.5
496.877	85.5
497.094	96.5
497.312	86.5
497.529	80.5
497.746	82.5
497.963	107.5
498.181	96.5
498.398	89.5
498.615	112.5
498.832	115.5
499.049	93.5
499.267	96.5
499.484	92.5
499.701	86.5
499.918	85.5
500.135	84.5
500.352	91.5
500.569	98.5
500.786	111.5
501.003	108.5
501.22	102.5
501.437	98.5
501.654	95.5
501.871	146.5
502.088	104.5
502.305	90.5
502.522	92.5
502.739	92.5
502.956	91.5
503.172	98.5
503.389	95.5
503.606	138.5
503.823	123.5
504.04	90.5
504.256	93.5
504.473	92.5
504.69	84.5
504.907	99.5
505.123	85.5
505.34	87.5
505.557	102.5
505.773	92.5
505.99	97.5
506.207	92.5
506.423	99.5
506.64	100.5
506.856	82.5
507.073	93.5
507.289	105.5
507.506	108.5
507.722	150.5
507.939	126.5
508.155	99.5
508.372	95.5
508.588	94.5
508.805	99.5
509.021	110.5
509.238	100.5
509.454	99.5
509.67	102.5
509.887	127.5
510.103	158.5
510.319	261.5
510.536	1054.5
510.752	3727.5
510.968	994.5
511.184	188.5
511.401	137.5
511.617	115.5
511.833	116.5
512.049	105.5
512.265	106.5
512.481	93.5
512.698	94.5
512.914	113.5
513.13	102.5
513.346	98.5
513.562	96.5
513.778	111.5
513.994	119.5
514.21	131.5
514.426	180.5
514.642	214.5
514.858	180.5
515.074	286.5
515.29	928.5
515.506	3376.5
515.721	1143.5
515.937	252.5
516.153	150.5
516.369	132.5
516.585	107.5
516.801	128.5
517.016	101.5
517.232	87.5
517.448	103.5
517.664	96.5
517.879	100.5
518.095	98.5
518.311	122.5
518.527	115.5
518.742	106.5
518.958	102.5
519.173	103.5
519.389	103.5
519.605	96.5
519.82	103.5
520.036	111.5
520.251	181.5
520.467	150.5
520.682	131.5
520.898	112.5
521.113	159.5
521.329	197.5
521.544	375.5
521.76	1188.5
521.975	5622.5
522.19	3259.5
522.406	630.5
522.621	199.5
522.836	128.5
523.052	110.5
523.267	112.5
523.482	105.5
523.698	110.5
523.913	178.5
524.128	147.5
524.343	106.5
524.559	101.5
524.774	96.5
524.989	124.5
525.204	128.5
525.419	110.5
525.634	97.5
525.849	93.5
526.064	99.5
526.28	83.5
526.495	89.5
526.71	81.5
526.925	83.5
527.14	87.5
527.355	89.5
527.57	80.5
527.785	88.5
527.999	94.5
528.214	93.5
528.429	102.5
528.644	109.5
528.859	105.5
529.074	99.5
529.289	176.5
529.503	339.5
529.718	133.5
529.933	82.5
530.148	92.5
530.363	89.5
530.577	94.5
530.792	93.5
531.007	90.5
531.221	96.5
531.436	96.5
531.651	91.5
