Data from Circ_1987_H10_HRD10591_00100.txt Node
Date: Wed Jan 03 12:10:52 EST 2024
User: Yrep
Spectrometer: HR+D1059
Trigger mode: 1
Integration Time (sec): 1.000000E-1
Scans to average: 1
Electric dark correction enabled: true
Nonlinearity correction enabled: false
Boxcar width: 0
XAxis mode: Wavelengths
Number of Pixels in Spectrum: 2048
>>>>>Begin Spectral Data<<<<<
223.165	-28.12
223.4	-28.12
223.635	-28.12
223.869	-27.12
224.104	-18.12
224.338	-0.12
224.573	-24.12
224.808	-0.12
225.042	-3.12
225.277	10.88
225.511	-18.12
225.746	2.88
225.98	7.88
226.215	12.88
226.449	21.88
226.683	13.88
226.918	19.88
227.152	28.88
227.387	36.88
227.621	42.88
227.856	42.88
228.09	49.88
228.324	53.88
228.559	68.88
228.793	63.88
229.027	74.88
229.262	73.88
229.496	69.88
229.73	96.88
229.964	98.88
230.199	78.88
230.433	79.88
230.667	79.88
230.901	72.88
231.136	76.88
231.37	89.88
231.604	84.88
231.838	82.88
232.072	78.88
232.306	93.88
232.541	97.88
232.775	90.88
233.009	76.88
233.243	84.88
233.477	70.88
233.711	74.88
233.945	85.88
234.179	90.88
234.413	79.88
234.647	85.88
234.881	85.88
235.115	72.88
235.349	83.88
235.583	78.88
235.817	69.88
236.051	85.88
236.285	77.88
236.519	74.88
236.753	69.88
236.987	81.88
237.221	93.88
237.455	90.88
237.689	81.88
237.922	67.88
238.156	62.88
238.39	56.88
238.624	67.88
238.858	60.88
239.091	83.88
239.325	71.88
239.559	89.88
239.793	76.88
240.027	85.88
240.26	84.88
240.494	77.88
240.728	67.88
240.961	70.88
241.195	90.88
241.429	80.88
241.662	72.88
241.896	84.88
242.13	88.88
242.363	81.88
242.597	98.88
242.83	84.88
243.064	69.88
243.298	88.88
243.531	76.88
243.765	90.88
243.998	107.88
244.232	76.88
244.465	97.88
244.699	78.88
244.932	78.88
245.166	91.88
245.399	86.88
245.633	79.88
245.866	85.88
246.099	88.88
246.333	78.88
246.566	69.88
246.8	64.88
247.033	69.88
247.266	80.88
247.5	86.88
247.733	81.88
247.966	78.88
248.2	88.88
248.433	81.88
248.666	73.88
248.899	95.88
249.133	96.88
249.366	97.88
249.599	104.88
249.832	82.88
250.066	90.88
250.299	88.88
250.532	101.88
250.765	91.88
250.998	78.88
251.231	94.88
251.465	80.88
251.698	82.88
251.931	81.88
252.164	78.88
252.397	83.88
252.63	82.88
252.863	89.88
253.096	84.88
253.329	86.88
253.562	59.88
253.795	80.88
254.028	68.88
254.261	80.88
254.494	82.88
254.727	85.88
254.96	67.88
255.193	84.88
255.426	88.88
255.659	81.88
255.892	101.88
256.124	97.88
256.357	112.88
256.59	81.88
256.823	81.88
257.056	89.88
257.289	80.88
257.521	90.88
257.754	92.88
257.987	91.88
258.22	90.88
258.452	96.88
258.685	104.88
258.918	93.88
259.151	73.88
259.383	86.88
259.616	94.88
259.849	74.88
260.081	76.88
260.314	87.88
260.547	93.88
260.779	90.88
261.012	109.88
261.244	110.88
261.477	89.88
261.71	96.88
261.942	112.88
262.175	134.88
262.407	97.88
262.64	90.88
262.872	103.88
263.105	90.88
263.337	94.88
263.57	79.88
263.802	90.88
264.035	80.88
264.267	87.88
264.499	94.88
264.732	77.88
264.964	88.88
265.197	88.88
265.429	85.88
265.661	87.88
265.894	78.88
266.126	73.88
266.358	75.88
266.591	90.88
266.823	97.88
267.055	93.88
267.287	84.88
267.52	71.88
267.752	74.88
267.984	85.88
268.216	90.88
268.448	88.88
268.681	97.88
268.913	92.88
269.145	81.88
269.377	85.88
269.609	88.88
269.841	94.88
270.073	78.88
270.306	99.88
270.538	89.88
270.77	84.88
271.002	82.88
271.234	86.88
271.466	94.88
271.698	88.88
271.93	87.88
272.162	104.88
272.394	89.88
272.626	80.88
272.858	77.88
273.09	95.88
273.322	69.88
273.553	96.88
273.785	86.88
274.017	88.88
274.249	82.88
274.481	85.88
274.713	90.88
274.945	98.88
275.176	93.88
275.408	109.88
275.64	118.88
275.872	130.88
276.104	110.88
276.335	107.88
276.567	122.88
276.799	140.88
277.031	176.88
277.262	198.88
277.494	156.88
277.726	99.88
277.957	90.88
278.189	92.88
278.421	103.88
278.652	86.88
278.884	99.88
279.115	101.88
279.347	108.88
279.579	101.88
279.81	121.88
280.042	217.88
280.273	258.88
280.505	188.88
280.736	107.88
280.968	88.88
281.199	84.88
281.431	87.88
281.662	90.88
281.894	91.88
282.125	104.88
282.356	128.88
282.588	168.88
282.819	128.88
283.051	100.88
283.282	96.88
283.513	107.88
283.745	96.88
283.976	95.88
284.207	79.88
284.439	93.88
284.67	92.88
284.901	90.88
285.132	96.88
285.364	85.88
285.595	96.88
285.826	78.88
286.057	79.88
286.288	81.88
286.52	95.88
286.751	77.88
286.982	81.88
287.213	82.88
287.444	83.88
287.675	95.88
287.906	86.88
288.138	99.88
288.369	96.88
288.6	103.88
288.831	97.88
289.062	86.88
289.293	84.88
289.524	97.88
289.755	101.88
289.986	90.88
290.217	92.88
290.448	96.88
290.679	90.88
290.91	87.88
291.141	88.88
291.371	82.88
291.602	93.88
291.833	89.88
292.064	84.88
292.295	85.88
292.526	96.88
292.757	84.88
292.987	84.88
293.218	79.88
293.449	86.88
293.68	82.88
293.91	92.88
294.141	98.88
294.372	85.88
294.603	82.88
294.833	81.88
295.064	86.88
295.295	91.88
295.525	105.88
295.756	103.88
295.987	125.88
296.217	165.88
296.448	137.88
296.679	100.88
296.909	85.88
297.14	81.88
297.37	77.88
297.601	87.88
297.831	96.88
298.062	88.88
298.292	91.88
298.523	99.88
298.753	92.88
298.984	86.88
299.214	81.88
299.445	90.88
299.675	90.88
299.905	93.88
300.136	79.88
300.366	94.88
300.597	104.88
300.827	87.88
301.057	111.88
301.288	123.88
301.518	104.88
301.748	101.88
301.979	109.88
302.209	110.88
302.439	104.88
302.669	88.88
302.9	88.88
303.13	106.88
303.36	104.88
303.59	129.88
303.82	150.88
304.051	109.88
304.281	86.88
304.511	96.88
304.741	102.88
304.971	93.88
305.201	94.88
305.431	93.88
305.661	84.88
305.891	95.88
306.121	109.88
306.352	95.88
306.582	118.88
306.812	105.88
307.042	124.88
307.272	156.88
307.502	186.88
307.731	167.88
307.961	136.88
308.191	89.88
308.421	95.88
308.651	93.88
308.881	103.88
309.111	92.88
309.341	99.88
309.571	109.88
309.8	94.88
310.03	110.88
310.26	104.88
310.49	94.88
310.72	91.88
310.949	113.88
311.179	114.88
311.409	104.88
311.639	100.88
311.868	110.88
312.098	103.88
312.328	94.88
312.557	106.88
312.787	119.88
313.017	99.88
313.246	110.88
313.476	113.88
313.706	103.88
313.935	99.88
314.165	112.88
314.394	125.88
314.624	110.88
314.853	108.88
315.083	100.88
315.312	101.88
315.542	88.88
315.771	101.88
316.001	79.88
316.23	100.88
316.46	89.88
316.689	85.88
316.919	96.88
317.148	102.88
317.377	108.88
317.607	93.88
317.836	102.88
318.065	81.88
318.295	90.88
318.524	98.88
318.753	102.88
318.983	111.88
319.212	121.88
319.441	125.88
319.67	118.88
319.9	103.88
320.129	80.88
320.358	80.88
320.587	104.88
320.816	114.88
321.046	102.88
321.275	87.88
321.504	103.88
321.733	108.88
321.962	108.88
322.191	105.88
322.42	111.88
322.649	118.88
322.878	100.88
323.108	115.88
323.337	148.88
323.566	144.88
323.795	157.88
324.024	204.88
324.253	368.88
324.482	776.88
324.71	1603.88
324.939	2033.88
325.168	809.88
325.397	246.88
325.626	142.88
325.855	138.88
326.084	135.88
326.313	145.88
326.542	154.88
326.77	251.88
326.999	416.88
327.228	790.88
327.457	1432.88
327.686	1200.88
327.914	465.88
328.143	533.88
328.372	707.88
328.6	403.88
328.829	213.88
329.058	200.88
329.287	193.88
329.515	174.88
329.744	261.88
329.972	517.88
330.201	1034.88
330.43	1533.88
330.658	657.88
330.887	308.88
331.115	180.88
331.344	127.88
331.572	133.88
331.801	128.88
332.03	114.88
332.258	105.88
332.486	100.88
332.715	116.88
332.943	111.88
333.172	137.88
333.4	126.88
333.629	157.88
333.857	231.88
334.085	430.88
334.314	955.88
334.542	1846.88
334.771	1751.88
334.999	450.88
335.227	186.88
335.455	134.88
335.684	128.88
335.912	115.88
336.14	125.88
336.369	104.88
336.597	126.88
336.825	127.88
337.053	97.88
337.281	95.88
337.51	91.88
337.738	91.88
337.966	101.88
338.194	120.88
338.422	111.88
338.65	94.88
338.878	98.88
339.106	93.88
339.334	84.88
339.562	101.88
339.79	100.88
340.018	104.88
340.246	106.88
340.474	116.88
340.702	100.88
340.93	87.88
341.158	98.88
341.386	108.88
341.614	109.88
341.842	99.88
342.07	115.88
342.298	98.88
342.526	94.88
342.754	82.88
342.981	83.88
343.209	87.88
343.437	104.88
343.665	99.88
343.893	96.88
344.12	96.88
344.348	101.88
344.576	94.88
344.804	96.88
345.031	90.88
345.259	117.88
345.487	106.88
345.714	98.88
345.942	92.88
346.17	86.88
346.397	98.88
346.625	109.88
346.853	91.88
347.08	92.88
347.308	103.88
347.535	104.88
347.763	107.88
347.99	99.88
348.218	101.88
348.445	115.88
348.673	108.88
348.9	100.88
349.128	89.88
349.355	96.88
349.583	80.88
349.81	89.88
350.037	104.88
350.265	88.88
350.492	87.88
350.72	101.88
350.947	106.88
351.174	110.88
351.402	112.88
351.629	122.88
351.856	109.88
352.083	104.88
352.311	107.88
352.538	127.88
352.765	119.88
352.992	124.88
353.22	102.88
353.447	121.88
353.674	106.88
353.901	92.88
354.128	104.88
354.355	100.88
354.583	92.88
354.81	114.88
355.037	87.88
355.264	101.88
355.491	94.88
355.718	86.88
355.945	105.88
356.172	105.88
356.399	98.88
356.626	85.88
356.853	85.88
357.08	94.88
357.307	90.88
357.534	97.88
357.761	88.88
357.988	86.88
358.215	101.88
358.441	86.88
358.668	84.88
358.895	81.88
359.122	88.88
359.349	103.88
359.576	103.88
359.802	116.88
360.029	146.88
360.256	152.88
360.483	116.88
360.709	78.88
360.936	89.88
361.163	98.88
361.39	109.88
361.616	108.88
361.843	89.88
362.07	105.88
362.296	102.88
362.523	88.88
362.749	104.88
362.976	96.88
363.203	96.88
363.429	102.88
363.656	89.88
363.882	92.88
364.109	92.88
364.335	98.88
364.562	97.88
364.788	98.88
365.015	102.88
365.241	104.88
365.468	117.88
365.694	123.88
365.92	99.88
366.147	92.88
366.373	92.88
366.599	94.88
366.826	104.88
367.052	86.88
367.278	96.88
367.505	100.88
367.731	102.88
367.957	98.88
368.184	101.88
368.41	108.88
368.636	125.88
368.862	135.88
369.089	109.88
369.315	94.88
369.541	102.88
369.767	106.88
369.993	88.88
370.219	106.88
370.445	87.88
370.672	86.88
370.898	92.88
371.124	90.88
371.35	94.88
371.576	86.88
371.802	97.88
372.028	85.88
372.254	91.88
372.48	99.88
372.706	92.88
372.932	90.88
373.158	89.88
373.384	91.88
373.61	95.88
373.835	103.88
374.061	96.88
374.287	95.88
374.513	90.88
374.739	98.88
374.965	68.88
375.191	69.88
375.416	91.88
375.642	96.88
375.868	103.88
376.094	73.88
376.319	80.88
376.545	81.88
376.771	92.88
376.997	104.88
377.222	98.88
377.448	97.88
377.674	102.88
377.899	91.88
378.125	103.88
378.35	77.88
378.576	80.88
378.802	72.88
379.027	98.88
379.253	91.88
379.478	89.88
379.704	91.88
379.929	86.88
380.155	86.88
380.38	104.88
380.606	92.88
380.831	84.88
381.057	92.88
381.282	100.88
381.507	94.88
381.733	85.88
381.958	88.88
382.184	102.88
382.409	90.88
382.634	104.88
382.86	92.88
383.085	94.88
383.31	98.88
383.535	96.88
383.761	101.88
383.986	106.88
384.211	92.88
384.436	96.88
384.662	97.88
384.887	85.88
385.112	96.88
385.337	102.88
385.562	100.88
385.787	84.88
386.013	106.88
386.238	130.88
386.463	92.88
386.688	110.88
386.913	105.88
387.138	96.88
387.363	96.88
387.588	97.88
387.813	98.88
388.038	104.88
388.263	110.88
388.488	89.88
388.713	93.88
388.938	100.88
389.163	100.88
389.387	112.88
389.612	95.88
389.837	87.88
390.062	101.88
390.287	102.88
390.512	88.88
390.736	83.88
390.961	95.88
391.186	99.88
391.411	113.88
391.636	86.88
391.86	95.88
392.085	75.88
392.31	90.88
392.534	94.88
392.759	87.88
392.984	80.88
393.208	94.88
393.433	105.88
393.658	83.88
393.882	81.88
394.107	80.88
394.331	98.88
394.556	91.88
394.78	93.88
395.005	78.88
395.229	91.88
395.454	71.88
395.678	88.88
395.903	86.88
396.127	98.88
396.352	82.88
396.576	77.88
396.801	86.88
397.025	101.88
397.249	80.88
397.474	85.88
397.698	93.88
397.922	97.88
398.147	104.88
398.371	83.88
398.595	97.88
398.82	86.88
399.044	87.88
399.268	99.88
399.492	87.88
399.717	98.88
399.941	103.88
400.165	96.88
400.389	91.88
400.613	91.88
400.837	85.88
401.062	98.88
401.286	84.88
401.51	90.88
401.734	93.88
401.958	115.88
402.182	138.88
402.406	191.88
402.63	149.88
402.854	104.88
403.078	88.88
403.302	95.88
403.526	96.88
403.75	96.88
403.974	100.88
404.198	92.88
404.422	101.88
404.645	90.88
404.869	106.88
405.093	127.88
405.317	156.88
405.541	153.88
405.765	123.88
405.988	129.88
406.212	208.88
406.436	305.88
406.66	206.88
406.883	116.88
407.107	106.88
407.331	113.88
407.555	102.88
407.778	119.88
408.002	107.88
408.226	104.88
408.449	91.88
408.673	85.88
408.896	95.88
409.12	100.88
409.344	92.88
409.567	98.88
409.791	105.88
410.014	109.88
410.238	111.88
410.461	96.88
410.685	96.88
410.908	93.88
411.132	107.88
411.355	105.88
411.578	100.88
411.802	88.88
412.025	90.88
412.249	93.88
412.472	124.88
412.695	132.88
412.919	106.88
413.142	96.88
413.365	81.88
413.589	88.88
413.812	92.88
414.035	97.88
414.258	81.88
414.482	88.88
414.705	82.88
414.928	87.88
415.151	83.88
415.374	92.88
415.597	93.88
415.821	86.88
416.044	87.88
416.267	97.88
416.49	80.88
416.713	88.88
416.936	96.88
417.159	96.88
417.382	88.88
417.605	110.88
417.828	117.88
418.051	101.88
418.274	89.88
418.497	89.88
418.72	101.88
418.943	88.88
419.166	94.88
419.389	87.88
419.611	95.88
419.834	88.88
420.057	86.88
420.28	91.88
420.503	110.88
420.726	82.88
420.948	89.88
421.171	97.88
421.394	89.88
421.617	99.88
421.839	88.88
422.062	90.88
422.285	86.88
422.507	98.88
422.73	99.88
422.953	109.88
423.175	86.88
423.398	94.88
423.621	85.88
423.843	84.88
424.066	84.88
424.288	81.88
424.511	97.88
424.733	99.88
424.956	123.88
425.178	106.88
425.401	114.88
425.623	115.88
425.846	85.88
426.068	93.88
426.291	102.88
426.513	101.88
426.735	92.88
426.958	101.88
427.18	126.88
427.402	176.88
427.625	252.88
427.847	226.88
428.069	197.88
428.292	125.88
428.514	105.88
428.736	85.88
428.958	101.88
429.181	88.88
429.403	93.88
429.625	88.88
429.847	95.88
430.069	102.88
430.292	95.88
430.514	96.88
430.736	80.88
430.958	80.88
431.18	71.88
431.402	89.88
431.624	80.88
431.846	70.88
432.068	104.88
432.29	90.88
432.512	100.88
432.734	94.88
432.956	89.88
433.178	89.88
433.4	102.88
433.622	91.88
433.844	86.88
434.066	90.88
434.287	87.88
434.509	101.88
434.731	97.88
434.953	88.88
435.175	90.88
435.397	105.88
435.618	90.88
435.84	96.88
436.062	130.88
436.284	129.88
436.505	103.88
436.727	85.88
436.949	106.88
437.17	96.88
437.392	90.88
437.614	98.88
437.835	125.88
438.057	154.88
438.278	122.88
438.5	124.88
438.721	144.88
438.943	118.88
439.165	85.88
439.386	85.88
439.608	88.88
439.829	110.88
440.05	126.88
440.272	164.88
440.493	117.88
440.715	96.88
440.936	96.88
441.158	91.88
441.379	89.88
441.6	92.88
441.822	105.88
442.043	106.88
442.264	134.88
442.486	111.88
442.707	106.88
442.928	121.88
443.149	167.88
443.371	150.88
443.592	135.88
443.813	134.88
444.034	123.88
444.255	104.88
444.476	91.88
444.698	88.88
444.919	95.88
445.14	127.88
445.361	127.88
445.582	140.88
445.803	181.88
446.024	168.88
446.245	160.88
446.466	117.88
446.687	100.88
446.908	89.88
447.129	95.88
447.35	89.88
447.571	85.88
447.792	96.88
448.013	101.88
448.234	111.88
448.455	111.88
448.675	127.88
448.896	151.88
449.117	113.88
449.338	105.88
449.559	158.88
449.779	146.88
450	104.88
450.221	98.88
450.442	93.88
450.662	96.88
450.883	115.88
451.104	127.88
451.324	106.88
451.545	89.88
451.766	91.88
451.986	94.88
452.207	102.88
452.428	97.88
452.648	106.88
452.869	123.88
453.089	137.88
453.31	147.88
453.53	96.88
453.751	102.88
453.971	134.88
454.192	133.88
454.412	104.88
454.633	90.88
454.853	73.88
455.073	92.88
455.294	82.88
455.514	123.88
455.734	95.88
455.955	93.88
456.175	95.88
456.395	95.88
456.616	93.88
456.836	88.88
457.056	76.88
457.276	93.88
457.497	73.88
457.717	87.88
457.937	99.88
458.157	101.88
458.377	101.88
458.598	137.88
458.818	214.88
459.038	250.88
459.258	154.88
459.478	101.88
459.698	80.88
459.918	78.88
460.138	95.88
460.358	81.88
460.578	90.88
460.798	94.88
461.018	102.88
461.238	93.88
461.458	89.88
461.678	93.88
461.898	79.88
462.118	91.88
462.338	91.88
462.558	97.88
462.777	93.88
462.997	100.88
463.217	116.88
463.437	85.88
463.657	99.88
463.876	89.88
464.096	96.88
464.316	96.88
464.536	100.88
464.755	107.88
464.975	129.88
465.195	243.88
465.414	249.88
465.634	113.88
465.854	87.88
466.073	88.88
466.293	98.88
466.512	94.88
466.732	99.88
466.951	98.88
467.171	97.88
467.391	106.88
467.61	149.88
467.829	222.88
468.049	603.88
468.268	884.88
468.488	209.88
468.707	120.88
468.927	111.88
469.146	103.88
469.365	84.88
469.585	98.88
469.804	101.88
470.023	113.88
470.243	106.88
470.462	126.88
470.681	135.88
470.901	115.88
471.12	104.88
471.339	102.88
471.558	124.88
471.777	149.88
471.997	312.88
472.216	1160.88
472.435	2653.88
472.654	601.88
472.873	170.88
473.092	100.88
473.311	104.88
473.53	90.88
473.749	101.88
473.968	109.88
474.187	126.88
474.406	107.88
474.625	91.88
474.844	98.88
475.063	101.88
475.282	85.88
475.501	84.88
475.72	100.88
475.939	98.88
476.158	83.88
476.377	91.88
476.596	99.88
476.814	107.88
477.033	95.88
477.252	98.88
477.471	81.88
477.69	102.88
477.908	100.88
478.127	112.88
478.346	85.88
478.564	99.88
478.783	113.88
479.002	110.88
479.22	106.88
479.439	126.88
479.658	132.88
479.876	130.88
480.095	131.88
480.313	156.88
480.532	165.88
480.751	301.88
480.969	1009.88
481.188	4461.88
481.406	2548.88
481.624	375.88
481.843	144.88
482.061	110.88
482.28	98.88
482.498	92.88
482.717	96.88
482.935	103.88
483.153	92.88
483.372	81.88
483.59	94.88
483.808	86.88
484.027	97.88
484.245	87.88
484.463	100.88
484.681	96.88
484.9	88.88
485.118	92.88
485.336	95.88
485.554	93.88
485.772	86.88
485.99	97.88
486.209	104.88
486.427	103.88
486.645	118.88
486.863	143.88
487.081	112.88
487.299	103.88
487.517	93.88
487.735	93.88
487.953	102.88
488.171	96.88
488.389	91.88
488.607	98.88
488.825	96.88
489.043	110.88
489.261	93.88
489.479	88.88
489.696	92.88
489.914	84.88
490.132	79.88
490.35	86.88
490.568	82.88
490.786	98.88
491.003	102.88
491.221	103.88
491.439	105.88
491.657	111.88
491.874	109.88
492.092	92.88
492.31	85.88
492.527	112.88
492.745	94.88
492.963	93.88
493.18	88.88
493.398	96.88
493.615	89.88
493.833	93.88
494.05	100.88
494.268	98.88
494.485	85.88
494.703	86.88
494.92	87.88
495.138	87.88
495.355	92.88
495.573	103.88
495.79	75.88
496.008	97.88
496.225	90.88
496.442	102.88
496.66	82.88
496.877	99.88
497.094	97.88
497.312	88.88
497.529	101.88
497.746	78.88
497.963	89.88
498.181	90.88
498.398	105.88
498.615	113.88
498.832	107.88
499.049	92.88
499.267	98.88
499.484	103.88
499.701	92.88
499.918	96.88
500.135	84.88
500.352	97.88
500.569	97.88
500.786	107.88
501.003	96.88
501.22	98.88
501.437	88.88
501.654	102.88
501.871	123.88
502.088	97.88
502.305	90.88
502.522	90.88
502.739	95.88
502.956	108.88
503.172	92.88
503.389	104.88
503.606	133.88
503.823	110.88
504.04	85.88
504.256	89.88
504.473	87.88
504.69	87.88
504.907	76.88
505.123	84.88
505.34	79.88
505.557	92.88
505.773	106.88
505.99	103.88
506.207	93.88
506.423	88.88
506.64	91.88
506.856	93.88
507.073	97.88
507.289	110.88
507.506	114.88
507.722	127.88
507.939	120.88
508.155	105.88
508.372	96.88
508.588	98.88
508.805	109.88
509.021	90.88
509.238	103.88
509.454	100.88
509.67	120.88
509.887	109.88
510.103	144.88
510.319	255.88
510.536	899.88
510.752	3128.88
510.968	846.88
511.184	171.88
511.401	134.88
511.617	108.88
511.833	107.88
512.049	106.88
512.265	105.88
512.481	103.88
512.698	87.88
