Data from Circ_1987_H10_HRD10591_00057.txt Node
Date: Wed Jan 03 12:10:44 EST 2024
User: Yrep
Spectrometer: HR+D1059
Trigger mode: 1
Integration Time (sec): 1.000000E-1
Scans to average: 1
Electric dark correction enabled: true
Nonlinearity correction enabled: false
Boxcar width: 0
XAxis mode: Wavelengths
Number of Pixels in Spectrum: 2048
>>>>>Begin Spectral Data<<<<<
223.165	-10.44
223.4	-10.44
223.635	-10.44
223.869	-20.44
224.104	-24.44
224.338	-19.44
224.573	-21.44
224.808	-21.44
225.042	-1.44
225.277	-1.44
225.511	-6.44
225.746	5.56
225.98	-0.44
226.215	22.56
226.449	18.56
226.683	25.56
226.918	22.56
227.152	32.56
227.387	47.56
227.621	36.56
227.856	38.56
228.09	45.56
228.324	55.56
228.559	60.56
228.793	48.56
229.027	62.56
229.262	66.56
229.496	85.56
229.73	90.56
229.964	100.56
230.199	81.56
230.433	85.56
230.667	91.56
230.901	73.56
231.136	92.56
231.37	82.56
231.604	68.56
231.838	78.56
232.072	98.56
232.306	69.56
232.541	72.56
232.775	72.56
233.009	85.56
233.243	88.56
233.477	86.56
233.711	82.56
233.945	73.56
234.179	69.56
234.413	89.56
234.647	69.56
234.881	72.56
235.115	78.56
235.349	79.56
235.583	80.56
235.817	89.56
236.051	70.56
236.285	69.56
236.519	68.56
236.753	77.56
236.987	82.56
237.221	106.56
237.455	99.56
237.689	90.56
237.922	74.56
238.156	87.56
238.39	78.56
238.624	70.56
238.858	72.56
239.091	80.56
239.325	76.56
239.559	92.56
239.793	95.56
240.027	88.56
240.26	78.56
240.494	82.56
240.728	76.56
240.961	85.56
241.195	84.56
241.429	76.56
241.662	80.56
241.896	89.56
242.13	97.56
242.363	68.56
242.597	71.56
242.83	89.56
243.064	88.56
243.298	81.56
243.531	84.56
243.765	69.56
243.998	79.56
244.232	91.56
244.465	104.56
244.699	85.56
244.932	70.56
245.166	84.56
245.399	82.56
245.633	76.56
245.866	84.56
246.099	82.56
246.333	77.56
246.566	70.56
246.8	68.56
247.033	83.56
247.266	83.56
247.5	84.56
247.733	69.56
247.966	84.56
248.2	76.56
248.433	84.56
248.666	89.56
248.899	86.56
249.133	106.56
249.366	108.56
249.599	96.56
249.832	72.56
250.066	87.56
250.299	80.56
250.532	97.56
250.765	92.56
250.998	89.56
251.231	86.56
251.465	81.56
251.698	81.56
251.931	86.56
252.164	77.56
252.397	72.56
252.63	96.56
252.863	85.56
253.096	92.56
253.329	84.56
253.562	85.56
253.795	84.56
254.028	82.56
254.261	88.56
254.494	93.56
254.727	80.56
254.96	78.56
255.193	80.56
255.426	87.56
255.659	83.56
255.892	95.56
256.124	100.56
256.357	82.56
256.59	78.56
256.823	89.56
257.056	82.56
257.289	84.56
257.521	82.56
257.754	88.56
257.987	90.56
258.22	91.56
258.452	103.56
258.685	104.56
258.918	80.56
259.151	96.56
259.383	86.56
259.616	84.56
259.849	99.56
260.081	87.56
260.314	96.56
260.547	86.56
260.779	96.56
261.012	114.56
261.244	120.56
261.477	90.56
261.71	102.56
261.942	144.56
262.175	156.56
262.407	95.56
262.64	97.56
262.872	97.56
263.105	98.56
263.337	97.56
263.57	95.56
263.802	86.56
264.035	89.56
264.267	80.56
264.499	83.56
264.732	101.56
264.964	87.56
265.197	82.56
265.429	86.56
265.661	84.56
265.894	90.56
266.126	87.56
266.358	64.56
266.591	76.56
266.823	80.56
267.055	79.56
267.287	88.56
267.52	82.56
267.752	95.56
267.984	94.56
268.216	77.56
268.448	100.56
268.681	92.56
268.913	96.56
269.145	102.56
269.377	93.56
269.609	82.56
269.841	64.56
270.073	92.56
270.306	93.56
270.538	85.56
270.77	69.56
271.002	89.56
271.234	85.56
271.466	89.56
271.698	99.56
271.93	84.56
272.162	92.56
272.394	93.56
272.626	76.56
272.858	87.56
273.09	86.56
273.322	83.56
273.553	89.56
273.785	87.56
274.017	77.56
274.249	95.56
274.481	102.56
274.713	87.56
274.945	89.56
275.176	92.56
275.408	96.56
275.64	122.56
275.872	127.56
276.104	111.56
276.335	116.56
276.567	134.56
276.799	162.56
277.031	173.56
277.262	219.56
277.494	157.56
277.726	102.56
277.957	101.56
278.189	90.56
278.421	96.56
278.652	92.56
278.884	95.56
279.115	95.56
279.347	91.56
279.579	97.56
279.81	128.56
280.042	220.56
280.273	277.56
280.505	194.56
280.736	116.56
280.968	94.56
281.199	82.56
281.431	96.56
281.662	98.56
281.894	100.56
282.125	117.56
282.356	133.56
282.588	164.56
282.819	136.56
283.051	102.56
283.282	91.56
283.513	103.56
283.745	81.56
283.976	87.56
284.207	109.56
284.439	100.56
284.67	94.56
284.901	95.56
285.132	97.56
285.364	92.56
285.595	90.56
285.826	89.56
286.057	87.56
286.288	90.56
286.52	91.56
286.751	88.56
286.982	82.56
287.213	77.56
287.444	93.56
287.675	90.56
287.906	87.56
288.138	94.56
288.369	111.56
288.6	94.56
288.831	94.56
289.062	92.56
289.293	95.56
289.524	80.56
289.755	77.56
289.986	89.56
290.217	88.56
290.448	97.56
290.679	98.56
290.91	98.56
291.141	77.56
291.371	80.56
291.602	93.56
291.833	96.56
292.064	93.56
292.295	84.56
292.526	94.56
292.757	99.56
292.987	87.56
293.218	89.56
293.449	95.56
293.68	86.56
293.91	105.56
294.141	109.56
294.372	82.56
294.603	103.56
294.833	92.56
295.064	88.56
295.295	94.56
295.525	82.56
295.756	106.56
295.987	151.56
296.217	192.56
296.448	156.56
296.679	96.56
296.909	100.56
297.14	97.56
297.37	89.56
297.601	96.56
297.831	94.56
298.062	96.56
298.292	95.56
298.523	96.56
298.753	95.56
298.984	87.56
299.214	95.56
299.445	92.56
299.675	96.56
299.905	106.56
300.136	97.56
300.366	94.56
300.597	94.56
300.827	98.56
301.057	94.56
301.288	126.56
301.518	100.56
301.748	103.56
301.979	113.56
302.209	98.56
302.439	105.56
302.669	105.56
302.9	83.56
303.13	94.56
303.36	117.56
303.59	130.56
303.82	164.56
304.051	118.56
304.281	88.56
304.511	86.56
304.741	92.56
304.971	85.56
305.201	92.56
305.431	102.56
305.661	96.56
305.891	100.56
306.121	95.56
306.352	108.56
306.582	129.56
306.812	120.56
307.042	135.56
307.272	161.56
307.502	183.56
307.731	161.56
307.961	119.56
308.191	103.56
308.421	100.56
308.651	95.56
308.881	100.56
309.111	112.56
309.341	103.56
309.571	90.56
309.8	105.56
310.03	110.56
310.26	119.56
310.49	118.56
310.72	116.56
310.949	137.56
311.179	116.56
311.409	126.56
311.639	118.56
311.868	102.56
312.098	122.56
312.328	101.56
312.557	117.56
312.787	137.56
313.017	116.56
313.246	107.56
313.476	98.56
313.706	105.56
313.935	101.56
314.165	107.56
314.394	134.56
314.624	110.56
314.853	118.56
315.083	101.56
315.312	96.56
315.542	103.56
315.771	102.56
316.001	96.56
316.23	90.56
316.46	86.56
316.689	94.56
316.919	107.56
317.148	104.56
317.377	104.56
317.607	110.56
317.836	111.56
318.065	100.56
318.295	93.56
318.524	90.56
318.753	103.56
318.983	102.56
319.212	114.56
319.441	129.56
319.67	106.56
319.9	102.56
320.129	105.56
320.358	97.56
320.587	115.56
320.816	99.56
321.046	94.56
321.275	95.56
321.504	106.56
321.733	85.56
321.962	106.56
322.191	114.56
322.42	123.56
322.649	128.56
322.878	120.56
323.108	118.56
323.337	153.56
323.566	146.56
323.795	184.56
324.024	236.56
324.253	453.56
324.482	934.56
324.71	1846.56
324.939	2406.56
325.168	927.56
325.397	309.56
325.626	192.56
325.855	157.56
326.084	144.56
326.313	162.56
326.542	176.56
326.77	252.56
326.999	494.56
327.228	964.56
327.457	1728.56
327.686	1424.56
327.914	537.56
328.143	578.56
328.372	729.56
328.6	421.56
328.829	211.56
329.058	204.56
329.287	215.56
329.515	186.56
329.744	273.56
329.972	498.56
330.201	1045.56
330.43	1580.56
330.658	692.56
330.887	327.56
331.115	229.56
331.344	126.56
331.572	127.56
331.801	137.56
332.03	138.56
332.258	114.56
332.486	104.56
332.715	125.56
332.943	112.56
333.172	125.56
333.4	141.56
333.629	177.56
333.857	240.56
334.085	421.56
334.314	965.56
334.542	1896.56
334.771	1810.56
334.999	482.56
335.227	182.56
335.455	136.56
335.684	109.56
335.912	124.56
336.14	99.56
336.369	113.56
336.597	122.56
336.825	110.56
337.053	103.56
337.281	103.56
337.51	105.56
337.738	109.56
337.966	103.56
338.194	120.56
338.422	104.56
338.65	113.56
338.878	101.56
339.106	106.56
339.334	100.56
339.562	98.56
339.79	97.56
340.018	113.56
340.246	107.56
340.474	109.56
340.702	109.56
340.93	94.56
341.158	99.56
341.386	117.56
341.614	105.56
341.842	99.56
342.07	88.56
342.298	110.56
342.526	102.56
342.754	103.56
342.981	101.56
343.209	93.56
343.437	91.56
343.665	87.56
343.893	98.56
344.12	78.56
344.348	99.56
344.576	104.56
344.804	93.56
345.031	128.56
345.259	126.56
345.487	97.56
345.714	96.56
345.942	98.56
346.17	92.56
346.397	96.56
346.625	102.56
346.853	101.56
347.08	109.56
347.308	94.56
347.535	98.56
347.763	123.56
347.99	124.56
348.218	121.56
348.445	123.56
348.673	116.56
348.9	108.56
349.128	109.56
349.355	90.56
349.583	97.56
349.81	101.56
350.037	93.56
350.265	107.56
350.492	105.56
350.72	86.56
350.947	113.56
351.174	127.56
351.402	126.56
351.629	123.56
351.856	116.56
352.083	119.56
352.311	128.56
352.538	137.56
352.765	134.56
352.992	127.56
353.22	114.56
353.447	112.56
353.674	126.56
353.901	102.56
354.128	95.56
354.355	113.56
354.583	110.56
354.81	103.56
355.037	110.56
355.264	91.56
355.491	89.56
355.718	78.56
355.945	105.56
356.172	76.56
356.399	101.56
356.626	101.56
356.853	92.56
357.08	89.56
357.307	88.56
357.534	94.56
357.761	87.56
357.988	79.56
358.215	90.56
358.441	90.56
358.668	110.56
358.895	105.56
359.122	88.56
359.349	86.56
359.576	100.56
359.802	105.56
360.029	163.56
360.256	149.56
360.483	109.56
360.709	91.56
360.936	112.56
361.163	89.56
361.39	108.56
361.616	112.56
361.843	96.56
362.07	114.56
362.296	111.56
362.523	103.56
362.749	108.56
362.976	105.56
363.203	103.56
363.429	84.56
363.656	93.56
363.882	94.56
364.109	98.56
364.335	103.56
364.562	113.56
364.788	101.56
365.015	115.56
365.241	117.56
365.468	110.56
365.694	129.56
365.92	106.56
366.147	106.56
366.373	96.56
366.599	101.56
366.826	106.56
367.052	97.56
367.278	101.56
367.505	101.56
367.731	82.56
367.957	97.56
368.184	114.56
368.41	110.56
368.636	122.56
368.862	133.56
369.089	118.56
369.315	98.56
369.541	95.56
369.767	88.56
369.993	115.56
370.219	96.56
370.445	90.56
370.672	93.56
370.898	102.56
371.124	83.56
371.35	93.56
371.576	100.56
371.802	93.56
372.028	81.56
372.254	85.56
372.48	88.56
372.706	86.56
372.932	93.56
373.158	84.56
373.384	82.56
373.61	78.56
373.835	97.56
374.061	82.56
374.287	115.56
374.513	102.56
374.739	88.56
374.965	86.56
375.191	98.56
375.416	94.56
375.642	85.56
375.868	95.56
376.094	84.56
376.319	82.56
376.545	90.56
376.771	91.56
376.997	94.56
377.222	90.56
377.448	98.56
377.674	90.56
377.899	78.56
378.125	89.56
378.35	97.56
378.576	80.56
378.802	99.56
379.027	89.56
379.253	97.56
379.478	90.56
379.704	93.56
379.929	86.56
380.155	101.56
380.38	94.56
380.606	86.56
380.831	102.56
381.057	104.56
381.282	87.56
381.507	95.56
381.733	101.56
381.958	105.56
382.184	107.56
382.409	98.56
382.634	105.56
382.86	105.56
383.085	94.56
383.31	110.56
383.535	103.56
383.761	111.56
383.986	112.56
384.211	90.56
384.436	93.56
384.662	102.56
384.887	98.56
385.112	94.56
385.337	105.56
385.562	104.56
385.787	112.56
386.013	128.56
386.238	114.56
386.463	108.56
386.688	112.56
386.913	91.56
387.138	101.56
387.363	103.56
387.588	86.56
387.813	87.56
388.038	102.56
388.263	110.56
388.488	110.56
388.713	94.56
388.938	104.56
389.163	92.56
389.387	99.56
389.612	87.56
389.837	112.56
390.062	82.56
390.287	85.56
390.512	80.56
390.736	86.56
390.961	91.56
391.186	77.56
391.411	98.56
391.636	88.56
391.86	74.56
392.085	89.56
392.31	96.56
392.534	94.56
392.759	85.56
392.984	97.56
393.208	84.56
393.433	70.56
393.658	96.56
393.882	84.56
394.107	89.56
394.331	82.56
394.556	83.56
394.78	81.56
395.005	90.56
395.229	92.56
395.454	80.56
395.678	89.56
395.903	101.56
396.127	89.56
396.352	91.56
396.576	93.56
396.801	101.56
397.025	94.56
397.249	86.56
397.474	94.56
397.698	94.56
397.922	86.56
398.147	84.56
398.371	78.56
398.595	83.56
398.82	87.56
399.044	82.56
399.268	90.56
399.492	93.56
399.717	89.56
399.941	66.56
400.165	94.56
400.389	83.56
400.613	95.56
400.837	92.56
401.062	95.56
401.286	93.56
401.51	102.56
401.734	82.56
401.958	107.56
402.182	161.56
402.406	220.56
402.63	162.56
402.854	113.56
403.078	98.56
403.302	111.56
403.526	101.56
403.75	94.56
403.974	91.56
404.198	101.56
404.422	79.56
404.645	98.56
404.869	110.56
405.093	105.56
405.317	159.56
405.541	146.56
405.765	128.56
405.988	145.56
406.212	234.56
406.436	349.56
406.66	240.56
406.883	145.56
407.107	100.56
407.331	111.56
407.555	95.56
407.778	119.56
408.002	101.56
408.226	83.56
408.449	98.56
408.673	84.56
408.896	98.56
409.12	97.56
409.344	91.56
409.567	81.56
409.791	104.56
410.014	105.56
410.238	95.56
410.461	85.56
410.685	90.56
410.908	97.56
411.132	100.56
411.355	121.56
411.578	82.56
411.802	94.56
412.025	102.56
412.249	99.56
412.472	122.56
412.695	142.56
412.919	114.56
413.142	102.56
413.365	93.56
413.589	96.56
413.812	92.56
414.035	98.56
414.258	105.56
414.482	101.56
414.705	104.56
414.928	96.56
415.151	77.56
415.374	93.56
415.597	79.56
415.821	94.56
416.044	101.56
416.267	97.56
416.49	82.56
416.713	89.56
416.936	93.56
417.159	92.56
417.382	97.56
417.605	110.56
417.828	104.56
418.051	101.56
418.274	94.56
418.497	93.56
418.72	91.56
418.943	94.56
419.166	81.56
419.389	92.56
419.611	88.56
419.834	83.56
420.057	102.56
420.28	101.56
420.503	92.56
420.726	80.56
420.948	93.56
421.171	108.56
421.394	111.56
421.617	86.56
421.839	86.56
422.062	88.56
422.285	96.56
422.507	106.56
422.73	114.56
422.953	108.56
423.175	93.56
423.398	96.56
423.621	99.56
423.843	85.56
424.066	76.56
424.288	85.56
424.511	106.56
424.733	111.56
424.956	128.56
425.178	101.56
425.401	114.56
425.623	115.56
425.846	94.56
426.068	95.56
426.291	92.56
426.513	99.56
426.735	100.56
426.958	104.56
427.18	131.56
427.402	186.56
427.625	278.56
427.847	261.56
428.069	201.56
428.292	114.56
428.514	96.56
428.736	95.56
428.958	105.56
429.181	98.56
429.403	85.56
429.625	96.56
429.847	103.56
430.069	102.56
430.292	110.56
430.514	95.56
430.736	79.56
430.958	80.56
431.18	78.56
431.402	84.56
431.624	92.56
431.846	81.56
432.068	73.56
432.29	101.56
432.512	99.56
432.734	86.56
432.956	92.56
433.178	100.56
433.4	106.56
433.622	108.56
433.844	96.56
434.066	100.56
434.287	91.56
434.509	86.56
434.731	84.56
434.953	95.56
435.175	97.56
435.397	91.56
435.618	96.56
435.84	120.56
436.062	143.56
436.284	128.56
436.505	107.56
436.727	101.56
436.949	105.56
437.17	92.56
437.392	86.56
437.614	100.56
437.835	131.56
438.057	151.56
438.278	137.56
438.5	125.56
438.721	144.56
438.943	110.56
439.165	95.56
439.386	90.56
439.608	97.56
439.829	110.56
440.05	142.56
440.272	197.56
440.493	108.56
440.715	103.56
440.936	86.56
441.158	96.56
441.379	90.56
441.6	107.56
441.822	108.56
442.043	104.56
442.264	119.56
442.486	121.56
442.707	96.56
442.928	121.56
443.149	162.56
443.371	174.56
443.592	143.56
443.813	134.56
444.034	114.56
444.255	104.56
444.476	93.56
444.698	85.56
444.919	100.56
445.14	128.56
445.361	130.56
445.582	132.56
445.803	179.56
446.024	180.56
446.245	178.56
446.466	143.56
446.687	97.56
446.908	90.56
447.129	95.56
447.35	88.56
447.571	104.56
447.792	113.56
448.013	117.56
448.234	121.56
448.455	120.56
448.675	129.56
448.896	156.56
449.117	104.56
449.338	119.56
449.559	149.56
449.779	162.56
450	104.56
450.221	91.56
450.442	103.56
450.662	109.56
450.883	150.56
451.104	160.56
451.324	113.56
451.545	94.56
451.766	82.56
451.986	96.56
452.207	95.56
452.428	87.56
452.648	124.56
452.869	142.56
453.089	140.56
453.31	141.56
453.53	90.56
453.751	98.56
453.971	132.56
454.192	149.56
454.412	108.56
454.633	82.56
454.853	79.56
455.073	89.56
455.294	100.56
455.514	121.56
455.734	107.56
455.955	90.56
456.175	89.56
456.395	92.56
456.616	81.56
456.836	80.56
457.056	74.56
457.276	90.56
457.497	88.56
457.717	96.56
457.937	88.56
458.157	84.56
458.377	94.56
458.598	132.56
458.818	223.56
459.038	254.56
459.258	149.56
459.478	105.56
459.698	96.56
459.918	94.56
460.138	98.56
460.358	85.56
460.578	99.56
460.798	90.56
461.018	94.56
461.238	99.56
461.458	100.56
461.678	80.56
461.898	89.56
462.118	80.56
462.338	86.56
462.558	83.56
462.777	99.56
462.997	107.56
463.217	109.56
463.437	113.56
463.657	111.56
463.876	94.56
464.096	105.56
464.316	93.56
464.536	93.56
464.755	102.56
464.975	148.56
465.195	252.56
465.414	268.56
465.634	116.56
465.854	90.56
466.073	99.56
466.293	93.56
466.512	92.56
466.732	89.56
466.951	93.56
467.171	100.56
467.391	112.56
467.61	167.56
467.829	226.56
468.049	598.56
468.268	904.56
468.488	225.56
468.707	108.56
468.927	103.56
469.146	89.56
469.365	109.56
469.585	94.56
469.804	104.56
470.023	120.56
470.243	111.56
470.462	126.56
470.681	164.56
470.901	111.56
471.12	99.56
471.339	103.56
471.558	120.56
471.777	143.56
471.997	307.56
472.216	1146.56
472.435	2666.56
472.654	613.56
472.873	170.56
473.092	122.56
473.311	98.56
473.53	89.56
473.749	91.56
473.968	109.56
474.187	122.56
474.406	119.56
474.625	101.56
474.844	97.56
475.063	89.56
475.282	85.56
475.501	92.56
475.72	95.56
475.939	97.56
476.158	89.56
476.377	97.56
476.596	92.56
476.814	106.56
477.033	95.56
477.252	93.56
477.471	85.56
477.69	105.56
477.908	109.56
478.127	101.56
478.346	102.56
478.564	105.56
478.783	105.56
479.002	103.56
479.22	119.56
479.439	127.56
479.658	144.56
479.876	127.56
480.095	136.56
480.313	145.56
480.532	164.56
480.751	286.56
480.969	991.56
481.188	4454.56
481.406	2567.56
481.624	385.56
481.843	150.56
482.061	114.56
482.28	106.56
482.498	101.56
482.717	95.56
482.935	100.56
483.153	103.56
483.372	97.56
483.59	98.56
483.808	94.56
484.027	92.56
484.245	85.56
484.463	105.56
484.681	103.56
484.9	95.56
485.118	117.56
485.336	96.56
485.554	106.56
485.772	100.56
485.99	108.56
486.209	116.56
486.427	113.56
486.645	125.56
486.863	135.56
487.081	101.56
487.299	100.56
487.517	100.56
487.735	108.56
487.953	94.56
488.171	95.56
488.389	110.56
488.607	109.56
488.825	105.56
489.043	100.56
489.261	101.56
489.479	86.56
489.696	88.56
489.914	79.56
490.132	88.56
490.35	99.56
490.568	96.56
490.786	94.56
491.003	96.56
491.221	101.56
491.439	97.56
491.657	97.56
491.874	101.56
492.092	93.56
492.31	103.56
492.527	101.56
492.745	104.56
492.963	106.56
493.18	88.56
493.398	93.56
493.615	92.56
493.833	106.56
494.05	83.56
494.268	73.56
494.485	98.56
494.703	101.56
494.92	80.56
495.138	104.56
495.355	101.56
495.573	94.56
495.79	88.56
496.008	103.56
496.225	81.56
496.442	97.56
496.66	82.56
496.877	97.56
497.094	93.56
497.312	91.56
497.529	94.56
497.746	104.56
497.963	93.56
498.181	89.56
498.398	113.56
498.615	110.56
498.832	96.56
499.049	88.56
499.267	91.56
499.484	92.56
499.701	98.56
499.918	100.56
500.135	81.56
500.352	96.56
500.569	94.56
500.786	94.56
501.003	92.56
501.22	90.56
501.437	102.56
501.654	113.56
501.871	127.56
502.088	110.56
502.305	102.56
502.522	93.56
502.739	87.56
502.956	78.56
503.172	105.56
503.389	112.56
503.606	129.56
503.823	117.56
504.04	92.56
504.256	84.56
504.473	93.56
504.69	92.56
504.907	103.56
505.123	93.56
505.34	112.56
505.557	102.56
505.773	102.56
505.99	95.56
506.207	98.56
506.423	101.56
506.64	95.56
506.856	97.56
507.073	99.56
507.289	102.56
507.506	108.56
507.722	142.56
507.939	128.56
508.155	110.56
508.372	99.56
508.588	87.56
508.805	112.56
509.021	109.56
509.238	102.56
509.454	101.56
509.67	125.56
509.887	120.56
510.103	159.56
510.319	265.56
510.536	1008.56
510.752	3600.56
510.968	944.56
511.184	191.56
511.401	134.56
511.617	108.56
