Data from Circ_1987_H10_HRD10591_00013.txt Node
Date: Wed Jan 03 12:10:35 EST 2024
User: Yrep
Spectrometer: HR+D1059
Trigger mode: 1
Integration Time (sec): 1.000000E-1
Scans to average: 1
Electric dark correction enabled: true
Nonlinearity correction enabled: false
Boxcar width: 0
XAxis mode: Wavelengths
Number of Pixels in Spectrum: 2048
>>>>>Begin Spectral Data<<<<<
223.165	-10.62
223.4	-10.62
223.635	-10.62
223.869	-25.62
224.104	-11.62
224.338	-32.62
224.573	-10.62
224.808	-17.62
225.042	-7.62
225.277	-13.62
225.511	-10.62
225.746	-1.62
225.98	8.38
226.215	14.38
226.449	21.38
226.683	28.38
226.918	30.38
227.152	39.38
227.387	29.38
227.621	33.38
227.856	44.38
228.09	53.38
228.324	55.38
228.559	54.38
228.793	69.38
229.027	68.38
229.262	77.38
229.496	67.38
229.73	80.38
229.964	91.38
230.199	81.38
230.433	81.38
230.667	71.38
230.901	81.38
231.136	74.38
231.37	79.38
231.604	77.38
231.838	82.38
232.072	91.38
232.306	86.38
232.541	80.38
232.775	74.38
233.009	67.38
233.243	62.38
233.477	81.38
233.711	81.38
233.945	85.38
234.179	79.38
234.413	92.38
234.647	89.38
234.881	94.38
235.115	84.38
235.349	91.38
235.583	67.38
235.817	77.38
236.051	79.38
236.285	85.38
236.519	71.38
236.753	80.38
236.987	97.38
237.221	91.38
237.455	82.38
237.689	85.38
237.922	68.38
238.156	90.38
238.39	70.38
238.624	84.38
238.858	74.38
239.091	72.38
239.325	72.38
239.559	83.38
239.793	79.38
240.027	70.38
240.26	67.38
240.494	82.38
240.728	71.38
240.961	72.38
241.195	95.38
241.429	72.38
241.662	75.38
241.896	74.38
242.13	74.38
242.363	70.38
242.597	80.38
242.83	66.38
243.064	75.38
243.298	93.38
243.531	93.38
243.765	67.38
243.998	85.38
244.232	82.38
244.465	80.38
244.699	100.38
244.932	78.38
245.166	70.38
245.399	79.38
245.633	93.38
245.866	88.38
246.099	80.38
246.333	69.38
246.566	77.38
246.8	70.38
247.033	76.38
247.266	76.38
247.5	74.38
247.733	76.38
247.966	67.38
248.2	81.38
248.433	82.38
248.666	78.38
248.899	99.38
249.133	98.38
249.366	100.38
249.599	105.38
249.832	82.38
250.066	81.38
250.299	85.38
250.532	92.38
250.765	90.38
250.998	73.38
251.231	72.38
251.465	72.38
251.698	87.38
251.931	77.38
252.164	72.38
252.397	79.38
252.63	86.38
252.863	73.38
253.096	74.38
253.329	85.38
253.562	88.38
253.795	82.38
254.028	73.38
254.261	87.38
254.494	67.38
254.727	79.38
254.96	98.38
255.193	79.38
255.426	98.38
255.659	88.38
255.892	100.38
256.124	97.38
256.357	91.38
256.59	77.38
256.823	84.38
257.056	81.38
257.289	89.38
257.521	75.38
257.754	82.38
257.987	83.38
258.22	100.38
258.452	87.38
258.685	92.38
258.918	82.38
259.151	88.38
259.383	98.38
259.616	101.38
259.849	89.38
260.081	82.38
260.314	98.38
260.547	94.38
260.779	98.38
261.012	89.38
261.244	94.38
261.477	103.38
261.71	88.38
261.942	119.38
262.175	136.38
262.407	93.38
262.64	95.38
262.872	85.38
263.105	84.38
263.337	75.38
263.57	78.38
263.802	90.38
264.035	94.38
264.267	86.38
264.499	84.38
264.732	85.38
264.964	73.38
265.197	90.38
265.429	81.38
265.661	94.38
265.894	89.38
266.126	77.38
266.358	82.38
266.591	84.38
266.823	94.38
267.055	86.38
267.287	98.38
267.52	83.38
267.752	88.38
267.984	85.38
268.216	91.38
268.448	80.38
268.681	91.38
268.913	88.38
269.145	96.38
269.377	73.38
269.609	87.38
269.841	84.38
270.073	89.38
270.306	96.38
270.538	82.38
270.77	89.38
271.002	96.38
271.234	99.38
271.466	97.38
271.698	86.38
271.93	93.38
272.162	62.38
272.394	94.38
272.626	97.38
272.858	77.38
273.09	93.38
273.322	80.38
273.553	90.38
273.785	77.38
274.017	100.38
274.249	89.38
274.481	90.38
274.713	88.38
274.945	87.38
275.176	97.38
275.408	89.38
275.64	103.38
275.872	111.38
276.104	108.38
276.335	87.38
276.567	97.38
276.799	136.38
277.031	127.38
277.262	154.38
277.494	109.38
277.726	91.38
277.957	85.38
278.189	87.38
278.421	82.38
278.652	95.38
278.884	103.38
279.115	87.38
279.347	86.38
279.579	78.38
279.81	111.38
280.042	141.38
280.273	158.38
280.505	126.38
280.736	105.38
280.968	105.38
281.199	81.38
281.431	80.38
281.662	83.38
281.894	95.38
282.125	107.38
282.356	144.38
282.588	157.38
282.819	118.38
283.051	83.38
283.282	76.38
283.513	93.38
283.745	90.38
283.976	85.38
284.207	85.38
284.439	96.38
284.67	97.38
284.901	98.38
285.132	99.38
285.364	90.38
285.595	89.38
285.826	84.38
286.057	84.38
286.288	84.38
286.52	97.38
286.751	90.38
286.982	81.38
287.213	89.38
287.444	88.38
287.675	85.38
287.906	101.38
288.138	91.38
288.369	117.38
288.6	99.38
288.831	88.38
289.062	89.38
289.293	89.38
289.524	74.38
289.755	83.38
289.986	83.38
290.217	78.38
290.448	77.38
290.679	99.38
290.91	108.38
291.141	93.38
291.371	91.38
291.602	74.38
291.833	83.38
292.064	90.38
292.295	97.38
292.526	99.38
292.757	97.38
292.987	101.38
293.218	87.38
293.449	96.38
293.68	90.38
293.91	92.38
294.141	83.38
294.372	93.38
294.603	83.38
294.833	87.38
295.064	99.38
295.295	95.38
295.525	97.38
295.756	91.38
295.987	113.38
296.217	156.38
296.448	125.38
296.679	101.38
296.909	98.38
297.14	88.38
297.37	93.38
297.601	93.38
297.831	90.38
298.062	89.38
298.292	92.38
298.523	101.38
298.753	94.38
298.984	75.38
299.214	84.38
299.445	101.38
299.675	90.38
299.905	109.38
300.136	91.38
300.366	86.38
300.597	89.38
300.827	88.38
301.057	115.38
301.288	113.38
301.518	87.38
301.748	104.38
301.979	101.38
302.209	108.38
302.439	100.38
302.669	102.38
302.9	97.38
303.13	89.38
303.36	89.38
303.59	101.38
303.82	130.38
304.051	109.38
304.281	97.38
304.511	104.38
304.741	91.38
304.971	95.38
305.201	98.38
305.431	87.38
305.661	73.38
305.891	93.38
306.121	94.38
306.352	99.38
306.582	129.38
306.812	99.38
307.042	113.38
307.272	123.38
307.502	141.38
307.731	142.38
307.961	111.38
308.191	104.38
308.421	94.38
308.651	92.38
308.881	102.38
309.111	111.38
309.341	91.38
309.571	99.38
309.8	90.38
310.03	96.38
310.26	85.38
310.49	90.38
310.72	88.38
310.949	112.38
311.179	86.38
311.409	84.38
311.639	96.38
311.868	104.38
312.098	99.38
312.328	96.38
312.557	101.38
312.787	112.38
313.017	107.38
313.246	101.38
313.476	99.38
313.706	95.38
313.935	105.38
314.165	88.38
314.394	101.38
314.624	99.38
314.853	98.38
315.083	89.38
315.312	90.38
315.542	96.38
315.771	95.38
316.001	104.38
316.23	89.38
316.46	84.38
316.689	88.38
316.919	97.38
317.148	110.38
317.377	100.38
317.607	94.38
317.836	89.38
318.065	110.38
318.295	77.38
318.524	97.38
318.753	87.38
318.983	106.38
319.212	113.38
319.441	107.38
319.67	111.38
319.9	100.38
320.129	95.38
320.358	97.38
320.587	104.38
320.816	93.38
321.046	102.38
321.275	106.38
321.504	108.38
321.733	103.38
321.962	94.38
322.191	104.38
322.42	102.38
322.649	106.38
322.878	125.38
323.108	125.38
323.337	126.38
323.566	131.38
323.795	155.38
324.024	198.38
324.253	373.38
324.482	757.38
324.71	1531.38
324.939	2008.38
325.168	780.38
325.397	237.38
325.626	138.38
325.855	126.38
326.084	129.38
326.313	125.38
326.542	146.38
326.77	221.38
326.999	385.38
327.228	818.38
327.457	1449.38
327.686	1187.38
327.914	409.38
328.143	356.38
328.372	426.38
328.6	255.38
328.829	151.38
329.058	174.38
329.287	170.38
329.515	146.38
329.744	192.38
329.972	293.38
330.201	571.38
330.43	841.38
330.658	415.38
330.887	217.38
331.115	168.38
331.344	113.38
331.572	97.38
331.801	126.38
332.03	112.38
332.258	102.38
332.486	94.38
332.715	97.38
332.943	109.38
333.172	107.38
333.4	118.38
333.629	139.38
333.857	164.38
334.085	278.38
334.314	525.38
334.542	1003.38
334.771	971.38
334.999	285.38
335.227	143.38
335.455	105.38
335.684	113.38
335.912	118.38
336.14	111.38
336.369	106.38
336.597	118.38
336.825	123.38
337.053	104.38
337.281	88.38
337.51	89.38
337.738	97.38
337.966	90.38
338.194	93.38
338.422	92.38
338.65	95.38
338.878	94.38
339.106	89.38
339.334	105.38
339.562	90.38
339.79	97.38
340.018	109.38
340.246	104.38
340.474	90.38
340.702	99.38
340.93	94.38
341.158	98.38
341.386	106.38
341.614	111.38
341.842	92.38
342.07	89.38
342.298	101.38
342.526	95.38
342.754	82.38
342.981	91.38
343.209	93.38
343.437	100.38
343.665	94.38
343.893	90.38
344.12	98.38
344.348	93.38
344.576	91.38
344.804	93.38
345.031	91.38
345.259	104.38
345.487	99.38
345.714	93.38
345.942	79.38
346.17	85.38
346.397	94.38
346.625	90.38
346.853	95.38
347.08	93.38
347.308	90.38
347.535	100.38
347.763	100.38
347.99	106.38
348.218	98.38
348.445	119.38
348.673	109.38
348.9	101.38
349.128	95.38
349.355	101.38
349.583	86.38
349.81	97.38
350.037	81.38
350.265	101.38
350.492	87.38
350.72	91.38
350.947	90.38
351.174	123.38
351.402	116.38
351.629	107.38
351.856	105.38
352.083	105.38
352.311	113.38
352.538	136.38
352.765	117.38
352.992	113.38
353.22	115.38
353.447	92.38
353.674	103.38
353.901	102.38
354.128	105.38
354.355	99.38
354.583	100.38
354.81	80.38
355.037	108.38
355.264	89.38
355.491	82.38
355.718	73.38
355.945	99.38
356.172	87.38
356.399	89.38
356.626	91.38
356.853	98.38
357.08	87.38
357.307	98.38
357.534	94.38
357.761	79.38
357.988	87.38
358.215	106.38
358.441	118.38
358.668	97.38
358.895	86.38
359.122	94.38
359.349	107.38
359.576	98.38
359.802	114.38
360.029	125.38
360.256	133.38
360.483	105.38
360.709	93.38
360.936	99.38
361.163	101.38
361.39	99.38
361.616	97.38
361.843	87.38
362.07	90.38
362.296	105.38
362.523	95.38
362.749	88.38
362.976	95.38
363.203	92.38
363.429	90.38
363.656	85.38
363.882	89.38
364.109	86.38
364.335	93.38
364.562	93.38
364.788	89.38
365.015	86.38
365.241	100.38
365.468	118.38
365.694	103.38
365.92	93.38
366.147	98.38
366.373	89.38
366.599	72.38
366.826	89.38
367.052	96.38
367.278	109.38
367.505	98.38
367.731	77.38
367.957	94.38
368.184	104.38
368.41	102.38
368.636	122.38
368.862	126.38
369.089	114.38
369.315	104.38
369.541	106.38
369.767	89.38
369.993	87.38
370.219	102.38
370.445	94.38
370.672	84.38
370.898	87.38
371.124	85.38
371.35	90.38
371.576	80.38
371.802	91.38
372.028	78.38
372.254	91.38
372.48	91.38
372.706	75.38
372.932	106.38
373.158	102.38
373.384	94.38
373.61	97.38
373.835	90.38
374.061	94.38
374.287	94.38
374.513	97.38
374.739	85.38
374.965	91.38
375.191	101.38
375.416	82.38
375.642	91.38
375.868	89.38
376.094	88.38
376.319	96.38
376.545	113.38
376.771	91.38
376.997	90.38
377.222	103.38
377.448	98.38
377.674	94.38
377.899	93.38
378.125	82.38
378.35	82.38
378.576	83.38
378.802	96.38
379.027	85.38
379.253	96.38
379.478	97.38
379.704	91.38
379.929	101.38
380.155	94.38
380.38	89.38
380.606	107.38
380.831	94.38
381.057	106.38
381.282	86.38
381.507	102.38
381.733	108.38
381.958	104.38
382.184	105.38
382.409	97.38
382.634	96.38
382.86	92.38
383.085	95.38
383.31	102.38
383.535	95.38
383.761	97.38
383.986	88.38
384.211	85.38
384.436	98.38
384.662	102.38
384.887	109.38
385.112	112.38
385.337	107.38
385.562	121.38
385.787	117.38
386.013	114.38
386.238	120.38
386.463	117.38
386.688	113.38
386.913	91.38
387.138	102.38
387.363	114.38
387.588	107.38
387.813	110.38
388.038	109.38
388.263	131.38
388.488	107.38
388.713	89.38
388.938	93.38
389.163	91.38
389.387	105.38
389.612	102.38
389.837	93.38
390.062	105.38
390.287	93.38
390.512	99.38
390.736	102.38
390.961	94.38
391.186	90.38
391.411	94.38
391.636	95.38
391.86	92.38
392.085	86.38
392.31	101.38
392.534	94.38
392.759	86.38
392.984	88.38
393.208	84.38
393.433	85.38
393.658	105.38
393.882	83.38
394.107	85.38
394.331	95.38
394.556	86.38
394.78	100.38
395.005	89.38
395.229	91.38
395.454	73.38
395.678	99.38
395.903	75.38
396.127	83.38
396.352	99.38
396.576	77.38
396.801	82.38
397.025	79.38
397.249	86.38
397.474	79.38
397.698	85.38
397.922	89.38
398.147	87.38
398.371	69.38
398.595	85.38
398.82	98.38
399.044	93.38
399.268	73.38
399.492	75.38
399.717	94.38
399.941	97.38
400.165	86.38
400.389	96.38
400.613	85.38
400.837	98.38
401.062	75.38
401.286	94.38
401.51	93.38
401.734	96.38
401.958	115.38
402.182	146.38
402.406	169.38
402.63	131.38
402.854	93.38
403.078	88.38
403.302	87.38
403.526	91.38
403.75	92.38
403.974	92.38
404.198	86.38
404.422	89.38
404.645	80.38
404.869	104.38
405.093	107.38
405.317	130.38
405.541	116.38
405.765	109.38
405.988	123.38
406.212	178.38
406.436	258.38
406.66	165.38
406.883	109.38
407.107	94.38
407.331	116.38
407.555	110.38
407.778	97.38
408.002	99.38
408.226	95.38
408.449	99.38
408.673	84.38
408.896	93.38
409.12	97.38
409.344	92.38
409.567	87.38
409.791	86.38
410.014	105.38
410.238	86.38
410.461	84.38
410.685	101.38
410.908	102.38
411.132	107.38
411.355	105.38
411.578	82.38
411.802	89.38
412.025	103.38
412.249	103.38
412.472	118.38
412.695	115.38
412.919	96.38
413.142	79.38
413.365	85.38
413.589	96.38
413.812	90.38
414.035	81.38
414.258	103.38
414.482	102.38
414.705	94.38
414.928	106.38
415.151	115.38
415.374	97.38
415.597	104.38
415.821	86.38
416.044	85.38
416.267	83.38
416.49	90.38
416.713	96.38
416.936	101.38
417.159	98.38
417.382	90.38
417.605	101.38
417.828	100.38
418.051	95.38
418.274	105.38
418.497	85.38
418.72	89.38
418.943	105.38
419.166	94.38
419.389	82.38
419.611	89.38
419.834	104.38
420.057	98.38
420.28	101.38
420.503	94.38
420.726	99.38
420.948	90.38
421.171	80.38
421.394	100.38
421.617	82.38
421.839	88.38
422.062	83.38
422.285	98.38
422.507	94.38
422.73	100.38
422.953	99.38
423.175	83.38
423.398	84.38
423.621	88.38
423.843	87.38
424.066	86.38
424.288	86.38
424.511	107.38
424.733	99.38
424.956	119.38
425.178	95.38
425.401	105.38
425.623	106.38
425.846	86.38
426.068	101.38
426.291	97.38
426.513	93.38
426.735	102.38
426.958	103.38
427.18	106.38
427.402	166.38
427.625	207.38
427.847	185.38
428.069	159.38
428.292	113.38
428.514	87.38
428.736	93.38
428.958	88.38
429.181	86.38
429.403	97.38
429.625	91.38
429.847	97.38
430.069	104.38
430.292	102.38
430.514	94.38
430.736	95.38
430.958	83.38
431.18	91.38
431.402	81.38
431.624	87.38
431.846	91.38
432.068	91.38
432.29	89.38
432.512	87.38
432.734	93.38
432.956	84.38
433.178	87.38
433.4	107.38
433.622	82.38
433.844	90.38
434.066	102.38
434.287	83.38
434.509	87.38
434.731	91.38
434.953	90.38
435.175	78.38
435.397	90.38
435.618	86.38
435.84	90.38
436.062	123.38
436.284	110.38
436.505	104.38
436.727	95.38
436.949	94.38
437.17	88.38
437.392	99.38
437.614	100.38
437.835	108.38
438.057	131.38
438.278	123.38
438.5	99.38
438.721	116.38
438.943	97.38
439.165	93.38
439.386	98.38
439.608	97.38
439.829	100.38
440.05	128.38
440.272	151.38
440.493	107.38
440.715	86.38
440.936	100.38
441.158	89.38
441.379	90.38
441.6	91.38
441.822	93.38
442.043	95.38
442.264	107.38
442.486	108.38
442.707	95.38
442.928	97.38
443.149	142.38
443.371	154.38
443.592	112.38
443.813	125.38
444.034	101.38
444.255	103.38
444.476	98.38
444.698	81.38
444.919	85.38
445.14	147.38
445.361	123.38
445.582	125.38
445.803	163.38
446.024	155.38
446.245	130.38
446.466	137.38
446.687	80.38
446.908	85.38
447.129	89.38
447.35	94.38
447.571	86.38
447.792	96.38
448.013	95.38
448.234	120.38
448.455	101.38
448.675	113.38
448.896	125.38
449.117	91.38
449.338	105.38
449.559	130.38
449.779	134.38
450	105.38
450.221	94.38
450.442	94.38
450.662	98.38
450.883	108.38
451.104	113.38
451.324	95.38
451.545	100.38
451.766	89.38
451.986	81.38
452.207	80.38
452.428	87.38
452.648	93.38
452.869	118.38
453.089	124.38
453.31	127.38
453.53	103.38
453.751	98.38
453.971	102.38
454.192	117.38
454.412	95.38
454.633	93.38
454.853	98.38
455.073	89.38
455.294	97.38
455.514	90.38
455.734	85.38
455.955	92.38
456.175	90.38
456.395	87.38
456.616	91.38
456.836	93.38
457.056	93.38
457.276	73.38
457.497	88.38
457.717	100.38
457.937	77.38
458.157	77.38
458.377	81.38
458.598	116.38
458.818	175.38
459.038	205.38
459.258	125.38
459.478	95.38
459.698	86.38
459.918	86.38
460.138	66.38
460.358	97.38
460.578	86.38
460.798	95.38
461.018	90.38
461.238	88.38
461.458	88.38
461.678	79.38
461.898	90.38
462.118	79.38
462.338	70.38
462.558	85.38
462.777	81.38
462.997	90.38
463.217	91.38
463.437	97.38
463.657	78.38
463.876	97.38
464.096	93.38
464.316	97.38
464.536	90.38
464.755	81.38
464.975	124.38
465.195	189.38
465.414	197.38
465.634	101.38
465.854	88.38
466.073	87.38
466.293	87.38
466.512	82.38
466.732	75.38
466.951	90.38
467.171	97.38
467.391	111.38
467.61	129.38
467.829	163.38
468.049	343.38
468.268	507.38
468.488	163.38
468.707	94.38
468.927	91.38
469.146	87.38
469.365	75.38
469.585	97.38
469.804	98.38
470.023	96.38
470.243	106.38
470.462	116.38
470.681	121.38
470.901	83.38
471.12	95.38
471.339	104.38
471.558	121.38
471.777	110.38
471.997	211.38
472.216	649.38
472.435	1446.38
472.654	361.38
472.873	120.38
473.092	89.38
473.311	97.38
473.53	99.38
473.749	79.38
473.968	110.38
474.187	126.38
474.406	95.38
474.625	69.38
474.844	89.38
475.063	78.38
475.282	94.38
475.501	82.38
475.72	70.38
475.939	93.38
476.158	101.38
476.377	85.38
476.596	88.38
476.814	85.38
477.033	91.38
477.252	81.38
477.471	89.38
477.69	90.38
477.908	100.38
478.127	98.38
478.346	102.38
478.564	84.38
478.783	96.38
479.002	90.38
479.22	102.38
479.439	106.38
479.658	118.38
479.876	112.38
480.095	109.38
480.313	110.38
480.532	127.38
480.751	201.38
480.969	590.38
481.188	2451.38
481.406	1434.38
481.624	252.38
481.843	108.38
482.061	103.38
482.28	115.38
482.498	102.38
482.717	89.38
482.935	74.38
483.153	77.38
483.372	95.38
483.59	81.38
483.808	91.38
484.027	93.38
484.245	89.38
484.463	90.38
484.681	101.38
484.9	88.38
485.118	88.38
485.336	75.38
485.554	94.38
485.772	105.38
485.99	117.38
486.209	98.38
486.427	114.38
486.645	118.38
486.863	113.38
487.081	106.38
487.299	89.38
487.517	90.38
487.735	96.38
487.953	103.38
488.171	89.38
488.389	105.38
488.607	100.38
488.825	83.38
489.043	92.38
489.261	97.38
489.479	96.38
489.696	87.38
489.914	89.38
490.132	88.38
490.35	90.38
490.568	79.38
490.786	91.38
491.003	81.38
491.221	98.38
491.439	98.38
491.657	91.38
491.874	90.38
492.092	93.38
492.31	99.38
492.527	103.38
492.745	93.38
492.963	82.38
493.18	88.38
493.398	96.38
493.615	96.38
493.833	81.38
494.05	87.38
494.268	87.38
494.485	94.38
494.703	79.38
494.92	92.38
495.138	90.38
495.355	92.38
495.573	81.38
495.79	94.38
496.008	97.38
496.225	93.38
496.442	83.38
496.66	94.38
496.877	92.38
497.094	77.38
497.312	86.38
497.529	85.38
497.746	117.38
497.963	103.38
498.181	101.38
498.398	94.38
498.615	90.38
498.832	94.38
499.049	89.38
499.267	83.38
499.484	78.38
499.701	82.38
499.918	91.38
500.135	85.38
500.352	84.38
500.569	95.38
500.786	96.38
501.003	97.38
501.22	84.38
501.437	95.38
501.654	103.38
501.871	123.38
502.088	89.38
502.305	97.38
502.522	99.38
502.739	88.38
502.956	105.38
503.172	91.38
503.389	117.38
503.606	117.38
503.823	91.38
504.04	96.38
504.256	93.38
504.473	89.38
504.69	85.38
504.907	87.38
505.123	88.38
505.34	86.38
505.557	96.38
505.773	83.38
505.99	88.38
506.207	85.38
506.423	90.38
506.64	103.38
506.856	93.38
507.073	81.38
507.289	94.38
507.506	92.38
507.722	125.38
507.939	118.38
508.155	102.38
508.372	98.38
508.588	96.38
508.805	94.38
509.021	88.38
509.238	98.38
509.454	111.38
509.67	101.38
509.887	102.38
510.103	138.38
510.319	227.38
510.536	823.38
510.752	2763.38
510.968	735.38
511.184	176.38
511.401	119.38
511.617	104.38
511.833	107.38
512.049	98.38
512.265	73.38
512.481	77.38
512.698	102.38
512.914	97.38
513.13	92.38
513.346	91.38
513.562	95.38
513.778	102.38
513.994	114.38
