Data from Circ_1987_H10_HRD10591_00035.txt Node
Date: Wed Jan 03 12:10:39 EST 2024
User: Yrep
Spectrometer: HR+D1059
Trigger mode: 1
Integration Time (sec): 1.000000E-1
Scans to average: 1
Electric dark correction enabled: true
Nonlinearity correction enabled: false
Boxcar width: 0
XAxis mode: Wavelengths
Number of Pixels in Spectrum: 2048
>>>>>Begin Spectral Data<<<<<
223.165	-17.88
223.4	-17.88
223.635	-17.88
223.869	-13.88
224.104	-20.88
224.338	-21.88
224.573	-10.88
224.808	-3.88
225.042	-8.88
225.277	-10.88
225.511	-8.88
225.746	-6.88
225.98	21.12
226.215	15.12
226.449	20.12
226.683	17.12
226.918	27.12
227.152	24.12
227.387	28.12
227.621	58.12
227.856	46.12
228.09	57.12
228.324	49.12
228.559	45.12
228.793	55.12
229.027	63.12
229.262	63.12
229.496	94.12
229.73	93.12
229.964	91.12
230.199	65.12
230.433	85.12
230.667	83.12
230.901	80.12
231.136	73.12
231.37	66.12
231.604	92.12
231.838	74.12
232.072	81.12
232.306	73.12
232.541	79.12
232.775	86.12
233.009	104.12
233.243	87.12
233.477	84.12
233.711	89.12
233.945	83.12
234.179	86.12
234.413	74.12
234.647	83.12
234.881	65.12
235.115	82.12
235.349	94.12
235.583	76.12
235.817	86.12
236.051	74.12
236.285	73.12
236.519	84.12
236.753	100.12
236.987	86.12
237.221	89.12
237.455	80.12
237.689	84.12
237.922	78.12
238.156	83.12
238.39	77.12
238.624	73.12
238.858	72.12
239.091	91.12
239.325	77.12
239.559	99.12
239.793	85.12
240.027	79.12
240.26	75.12
240.494	79.12
240.728	89.12
240.961	88.12
241.195	85.12
241.429	81.12
241.662	68.12
241.896	77.12
242.13	77.12
242.363	82.12
242.597	79.12
242.83	79.12
243.064	62.12
243.298	84.12
243.531	80.12
243.765	82.12
243.998	85.12
244.232	74.12
244.465	85.12
244.699	75.12
244.932	79.12
245.166	86.12
245.399	86.12
245.633	78.12
245.866	80.12
246.099	82.12
246.333	65.12
246.566	81.12
246.8	78.12
247.033	87.12
247.266	93.12
247.5	85.12
247.733	94.12
247.966	86.12
248.2	83.12
248.433	84.12
248.666	78.12
248.899	87.12
249.133	99.12
249.366	99.12
249.599	99.12
249.832	88.12
250.066	89.12
250.299	94.12
250.532	85.12
250.765	83.12
250.998	67.12
251.231	95.12
251.465	82.12
251.698	78.12
251.931	87.12
252.164	82.12
252.397	87.12
252.63	95.12
252.863	94.12
253.096	81.12
253.329	84.12
253.562	73.12
253.795	91.12
254.028	83.12
254.261	81.12
254.494	82.12
254.727	100.12
254.96	87.12
255.193	77.12
255.426	77.12
255.659	94.12
255.892	93.12
256.124	94.12
256.357	93.12
256.59	89.12
256.823	77.12
257.056	83.12
257.289	93.12
257.521	94.12
257.754	82.12
257.987	79.12
258.22	95.12
258.452	105.12
258.685	95.12
258.918	78.12
259.151	90.12
259.383	78.12
259.616	93.12
259.849	78.12
260.081	78.12
260.314	82.12
260.547	86.12
260.779	83.12
261.012	88.12
261.244	90.12
261.477	91.12
261.71	93.12
261.942	120.12
262.175	157.12
262.407	98.12
262.64	92.12
262.872	95.12
263.105	94.12
263.337	106.12
263.57	94.12
263.802	82.12
264.035	110.12
264.267	86.12
264.499	87.12
264.732	93.12
264.964	94.12
265.197	86.12
265.429	74.12
265.661	78.12
265.894	90.12
266.126	86.12
266.358	83.12
266.591	93.12
266.823	81.12
267.055	85.12
267.287	74.12
267.52	94.12
267.752	85.12
267.984	93.12
268.216	86.12
268.448	78.12
268.681	87.12
268.913	70.12
269.145	79.12
269.377	95.12
269.609	90.12
269.841	78.12
270.073	88.12
270.306	93.12
270.538	98.12
270.77	86.12
271.002	75.12
271.234	90.12
271.466	79.12
271.698	84.12
271.93	95.12
272.162	85.12
272.394	104.12
272.626	102.12
272.858	88.12
273.09	80.12
273.322	80.12
273.553	89.12
273.785	92.12
274.017	101.12
274.249	93.12
274.481	92.12
274.713	90.12
274.945	92.12
275.176	79.12
275.408	97.12
275.64	107.12
275.872	117.12
276.104	106.12
276.335	104.12
276.567	98.12
276.799	141.12
277.031	148.12
277.262	159.12
277.494	136.12
277.726	87.12
277.957	84.12
278.189	98.12
278.421	86.12
278.652	78.12
278.884	86.12
279.115	97.12
279.347	85.12
279.579	92.12
279.81	100.12
280.042	166.12
280.273	221.12
280.505	150.12
280.736	105.12
280.968	83.12
281.199	77.12
281.431	92.12
281.662	85.12
281.894	88.12
282.125	92.12
282.356	135.12
282.588	185.12
282.819	128.12
283.051	91.12
283.282	97.12
283.513	90.12
283.745	95.12
283.976	89.12
284.207	81.12
284.439	102.12
284.67	104.12
284.901	87.12
285.132	78.12
285.364	88.12
285.595	83.12
285.826	91.12
286.057	94.12
286.288	81.12
286.52	96.12
286.751	97.12
286.982	87.12
287.213	98.12
287.444	81.12
287.675	88.12
287.906	80.12
288.138	97.12
288.369	103.12
288.6	107.12
288.831	93.12
289.062	85.12
289.293	90.12
289.524	66.12
289.755	83.12
289.986	90.12
290.217	67.12
290.448	81.12
290.679	77.12
290.91	84.12
291.141	90.12
291.371	91.12
291.602	93.12
291.833	83.12
292.064	87.12
292.295	93.12
292.526	83.12
292.757	78.12
292.987	88.12
293.218	96.12
293.449	82.12
293.68	90.12
293.91	89.12
294.141	95.12
294.372	96.12
294.603	95.12
294.833	89.12
295.064	96.12
295.295	100.12
295.525	95.12
295.756	104.12
295.987	142.12
296.217	179.12
296.448	142.12
296.679	93.12
296.909	96.12
297.14	100.12
297.37	101.12
297.601	89.12
297.831	90.12
298.062	88.12
298.292	93.12
298.523	108.12
298.753	95.12
298.984	94.12
299.214	86.12
299.445	103.12
299.675	106.12
299.905	114.12
300.136	102.12
300.366	85.12
300.597	86.12
300.827	102.12
301.057	104.12
301.288	106.12
301.518	95.12
301.748	107.12
301.979	110.12
302.209	106.12
302.439	100.12
302.669	90.12
302.9	86.12
303.13	83.12
303.36	110.12
303.59	134.12
303.82	121.12
304.051	90.12
304.281	107.12
304.511	90.12
304.741	106.12
304.971	78.12
305.201	80.12
305.431	99.12
305.661	89.12
305.891	98.12
306.121	101.12
306.352	125.12
306.582	118.12
306.812	99.12
307.042	117.12
307.272	143.12
307.502	155.12
307.731	137.12
307.961	122.12
308.191	90.12
308.421	99.12
308.651	105.12
308.881	97.12
309.111	102.12
309.341	94.12
309.571	98.12
309.8	102.12
310.03	102.12
310.26	115.12
310.49	93.12
310.72	102.12
310.949	118.12
311.179	125.12
311.409	111.12
311.639	96.12
311.868	114.12
312.098	101.12
312.328	100.12
312.557	114.12
312.787	119.12
313.017	103.12
313.246	101.12
313.476	94.12
313.706	104.12
313.935	87.12
314.165	102.12
314.394	110.12
314.624	110.12
314.853	98.12
315.083	104.12
315.312	91.12
315.542	88.12
315.771	98.12
316.001	89.12
316.23	85.12
316.46	95.12
316.689	90.12
316.919	90.12
317.148	100.12
317.377	110.12
317.607	97.12
317.836	109.12
318.065	106.12
318.295	86.12
318.524	81.12
318.753	86.12
318.983	107.12
319.212	104.12
319.441	102.12
319.67	118.12
319.9	89.12
320.129	104.12
320.358	98.12
320.587	101.12
320.816	99.12
321.046	113.12
321.275	99.12
321.504	90.12
321.733	103.12
321.962	104.12
322.191	101.12
322.42	115.12
322.649	130.12
322.878	118.12
323.108	131.12
323.337	147.12
323.566	145.12
323.795	175.12
324.024	234.12
324.253	430.12
324.482	957.12
324.71	1911.12
324.939	2581.12
325.168	945.12
325.397	292.12
325.626	156.12
325.855	137.12
326.084	125.12
326.313	152.12
326.542	162.12
326.77	258.12
326.999	475.12
327.228	1021.12
327.457	1834.12
327.686	1513.12
327.914	513.12
328.143	452.12
328.372	545.12
328.6	314.12
328.829	189.12
329.058	191.12
329.287	189.12
329.515	160.12
329.744	226.12
329.972	401.12
330.201	740.12
330.43	1117.12
330.658	518.12
330.887	267.12
331.115	184.12
331.344	130.12
331.572	113.12
331.801	116.12
332.03	120.12
332.258	110.12
332.486	99.12
332.715	118.12
332.943	113.12
333.172	110.12
333.4	116.12
333.629	150.12
333.857	211.12
334.085	366.12
334.314	721.12
334.542	1413.12
334.771	1383.12
334.999	360.12
335.227	174.12
335.455	105.12
335.684	113.12
335.912	93.12
336.14	101.12
336.369	109.12
336.597	127.12
336.825	107.12
337.053	89.12
337.281	107.12
337.51	96.12
337.738	92.12
337.966	80.12
338.194	111.12
338.422	111.12
338.65	88.12
338.878	89.12
339.106	92.12
339.334	105.12
339.562	102.12
339.79	96.12
340.018	105.12
340.246	90.12
340.474	95.12
340.702	105.12
340.93	100.12
341.158	101.12
341.386	101.12
341.614	105.12
341.842	106.12
342.07	87.12
342.298	105.12
342.526	84.12
342.754	111.12
342.981	93.12
343.209	103.12
343.437	105.12
343.665	98.12
343.893	94.12
344.12	89.12
344.348	101.12
344.576	89.12
344.804	107.12
345.031	111.12
345.259	105.12
345.487	93.12
345.714	95.12
345.942	99.12
346.17	98.12
346.397	86.12
346.625	87.12
346.853	89.12
347.08	89.12
347.308	87.12
347.535	103.12
347.763	117.12
347.99	104.12
348.218	109.12
348.445	96.12
348.673	98.12
348.9	108.12
349.128	101.12
349.355	76.12
349.583	92.12
349.81	96.12
350.037	90.12
350.265	88.12
350.492	100.12
350.72	105.12
350.947	121.12
351.174	141.12
351.402	119.12
351.629	120.12
351.856	105.12
352.083	113.12
352.311	121.12
352.538	127.12
352.765	121.12
352.992	122.12
353.22	101.12
353.447	106.12
353.674	109.12
353.901	113.12
354.128	91.12
354.355	92.12
354.583	99.12
354.81	106.12
355.037	100.12
355.264	94.12
355.491	92.12
355.718	101.12
355.945	77.12
356.172	89.12
356.399	106.12
356.626	100.12
356.853	88.12
357.08	72.12
357.307	95.12
357.534	101.12
357.761	85.12
357.988	109.12
358.215	101.12
358.441	91.12
358.668	103.12
358.895	95.12
359.122	91.12
359.349	85.12
359.576	96.12
359.802	121.12
360.029	130.12
360.256	145.12
360.483	127.12
360.709	101.12
360.936	75.12
361.163	91.12
361.39	99.12
361.616	110.12
361.843	102.12
362.07	108.12
362.296	100.12
362.523	87.12
362.749	94.12
362.976	78.12
363.203	99.12
363.429	110.12
363.656	87.12
363.882	107.12
364.109	94.12
364.335	89.12
364.562	104.12
364.788	96.12
365.015	93.12
365.241	102.12
365.468	121.12
365.694	137.12
365.92	102.12
366.147	89.12
366.373	93.12
366.599	84.12
366.826	97.12
367.052	101.12
367.278	100.12
367.505	88.12
367.731	101.12
367.957	102.12
368.184	90.12
368.41	95.12
368.636	130.12
368.862	132.12
369.089	126.12
369.315	120.12
369.541	104.12
369.767	84.12
369.993	92.12
370.219	82.12
370.445	94.12
370.672	88.12
370.898	97.12
371.124	83.12
371.35	98.12
371.576	102.12
371.802	83.12
372.028	92.12
372.254	96.12
372.48	94.12
372.706	102.12
372.932	86.12
373.158	94.12
373.384	104.12
373.61	97.12
373.835	82.12
374.061	90.12
374.287	98.12
374.513	88.12
374.739	86.12
374.965	98.12
375.191	80.12
375.416	104.12
375.642	96.12
375.868	91.12
376.094	90.12
376.319	93.12
376.545	96.12
376.771	79.12
376.997	95.12
377.222	77.12
377.448	94.12
377.674	74.12
377.899	82.12
378.125	80.12
378.35	102.12
378.576	101.12
378.802	99.12
379.027	95.12
379.253	101.12
379.478	79.12
379.704	79.12
379.929	97.12
380.155	92.12
380.38	90.12
380.606	101.12
380.831	106.12
381.057	114.12
381.282	103.12
381.507	91.12
381.733	109.12
381.958	98.12
382.184	107.12
382.409	97.12
382.634	97.12
382.86	82.12
383.085	113.12
383.31	103.12
383.535	97.12
383.761	104.12
383.986	106.12
384.211	106.12
384.436	82.12
384.662	90.12
384.887	108.12
385.112	97.12
385.337	103.12
385.562	95.12
385.787	99.12
386.013	106.12
386.238	108.12
386.463	111.12
386.688	115.12
386.913	107.12
387.138	112.12
387.363	97.12
387.588	110.12
387.813	102.12
388.038	111.12
388.263	110.12
388.488	116.12
388.713	91.12
388.938	97.12
389.163	78.12
389.387	95.12
389.612	96.12
389.837	89.12
390.062	85.12
390.287	98.12
390.512	88.12
390.736	73.12
390.961	77.12
391.186	94.12
391.411	83.12
391.636	87.12
391.86	86.12
392.085	88.12
392.31	99.12
392.534	75.12
392.759	86.12
392.984	81.12
393.208	95.12
393.433	94.12
393.658	93.12
393.882	83.12
394.107	87.12
394.331	97.12
394.556	84.12
394.78	93.12
395.005	79.12
395.229	89.12
395.454	86.12
395.678	67.12
395.903	78.12
396.127	79.12
396.352	88.12
396.576	66.12
396.801	95.12
397.025	78.12
397.249	88.12
397.474	98.12
397.698	83.12
397.922	90.12
398.147	97.12
398.371	88.12
398.595	72.12
398.82	81.12
399.044	75.12
399.268	86.12
399.492	79.12
399.717	84.12
399.941	88.12
400.165	92.12
400.389	99.12
400.613	104.12
400.837	89.12
401.062	98.12
401.286	88.12
401.51	88.12
401.734	89.12
401.958	108.12
402.182	148.12
402.406	189.12
402.63	125.12
402.854	103.12
403.078	93.12
403.302	83.12
403.526	79.12
403.75	92.12
403.974	78.12
404.198	95.12
404.422	89.12
404.645	85.12
404.869	104.12
405.093	106.12
405.317	133.12
405.541	125.12
405.765	111.12
405.988	144.12
406.212	213.12
406.436	288.12
406.66	198.12
406.883	109.12
407.107	114.12
407.331	109.12
407.555	117.12
407.778	105.12
408.002	96.12
408.226	83.12
408.449	96.12
408.673	78.12
408.896	93.12
409.12	99.12
409.344	86.12
409.567	86.12
409.791	85.12
410.014	88.12
410.238	94.12
410.461	87.12
410.685	96.12
410.908	109.12
411.132	111.12
411.355	98.12
411.578	84.12
411.802	103.12
412.025	104.12
412.249	93.12
412.472	102.12
412.695	123.12
412.919	106.12
413.142	84.12
413.365	86.12
413.589	90.12
413.812	85.12
414.035	92.12
414.258	94.12
414.482	96.12
414.705	78.12
414.928	94.12
415.151	95.12
415.374	103.12
415.597	90.12
415.821	85.12
416.044	84.12
416.267	90.12
416.49	94.12
416.713	85.12
416.936	82.12
417.159	80.12
417.382	86.12
417.605	87.12
417.828	113.12
418.051	95.12
418.274	87.12
418.497	93.12
418.72	79.12
418.943	90.12
419.166	77.12
419.389	89.12
419.611	95.12
419.834	106.12
420.057	88.12
420.28	101.12
420.503	95.12
420.726	89.12
420.948	77.12
421.171	109.12
421.394	107.12
421.617	95.12
421.839	91.12
422.062	89.12
422.285	96.12
422.507	110.12
422.73	108.12
422.953	82.12
423.175	94.12
423.398	104.12
423.621	88.12
423.843	90.12
424.066	82.12
424.288	73.12
424.511	88.12
424.733	105.12
424.956	110.12
425.178	107.12
425.401	102.12
425.623	121.12
425.846	95.12
426.068	95.12
426.291	83.12
426.513	88.12
426.735	98.12
426.958	116.12
427.18	121.12
427.402	180.12
427.625	258.12
427.847	221.12
428.069	185.12
428.292	129.12
428.514	98.12
428.736	94.12
428.958	85.12
429.181	88.12
429.403	75.12
429.625	74.12
429.847	102.12
430.069	83.12
430.292	95.12
430.514	93.12
430.736	81.12
430.958	67.12
431.18	88.12
431.402	96.12
431.624	85.12
431.846	83.12
432.068	88.12
432.29	94.12
432.512	98.12
432.734	82.12
432.956	83.12
433.178	90.12
433.4	95.12
433.622	103.12
433.844	87.12
434.066	102.12
434.287	95.12
434.509	99.12
434.731	86.12
434.953	77.12
435.175	90.12
435.397	83.12
435.618	105.12
435.84	133.12
436.062	131.12
436.284	126.12
436.505	107.12
436.727	108.12
436.949	103.12
437.17	93.12
437.392	98.12
437.614	111.12
437.835	145.12
438.057	141.12
438.278	125.12
438.5	110.12
438.721	148.12
438.943	106.12
439.165	90.12
439.386	97.12
439.608	83.12
439.829	110.12
440.05	145.12
440.272	169.12
440.493	119.12
440.715	97.12
440.936	86.12
441.158	99.12
441.379	86.12
441.6	88.12
441.822	82.12
442.043	118.12
442.264	119.12
442.486	115.12
442.707	107.12
442.928	114.12
443.149	175.12
443.371	161.12
443.592	128.12
443.813	123.12
444.034	118.12
444.255	77.12
444.476	96.12
444.698	90.12
444.919	94.12
445.14	143.12
445.361	130.12
445.582	118.12
445.803	172.12
446.024	182.12
446.245	156.12
446.466	120.12
446.687	93.12
446.908	94.12
447.129	87.12
447.35	97.12
447.571	102.12
447.792	89.12
448.013	102.12
448.234	112.12
448.455	110.12
448.675	121.12
448.896	137.12
449.117	102.12
449.338	101.12
449.559	147.12
449.779	161.12
450	109.12
450.221	88.12
450.442	87.12
450.662	107.12
450.883	113.12
451.104	153.12
451.324	105.12
451.545	93.12
451.766	84.12
451.986	99.12
452.207	102.12
452.428	83.12
452.648	103.12
452.869	111.12
453.089	112.12
453.31	138.12
453.53	114.12
453.751	107.12
453.971	119.12
454.192	120.12
454.412	96.12
454.633	105.12
454.853	104.12
455.073	106.12
455.294	105.12
455.514	112.12
455.734	96.12
455.955	84.12
456.175	81.12
456.395	76.12
456.616	103.12
456.836	91.12
457.056	84.12
457.276	94.12
457.497	95.12
457.717	79.12
457.937	79.12
458.157	91.12
458.377	87.12
458.598	123.12
458.818	200.12
459.038	207.12
459.258	126.12
459.478	98.12
459.698	81.12
459.918	91.12
460.138	94.12
460.358	103.12
460.578	87.12
460.798	86.12
461.018	94.12
461.238	92.12
461.458	90.12
461.678	100.12
461.898	92.12
462.118	98.12
462.338	91.12
462.558	93.12
462.777	97.12
462.997	103.12
463.217	102.12
463.437	95.12
463.657	91.12
463.876	83.12
464.096	90.12
464.316	100.12
464.536	100.12
464.755	88.12
464.975	138.12
465.195	223.12
465.414	244.12
465.634	96.12
465.854	87.12
466.073	94.12
466.293	102.12
466.512	88.12
466.732	89.12
466.951	87.12
467.171	103.12
467.391	119.12
467.61	125.12
467.829	177.12
468.049	455.12
468.268	662.12
468.488	194.12
468.707	96.12
468.927	84.12
469.146	91.12
469.365	84.12
469.585	83.12
469.804	106.12
470.023	104.12
470.243	107.12
470.462	102.12
470.681	145.12
470.901	101.12
471.12	96.12
471.339	97.12
471.558	106.12
471.777	135.12
471.997	243.12
472.216	854.12
472.435	1971.12
472.654	489.12
472.873	145.12
473.092	104.12
473.311	89.12
473.53	91.12
473.749	66.12
473.968	109.12
474.187	130.12
474.406	107.12
474.625	95.12
474.844	103.12
475.063	83.12
475.282	84.12
475.501	80.12
475.72	89.12
475.939	88.12
476.158	97.12
476.377	106.12
476.596	89.12
476.814	112.12
477.033	102.12
477.252	89.12
477.471	85.12
477.69	89.12
477.908	87.12
478.127	87.12
478.346	90.12
478.564	94.12
478.783	106.12
479.002	100.12
479.22	95.12
479.439	120.12
479.658	133.12
479.876	112.12
480.095	120.12
480.313	125.12
480.532	145.12
480.751	229.12
480.969	795.12
481.188	3422.12
481.406	1977.12
481.624	305.12
481.843	121.12
482.061	97.12
482.28	96.12
482.498	105.12
482.717	96.12
482.935	91.12
483.153	68.12
483.372	77.12
483.59	91.12
483.808	89.12
484.027	94.12
484.245	85.12
484.463	109.12
484.681	98.12
484.9	111.12
485.118	102.12
485.336	97.12
485.554	101.12
485.772	98.12
485.99	113.12
486.209	102.12
486.427	110.12
486.645	120.12
486.863	121.12
487.081	89.12
487.299	103.12
487.517	90.12
487.735	91.12
487.953	86.12
488.171	104.12
488.389	106.12
488.607	110.12
488.825	97.12
489.043	100.12
489.261	90.12
489.479	110.12
489.696	93.12
489.914	90.12
490.132	99.12
490.35	100.12
490.568	94.12
490.786	82.12
491.003	99.12
491.221	90.12
491.439	91.12
491.657	85.12
491.874	88.12
492.092	99.12
492.31	93.12
492.527	98.12
492.745	80.12
492.963	103.12
493.18	89.12
493.398	86.12
493.615	113.12
493.833	97.12
494.05	97.12
494.268	77.12
494.485	90.12
494.703	91.12
494.92	90.12
495.138	88.12
495.355	100.12
495.573	89.12
495.79	105.12
496.008	99.12
496.225	87.12
496.442	95.12
496.66	90.12
496.877	89.12
497.094	96.12
497.312	96.12
497.529	88.12
497.746	80.12
497.963	82.12
498.181	84.12
498.398	103.12
498.615	112.12
498.832	115.12
499.049	89.12
499.267	88.12
499.484	91.12
499.701	95.12
499.918	76.12
500.135	83.12
500.352	86.12
500.569	96.12
500.786	100.12
501.003	90.12
501.22	98.12
501.437	99.12
501.654	94.12
501.871	113.12
502.088	106.12
502.305	86.12
502.522	87.12
502.739	101.12
502.956	83.12
503.172	97.12
503.389	99.12
503.606	121.12
503.823	119.12
504.04	76.12
504.256	78.12
504.473	85.12
504.69	103.12
504.907	89.12
505.123	88.12
505.34	90.12
505.557	91.12
505.773	85.12
505.99	84.12
506.207	95.12
506.423	99.12
506.64	101.12
506.856	87.12
507.073	96.12
507.289	113.12
507.506	108.12
507.722	127.12
507.939	127.12
508.155	85.12
508.372	83.12
508.588	94.12
508.805	102.12
509.021	115.12
509.238	103.12
509.454	98.12
509.67	114.12
509.887	119.12
510.103	126.12
510.319	254.12
510.536	906.12
510.752	3041.12
510.968	806.12
511.184	203.12
511.401	129.12
511.617	109.12
511.833	113.12
512.049	101.12
512.265	91.12
512.481	101.12
512.698	104.12
512.914	86.12
