Data from Circ_1987_H10_HRD10591_00017.txt Node
Date: Wed Jan 03 12:10:36 EST 2024
User: Yrep
Spectrometer: HR+D1059
Trigger mode: 1
Integration Time (sec): 1.000000E-1
Scans to average: 1
Electric dark correction enabled: true
Nonlinearity correction enabled: false
Boxcar width: 0
XAxis mode: Wavelengths
Number of Pixels in Spectrum: 2048
>>>>>Begin Spectral Data<<<<<
223.165	-7.62
223.4	-7.62
223.635	-7.62
223.869	-21.62
224.104	-15.62
224.338	-14.62
224.573	-32.62
224.808	-20.62
225.042	-10.62
225.277	-1.62
225.511	-4.62
225.746	7.38
225.98	19.38
226.215	10.38
226.449	11.38
226.683	24.38
226.918	23.38
227.152	33.38
227.387	24.38
227.621	52.38
227.856	38.38
228.09	43.38
228.324	51.38
228.559	57.38
228.793	58.38
229.027	61.38
229.262	45.38
229.496	71.38
229.73	78.38
229.964	104.38
230.199	64.38
230.433	76.38
230.667	88.38
230.901	72.38
231.136	82.38
231.37	74.38
231.604	94.38
231.838	84.38
232.072	94.38
232.306	92.38
232.541	70.38
232.775	72.38
233.009	67.38
233.243	78.38
233.477	80.38
233.711	74.38
233.945	85.38
234.179	63.38
234.413	66.38
234.647	82.38
234.881	80.38
235.115	76.38
235.349	77.38
235.583	76.38
235.817	76.38
236.051	81.38
236.285	63.38
236.519	86.38
236.753	74.38
236.987	84.38
237.221	94.38
237.455	93.38
237.689	80.38
237.922	83.38
238.156	79.38
238.39	88.38
238.624	70.38
238.858	69.38
239.091	82.38
239.325	81.38
239.559	79.38
239.793	81.38
240.027	62.38
240.26	72.38
240.494	75.38
240.728	78.38
240.961	85.38
241.195	69.38
241.429	75.38
241.662	62.38
241.896	75.38
242.13	84.38
242.363	85.38
242.597	79.38
242.83	84.38
243.064	82.38
243.298	69.38
243.531	72.38
243.765	64.38
243.998	85.38
244.232	82.38
244.465	90.38
244.699	69.38
244.932	66.38
245.166	79.38
245.399	74.38
245.633	72.38
245.866	70.38
246.099	71.38
246.333	70.38
246.566	80.38
246.8	80.38
247.033	91.38
247.266	81.38
247.5	71.38
247.733	62.38
247.966	79.38
248.2	84.38
248.433	66.38
248.666	68.38
248.899	79.38
249.133	85.38
249.366	100.38
249.599	93.38
249.832	58.38
250.066	83.38
250.299	70.38
250.532	90.38
250.765	76.38
250.998	89.38
251.231	69.38
251.465	100.38
251.698	86.38
251.931	65.38
252.164	73.38
252.397	79.38
252.63	67.38
252.863	86.38
253.096	74.38
253.329	69.38
253.562	84.38
253.795	78.38
254.028	90.38
254.261	68.38
254.494	78.38
254.727	73.38
254.96	83.38
255.193	72.38
255.426	92.38
255.659	70.38
255.892	71.38
256.124	89.38
256.357	78.38
256.59	81.38
256.823	67.38
257.056	69.38
257.289	95.38
257.521	82.38
257.754	68.38
257.987	82.38
258.22	79.38
258.452	86.38
258.685	90.38
258.918	95.38
259.151	83.38
259.383	79.38
259.616	90.38
259.849	82.38
260.081	74.38
260.314	93.38
260.547	90.38
260.779	66.38
261.012	93.38
261.244	86.38
261.477	109.38
261.71	100.38
261.942	101.38
262.175	109.38
262.407	100.38
262.64	84.38
262.872	85.38
263.105	72.38
263.337	89.38
263.57	86.38
263.802	90.38
264.035	78.38
264.267	75.38
264.499	82.38
264.732	71.38
264.964	77.38
265.197	83.38
265.429	79.38
265.661	86.38
265.894	89.38
266.126	82.38
266.358	70.38
266.591	87.38
266.823	76.38
267.055	70.38
267.287	85.38
267.52	72.38
267.752	86.38
267.984	73.38
268.216	80.38
268.448	100.38
268.681	99.38
268.913	90.38
269.145	82.38
269.377	67.38
269.609	86.38
269.841	87.38
270.073	75.38
270.306	88.38
270.538	63.38
270.77	81.38
271.002	78.38
271.234	81.38
271.466	82.38
271.698	81.38
271.93	91.38
272.162	81.38
272.394	83.38
272.626	72.38
272.858	78.38
273.09	83.38
273.322	75.38
273.553	90.38
273.785	90.38
274.017	80.38
274.249	78.38
274.481	85.38
274.713	94.38
274.945	99.38
275.176	78.38
275.408	94.38
275.64	97.38
275.872	99.38
276.104	95.38
276.335	74.38
276.567	99.38
276.799	120.38
277.031	118.38
277.262	127.38
277.494	106.38
277.726	82.38
277.957	74.38
278.189	89.38
278.421	89.38
278.652	88.38
278.884	84.38
279.115	88.38
279.347	85.38
279.579	81.38
279.81	107.38
280.042	132.38
280.273	154.38
280.505	123.38
280.736	91.38
280.968	84.38
281.199	77.38
281.431	84.38
281.662	81.38
281.894	103.38
282.125	94.38
282.356	115.38
282.588	133.38
282.819	105.38
283.051	85.38
283.282	84.38
283.513	87.38
283.745	78.38
283.976	88.38
284.207	75.38
284.439	73.38
284.67	84.38
284.901	83.38
285.132	88.38
285.364	78.38
285.595	91.38
285.826	101.38
286.057	71.38
286.288	92.38
286.52	82.38
286.751	81.38
286.982	76.38
287.213	76.38
287.444	78.38
287.675	90.38
287.906	96.38
288.138	79.38
288.369	103.38
288.6	92.38
288.831	90.38
289.062	77.38
289.293	81.38
289.524	96.38
289.755	82.38
289.986	84.38
290.217	88.38
290.448	81.38
290.679	79.38
290.91	84.38
291.141	81.38
291.371	100.38
291.602	74.38
291.833	90.38
292.064	75.38
292.295	77.38
292.526	92.38
292.757	89.38
292.987	83.38
293.218	78.38
293.449	69.38
293.68	74.38
293.91	86.38
294.141	87.38
294.372	87.38
294.603	83.38
294.833	90.38
295.064	71.38
295.295	84.38
295.525	83.38
295.756	91.38
295.987	95.38
296.217	133.38
296.448	112.38
296.679	89.38
296.909	78.38
297.14	84.38
297.37	82.38
297.601	82.38
297.831	85.38
298.062	94.38
298.292	74.38
298.523	78.38
298.753	94.38
298.984	84.38
299.214	77.38
299.445	74.38
299.675	96.38
299.905	78.38
300.136	75.38
300.366	90.38
300.597	82.38
300.827	105.38
301.057	107.38
301.288	95.38
301.518	92.38
301.748	105.38
301.979	110.38
302.209	84.38
302.439	102.38
302.669	89.38
302.9	87.38
303.13	86.38
303.36	104.38
303.59	113.38
303.82	106.38
304.051	90.38
304.281	87.38
304.511	86.38
304.741	91.38
304.971	91.38
305.201	76.38
305.431	97.38
305.661	84.38
305.891	89.38
306.121	92.38
306.352	101.38
306.582	100.38
306.812	101.38
307.042	95.38
307.272	110.38
307.502	124.38
307.731	132.38
307.961	107.38
308.191	83.38
308.421	79.38
308.651	86.38
308.881	92.38
309.111	95.38
309.341	99.38
309.571	93.38
309.8	100.38
310.03	99.38
310.26	91.38
310.49	94.38
310.72	99.38
310.949	98.38
311.179	99.38
311.409	83.38
311.639	88.38
311.868	93.38
312.098	98.38
312.328	99.38
312.557	102.38
312.787	109.38
313.017	101.38
313.246	92.38
313.476	86.38
313.706	83.38
313.935	75.38
314.165	92.38
314.394	99.38
314.624	93.38
314.853	103.38
315.083	86.38
315.312	95.38
315.542	92.38
315.771	99.38
316.001	91.38
316.23	92.38
316.46	95.38
316.689	71.38
316.919	100.38
317.148	97.38
317.377	87.38
317.607	87.38
317.836	87.38
318.065	88.38
318.295	88.38
318.524	89.38
318.753	85.38
318.983	90.38
319.212	90.38
319.441	116.38
319.67	96.38
319.9	98.38
320.129	80.38
320.358	80.38
320.587	102.38
320.816	102.38
321.046	95.38
321.275	89.38
321.504	98.38
321.733	99.38
321.962	90.38
322.191	87.38
322.42	91.38
322.649	110.38
322.878	102.38
323.108	103.38
323.337	125.38
323.566	136.38
323.795	154.38
324.024	187.38
324.253	364.38
324.482	727.38
324.71	1486.38
324.939	2016.38
325.168	736.38
325.397	222.38
325.626	147.38
325.855	122.38
326.084	121.38
326.313	134.38
326.542	147.38
326.77	232.38
326.999	397.38
327.228	802.38
327.457	1500.38
327.686	1195.38
327.914	396.38
328.143	323.38
328.372	386.38
328.6	238.38
328.829	140.38
329.058	140.38
329.287	157.38
329.515	124.38
329.744	162.38
329.972	274.38
330.201	528.38
330.43	740.38
330.658	351.38
330.887	194.38
331.115	129.38
331.344	104.38
331.572	114.38
331.801	101.38
332.03	106.38
332.258	96.38
332.486	116.38
332.715	102.38
332.943	105.38
333.172	96.38
333.4	114.38
333.629	128.38
333.857	148.38
334.085	251.38
334.314	495.38
334.542	921.38
334.771	903.38
334.999	278.38
335.227	138.38
335.455	103.38
335.684	102.38
335.912	103.38
336.14	103.38
336.369	98.38
336.597	109.38
336.825	119.38
337.053	87.38
337.281	99.38
337.51	77.38
337.738	101.38
337.966	93.38
338.194	95.38
338.422	106.38
338.65	96.38
338.878	98.38
339.106	88.38
339.334	97.38
339.562	96.38
339.79	87.38
340.018	67.38
340.246	86.38
340.474	88.38
340.702	93.38
340.93	90.38
341.158	94.38
341.386	85.38
341.614	106.38
341.842	96.38
342.07	82.38
342.298	94.38
342.526	105.38
342.754	87.38
342.981	91.38
343.209	88.38
343.437	100.38
343.665	99.38
343.893	82.38
344.12	88.38
344.348	93.38
344.576	89.38
344.804	106.38
345.031	110.38
345.259	101.38
345.487	98.38
345.714	97.38
345.942	90.38
346.17	72.38
346.397	80.38
346.625	99.38
346.853	83.38
347.08	88.38
347.308	71.38
347.535	86.38
347.763	99.38
347.99	101.38
348.218	103.38
348.445	91.38
348.673	92.38
348.9	107.38
349.128	91.38
349.355	91.38
349.583	91.38
349.81	85.38
350.037	98.38
350.265	102.38
350.492	86.38
350.72	99.38
350.947	91.38
351.174	101.38
351.402	96.38
351.629	98.38
351.856	100.38
352.083	90.38
352.311	110.38
352.538	111.38
352.765	106.38
352.992	110.38
353.22	112.38
353.447	96.38
353.674	101.38
353.901	94.38
354.128	101.38
354.355	100.38
354.583	85.38
354.81	90.38
355.037	96.38
355.264	106.38
355.491	84.38
355.718	85.38
355.945	98.38
356.172	82.38
356.399	93.38
356.626	74.38
356.853	85.38
357.08	88.38
357.307	101.38
357.534	95.38
357.761	91.38
357.988	86.38
358.215	92.38
358.441	106.38
358.668	92.38
358.895	76.38
359.122	90.38
359.349	102.38
359.576	91.38
359.802	103.38
360.029	111.38
360.256	114.38
360.483	109.38
360.709	80.38
360.936	89.38
361.163	86.38
361.39	103.38
361.616	99.38
361.843	83.38
362.07	89.38
362.296	92.38
362.523	100.38
362.749	85.38
362.976	93.38
363.203	100.38
363.429	71.38
363.656	94.38
363.882	90.38
364.109	100.38
364.335	96.38
364.562	91.38
364.788	101.38
365.015	95.38
365.241	92.38
365.468	108.38
365.694	105.38
365.92	107.38
366.147	84.38
366.373	83.38
366.599	95.38
366.826	71.38
367.052	80.38
367.278	98.38
367.505	83.38
367.731	88.38
367.957	86.38
368.184	92.38
368.41	101.38
368.636	98.38
368.862	102.38
369.089	92.38
369.315	78.38
369.541	94.38
369.767	88.38
369.993	92.38
370.219	88.38
370.445	80.38
370.672	85.38
370.898	99.38
371.124	87.38
371.35	76.38
371.576	94.38
371.802	79.38
372.028	93.38
372.254	96.38
372.48	90.38
372.706	85.38
372.932	77.38
373.158	80.38
373.384	80.38
373.61	93.38
373.835	99.38
374.061	86.38
374.287	90.38
374.513	85.38
374.739	91.38
374.965	85.38
375.191	71.38
375.416	99.38
375.642	74.38
375.868	88.38
376.094	83.38
376.319	85.38
376.545	97.38
376.771	88.38
376.997	95.38
377.222	92.38
377.448	78.38
377.674	90.38
377.899	75.38
378.125	88.38
378.35	96.38
378.576	85.38
378.802	101.38
379.027	97.38
379.253	108.38
379.478	94.38
379.704	85.38
379.929	92.38
380.155	90.38
380.38	79.38
380.606	101.38
380.831	101.38
381.057	103.38
381.282	90.38
381.507	84.38
381.733	97.38
381.958	119.38
382.184	96.38
382.409	104.38
382.634	108.38
382.86	103.38
383.085	87.38
383.31	87.38
383.535	104.38
383.761	107.38
383.986	99.38
384.211	97.38
384.436	97.38
384.662	113.38
384.887	98.38
385.112	82.38
385.337	103.38
385.562	101.38
385.787	108.38
386.013	107.38
386.238	127.38
386.463	116.38
386.688	116.38
386.913	99.38
387.138	87.38
387.363	103.38
387.588	89.38
387.813	88.38
388.038	95.38
388.263	115.38
388.488	114.38
388.713	96.38
388.938	90.38
389.163	103.38
389.387	94.38
389.612	92.38
389.837	91.38
390.062	95.38
390.287	102.38
390.512	89.38
390.736	84.38
390.961	75.38
391.186	82.38
391.411	88.38
391.636	88.38
391.86	95.38
392.085	90.38
392.31	95.38
392.534	88.38
392.759	94.38
392.984	100.38
393.208	97.38
393.433	99.38
393.658	95.38
393.882	87.38
394.107	90.38
394.331	89.38
394.556	83.38
394.78	96.38
395.005	95.38
395.229	80.38
395.454	74.38
395.678	77.38
395.903	82.38
396.127	88.38
396.352	82.38
396.576	77.38
396.801	87.38
397.025	86.38
397.249	80.38
397.474	98.38
397.698	93.38
397.922	86.38
398.147	89.38
398.371	98.38
398.595	75.38
398.82	72.38
399.044	72.38
399.268	92.38
399.492	71.38
399.717	91.38
399.941	86.38
400.165	90.38
400.389	96.38
400.613	84.38
400.837	69.38
401.062	81.38
401.286	69.38
401.51	83.38
401.734	81.38
401.958	92.38
402.182	127.38
402.406	162.38
402.63	119.38
402.854	78.38
403.078	100.38
403.302	85.38
403.526	92.38
403.75	93.38
403.974	82.38
404.198	78.38
404.422	75.38
404.645	85.38
404.869	88.38
405.093	106.38
405.317	128.38
405.541	123.38
405.765	106.38
405.988	117.38
406.212	144.38
406.436	219.38
406.66	159.38
406.883	107.38
407.107	100.38
407.331	95.38
407.555	98.38
407.778	107.38
408.002	94.38
408.226	79.38
408.449	95.38
408.673	75.38
408.896	92.38
409.12	106.38
409.344	78.38
409.567	80.38
409.791	86.38
410.014	92.38
410.238	108.38
410.461	71.38
410.685	87.38
410.908	91.38
411.132	100.38
411.355	108.38
411.578	68.38
411.802	82.38
412.025	106.38
412.249	100.38
412.472	107.38
412.695	97.38
412.919	90.38
413.142	101.38
413.365	102.38
413.589	82.38
413.812	97.38
414.035	90.38
414.258	81.38
414.482	87.38
414.705	92.38
414.928	110.38
415.151	84.38
415.374	96.38
415.597	87.38
415.821	97.38
416.044	91.38
416.267	95.38
416.49	84.38
416.713	98.38
416.936	92.38
417.159	104.38
417.382	87.38
417.605	98.38
417.828	106.38
418.051	102.38
418.274	83.38
418.497	85.38
418.72	92.38
418.943	76.38
419.166	96.38
419.389	96.38
419.611	79.38
419.834	72.38
420.057	86.38
420.28	90.38
420.503	77.38
420.726	86.38
420.948	89.38
421.171	98.38
421.394	91.38
421.617	90.38
421.839	83.38
422.062	92.38
422.285	107.38
422.507	94.38
422.73	104.38
422.953	94.38
423.175	91.38
423.398	86.38
423.621	94.38
423.843	91.38
424.066	78.38
424.288	81.38
424.511	90.38
424.733	108.38
424.956	112.38
425.178	116.38
425.401	103.38
425.623	107.38
425.846	105.38
426.068	91.38
426.291	95.38
426.513	99.38
426.735	101.38
426.958	94.38
427.18	98.38
427.402	141.38
427.625	196.38
427.847	166.38
428.069	173.38
428.292	111.38
428.514	72.38
428.736	87.38
428.958	87.38
429.181	91.38
429.403	87.38
429.625	83.38
429.847	78.38
430.069	119.38
430.292	89.38
430.514	83.38
430.736	90.38
430.958	82.38
431.18	82.38
431.402	91.38
431.624	87.38
431.846	90.38
432.068	94.38
432.29	98.38
432.512	87.38
432.734	91.38
432.956	101.38
433.178	95.38
433.4	84.38
433.622	99.38
433.844	100.38
434.066	92.38
434.287	99.38
434.509	73.38
434.731	90.38
434.953	76.38
435.175	95.38
435.397	87.38
435.618	99.38
435.84	105.38
436.062	125.38
436.284	115.38
436.505	115.38
436.727	96.38
436.949	78.38
437.17	72.38
437.392	83.38
437.614	97.38
437.835	105.38
438.057	118.38
438.278	119.38
438.5	101.38
438.721	100.38
438.943	97.38
439.165	102.38
439.386	102.38
439.608	87.38
439.829	97.38
440.05	126.38
440.272	156.38
440.493	101.38
440.715	87.38
440.936	96.38
441.158	93.38
441.379	76.38
441.6	103.38
441.822	103.38
442.043	98.38
442.264	104.38
442.486	119.38
442.707	79.38
442.928	101.38
443.149	153.38
443.371	132.38
443.592	119.38
443.813	110.38
444.034	108.38
444.255	70.38
444.476	86.38
444.698	90.38
444.919	86.38
445.14	132.38
445.361	126.38
445.582	117.38
445.803	134.38
446.024	136.38
446.245	140.38
446.466	103.38
446.687	98.38
446.908	74.38
447.129	76.38
447.35	93.38
447.571	101.38
447.792	88.38
448.013	78.38
448.234	107.38
448.455	107.38
448.675	119.38
448.896	126.38
449.117	93.38
449.338	99.38
449.559	133.38
449.779	125.38
450	92.38
450.221	80.38
450.442	103.38
450.662	103.38
450.883	102.38
451.104	113.38
451.324	80.38
451.545	104.38
451.766	86.38
451.986	101.38
452.207	86.38
452.428	94.38
452.648	106.38
452.869	111.38
453.089	119.38
453.31	107.38
453.53	101.38
453.751	87.38
453.971	87.38
454.192	114.38
454.412	90.38
454.633	81.38
454.853	94.38
455.073	82.38
455.294	95.38
455.514	96.38
455.734	92.38
455.955	89.38
456.175	79.38
456.395	80.38
456.616	87.38
456.836	79.38
457.056	90.38
457.276	78.38
457.497	103.38
457.717	72.38
457.937	95.38
458.157	92.38
458.377	82.38
458.598	98.38
458.818	156.38
459.038	172.38
459.258	132.38
459.478	92.38
459.698	94.38
459.918	86.38
460.138	86.38
460.358	83.38
460.578	90.38
460.798	79.38
461.018	87.38
461.238	85.38
461.458	99.38
461.678	85.38
461.898	92.38
462.118	86.38
462.338	91.38
462.558	85.38
462.777	85.38
462.997	94.38
463.217	100.38
463.437	98.38
463.657	95.38
463.876	82.38
464.096	84.38
464.316	103.38
464.536	94.38
464.755	88.38
464.975	107.38
465.195	172.38
465.414	171.38
465.634	98.38
465.854	98.38
466.073	90.38
466.293	92.38
466.512	96.38
466.732	89.38
466.951	77.38
467.171	98.38
467.391	104.38
467.61	118.38
467.829	150.38
468.049	309.38
468.268	431.38
468.488	139.38
468.707	102.38
468.927	82.38
469.146	91.38
469.365	83.38
469.585	83.38
469.804	80.38
470.023	93.38
470.243	101.38
470.462	94.38
470.681	120.38
470.901	97.38
471.12	79.38
471.339	98.38
471.558	109.38
471.777	108.38
471.997	186.38
472.216	559.38
472.435	1302.38
472.654	342.38
472.873	107.38
473.092	104.38
473.311	98.38
473.53	86.38
473.749	83.38
473.968	97.38
474.187	116.38
474.406	107.38
474.625	82.38
474.844	86.38
475.063	104.38
475.282	86.38
475.501	78.38
475.72	92.38
475.939	72.38
476.158	83.38
476.377	89.38
476.596	84.38
476.814	100.38
477.033	83.38
477.252	88.38
477.471	85.38
477.69	95.38
477.908	89.38
478.127	103.38
478.346	84.38
478.564	108.38
478.783	93.38
479.002	86.38
479.22	105.38
479.439	94.38
479.658	90.38
479.876	101.38
480.095	87.38
480.313	105.38
480.532	132.38
480.751	191.38
480.969	557.38
481.188	2192.38
481.406	1279.38
481.624	236.38
481.843	108.38
482.061	109.38
482.28	101.38
482.498	91.38
482.717	78.38
482.935	87.38
483.153	82.38
483.372	92.38
483.59	94.38
483.808	95.38
484.027	94.38
484.245	95.38
484.463	91.38
484.681	91.38
484.9	86.38
485.118	100.38
485.336	90.38
485.554	106.38
485.772	94.38
485.99	92.38
486.209	118.38
486.427	102.38
486.645	107.38
486.863	114.38
487.081	96.38
487.299	98.38
487.517	94.38
487.735	89.38
487.953	104.38
488.171	86.38
488.389	97.38
488.607	98.38
488.825	82.38
489.043	83.38
489.261	82.38
489.479	71.38
489.696	93.38
489.914	75.38
490.132	88.38
490.35	96.38
490.568	101.38
490.786	76.38
491.003	83.38
491.221	92.38
491.439	96.38
491.657	96.38
491.874	99.38
492.092	66.38
492.31	91.38
492.527	101.38
492.745	95.38
492.963	98.38
493.18	87.38
493.398	86.38
493.615	89.38
493.833	82.38
494.05	85.38
494.268	92.38
494.485	99.38
494.703	74.38
494.92	95.38
495.138	88.38
495.355	101.38
495.573	97.38
495.79	82.38
496.008	82.38
496.225	90.38
496.442	74.38
496.66	92.38
496.877	92.38
497.094	101.38
497.312	84.38
497.529	97.38
497.746	80.38
497.963	84.38
498.181	90.38
498.398	97.38
498.615	115.38
498.832	103.38
499.049	92.38
499.267	97.38
499.484	79.38
499.701	87.38
499.918	85.38
500.135	84.38
500.352	82.38
500.569	92.38
500.786	88.38
501.003	91.38
501.22	87.38
501.437	99.38
501.654	97.38
501.871	109.38
502.088	81.38
502.305	82.38
502.522	83.38
502.739	80.38
502.956	84.38
503.172	89.38
503.389	116.38
503.606	92.38
503.823	85.38
504.04	88.38
504.256	109.38
504.473	94.38
504.69	94.38
504.907	103.38
505.123	90.38
505.34	92.38
505.557	83.38
505.773	84.38
505.99	82.38
506.207	83.38
506.423	94.38
506.64	90.38
506.856	93.38
507.073	89.38
507.289	88.38
507.506	98.38
507.722	111.38
507.939	114.38
508.155	95.38
508.372	96.38
508.588	101.38
508.805	84.38
509.021	88.38
509.238	86.38
509.454	95.38
509.67	87.38
509.887	102.38
510.103	142.38
510.319	208.38
510.536	721.38
510.752	2328.38
510.968	630.38
511.184	148.38
511.401	118.38
511.617	106.38
511.833	91.38
512.049	77.38
512.265	83.38
512.481	86.38
512.698	79.38
512.914	87.38
513.13	91.38
513.346	103.38
513.562	84.38
513.778	85.38
513.994	106.38
514.21	112.38
514.426	111.38
514.642	141.38
514.858	137.38
515.074	166.38
