Data from Circ_1987_H10_HRD10591_00089.txt Node
Date: Wed Jan 03 12:10:50 EST 2024
User: Yrep
Spectrometer: HR+D1059
Trigger mode: 1
Integration Time (sec): 1.000000E-1
Scans to average: 1
Electric dark correction enabled: true
Nonlinearity correction enabled: false
Boxcar width: 0
XAxis mode: Wavelengths
Number of Pixels in Spectrum: 2048
>>>>>Begin Spectral Data<<<<<
223.165	2.06
223.4	2.06
223.635	2.06
223.869	-16.94
224.104	-27.94
224.338	-19.94
224.573	-20.94
224.808	-6.94
225.042	-9.94
225.277	-1.94
225.511	-3.94
225.746	12.06
225.98	8.06
226.215	5.06
226.449	15.06
226.683	13.06
226.918	22.06
227.152	31.06
227.387	41.06
227.621	45.06
227.856	48.06
228.09	46.06
228.324	48.06
228.559	52.06
228.793	47.06
229.027	74.06
229.262	58.06
229.496	84.06
229.73	103.06
229.964	103.06
230.199	74.06
230.433	75.06
230.667	66.06
230.901	81.06
231.136	85.06
231.37	80.06
231.604	71.06
231.838	88.06
232.072	89.06
232.306	85.06
232.541	97.06
232.775	80.06
233.009	77.06
233.243	64.06
233.477	83.06
233.711	72.06
233.945	85.06
234.179	81.06
234.413	74.06
234.647	81.06
234.881	84.06
235.115	80.06
235.349	91.06
235.583	99.06
235.817	74.06
236.051	80.06
236.285	77.06
236.519	77.06
236.753	79.06
236.987	77.06
237.221	102.06
237.455	103.06
237.689	97.06
237.922	82.06
238.156	79.06
238.39	71.06
238.624	74.06
238.858	86.06
239.091	78.06
239.325	87.06
239.559	79.06
239.793	96.06
240.027	90.06
240.26	78.06
240.494	93.06
240.728	64.06
240.961	87.06
241.195	82.06
241.429	79.06
241.662	84.06
241.896	70.06
242.13	77.06
242.363	76.06
242.597	84.06
242.83	73.06
243.064	72.06
243.298	82.06
243.531	74.06
243.765	91.06
243.998	82.06
244.232	102.06
244.465	81.06
244.699	85.06
244.932	91.06
245.166	89.06
245.399	82.06
245.633	81.06
245.866	64.06
246.099	79.06
246.333	87.06
246.566	83.06
246.8	88.06
247.033	81.06
247.266	81.06
247.5	77.06
247.733	90.06
247.966	84.06
248.2	82.06
248.433	85.06
248.666	81.06
248.899	73.06
249.133	70.06
249.366	97.06
249.599	95.06
249.832	72.06
250.066	87.06
250.299	97.06
250.532	95.06
250.765	77.06
250.998	90.06
251.231	83.06
251.465	89.06
251.698	84.06
251.931	81.06
252.164	88.06
252.397	85.06
252.63	79.06
252.863	89.06
253.096	96.06
253.329	85.06
253.562	89.06
253.795	81.06
254.028	106.06
254.261	77.06
254.494	81.06
254.727	84.06
254.96	94.06
255.193	95.06
255.426	101.06
255.659	107.06
255.892	93.06
256.124	95.06
256.357	91.06
256.59	93.06
256.823	79.06
257.056	100.06
257.289	95.06
257.521	80.06
257.754	93.06
257.987	86.06
258.22	92.06
258.452	103.06
258.685	80.06
258.918	90.06
259.151	79.06
259.383	80.06
259.616	77.06
259.849	87.06
260.081	86.06
260.314	74.06
260.547	74.06
260.779	86.06
261.012	113.06
261.244	116.06
261.477	94.06
261.71	95.06
261.942	141.06
262.175	147.06
262.407	105.06
262.64	89.06
262.872	89.06
263.105	76.06
263.337	89.06
263.57	82.06
263.802	88.06
264.035	81.06
264.267	81.06
264.499	83.06
264.732	88.06
264.964	84.06
265.197	81.06
265.429	74.06
265.661	97.06
265.894	94.06
266.126	81.06
266.358	81.06
266.591	93.06
266.823	81.06
267.055	83.06
267.287	99.06
267.52	86.06
267.752	95.06
267.984	97.06
268.216	96.06
268.448	97.06
268.681	90.06
268.913	85.06
269.145	93.06
269.377	96.06
269.609	80.06
269.841	84.06
270.073	89.06
270.306	88.06
270.538	80.06
270.77	107.06
271.002	92.06
271.234	81.06
271.466	93.06
271.698	96.06
271.93	106.06
272.162	90.06
272.394	99.06
272.626	77.06
272.858	72.06
273.09	85.06
273.322	82.06
273.553	65.06
273.785	87.06
274.017	98.06
274.249	98.06
274.481	93.06
274.713	91.06
274.945	98.06
275.176	94.06
275.408	103.06
275.64	115.06
275.872	128.06
276.104	120.06
276.335	102.06
276.567	100.06
276.799	162.06
277.031	180.06
277.262	224.06
277.494	160.06
277.726	114.06
277.957	97.06
278.189	102.06
278.421	74.06
278.652	99.06
278.884	79.06
279.115	75.06
279.347	102.06
279.579	111.06
279.81	153.06
280.042	225.06
280.273	319.06
280.505	194.06
280.736	111.06
280.968	104.06
281.199	90.06
281.431	88.06
281.662	93.06
281.894	104.06
282.125	107.06
282.356	147.06
282.588	185.06
282.819	142.06
283.051	99.06
283.282	85.06
283.513	94.06
283.745	91.06
283.976	95.06
284.207	88.06
284.439	82.06
284.67	88.06
284.901	80.06
285.132	95.06
285.364	85.06
285.595	87.06
285.826	83.06
286.057	88.06
286.288	80.06
286.52	102.06
286.751	100.06
286.982	90.06
287.213	96.06
287.444	95.06
287.675	95.06
287.906	90.06
288.138	90.06
288.369	97.06
288.6	94.06
288.831	87.06
289.062	88.06
289.293	83.06
289.524	75.06
289.755	102.06
289.986	91.06
290.217	98.06
290.448	81.06
290.679	79.06
290.91	77.06
291.141	91.06
291.371	72.06
291.602	88.06
291.833	97.06
292.064	100.06
292.295	88.06
292.526	92.06
292.757	82.06
292.987	87.06
293.218	83.06
293.449	85.06
293.68	87.06
293.91	89.06
294.141	96.06
294.372	90.06
294.603	91.06
294.833	94.06
295.064	80.06
295.295	85.06
295.525	94.06
295.756	112.06
295.987	137.06
296.217	185.06
296.448	156.06
296.679	100.06
296.909	102.06
297.14	96.06
297.37	89.06
297.601	90.06
297.831	99.06
298.062	100.06
298.292	86.06
298.523	85.06
298.753	90.06
298.984	96.06
299.214	81.06
299.445	96.06
299.675	98.06
299.905	106.06
300.136	93.06
300.366	93.06
300.597	105.06
300.827	100.06
301.057	106.06
301.288	117.06
301.518	88.06
301.748	114.06
301.979	123.06
302.209	114.06
302.439	93.06
302.669	97.06
302.9	89.06
303.13	98.06
303.36	121.06
303.59	145.06
303.82	155.06
304.051	122.06
304.281	91.06
304.511	98.06
304.741	81.06
304.971	96.06
305.201	93.06
305.431	90.06
305.661	104.06
305.891	104.06
306.121	96.06
306.352	111.06
306.582	138.06
306.812	111.06
307.042	126.06
307.272	165.06
307.502	203.06
307.731	181.06
307.961	127.06
308.191	104.06
308.421	97.06
308.651	95.06
308.881	113.06
309.111	95.06
309.341	87.06
309.571	103.06
309.8	107.06
310.03	103.06
310.26	108.06
310.49	107.06
310.72	110.06
310.949	130.06
311.179	105.06
311.409	95.06
311.639	103.06
311.868	109.06
312.098	101.06
312.328	105.06
312.557	111.06
312.787	146.06
313.017	115.06
313.246	104.06
313.476	106.06
313.706	90.06
313.935	94.06
314.165	114.06
314.394	136.06
314.624	104.06
314.853	104.06
315.083	86.06
315.312	95.06
315.542	86.06
315.771	87.06
316.001	102.06
316.23	90.06
316.46	96.06
316.689	99.06
316.919	95.06
317.148	93.06
317.377	111.06
317.607	106.06
317.836	103.06
318.065	111.06
318.295	101.06
318.524	109.06
318.753	106.06
318.983	95.06
319.212	89.06
319.441	127.06
319.67	125.06
319.9	104.06
320.129	98.06
320.358	99.06
320.587	91.06
320.816	99.06
321.046	110.06
321.275	97.06
321.504	100.06
321.733	95.06
321.962	119.06
322.191	119.06
322.42	98.06
322.649	128.06
322.878	133.06
323.108	125.06
323.337	151.06
323.566	164.06
323.795	181.06
324.024	264.06
324.253	509.06
324.482	1046.06
324.71	2178.06
324.939	2861.06
325.168	1057.06
325.397	315.06
325.626	182.06
325.855	151.06
326.084	149.06
326.313	142.06
326.542	191.06
326.77	271.06
326.999	565.06
327.228	1076.06
327.457	2007.06
327.686	1671.06
327.914	619.06
328.143	621.06
328.372	811.06
328.6	439.06
328.829	210.06
329.058	209.06
329.287	226.06
329.515	210.06
329.744	278.06
329.972	567.06
330.201	1235.06
330.43	1810.06
330.658	770.06
330.887	329.06
331.115	218.06
331.344	137.06
331.572	137.06
331.801	123.06
332.03	141.06
332.258	129.06
332.486	115.06
332.715	119.06
332.943	130.06
333.172	130.06
333.4	133.06
333.629	191.06
333.857	270.06
334.085	511.06
334.314	1101.06
334.542	2210.06
334.771	2051.06
334.999	522.06
335.227	188.06
335.455	142.06
335.684	130.06
335.912	122.06
336.14	100.06
336.369	120.06
336.597	126.06
336.825	106.06
337.053	101.06
337.281	122.06
337.51	79.06
337.738	109.06
337.966	118.06
338.194	119.06
338.422	122.06
338.65	85.06
338.878	102.06
339.106	95.06
339.334	114.06
339.562	102.06
339.79	97.06
340.018	96.06
340.246	99.06
340.474	99.06
340.702	107.06
340.93	105.06
341.158	94.06
341.386	106.06
341.614	101.06
341.842	96.06
342.07	101.06
342.298	94.06
342.526	95.06
342.754	82.06
342.981	95.06
343.209	87.06
343.437	106.06
343.665	98.06
343.893	97.06
344.12	95.06
344.348	97.06
344.576	88.06
344.804	110.06
345.031	98.06
345.259	107.06
345.487	111.06
345.714	109.06
345.942	108.06
346.17	88.06
346.397	100.06
346.625	101.06
346.853	100.06
347.08	96.06
347.308	83.06
347.535	110.06
347.763	115.06
347.99	109.06
348.218	116.06
348.445	127.06
348.673	119.06
348.9	116.06
349.128	103.06
349.355	90.06
349.583	102.06
349.81	95.06
350.037	90.06
350.265	89.06
350.492	90.06
350.72	92.06
350.947	109.06
351.174	120.06
351.402	126.06
351.629	106.06
351.856	107.06
352.083	113.06
352.311	113.06
352.538	149.06
352.765	121.06
352.992	128.06
353.22	122.06
353.447	106.06
353.674	113.06
353.901	104.06
354.128	111.06
354.355	91.06
354.583	89.06
354.81	102.06
355.037	98.06
355.264	105.06
355.491	79.06
355.718	98.06
355.945	105.06
356.172	82.06
356.399	102.06
356.626	91.06
356.853	91.06
357.08	86.06
357.307	83.06
357.534	97.06
357.761	90.06
357.988	100.06
358.215	86.06
358.441	100.06
358.668	106.06
358.895	92.06
359.122	84.06
359.349	98.06
359.576	107.06
359.802	109.06
360.029	167.06
360.256	146.06
360.483	133.06
360.709	105.06
360.936	105.06
361.163	91.06
361.39	114.06
361.616	107.06
361.843	101.06
362.07	119.06
362.296	111.06
362.523	86.06
362.749	100.06
362.976	103.06
363.203	85.06
363.429	85.06
363.656	94.06
363.882	98.06
364.109	97.06
364.335	98.06
364.562	106.06
364.788	107.06
365.015	107.06
365.241	109.06
365.468	121.06
365.694	115.06
365.92	103.06
366.147	97.06
366.373	86.06
366.599	89.06
366.826	96.06
367.052	99.06
367.278	100.06
367.505	88.06
367.731	97.06
367.957	98.06
368.184	109.06
368.41	124.06
368.636	136.06
368.862	141.06
369.089	130.06
369.315	118.06
369.541	93.06
369.767	93.06
369.993	96.06
370.219	89.06
370.445	87.06
370.672	96.06
370.898	94.06
371.124	106.06
371.35	102.06
371.576	93.06
371.802	96.06
372.028	85.06
372.254	86.06
372.48	83.06
372.706	102.06
372.932	89.06
373.158	95.06
373.384	101.06
373.61	71.06
373.835	89.06
374.061	95.06
374.287	106.06
374.513	99.06
374.739	85.06
374.965	82.06
375.191	92.06
375.416	97.06
375.642	76.06
375.868	76.06
376.094	78.06
376.319	99.06
376.545	93.06
376.771	95.06
376.997	85.06
377.222	90.06
377.448	101.06
377.674	73.06
377.899	85.06
378.125	83.06
378.35	103.06
378.576	87.06
378.802	95.06
379.027	96.06
379.253	98.06
379.478	84.06
379.704	90.06
379.929	96.06
380.155	113.06
380.38	115.06
380.606	107.06
380.831	115.06
381.057	98.06
381.282	101.06
381.507	99.06
381.733	86.06
381.958	96.06
382.184	93.06
382.409	101.06
382.634	105.06
382.86	104.06
383.085	89.06
383.31	103.06
383.535	104.06
383.761	85.06
383.986	91.06
384.211	85.06
384.436	92.06
384.662	109.06
384.887	100.06
385.112	99.06
385.337	100.06
385.562	108.06
385.787	102.06
386.013	110.06
386.238	112.06
386.463	119.06
386.688	119.06
386.913	103.06
387.138	122.06
387.363	110.06
387.588	98.06
387.813	106.06
388.038	102.06
388.263	101.06
388.488	91.06
388.713	94.06
388.938	97.06
389.163	112.06
389.387	87.06
389.612	90.06
389.837	82.06
390.062	96.06
390.287	89.06
390.512	96.06
390.736	97.06
390.961	91.06
391.186	92.06
391.411	79.06
391.636	91.06
391.86	90.06
392.085	97.06
392.31	91.06
392.534	77.06
392.759	82.06
392.984	92.06
393.208	81.06
393.433	84.06
393.658	111.06
393.882	84.06
394.107	81.06
394.331	89.06
394.556	100.06
394.78	102.06
395.005	98.06
395.229	97.06
395.454	89.06
395.678	88.06
395.903	89.06
396.127	97.06
396.352	97.06
396.576	88.06
396.801	88.06
397.025	94.06
397.249	78.06
397.474	96.06
397.698	90.06
397.922	91.06
398.147	99.06
398.371	84.06
398.595	85.06
398.82	82.06
399.044	84.06
399.268	81.06
399.492	93.06
399.717	78.06
399.941	92.06
400.165	92.06
400.389	98.06
400.613	89.06
400.837	83.06
401.062	93.06
401.286	85.06
401.51	89.06
401.734	103.06
401.958	104.06
402.182	153.06
402.406	209.06
402.63	166.06
402.854	116.06
403.078	90.06
403.302	87.06
403.526	85.06
403.75	88.06
403.974	79.06
404.198	80.06
404.422	80.06
404.645	109.06
404.869	107.06
405.093	123.06
405.317	149.06
405.541	153.06
405.765	127.06
405.988	150.06
406.212	244.06
406.436	345.06
406.66	208.06
406.883	131.06
407.107	111.06
407.331	106.06
407.555	111.06
407.778	125.06
408.002	106.06
408.226	90.06
408.449	94.06
408.673	87.06
408.896	97.06
409.12	100.06
409.344	93.06
409.567	68.06
409.791	87.06
410.014	92.06
410.238	95.06
410.461	91.06
410.685	89.06
410.908	110.06
411.132	114.06
411.355	100.06
411.578	98.06
411.802	79.06
412.025	104.06
412.249	122.06
412.472	115.06
412.695	158.06
412.919	121.06
413.142	86.06
413.365	97.06
413.589	79.06
413.812	94.06
414.035	93.06
414.258	101.06
414.482	99.06
414.705	104.06
414.928	75.06
415.151	106.06
415.374	98.06
415.597	95.06
415.821	93.06
416.044	107.06
416.267	96.06
416.49	79.06
416.713	98.06
416.936	107.06
417.159	94.06
417.382	108.06
417.605	130.06
417.828	128.06
418.051	95.06
418.274	105.06
418.497	93.06
418.72	89.06
418.943	92.06
419.166	106.06
419.389	94.06
419.611	100.06
419.834	101.06
420.057	91.06
420.28	102.06
420.503	82.06
420.726	94.06
420.948	93.06
421.171	101.06
421.394	97.06
421.617	80.06
421.839	74.06
422.062	89.06
422.285	102.06
422.507	94.06
422.73	107.06
422.953	100.06
423.175	84.06
423.398	91.06
423.621	90.06
423.843	92.06
424.066	98.06
424.288	93.06
424.511	97.06
424.733	96.06
424.956	127.06
425.178	98.06
425.401	114.06
425.623	110.06
425.846	92.06
426.068	104.06
426.291	99.06
426.513	108.06
426.735	97.06
426.958	103.06
427.18	130.06
427.402	195.06
427.625	291.06
427.847	294.06
428.069	234.06
428.292	143.06
428.514	99.06
428.736	77.06
428.958	91.06
429.181	87.06
429.403	84.06
429.625	89.06
429.847	117.06
430.069	106.06
430.292	98.06
430.514	85.06
430.736	89.06
430.958	86.06
431.18	83.06
431.402	73.06
431.624	82.06
431.846	89.06
432.068	97.06
432.29	89.06
432.512	80.06
432.734	96.06
432.956	101.06
433.178	100.06
433.4	104.06
433.622	96.06
433.844	100.06
434.066	87.06
434.287	107.06
434.509	77.06
434.731	89.06
434.953	88.06
435.175	87.06
435.397	89.06
435.618	100.06
435.84	126.06
436.062	152.06
436.284	135.06
436.505	116.06
436.727	109.06
436.949	96.06
437.17	85.06
437.392	107.06
437.614	102.06
437.835	135.06
438.057	165.06
438.278	134.06
438.5	128.06
438.721	135.06
438.943	113.06
439.165	94.06
439.386	89.06
439.608	96.06
439.829	113.06
440.05	170.06
440.272	201.06
440.493	122.06
440.715	94.06
440.936	96.06
441.158	99.06
441.379	104.06
441.6	105.06
441.822	99.06
442.043	109.06
442.264	120.06
442.486	130.06
442.707	110.06
442.928	126.06
443.149	194.06
443.371	200.06
443.592	153.06
443.813	154.06
444.034	125.06
444.255	94.06
444.476	90.06
444.698	88.06
444.919	96.06
445.14	145.06
445.361	134.06
445.582	132.06
445.803	204.06
446.024	202.06
446.245	182.06
446.466	129.06
446.687	102.06
446.908	91.06
447.129	97.06
447.35	101.06
447.571	110.06
447.792	109.06
448.013	114.06
448.234	122.06
448.455	122.06
448.675	119.06
448.896	147.06
449.117	114.06
449.338	107.06
449.559	143.06
449.779	160.06
450	114.06
450.221	95.06
450.442	96.06
450.662	107.06
450.883	141.06
451.104	150.06
451.324	109.06
451.545	97.06
451.766	89.06
451.986	86.06
452.207	79.06
452.428	88.06
452.648	118.06
452.869	129.06
453.089	145.06
453.31	164.06
453.53	122.06
453.751	112.06
453.971	114.06
454.192	143.06
454.412	117.06
454.633	99.06
454.853	88.06
455.073	93.06
455.294	105.06
455.514	113.06
455.734	98.06
455.955	89.06
456.175	80.06
456.395	88.06
456.616	82.06
456.836	91.06
457.056	93.06
457.276	93.06
457.497	80.06
457.717	88.06
457.937	76.06
458.157	94.06
458.377	91.06
458.598	133.06
458.818	223.06
459.038	258.06
459.258	177.06
459.478	112.06
459.698	96.06
459.918	90.06
460.138	80.06
460.358	86.06
460.578	98.06
460.798	98.06
461.018	105.06
461.238	79.06
461.458	93.06
461.678	89.06
461.898	80.06
462.118	94.06
462.338	85.06
462.558	93.06
462.777	90.06
462.997	106.06
463.217	132.06
463.437	110.06
463.657	90.06
463.876	86.06
464.096	94.06
464.316	114.06
464.536	94.06
464.755	111.06
464.975	143.06
465.195	261.06
465.414	254.06
465.634	110.06
465.854	102.06
466.073	87.06
466.293	90.06
466.512	91.06
466.732	93.06
466.951	100.06
467.171	102.06
467.391	122.06
467.61	152.06
467.829	234.06
468.049	671.06
468.268	1001.06
468.488	264.06
468.707	105.06
468.927	102.06
469.146	106.06
469.365	106.06
469.585	99.06
469.804	118.06
470.023	119.06
470.243	118.06
470.462	132.06
470.681	165.06
470.901	101.06
471.12	101.06
471.339	123.06
471.558	125.06
471.777	169.06
471.997	342.06
472.216	1309.06
472.435	3077.06
472.654	693.06
472.873	181.06
473.092	120.06
473.311	111.06
473.53	98.06
473.749	99.06
473.968	114.06
474.187	148.06
474.406	121.06
474.625	96.06
474.844	83.06
475.063	86.06
475.282	98.06
475.501	83.06
475.72	102.06
475.939	91.06
476.158	83.06
476.377	109.06
476.596	95.06
476.814	109.06
477.033	112.06
477.252	103.06
477.471	103.06
477.69	99.06
477.908	91.06
478.127	107.06
478.346	95.06
478.564	110.06
478.783	111.06
479.002	115.06
479.22	118.06
479.439	141.06
479.658	133.06
479.876	130.06
480.095	123.06
480.313	153.06
480.532	170.06
480.751	314.06
480.969	1181.06
481.188	5285.06
481.406	2977.06
481.624	400.06
481.843	148.06
482.061	109.06
482.28	121.06
482.498	108.06
482.717	107.06
482.935	83.06
483.153	88.06
483.372	77.06
483.59	95.06
483.808	103.06
484.027	109.06
484.245	88.06
484.463	95.06
484.681	107.06
484.9	107.06
485.118	106.06
485.336	101.06
485.554	103.06
485.772	103.06
485.99	88.06
486.209	124.06
486.427	125.06
486.645	115.06
486.863	131.06
487.081	111.06
487.299	96.06
487.517	117.06
487.735	105.06
487.953	103.06
488.171	90.06
488.389	112.06
488.607	114.06
488.825	101.06
489.043	85.06
489.261	101.06
489.479	81.06
489.696	102.06
489.914	89.06
490.132	92.06
490.35	89.06
490.568	90.06
490.786	94.06
491.003	97.06
491.221	92.06
491.439	120.06
491.657	101.06
491.874	90.06
492.092	87.06
492.31	99.06
492.527	109.06
492.745	106.06
492.963	107.06
493.18	90.06
493.398	95.06
493.615	91.06
493.833	91.06
494.05	103.06
494.268	89.06
494.485	98.06
494.703	61.06
494.92	82.06
495.138	89.06
495.355	79.06
495.573	91.06
495.79	105.06
496.008	87.06
496.225	102.06
496.442	88.06
496.66	90.06
496.877	89.06
497.094	105.06
497.312	99.06
497.529	101.06
497.746	102.06
497.963	98.06
498.181	95.06
498.398	110.06
498.615	110.06
498.832	113.06
499.049	120.06
499.267	89.06
499.484	98.06
499.701	102.06
499.918	105.06
500.135	89.06
500.352	101.06
500.569	110.06
500.786	93.06
501.003	92.06
501.22	96.06
501.437	118.06
501.654	123.06
501.871	141.06
502.088	92.06
502.305	98.06
502.522	78.06
502.739	102.06
502.956	97.06
503.172	92.06
503.389	115.06
503.606	132.06
503.823	110.06
504.04	99.06
504.256	91.06
504.473	90.06
504.69	89.06
504.907	94.06
505.123	85.06
505.34	77.06
505.557	89.06
505.773	101.06
505.99	97.06
506.207	91.06
506.423	88.06
506.64	102.06
506.856	93.06
507.073	95.06
507.289	91.06
507.506	102.06
507.722	132.06
507.939	137.06
508.155	105.06
508.372	102.06
508.588	90.06
508.805	96.06
509.021	100.06
509.238	110.06
509.454	113.06
509.67	106.06
509.887	111.06
510.103	149.06
510.319	247.06
510.536	1028.06
510.752	3583.06
510.968	941.06
511.184	191.06
511.401	153.06
511.617	111.06
511.833	120.06
