Data from Circ_1987_H10_HRD10591_00033.txt Node
Date: Wed Jan 03 12:10:39 EST 2024
User: Yrep
Spectrometer: HR+D1059
Trigger mode: 1
Integration Time (sec): 1.000000E-1
Scans to average: 1
Electric dark correction enabled: true
Nonlinearity correction enabled: false
Boxcar width: 0
XAxis mode: Wavelengths
Number of Pixels in Spectrum: 2048
>>>>>Begin Spectral Data<<<<<
223.165	-13.75
223.4	-13.75
223.635	-13.75
223.869	-27.75
224.104	-30.75
224.338	-13.75
224.573	-7.75
224.808	-1.75
225.042	-14.75
225.277	-5.75
225.511	1.25
225.746	-4.75
225.98	16.25
226.215	15.25
226.449	16.25
226.683	23.25
226.918	14.25
227.152	34.25
227.387	30.25
227.621	37.25
227.856	55.25
228.09	41.25
228.324	58.25
228.559	54.25
228.793	52.25
229.027	56.25
229.262	62.25
229.496	73.25
229.73	109.25
229.964	99.25
230.199	84.25
230.433	73.25
230.667	82.25
230.901	89.25
231.136	83.25
231.37	85.25
231.604	76.25
231.838	78.25
232.072	82.25
232.306	78.25
232.541	80.25
232.775	88.25
233.009	77.25
233.243	84.25
233.477	96.25
233.711	91.25
233.945	87.25
234.179	80.25
234.413	90.25
234.647	89.25
234.881	81.25
235.115	78.25
235.349	76.25
235.583	73.25
235.817	75.25
236.051	62.25
236.285	71.25
236.519	73.25
236.753	80.25
236.987	89.25
237.221	95.25
237.455	93.25
237.689	92.25
237.922	81.25
238.156	62.25
238.39	72.25
238.624	84.25
238.858	95.25
239.091	75.25
239.325	75.25
239.559	65.25
239.793	79.25
240.027	83.25
240.26	83.25
240.494	78.25
240.728	74.25
240.961	82.25
241.195	90.25
241.429	73.25
241.662	70.25
241.896	93.25
242.13	77.25
242.363	73.25
242.597	70.25
242.83	74.25
243.064	66.25
243.298	72.25
243.531	77.25
243.765	71.25
243.998	85.25
244.232	71.25
244.465	99.25
244.699	71.25
244.932	78.25
245.166	95.25
245.399	86.25
245.633	74.25
245.866	84.25
246.099	89.25
246.333	67.25
246.566	72.25
246.8	74.25
247.033	81.25
247.266	79.25
247.5	73.25
247.733	74.25
247.966	91.25
248.2	75.25
248.433	85.25
248.666	81.25
248.899	89.25
249.133	91.25
249.366	110.25
249.599	102.25
249.832	90.25
250.066	82.25
250.299	80.25
250.532	83.25
250.765	96.25
250.998	86.25
251.231	79.25
251.465	86.25
251.698	80.25
251.931	71.25
252.164	79.25
252.397	81.25
252.63	87.25
252.863	74.25
253.096	79.25
253.329	85.25
253.562	89.25
253.795	78.25
254.028	83.25
254.261	96.25
254.494	88.25
254.727	71.25
254.96	87.25
255.193	81.25
255.426	64.25
255.659	87.25
255.892	85.25
256.124	97.25
256.357	82.25
256.59	81.25
256.823	84.25
257.056	82.25
257.289	95.25
257.521	101.25
257.754	87.25
257.987	79.25
258.22	87.25
258.452	97.25
258.685	96.25
258.918	95.25
259.151	86.25
259.383	79.25
259.616	71.25
259.849	89.25
260.081	86.25
260.314	90.25
260.547	85.25
260.779	91.25
261.012	89.25
261.244	85.25
261.477	113.25
261.71	118.25
261.942	138.25
262.175	139.25
262.407	103.25
262.64	93.25
262.872	96.25
263.105	78.25
263.337	79.25
263.57	75.25
263.802	96.25
264.035	73.25
264.267	84.25
264.499	100.25
264.732	89.25
264.964	91.25
265.197	88.25
265.429	88.25
265.661	91.25
265.894	94.25
266.126	83.25
266.358	87.25
266.591	80.25
266.823	89.25
267.055	89.25
267.287	83.25
267.52	82.25
267.752	89.25
267.984	93.25
268.216	84.25
268.448	93.25
268.681	103.25
268.913	83.25
269.145	82.25
269.377	80.25
269.609	90.25
269.841	89.25
270.073	86.25
270.306	89.25
270.538	77.25
270.77	86.25
271.002	96.25
271.234	95.25
271.466	87.25
271.698	84.25
271.93	92.25
272.162	83.25
272.394	89.25
272.626	82.25
272.858	96.25
273.09	96.25
273.322	80.25
273.553	94.25
273.785	84.25
274.017	83.25
274.249	88.25
274.481	99.25
274.713	88.25
274.945	102.25
275.176	95.25
275.408	100.25
275.64	102.25
275.872	122.25
276.104	105.25
276.335	94.25
276.567	113.25
276.799	135.25
277.031	148.25
277.262	174.25
277.494	141.25
277.726	97.25
277.957	98.25
278.189	95.25
278.421	94.25
278.652	95.25
278.884	76.25
279.115	84.25
279.347	84.25
279.579	104.25
279.81	126.25
280.042	166.25
280.273	220.25
280.505	164.25
280.736	101.25
280.968	93.25
281.199	91.25
281.431	107.25
281.662	104.25
281.894	95.25
282.125	112.25
282.356	134.25
282.588	178.25
282.819	133.25
283.051	99.25
283.282	86.25
283.513	95.25
283.745	69.25
283.976	85.25
284.207	91.25
284.439	88.25
284.67	80.25
284.901	79.25
285.132	88.25
285.364	91.25
285.595	88.25
285.826	83.25
286.057	84.25
286.288	88.25
286.52	93.25
286.751	88.25
286.982	91.25
287.213	85.25
287.444	62.25
287.675	88.25
287.906	86.25
288.138	105.25
288.369	95.25
288.6	93.25
288.831	90.25
289.062	98.25
289.293	109.25
289.524	88.25
289.755	85.25
289.986	90.25
290.217	91.25
290.448	87.25
290.679	82.25
290.91	84.25
291.141	84.25
291.371	85.25
291.602	86.25
291.833	90.25
292.064	91.25
292.295	85.25
292.526	81.25
292.757	96.25
292.987	85.25
293.218	89.25
293.449	84.25
293.68	87.25
293.91	87.25
294.141	89.25
294.372	94.25
294.603	86.25
294.833	90.25
295.064	97.25
295.295	107.25
295.525	91.25
295.756	84.25
295.987	124.25
296.217	157.25
296.448	148.25
296.679	102.25
296.909	98.25
297.14	102.25
297.37	93.25
297.601	78.25
297.831	93.25
298.062	97.25
298.292	90.25
298.523	99.25
298.753	96.25
298.984	96.25
299.214	100.25
299.445	88.25
299.675	97.25
299.905	95.25
300.136	86.25
300.366	74.25
300.597	83.25
300.827	105.25
301.057	109.25
301.288	115.25
301.518	97.25
301.748	85.25
301.979	113.25
302.209	114.25
302.439	93.25
302.669	83.25
302.9	91.25
303.13	112.25
303.36	105.25
303.59	133.25
303.82	126.25
304.051	114.25
304.281	102.25
304.511	92.25
304.741	97.25
304.971	80.25
305.201	92.25
305.431	86.25
305.661	106.25
305.891	100.25
306.121	96.25
306.352	107.25
306.582	116.25
306.812	106.25
307.042	110.25
307.272	154.25
307.502	171.25
307.731	154.25
307.961	126.25
308.191	102.25
308.421	95.25
308.651	93.25
308.881	87.25
309.111	96.25
309.341	102.25
309.571	101.25
309.8	106.25
310.03	102.25
310.26	113.25
310.49	100.25
310.72	110.25
310.949	128.25
311.179	114.25
311.409	111.25
311.639	95.25
311.868	89.25
312.098	98.25
312.328	90.25
312.557	111.25
312.787	127.25
313.017	114.25
313.246	108.25
313.476	84.25
313.706	93.25
313.935	100.25
314.165	106.25
314.394	120.25
314.624	104.25
314.853	113.25
315.083	109.25
315.312	95.25
315.542	94.25
315.771	102.25
316.001	94.25
316.23	104.25
316.46	96.25
316.689	102.25
316.919	90.25
317.148	104.25
317.377	95.25
317.607	100.25
317.836	102.25
318.065	84.25
318.295	104.25
318.524	95.25
318.753	95.25
318.983	89.25
319.212	101.25
319.441	118.25
319.67	105.25
319.9	115.25
320.129	106.25
320.358	103.25
320.587	106.25
320.816	94.25
321.046	112.25
321.275	104.25
321.504	102.25
321.733	107.25
321.962	97.25
322.191	111.25
322.42	111.25
322.649	125.25
322.878	119.25
323.108	122.25
323.337	157.25
323.566	157.25
323.795	178.25
324.024	243.25
324.253	457.25
324.482	964.25
324.71	1976.25
324.939	2605.25
325.168	957.25
325.397	287.25
325.626	178.25
325.855	154.25
326.084	150.25
326.313	141.25
326.542	177.25
326.77	247.25
326.999	503.25
327.228	991.25
327.457	1875.25
327.686	1531.25
327.914	504.25
328.143	456.25
328.372	579.25
328.6	322.25
328.829	185.25
329.058	193.25
329.287	198.25
329.515	172.25
329.744	220.25
329.972	410.25
330.201	797.25
330.43	1199.25
330.658	553.25
330.887	258.25
331.115	190.25
331.344	125.25
331.572	118.25
331.801	127.25
332.03	110.25
332.258	127.25
332.486	100.25
332.715	117.25
332.943	109.25
333.172	126.25
333.4	123.25
333.629	149.25
333.857	209.25
334.085	364.25
334.314	740.25
334.542	1418.25
334.771	1385.25
334.999	381.25
335.227	168.25
335.455	126.25
335.684	100.25
335.912	102.25
336.14	110.25
336.369	95.25
336.597	105.25
336.825	114.25
337.053	98.25
337.281	105.25
337.51	97.25
337.738	97.25
337.966	96.25
338.194	110.25
338.422	96.25
338.65	88.25
338.878	107.25
339.106	106.25
339.334	102.25
339.562	96.25
339.79	90.25
340.018	98.25
340.246	97.25
340.474	95.25
340.702	98.25
340.93	85.25
341.158	98.25
341.386	106.25
341.614	112.25
341.842	118.25
342.07	88.25
342.298	105.25
342.526	97.25
342.754	85.25
342.981	84.25
343.209	93.25
343.437	107.25
343.665	98.25
343.893	86.25
344.12	108.25
344.348	107.25
344.576	91.25
344.804	104.25
345.031	94.25
345.259	116.25
345.487	120.25
345.714	101.25
345.942	108.25
346.17	78.25
346.397	92.25
346.625	96.25
346.853	89.25
347.08	103.25
347.308	93.25
347.535	104.25
347.763	109.25
347.99	107.25
348.218	106.25
348.445	126.25
348.673	108.25
348.9	97.25
349.128	107.25
349.355	102.25
349.583	81.25
349.81	98.25
350.037	117.25
350.265	94.25
350.492	94.25
350.72	105.25
350.947	101.25
351.174	115.25
351.402	115.25
351.629	111.25
351.856	97.25
352.083	112.25
352.311	126.25
352.538	143.25
352.765	121.25
352.992	119.25
353.22	114.25
353.447	89.25
353.674	113.25
353.901	98.25
354.128	95.25
354.355	94.25
354.583	96.25
354.81	97.25
355.037	100.25
355.264	95.25
355.491	96.25
355.718	99.25
355.945	90.25
356.172	97.25
356.399	92.25
356.626	104.25
356.853	97.25
357.08	97.25
357.307	100.25
357.534	96.25
357.761	93.25
357.988	88.25
358.215	97.25
358.441	88.25
358.668	105.25
358.895	105.25
359.122	94.25
359.349	95.25
359.576	105.25
359.802	121.25
360.029	133.25
360.256	130.25
360.483	115.25
360.709	80.25
360.936	83.25
361.163	96.25
361.39	107.25
361.616	106.25
361.843	109.25
362.07	106.25
362.296	104.25
362.523	105.25
362.749	100.25
362.976	103.25
363.203	99.25
363.429	90.25
363.656	91.25
363.882	82.25
364.109	97.25
364.335	105.25
364.562	87.25
364.788	94.25
365.015	103.25
365.241	103.25
365.468	123.25
365.694	99.25
365.92	114.25
366.147	107.25
366.373	99.25
366.599	100.25
366.826	83.25
367.052	101.25
367.278	94.25
367.505	89.25
367.731	93.25
367.957	90.25
368.184	97.25
368.41	97.25
368.636	121.25
368.862	127.25
369.089	132.25
369.315	112.25
369.541	111.25
369.767	89.25
369.993	97.25
370.219	93.25
370.445	109.25
370.672	78.25
370.898	89.25
371.124	83.25
371.35	94.25
371.576	94.25
371.802	93.25
372.028	83.25
372.254	84.25
372.48	88.25
372.706	97.25
372.932	84.25
373.158	99.25
373.384	88.25
373.61	96.25
373.835	86.25
374.061	98.25
374.287	80.25
374.513	89.25
374.739	97.25
374.965	80.25
375.191	96.25
375.416	85.25
375.642	77.25
375.868	94.25
376.094	75.25
376.319	86.25
376.545	90.25
376.771	101.25
376.997	87.25
377.222	95.25
377.448	90.25
377.674	101.25
377.899	103.25
378.125	91.25
378.35	90.25
378.576	94.25
378.802	91.25
379.027	83.25
379.253	100.25
379.478	97.25
379.704	87.25
379.929	101.25
380.155	97.25
380.38	93.25
380.606	90.25
380.831	103.25
381.057	100.25
381.282	85.25
381.507	98.25
381.733	96.25
381.958	96.25
382.184	92.25
382.409	102.25
382.634	113.25
382.86	106.25
383.085	95.25
383.31	116.25
383.535	101.25
383.761	94.25
383.986	97.25
384.211	100.25
384.436	96.25
384.662	112.25
384.887	101.25
385.112	103.25
385.337	105.25
385.562	113.25
385.787	91.25
386.013	106.25
386.238	127.25
386.463	121.25
386.688	116.25
386.913	108.25
387.138	109.25
387.363	97.25
387.588	86.25
387.813	95.25
388.038	109.25
388.263	97.25
388.488	105.25
388.713	86.25
388.938	90.25
389.163	110.25
389.387	106.25
389.612	96.25
389.837	83.25
390.062	91.25
390.287	93.25
390.512	85.25
390.736	83.25
390.961	97.25
391.186	91.25
391.411	89.25
391.636	90.25
391.86	105.25
392.085	88.25
392.31	94.25
392.534	82.25
392.759	83.25
392.984	108.25
393.208	98.25
393.433	94.25
393.658	91.25
393.882	88.25
394.107	106.25
394.331	91.25
394.556	105.25
394.78	87.25
395.005	101.25
395.229	91.25
395.454	88.25
395.678	98.25
395.903	98.25
396.127	97.25
396.352	94.25
396.576	90.25
396.801	87.25
397.025	94.25
397.249	94.25
397.474	83.25
397.698	91.25
397.922	92.25
398.147	96.25
398.371	75.25
398.595	89.25
398.82	102.25
399.044	92.25
399.268	79.25
399.492	80.25
399.717	106.25
399.941	99.25
400.165	112.25
400.389	96.25
400.613	77.25
400.837	97.25
401.062	97.25
401.286	94.25
401.51	107.25
401.734	88.25
401.958	110.25
402.182	141.25
402.406	210.25
402.63	144.25
402.854	100.25
403.078	95.25
403.302	81.25
403.526	89.25
403.75	99.25
403.974	95.25
404.198	83.25
404.422	103.25
404.645	97.25
404.869	94.25
405.093	108.25
405.317	127.25
405.541	138.25
405.765	128.25
405.988	131.25
406.212	218.25
406.436	311.25
406.66	193.25
406.883	124.25
407.107	109.25
407.331	109.25
407.555	106.25
407.778	112.25
408.002	86.25
408.226	90.25
408.449	97.25
408.673	97.25
408.896	91.25
409.12	100.25
409.344	90.25
409.567	100.25
409.791	110.25
410.014	99.25
410.238	102.25
410.461	102.25
410.685	89.25
410.908	102.25
411.132	97.25
411.355	103.25
411.578	102.25
411.802	90.25
412.025	96.25
412.249	106.25
412.472	117.25
412.695	123.25
412.919	109.25
413.142	97.25
413.365	102.25
413.589	82.25
413.812	97.25
414.035	90.25
414.258	92.25
414.482	92.25
414.705	97.25
414.928	83.25
415.151	97.25
415.374	102.25
415.597	88.25
415.821	94.25
416.044	86.25
416.267	98.25
416.49	98.25
416.713	87.25
416.936	90.25
417.159	95.25
417.382	101.25
417.605	102.25
417.828	115.25
418.051	80.25
418.274	88.25
418.497	90.25
418.72	85.25
418.943	84.25
419.166	81.25
419.389	103.25
419.611	89.25
419.834	81.25
420.057	88.25
420.28	96.25
420.503	97.25
420.726	90.25
420.948	99.25
421.171	97.25
421.394	92.25
421.617	90.25
421.839	89.25
422.062	95.25
422.285	101.25
422.507	96.25
422.73	110.25
422.953	95.25
423.175	99.25
423.398	93.25
423.621	94.25
423.843	87.25
424.066	98.25
424.288	101.25
424.511	92.25
424.733	105.25
424.956	119.25
425.178	102.25
425.401	109.25
425.623	120.25
425.846	101.25
426.068	103.25
426.291	89.25
426.513	91.25
426.735	92.25
426.958	103.25
427.18	123.25
427.402	183.25
427.625	242.25
427.847	218.25
428.069	208.25
428.292	106.25
428.514	94.25
428.736	87.25
428.958	79.25
429.181	70.25
429.403	91.25
429.625	87.25
429.847	91.25
430.069	111.25
430.292	113.25
430.514	89.25
430.736	78.25
430.958	81.25
431.18	77.25
431.402	70.25
431.624	77.25
431.846	93.25
432.068	106.25
432.29	91.25
432.512	86.25
432.734	93.25
432.956	88.25
433.178	112.25
433.4	108.25
433.622	100.25
433.844	97.25
434.066	94.25
434.287	98.25
434.509	92.25
434.731	103.25
434.953	86.25
435.175	90.25
435.397	100.25
435.618	89.25
435.84	120.25
436.062	145.25
436.284	132.25
436.505	117.25
436.727	96.25
436.949	92.25
437.17	90.25
437.392	83.25
437.614	102.25
437.835	120.25
438.057	153.25
438.278	131.25
438.5	117.25
438.721	132.25
438.943	104.25
439.165	101.25
439.386	72.25
439.608	92.25
439.829	120.25
440.05	132.25
440.272	193.25
440.493	108.25
440.715	84.25
440.936	93.25
441.158	86.25
441.379	89.25
441.6	101.25
441.822	100.25
442.043	106.25
442.264	130.25
442.486	115.25
442.707	93.25
442.928	119.25
443.149	174.25
443.371	158.25
443.592	136.25
443.813	143.25
444.034	125.25
444.255	84.25
444.476	103.25
444.698	92.25
444.919	83.25
445.14	146.25
445.361	129.25
445.582	138.25
445.803	175.25
446.024	178.25
446.245	166.25
446.466	127.25
446.687	89.25
446.908	77.25
447.129	90.25
447.35	98.25
447.571	93.25
447.792	95.25
448.013	96.25
448.234	117.25
448.455	119.25
448.675	147.25
448.896	152.25
449.117	115.25
449.338	123.25
449.559	146.25
449.779	135.25
450	85.25
450.221	107.25
450.442	89.25
450.662	97.25
450.883	115.25
451.104	137.25
451.324	95.25
451.545	94.25
451.766	104.25
451.986	106.25
452.207	106.25
452.428	93.25
452.648	102.25
452.869	132.25
453.089	141.25
453.31	163.25
453.53	98.25
453.751	91.25
453.971	113.25
454.192	119.25
454.412	83.25
454.633	84.25
454.853	97.25
455.073	93.25
455.294	104.25
455.514	105.25
455.734	99.25
455.955	82.25
456.175	89.25
456.395	94.25
456.616	84.25
456.836	72.25
457.056	105.25
457.276	100.25
457.497	93.25
457.717	93.25
457.937	92.25
458.157	86.25
458.377	100.25
458.598	129.25
458.818	209.25
459.038	233.25
459.258	148.25
459.478	103.25
459.698	105.25
459.918	82.25
460.138	78.25
460.358	98.25
460.578	107.25
460.798	94.25
461.018	90.25
461.238	82.25
461.458	98.25
461.678	78.25
461.898	77.25
462.118	94.25
462.338	86.25
462.558	81.25
462.777	97.25
462.997	98.25
463.217	100.25
463.437	77.25
463.657	78.25
463.876	92.25
464.096	88.25
464.316	93.25
464.536	102.25
464.755	102.25
464.975	111.25
465.195	245.25
465.414	232.25
465.634	106.25
465.854	92.25
466.073	97.25
466.293	90.25
466.512	81.25
466.732	85.25
466.951	86.25
467.171	104.25
467.391	113.25
467.61	159.25
467.829	198.25
468.049	429.25
468.268	656.25
468.488	192.25
468.707	110.25
468.927	95.25
469.146	97.25
469.365	87.25
469.585	106.25
469.804	104.25
470.023	106.25
470.243	102.25
470.462	118.25
470.681	131.25
470.901	105.25
471.12	105.25
471.339	113.25
471.558	111.25
471.777	150.25
471.997	241.25
472.216	834.25
472.435	1983.25
472.654	486.25
472.873	141.25
473.092	109.25
473.311	100.25
473.53	94.25
473.749	81.25
473.968	96.25
474.187	120.25
474.406	111.25
474.625	83.25
474.844	72.25
475.063	84.25
475.282	96.25
475.501	98.25
475.72	83.25
475.939	79.25
476.158	103.25
476.377	83.25
476.596	94.25
476.814	91.25
477.033	97.25
477.252	96.25
477.471	90.25
477.69	92.25
477.908	89.25
478.127	87.25
478.346	115.25
478.564	98.25
478.783	95.25
479.002	108.25
479.22	106.25
479.439	132.25
479.658	141.25
479.876	115.25
480.095	120.25
480.313	121.25
480.532	149.25
480.751	245.25
480.969	798.25
481.188	3357.25
481.406	1949.25
481.624	304.25
481.843	122.25
482.061	119.25
482.28	97.25
482.498	108.25
482.717	97.25
482.935	93.25
483.153	91.25
483.372	91.25
483.59	95.25
483.808	105.25
484.027	103.25
484.245	87.25
484.463	87.25
484.681	102.25
484.9	87.25
485.118	103.25
485.336	71.25
485.554	105.25
485.772	97.25
485.99	98.25
486.209	113.25
486.427	112.25
486.645	121.25
486.863	119.25
487.081	98.25
487.299	109.25
487.517	108.25
487.735	96.25
487.953	101.25
488.171	87.25
488.389	98.25
488.607	99.25
488.825	110.25
489.043	99.25
489.261	82.25
489.479	85.25
489.696	94.25
489.914	93.25
490.132	93.25
490.35	97.25
490.568	89.25
490.786	97.25
491.003	89.25
491.221	92.25
491.439	105.25
491.657	106.25
491.874	105.25
492.092	99.25
492.31	95.25
492.527	91.25
492.745	95.25
492.963	95.25
493.18	105.25
493.398	84.25
493.615	102.25
493.833	105.25
494.05	99.25
494.268	90.25
494.485	91.25
494.703	85.25
494.92	88.25
495.138	94.25
495.355	81.25
495.573	97.25
495.79	90.25
496.008	91.25
496.225	101.25
496.442	82.25
496.66	95.25
496.877	87.25
497.094	95.25
497.312	92.25
497.529	105.25
497.746	95.25
497.963	90.25
498.181	93.25
498.398	110.25
498.615	111.25
498.832	110.25
499.049	89.25
499.267	88.25
499.484	83.25
499.701	97.25
499.918	90.25
500.135	107.25
500.352	93.25
500.569	106.25
500.786	95.25
501.003	91.25
501.22	90.25
501.437	99.25
501.654	102.25
501.871	121.25
502.088	106.25
502.305	89.25
502.522	104.25
502.739	85.25
502.956	93.25
503.172	95.25
503.389	102.25
503.606	130.25
503.823	109.25
504.04	95.25
504.256	95.25
504.473	103.25
504.69	93.25
504.907	83.25
505.123	100.25
505.34	83.25
505.557	88.25
505.773	95.25
505.99	99.25
506.207	89.25
506.423	77.25
506.64	98.25
506.856	89.25
507.073	102.25
507.289	103.25
507.506	97.25
507.722	134.25
507.939	127.25
508.155	98.25
508.372	104.25
508.588	110.25
508.805	105.25
509.021	102.25
509.238	101.25
509.454	110.25
509.67	123.25
509.887	113.25
510.103	135.25
510.319	234.25
510.536	906.25
510.752	3121.25
510.968	817.25
511.184	182.25
511.401	143.25
511.617	105.25
511.833	77.25
512.049	93.25
512.265	87.25
512.481	99.25
512.698	86.25
