Data from Circ_1987_H10_HRD10591_00059.txt Node
Date: Wed Jan 03 12:10:44 EST 2024
User: Yrep
Spectrometer: HR+D1059
Trigger mode: 1
Integration Time (sec): 1.000000E-1
Scans to average: 1
Electric dark correction enabled: true
Nonlinearity correction enabled: false
Boxcar width: 0
XAxis mode: Wavelengths
Number of Pixels in Spectrum: 2048
>>>>>Begin Spectral Data<<<<<
223.165	-9.5
223.4	-9.5
223.635	-9.5
223.869	-27.5
224.104	-14.5
224.338	-13.5
224.573	-17.5
224.808	-17.5
225.042	-7.5
225.277	8.5
225.511	2.5
225.746	1.5
225.98	-11.5
226.215	6.5
226.449	16.5
226.683	20.5
226.918	32.5
227.152	30.5
227.387	39.5
227.621	27.5
227.856	50.5
228.09	52.5
228.324	46.5
228.559	62.5
228.793	62.5
229.027	74.5
229.262	68.5
229.496	85.5
229.73	79.5
229.964	112.5
230.199	80.5
230.433	74.5
230.667	85.5
230.901	92.5
231.136	74.5
231.37	79.5
231.604	83.5
231.838	61.5
232.072	95.5
232.306	83.5
232.541	89.5
232.775	83.5
233.009	90.5
233.243	87.5
233.477	73.5
233.711	74.5
233.945	86.5
234.179	79.5
234.413	87.5
234.647	78.5
234.881	83.5
235.115	95.5
235.349	64.5
235.583	79.5
235.817	87.5
236.051	96.5
236.285	83.5
236.519	86.5
236.753	79.5
236.987	85.5
237.221	80.5
237.455	84.5
237.689	70.5
237.922	78.5
238.156	68.5
238.39	86.5
238.624	72.5
238.858	91.5
239.091	81.5
239.325	83.5
239.559	80.5
239.793	78.5
240.027	76.5
240.26	71.5
240.494	68.5
240.728	89.5
240.961	81.5
241.195	102.5
241.429	76.5
241.662	91.5
241.896	77.5
242.13	80.5
242.363	69.5
242.597	68.5
242.83	80.5
243.064	83.5
243.298	75.5
243.531	91.5
243.765	66.5
243.998	90.5
244.232	93.5
244.465	88.5
244.699	89.5
244.932	89.5
245.166	79.5
245.399	90.5
245.633	79.5
245.866	76.5
246.099	79.5
246.333	84.5
246.566	83.5
246.8	81.5
247.033	69.5
247.266	67.5
247.5	74.5
247.733	95.5
247.966	91.5
248.2	88.5
248.433	69.5
248.666	99.5
248.899	92.5
249.133	91.5
249.366	107.5
249.599	103.5
249.832	74.5
250.066	90.5
250.299	67.5
250.532	90.5
250.765	85.5
250.998	79.5
251.231	81.5
251.465	65.5
251.698	81.5
251.931	102.5
252.164	79.5
252.397	75.5
252.63	81.5
252.863	83.5
253.096	84.5
253.329	89.5
253.562	88.5
253.795	89.5
254.028	72.5
254.261	84.5
254.494	91.5
254.727	83.5
254.96	87.5
255.193	83.5
255.426	104.5
255.659	89.5
255.892	90.5
256.124	94.5
256.357	95.5
256.59	76.5
256.823	68.5
257.056	92.5
257.289	89.5
257.521	87.5
257.754	88.5
257.987	87.5
258.22	83.5
258.452	83.5
258.685	84.5
258.918	87.5
259.151	81.5
259.383	79.5
259.616	99.5
259.849	107.5
260.081	93.5
260.314	90.5
260.547	87.5
260.779	99.5
261.012	112.5
261.244	97.5
261.477	95.5
261.71	104.5
261.942	124.5
262.175	145.5
262.407	107.5
262.64	93.5
262.872	87.5
263.105	88.5
263.337	112.5
263.57	73.5
263.802	85.5
264.035	84.5
264.267	92.5
264.499	84.5
264.732	85.5
264.964	83.5
265.197	101.5
265.429	77.5
265.661	93.5
265.894	103.5
266.126	98.5
266.358	65.5
266.591	79.5
266.823	89.5
267.055	90.5
267.287	93.5
267.52	93.5
267.752	91.5
267.984	87.5
268.216	99.5
268.448	91.5
268.681	83.5
268.913	90.5
269.145	102.5
269.377	84.5
269.609	89.5
269.841	104.5
270.073	85.5
270.306	97.5
270.538	88.5
270.77	97.5
271.002	85.5
271.234	94.5
271.466	107.5
271.698	89.5
271.93	98.5
272.162	99.5
272.394	101.5
272.626	80.5
272.858	81.5
273.09	86.5
273.322	94.5
273.553	98.5
273.785	94.5
274.017	98.5
274.249	87.5
274.481	87.5
274.713	98.5
274.945	103.5
275.176	91.5
275.408	124.5
275.64	121.5
275.872	124.5
276.104	116.5
276.335	108.5
276.567	132.5
276.799	156.5
277.031	155.5
277.262	196.5
277.494	146.5
277.726	112.5
277.957	95.5
278.189	89.5
278.421	85.5
278.652	95.5
278.884	89.5
279.115	83.5
279.347	90.5
279.579	99.5
279.81	122.5
280.042	183.5
280.273	260.5
280.505	185.5
280.736	96.5
280.968	103.5
281.199	97.5
281.431	87.5
281.662	100.5
281.894	102.5
282.125	114.5
282.356	131.5
282.588	169.5
282.819	127.5
283.051	92.5
283.282	91.5
283.513	89.5
283.745	76.5
283.976	82.5
284.207	85.5
284.439	101.5
284.67	102.5
284.901	80.5
285.132	91.5
285.364	95.5
285.595	83.5
285.826	105.5
286.057	103.5
286.288	88.5
286.52	98.5
286.751	87.5
286.982	100.5
287.213	90.5
287.444	87.5
287.675	97.5
287.906	104.5
288.138	89.5
288.369	93.5
288.6	90.5
288.831	105.5
289.062	85.5
289.293	88.5
289.524	89.5
289.755	89.5
289.986	84.5
290.217	94.5
290.448	103.5
290.679	91.5
290.91	98.5
291.141	63.5
291.371	90.5
291.602	83.5
291.833	90.5
292.064	90.5
292.295	97.5
292.526	98.5
292.757	95.5
292.987	89.5
293.218	99.5
293.449	98.5
293.68	99.5
293.91	93.5
294.141	90.5
294.372	94.5
294.603	93.5
294.833	85.5
295.064	97.5
295.295	86.5
295.525	112.5
295.756	116.5
295.987	122.5
296.217	183.5
296.448	167.5
296.679	84.5
296.909	89.5
297.14	94.5
297.37	83.5
297.601	85.5
297.831	90.5
298.062	113.5
298.292	88.5
298.523	101.5
298.753	107.5
298.984	80.5
299.214	98.5
299.445	90.5
299.675	104.5
299.905	100.5
300.136	107.5
300.366	100.5
300.597	91.5
300.827	112.5
301.057	101.5
301.288	122.5
301.518	117.5
301.748	91.5
301.979	118.5
302.209	105.5
302.439	84.5
302.669	101.5
302.9	97.5
303.13	104.5
303.36	116.5
303.59	126.5
303.82	133.5
304.051	105.5
304.281	96.5
304.511	93.5
304.741	101.5
304.971	91.5
305.201	96.5
305.431	105.5
305.661	100.5
305.891	89.5
306.121	115.5
306.352	119.5
306.582	124.5
306.812	106.5
307.042	107.5
307.272	146.5
307.502	187.5
307.731	173.5
307.961	136.5
308.191	101.5
308.421	99.5
308.651	83.5
308.881	94.5
309.111	87.5
309.341	92.5
309.571	110.5
309.8	109.5
310.03	107.5
310.26	113.5
310.49	102.5
310.72	99.5
310.949	132.5
311.179	128.5
311.409	109.5
311.639	111.5
311.868	112.5
312.098	100.5
312.328	100.5
312.557	123.5
312.787	133.5
313.017	114.5
313.246	101.5
313.476	92.5
313.706	95.5
313.935	112.5
314.165	104.5
314.394	119.5
314.624	97.5
314.853	112.5
315.083	95.5
315.312	102.5
315.542	98.5
315.771	96.5
316.001	95.5
316.23	89.5
316.46	100.5
316.689	106.5
316.919	95.5
317.148	105.5
317.377	91.5
317.607	104.5
317.836	96.5
318.065	96.5
318.295	99.5
318.524	103.5
318.753	99.5
318.983	87.5
319.212	109.5
319.441	126.5
319.67	108.5
319.9	113.5
320.129	101.5
320.358	88.5
320.587	102.5
320.816	103.5
321.046	107.5
321.275	108.5
321.504	104.5
321.733	119.5
321.962	96.5
322.191	103.5
322.42	106.5
322.649	122.5
322.878	125.5
323.108	131.5
323.337	148.5
323.566	159.5
323.795	173.5
324.024	227.5
324.253	439.5
324.482	921.5
324.71	1882.5
324.939	2439.5
325.168	959.5
325.397	281.5
325.626	176.5
325.855	136.5
326.084	130.5
326.313	160.5
326.542	179.5
326.77	256.5
326.999	481.5
327.228	987.5
327.457	1743.5
327.686	1451.5
327.914	530.5
328.143	507.5
328.372	626.5
328.6	383.5
328.829	194.5
329.058	184.5
329.287	199.5
329.515	179.5
329.744	238.5
329.972	458.5
330.201	934.5
330.43	1378.5
330.658	615.5
330.887	299.5
331.115	211.5
331.344	129.5
331.572	119.5
331.801	137.5
332.03	132.5
332.258	109.5
332.486	106.5
332.715	114.5
332.943	102.5
333.172	135.5
333.4	130.5
333.629	158.5
333.857	219.5
334.085	406.5
334.314	851.5
334.542	1699.5
334.771	1584.5
334.999	427.5
335.227	186.5
335.455	132.5
335.684	112.5
335.912	110.5
336.14	97.5
336.369	122.5
336.597	115.5
336.825	121.5
337.053	98.5
337.281	96.5
337.51	101.5
337.738	94.5
337.966	116.5
338.194	113.5
338.422	97.5
338.65	102.5
338.878	109.5
339.106	98.5
339.334	93.5
339.562	104.5
339.79	89.5
340.018	104.5
340.246	125.5
340.474	118.5
340.702	99.5
340.93	106.5
341.158	88.5
341.386	104.5
341.614	106.5
341.842	105.5
342.07	108.5
342.298	98.5
342.526	99.5
342.754	87.5
342.981	96.5
343.209	104.5
343.437	107.5
343.665	108.5
343.893	99.5
344.12	83.5
344.348	113.5
344.576	105.5
344.804	109.5
345.031	104.5
345.259	120.5
345.487	107.5
345.714	95.5
345.942	110.5
346.17	111.5
346.397	99.5
346.625	97.5
346.853	92.5
347.08	107.5
347.308	97.5
347.535	101.5
347.763	109.5
347.99	118.5
348.218	106.5
348.445	113.5
348.673	115.5
348.9	98.5
349.128	87.5
349.355	97.5
349.583	85.5
349.81	89.5
350.037	103.5
350.265	105.5
350.492	103.5
350.72	98.5
350.947	105.5
351.174	125.5
351.402	130.5
351.629	109.5
351.856	106.5
352.083	116.5
352.311	106.5
352.538	116.5
352.765	121.5
352.992	121.5
353.22	124.5
353.447	120.5
353.674	97.5
353.901	111.5
354.128	100.5
354.355	115.5
354.583	107.5
354.81	104.5
355.037	120.5
355.264	88.5
355.491	102.5
355.718	95.5
355.945	88.5
356.172	102.5
356.399	83.5
356.626	98.5
356.853	100.5
357.08	100.5
357.307	94.5
357.534	89.5
357.761	86.5
357.988	97.5
358.215	93.5
358.441	93.5
358.668	84.5
358.895	85.5
359.122	94.5
359.349	98.5
359.576	99.5
359.802	115.5
360.029	145.5
360.256	145.5
360.483	127.5
360.709	91.5
360.936	101.5
361.163	96.5
361.39	108.5
361.616	102.5
361.843	100.5
362.07	114.5
362.296	117.5
362.523	108.5
362.749	103.5
362.976	108.5
363.203	95.5
363.429	99.5
363.656	114.5
363.882	98.5
364.109	104.5
364.335	97.5
364.562	113.5
364.788	96.5
365.015	107.5
365.241	112.5
365.468	123.5
365.694	129.5
365.92	104.5
366.147	107.5
366.373	109.5
366.599	112.5
366.826	98.5
367.052	92.5
367.278	104.5
367.505	89.5
367.731	107.5
367.957	101.5
368.184	107.5
368.41	95.5
368.636	136.5
368.862	133.5
369.089	133.5
369.315	103.5
369.541	101.5
369.767	95.5
369.993	97.5
370.219	95.5
370.445	106.5
370.672	91.5
370.898	96.5
371.124	99.5
371.35	87.5
371.576	89.5
371.802	78.5
372.028	75.5
372.254	72.5
372.48	99.5
372.706	101.5
372.932	98.5
373.158	87.5
373.384	100.5
373.61	92.5
373.835	100.5
374.061	85.5
374.287	105.5
374.513	90.5
374.739	99.5
374.965	88.5
375.191	92.5
375.416	83.5
375.642	93.5
375.868	95.5
376.094	98.5
376.319	96.5
376.545	84.5
376.771	109.5
376.997	84.5
377.222	96.5
377.448	101.5
377.674	92.5
377.899	97.5
378.125	91.5
378.35	86.5
378.576	91.5
378.802	91.5
379.027	87.5
379.253	107.5
379.478	98.5
379.704	99.5
379.929	92.5
380.155	101.5
380.38	108.5
380.606	100.5
380.831	109.5
381.057	107.5
381.282	96.5
381.507	106.5
381.733	108.5
381.958	95.5
382.184	94.5
382.409	86.5
382.634	105.5
382.86	104.5
383.085	116.5
383.31	111.5
383.535	105.5
383.761	112.5
383.986	115.5
384.211	98.5
384.436	93.5
384.662	99.5
384.887	116.5
385.112	87.5
385.337	107.5
385.562	95.5
385.787	109.5
386.013	106.5
386.238	124.5
386.463	102.5
386.688	100.5
386.913	101.5
387.138	91.5
387.363	105.5
387.588	103.5
387.813	110.5
388.038	100.5
388.263	114.5
388.488	103.5
388.713	90.5
388.938	87.5
389.163	101.5
389.387	74.5
389.612	97.5
389.837	99.5
390.062	96.5
390.287	99.5
390.512	83.5
390.736	87.5
390.961	88.5
391.186	99.5
391.411	92.5
391.636	105.5
391.86	95.5
392.085	97.5
392.31	90.5
392.534	92.5
392.759	93.5
392.984	87.5
393.208	101.5
393.433	104.5
393.658	96.5
393.882	83.5
394.107	87.5
394.331	87.5
394.556	95.5
394.78	81.5
395.005	81.5
395.229	103.5
395.454	87.5
395.678	100.5
395.903	87.5
396.127	105.5
396.352	103.5
396.576	84.5
396.801	99.5
397.025	101.5
397.249	100.5
397.474	94.5
397.698	98.5
397.922	93.5
398.147	92.5
398.371	87.5
398.595	85.5
398.82	83.5
399.044	111.5
399.268	86.5
399.492	87.5
399.717	82.5
399.941	96.5
400.165	104.5
400.389	83.5
400.613	94.5
400.837	99.5
401.062	87.5
401.286	105.5
401.51	90.5
401.734	93.5
401.958	110.5
402.182	148.5
402.406	219.5
402.63	147.5
402.854	119.5
403.078	101.5
403.302	86.5
403.526	91.5
403.75	91.5
403.974	90.5
404.198	114.5
404.422	92.5
404.645	102.5
404.869	103.5
405.093	132.5
405.317	143.5
405.541	131.5
405.765	119.5
405.988	139.5
406.212	234.5
406.436	329.5
406.66	221.5
406.883	114.5
407.107	112.5
407.331	97.5
407.555	106.5
407.778	109.5
408.002	96.5
408.226	99.5
408.449	95.5
408.673	96.5
408.896	95.5
409.12	87.5
409.344	95.5
409.567	96.5
409.791	108.5
410.014	111.5
410.238	87.5
410.461	91.5
410.685	93.5
410.908	114.5
411.132	93.5
411.355	111.5
411.578	95.5
411.802	94.5
412.025	97.5
412.249	116.5
412.472	107.5
412.695	144.5
412.919	109.5
413.142	96.5
413.365	92.5
413.589	87.5
413.812	86.5
414.035	102.5
414.258	105.5
414.482	107.5
414.705	93.5
414.928	112.5
415.151	100.5
415.374	100.5
415.597	104.5
415.821	92.5
416.044	99.5
416.267	88.5
416.49	85.5
416.713	95.5
416.936	101.5
417.159	92.5
417.382	124.5
417.605	103.5
417.828	117.5
418.051	112.5
418.274	101.5
418.497	95.5
418.72	89.5
418.943	88.5
419.166	94.5
419.389	75.5
419.611	93.5
419.834	92.5
420.057	115.5
420.28	100.5
420.503	100.5
420.726	99.5
420.948	88.5
421.171	101.5
421.394	103.5
421.617	112.5
421.839	79.5
422.062	83.5
422.285	108.5
422.507	97.5
422.73	119.5
422.953	95.5
423.175	96.5
423.398	90.5
423.621	91.5
423.843	100.5
424.066	103.5
424.288	87.5
424.511	106.5
424.733	113.5
424.956	122.5
425.178	109.5
425.401	113.5
425.623	122.5
425.846	104.5
426.068	99.5
426.291	105.5
426.513	91.5
426.735	111.5
426.958	106.5
427.18	114.5
427.402	175.5
427.625	279.5
427.847	240.5
428.069	219.5
428.292	139.5
428.514	97.5
428.736	95.5
428.958	99.5
429.181	88.5
429.403	94.5
429.625	83.5
429.847	105.5
430.069	123.5
430.292	102.5
430.514	86.5
430.736	86.5
430.958	101.5
431.18	99.5
431.402	92.5
431.624	92.5
431.846	82.5
432.068	87.5
432.29	86.5
432.512	87.5
432.734	81.5
432.956	93.5
433.178	93.5
433.4	101.5
433.622	90.5
433.844	109.5
434.066	95.5
434.287	94.5
434.509	100.5
434.731	107.5
434.953	102.5
435.175	103.5
435.397	92.5
435.618	88.5
435.84	110.5
436.062	128.5
436.284	117.5
436.505	107.5
436.727	107.5
436.949	101.5
437.17	95.5
437.392	94.5
437.614	102.5
437.835	129.5
438.057	163.5
438.278	145.5
438.5	121.5
438.721	138.5
438.943	103.5
439.165	107.5
439.386	89.5
439.608	105.5
439.829	112.5
440.05	136.5
440.272	179.5
440.493	114.5
440.715	95.5
440.936	97.5
441.158	89.5
441.379	92.5
441.6	115.5
441.822	120.5
442.043	121.5
442.264	131.5
442.486	108.5
442.707	96.5
442.928	117.5
443.149	182.5
443.371	154.5
443.592	120.5
443.813	136.5
444.034	136.5
444.255	97.5
444.476	102.5
444.698	95.5
444.919	91.5
445.14	147.5
445.361	130.5
445.582	150.5
445.803	181.5
446.024	179.5
446.245	165.5
446.466	122.5
446.687	93.5
446.908	97.5
447.129	95.5
447.35	93.5
447.571	105.5
447.792	98.5
448.013	108.5
448.234	141.5
448.455	123.5
448.675	137.5
448.896	136.5
449.117	133.5
449.338	118.5
449.559	153.5
449.779	163.5
450	112.5
450.221	76.5
450.442	90.5
450.662	111.5
450.883	131.5
451.104	147.5
451.324	112.5
451.545	97.5
451.766	102.5
451.986	97.5
452.207	81.5
452.428	92.5
452.648	117.5
452.869	131.5
453.089	133.5
453.31	162.5
453.53	120.5
453.751	91.5
453.971	113.5
454.192	130.5
454.412	107.5
454.633	85.5
454.853	88.5
455.073	99.5
455.294	97.5
455.514	109.5
455.734	91.5
455.955	86.5
456.175	82.5
456.395	90.5
456.616	91.5
456.836	87.5
457.056	92.5
457.276	92.5
457.497	69.5
457.717	105.5
457.937	104.5
458.157	92.5
458.377	81.5
458.598	127.5
458.818	221.5
459.038	250.5
459.258	157.5
459.478	99.5
459.698	99.5
459.918	92.5
460.138	89.5
460.358	100.5
460.578	103.5
460.798	92.5
461.018	92.5
461.238	98.5
461.458	89.5
461.678	91.5
461.898	95.5
462.118	86.5
462.338	102.5
462.558	93.5
462.777	89.5
462.997	91.5
463.217	106.5
463.437	97.5
463.657	89.5
463.876	87.5
464.096	90.5
464.316	112.5
464.536	100.5
464.755	114.5
464.975	130.5
465.195	245.5
465.414	247.5
465.634	112.5
465.854	99.5
466.073	106.5
466.293	91.5
466.512	93.5
466.732	97.5
466.951	97.5
467.171	95.5
467.391	106.5
467.61	146.5
467.829	202.5
468.049	505.5
468.268	807.5
468.488	213.5
468.707	121.5
468.927	97.5
469.146	95.5
469.365	86.5
469.585	95.5
469.804	105.5
470.023	119.5
470.243	115.5
470.462	113.5
470.681	151.5
470.901	124.5
471.12	99.5
471.339	98.5
471.558	104.5
471.777	158.5
471.997	283.5
472.216	997.5
472.435	2332.5
472.654	548.5
472.873	163.5
473.092	116.5
473.311	103.5
473.53	106.5
473.749	101.5
473.968	103.5
474.187	129.5
474.406	121.5
474.625	102.5
474.844	92.5
475.063	99.5
475.282	91.5
475.501	79.5
475.72	113.5
475.939	98.5
476.158	98.5
476.377	102.5
476.596	104.5
476.814	111.5
477.033	121.5
477.252	97.5
477.471	90.5
477.69	98.5
477.908	92.5
478.127	95.5
478.346	92.5
478.564	104.5
478.783	111.5
479.002	123.5
479.22	108.5
479.439	129.5
479.658	139.5
479.876	121.5
480.095	127.5
480.313	120.5
480.532	143.5
480.751	270.5
480.969	927.5
481.188	3951.5
481.406	2306.5
481.624	335.5
481.843	144.5
482.061	112.5
482.28	99.5
482.498	100.5
482.717	101.5
482.935	91.5
483.153	88.5
483.372	99.5
483.59	99.5
483.808	92.5
484.027	112.5
484.245	106.5
484.463	106.5
484.681	121.5
484.9	100.5
485.118	99.5
485.336	100.5
485.554	109.5
485.772	118.5
485.99	109.5
486.209	117.5
486.427	119.5
486.645	122.5
486.863	130.5
487.081	103.5
487.299	113.5
487.517	110.5
487.735	91.5
487.953	84.5
488.171	95.5
488.389	95.5
488.607	108.5
488.825	91.5
489.043	88.5
489.261	93.5
489.479	95.5
489.696	100.5
489.914	90.5
490.132	93.5
490.35	96.5
490.568	99.5
490.786	99.5
491.003	92.5
491.221	93.5
491.439	94.5
491.657	102.5
491.874	89.5
492.092	95.5
492.31	106.5
492.527	125.5
492.745	104.5
492.963	100.5
493.18	100.5
493.398	115.5
493.615	108.5
493.833	100.5
494.05	87.5
494.268	86.5
494.485	93.5
494.703	83.5
494.92	97.5
495.138	101.5
495.355	87.5
495.573	90.5
495.79	101.5
496.008	104.5
496.225	90.5
496.442	86.5
496.66	96.5
496.877	100.5
497.094	97.5
497.312	91.5
497.529	94.5
497.746	103.5
497.963	107.5
498.181	98.5
498.398	98.5
498.615	121.5
498.832	115.5
499.049	93.5
499.267	97.5
499.484	99.5
499.701	102.5
499.918	96.5
500.135	96.5
500.352	105.5
500.569	95.5
500.786	111.5
501.003	99.5
501.22	103.5
501.437	96.5
501.654	102.5
501.871	149.5
502.088	104.5
502.305	87.5
502.522	96.5
502.739	91.5
502.956	96.5
503.172	110.5
503.389	108.5
503.606	128.5
503.823	107.5
504.04	96.5
504.256	95.5
504.473	97.5
504.69	98.5
504.907	106.5
505.123	108.5
505.34	97.5
505.557	105.5
505.773	99.5
505.99	99.5
506.207	92.5
506.423	101.5
506.64	101.5
506.856	98.5
507.073	101.5
507.289	100.5
507.506	109.5
507.722	118.5
507.939	144.5
508.155	115.5
508.372	91.5
508.588	95.5
508.805	116.5
509.021	102.5
509.238	105.5
509.454	107.5
509.67	112.5
509.887	113.5
510.103	153.5
510.319	252.5
510.536	926.5
510.752	3315.5
510.968	859.5
511.184	188.5
511.401	134.5
511.617	122.5
511.833	117.5
512.049	106.5
512.265	108.5
512.481	101.5
512.698	92.5
512.914	92.5
513.13	98.5
513.346	105.5
513.562	97.5
513.778	108.5
513.994	109.5
514.21	115.5
514.426	141.5
514.642	184.5
514.858	179.5
515.074	237.5
515.29	726.5
515.506	2592.5
515.721	903.5
515.937	228.5
516.153	147.5
516.369	109.5
516.585	91.5
516.801	116.5
517.016	103.5
517.232	99.5
517.448	105.5
517.664	107.5
517.879	91.5
518.095	91.5
518.311	105.5
518.527	121.5
518.742	109.5
518.958	101.5
519.173	107.5
519.389	102.5
519.605	117.5
519.82	107.5
520.036	133.5
520.251	167.5
520.467	126.5
520.682	120.5
520.898	113.5
521.113	155.5
521.329	183.5
521.544	293.5
521.76	941.5
521.975	4396.5
522.19	2533.5
522.406	495.5
522.621	177.5
522.836	130.5
523.052	107.5
523.267	104.5
523.482	105.5
523.698	114.5
523.913	157.5
524.128	135.5
524.343	105.5
524.559	105.5
524.774	104.5
524.989	105.5
525.204	122.5
525.419	115.5
525.634	95.5
525.849	96.5
526.064	97.5
526.28	101.5
526.495	101.5
526.71	92.5
526.925	82.5
527.14	98.5
527.355	97.5
527.57	93.5
527.785	103.5
527.999	95.5
528.214	93.5
528.429	83.5
528.644	99.5
528.859	101.5
529.074	113.5
529.289	162.5
529.503	263.5
529.718	131.5
529.933	111.5
530.148	90.5
