Data from Circ_1987_H10_HRD10591_00065.txt Node
Date: Wed Jan 03 12:10:45 EST 2024
User: Yrep
Spectrometer: HR+D1059
Trigger mode: 1
Integration Time (sec): 1.000000E-1
Scans to average: 1
Electric dark correction enabled: true
Nonlinearity correction enabled: false
Boxcar width: 0
XAxis mode: Wavelengths
Number of Pixels in Spectrum: 2048
>>>>>Begin Spectral Data<<<<<
223.165	-13.56
223.4	-13.56
223.635	-13.56
223.869	-17.56
224.104	-12.56
224.338	-18.56
224.573	-15.56
224.808	-4.56
225.042	-22.56
225.277	-7.56
225.511	2.44
225.746	-6.56
225.98	9.44
226.215	16.44
226.449	13.44
226.683	23.44
226.918	21.44
227.152	32.44
227.387	28.44
227.621	41.44
227.856	33.44
228.09	35.44
228.324	43.44
228.559	66.44
228.793	65.44
229.027	58.44
229.262	50.44
229.496	71.44
229.73	70.44
229.964	85.44
230.199	71.44
230.433	63.44
230.667	66.44
230.901	76.44
231.136	80.44
231.37	76.44
231.604	87.44
231.838	79.44
232.072	91.44
232.306	73.44
232.541	66.44
232.775	79.44
233.009	74.44
233.243	74.44
233.477	84.44
233.711	85.44
233.945	76.44
234.179	80.44
234.413	72.44
234.647	71.44
234.881	76.44
235.115	86.44
235.349	70.44
235.583	85.44
235.817	78.44
236.051	85.44
236.285	58.44
236.519	58.44
236.753	64.44
236.987	82.44
237.221	96.44
237.455	83.44
237.689	77.44
237.922	80.44
238.156	80.44
238.39	66.44
238.624	67.44
238.858	86.44
239.091	78.44
239.325	60.44
239.559	80.44
239.793	86.44
240.027	71.44
240.26	86.44
240.494	84.44
240.728	80.44
240.961	85.44
241.195	74.44
241.429	74.44
241.662	79.44
241.896	85.44
242.13	61.44
242.363	70.44
242.597	89.44
242.83	76.44
243.064	80.44
243.298	70.44
243.531	67.44
243.765	71.44
243.998	70.44
244.232	68.44
244.465	75.44
244.699	79.44
244.932	78.44
245.166	77.44
245.399	89.44
245.633	77.44
245.866	91.44
246.099	80.44
246.333	78.44
246.566	86.44
246.8	81.44
247.033	84.44
247.266	80.44
247.5	70.44
247.733	74.44
247.966	68.44
248.2	78.44
248.433	90.44
248.666	77.44
248.899	90.44
249.133	85.44
249.366	89.44
249.599	94.44
249.832	67.44
250.066	92.44
250.299	84.44
250.532	80.44
250.765	80.44
250.998	85.44
251.231	96.44
251.465	88.44
251.698	88.44
251.931	62.44
252.164	88.44
252.397	65.44
252.63	90.44
252.863	85.44
253.096	92.44
253.329	91.44
253.562	77.44
253.795	72.44
254.028	84.44
254.261	87.44
254.494	92.44
254.727	91.44
254.96	68.44
255.193	84.44
255.426	77.44
255.659	74.44
255.892	80.44
256.124	92.44
256.357	92.44
256.59	88.44
256.823	96.44
257.056	87.44
257.289	100.44
257.521	99.44
257.754	92.44
257.987	86.44
258.22	86.44
258.452	96.44
258.685	86.44
258.918	85.44
259.151	82.44
259.383	75.44
259.616	78.44
259.849	83.44
260.081	82.44
260.314	74.44
260.547	79.44
260.779	82.44
261.012	108.44
261.244	95.44
261.477	86.44
261.71	100.44
261.942	121.44
262.175	138.44
262.407	94.44
262.64	68.44
262.872	80.44
263.105	76.44
263.337	71.44
263.57	105.44
263.802	87.44
264.035	81.44
264.267	86.44
264.499	84.44
264.732	70.44
264.964	70.44
265.197	77.44
265.429	68.44
265.661	88.44
265.894	75.44
266.126	86.44
266.358	75.44
266.591	89.44
266.823	74.44
267.055	77.44
267.287	85.44
267.52	77.44
267.752	77.44
267.984	76.44
268.216	89.44
268.448	86.44
268.681	88.44
268.913	86.44
269.145	96.44
269.377	84.44
269.609	80.44
269.841	78.44
270.073	85.44
270.306	81.44
270.538	86.44
270.77	83.44
271.002	79.44
271.234	88.44
271.466	92.44
271.698	97.44
271.93	94.44
272.162	77.44
272.394	78.44
272.626	75.44
272.858	90.44
273.09	96.44
273.322	80.44
273.553	71.44
273.785	65.44
274.017	87.44
274.249	80.44
274.481	72.44
274.713	76.44
274.945	80.44
275.176	91.44
275.408	109.44
275.64	98.44
275.872	122.44
276.104	95.44
276.335	97.44
276.567	104.44
276.799	131.44
277.031	151.44
277.262	169.44
277.494	134.44
277.726	88.44
277.957	100.44
278.189	95.44
278.421	90.44
278.652	82.44
278.884	96.44
279.115	97.44
279.347	91.44
279.579	87.44
279.81	119.44
280.042	175.44
280.273	229.44
280.505	174.44
280.736	103.44
280.968	94.44
281.199	100.44
281.431	95.44
281.662	80.44
281.894	82.44
282.125	115.44
282.356	116.44
282.588	171.44
282.819	122.44
283.051	98.44
283.282	78.44
283.513	80.44
283.745	98.44
283.976	87.44
284.207	77.44
284.439	94.44
284.67	91.44
284.901	92.44
285.132	80.44
285.364	82.44
285.595	89.44
285.826	82.44
286.057	87.44
286.288	94.44
286.52	91.44
286.751	68.44
286.982	82.44
287.213	88.44
287.444	97.44
287.675	93.44
287.906	90.44
288.138	91.44
288.369	89.44
288.6	93.44
288.831	85.44
289.062	93.44
289.293	75.44
289.524	71.44
289.755	89.44
289.986	83.44
290.217	88.44
290.448	87.44
290.679	81.44
290.91	87.44
291.141	86.44
291.371	85.44
291.602	83.44
291.833	92.44
292.064	88.44
292.295	86.44
292.526	83.44
292.757	88.44
292.987	95.44
293.218	75.44
293.449	76.44
293.68	82.44
293.91	96.44
294.141	82.44
294.372	93.44
294.603	80.44
294.833	104.44
295.064	89.44
295.295	86.44
295.525	90.44
295.756	90.44
295.987	110.44
296.217	156.44
296.448	140.44
296.679	99.44
296.909	79.44
297.14	92.44
297.37	97.44
297.601	86.44
297.831	98.44
298.062	92.44
298.292	87.44
298.523	85.44
298.753	80.44
298.984	87.44
299.214	91.44
299.445	89.44
299.675	92.44
299.905	99.44
300.136	92.44
300.366	84.44
300.597	84.44
300.827	83.44
301.057	97.44
301.288	99.44
301.518	92.44
301.748	95.44
301.979	96.44
302.209	91.44
302.439	99.44
302.669	91.44
302.9	80.44
303.13	96.44
303.36	110.44
303.59	124.44
303.82	135.44
304.051	103.44
304.281	94.44
304.511	74.44
304.741	92.44
304.971	90.44
305.201	92.44
305.431	93.44
305.661	95.44
305.891	90.44
306.121	86.44
306.352	87.44
306.582	117.44
306.812	107.44
307.042	126.44
307.272	127.44
307.502	168.44
307.731	148.44
307.961	131.44
308.191	101.44
308.421	89.44
308.651	82.44
308.881	87.44
309.111	102.44
309.341	92.44
309.571	89.44
309.8	99.44
310.03	106.44
310.26	98.44
310.49	97.44
310.72	81.44
310.949	112.44
311.179	115.44
311.409	85.44
311.639	95.44
311.868	105.44
312.098	96.44
312.328	96.44
312.557	114.44
312.787	100.44
313.017	98.44
313.246	93.44
313.476	91.44
313.706	92.44
313.935	95.44
314.165	108.44
314.394	94.44
314.624	110.44
314.853	105.44
315.083	79.44
315.312	101.44
315.542	101.44
315.771	97.44
316.001	78.44
316.23	92.44
316.46	74.44
316.689	87.44
316.919	102.44
317.148	98.44
317.377	101.44
317.607	92.44
317.836	92.44
318.065	86.44
318.295	89.44
318.524	84.44
318.753	88.44
318.983	94.44
319.212	109.44
319.441	121.44
319.67	103.44
319.9	89.44
320.129	104.44
320.358	96.44
320.587	93.44
320.816	100.44
321.046	107.44
321.275	111.44
321.504	100.44
321.733	92.44
321.962	103.44
322.191	101.44
322.42	94.44
322.649	113.44
322.878	113.44
323.108	127.44
323.337	127.44
323.566	139.44
323.795	171.44
324.024	227.44
324.253	435.44
324.482	877.44
324.71	1860.44
324.939	2426.44
325.168	872.44
325.397	275.44
325.626	159.44
325.855	143.44
326.084	122.44
326.313	136.44
326.542	167.44
326.77	236.44
326.999	471.44
327.228	986.44
327.457	1788.44
327.686	1424.44
327.914	498.44
328.143	475.44
328.372	595.44
328.6	322.44
328.829	166.44
329.058	177.44
329.287	191.44
329.515	176.44
329.744	242.44
329.972	428.44
330.201	899.44
330.43	1266.44
330.658	572.44
330.887	277.44
331.115	168.44
331.344	118.44
331.572	98.44
331.801	119.44
332.03	123.44
332.258	105.44
332.486	100.44
332.715	104.44
332.943	103.44
333.172	109.44
333.4	110.44
333.629	141.44
333.857	217.44
334.085	404.44
334.314	818.44
334.542	1626.44
334.771	1518.44
334.999	408.44
335.227	164.44
335.455	122.44
335.684	110.44
335.912	106.44
336.14	96.44
336.369	107.44
336.597	121.44
336.825	114.44
337.053	97.44
337.281	94.44
337.51	86.44
337.738	96.44
337.966	96.44
338.194	102.44
338.422	103.44
338.65	102.44
338.878	93.44
339.106	103.44
339.334	90.44
339.562	87.44
339.79	96.44
340.018	92.44
340.246	93.44
340.474	100.44
340.702	91.44
340.93	94.44
341.158	94.44
341.386	111.44
341.614	92.44
341.842	94.44
342.07	90.44
342.298	101.44
342.526	78.44
342.754	86.44
342.981	86.44
343.209	86.44
343.437	93.44
343.665	91.44
343.893	94.44
344.12	85.44
344.348	87.44
344.576	103.44
344.804	81.44
345.031	93.44
345.259	94.44
345.487	94.44
345.714	90.44
345.942	99.44
346.17	96.44
346.397	94.44
346.625	102.44
346.853	73.44
347.08	89.44
347.308	109.44
347.535	88.44
347.763	109.44
347.99	90.44
348.218	115.44
348.445	98.44
348.673	101.44
348.9	93.44
349.128	99.44
349.355	93.44
349.583	80.44
349.81	94.44
350.037	93.44
350.265	104.44
350.492	92.44
350.72	98.44
350.947	98.44
351.174	114.44
351.402	115.44
351.629	102.44
351.856	106.44
352.083	98.44
352.311	101.44
352.538	120.44
352.765	109.44
352.992	118.44
353.22	119.44
353.447	93.44
353.674	92.44
353.901	82.44
354.128	83.44
354.355	93.44
354.583	92.44
354.81	100.44
355.037	88.44
355.264	82.44
355.491	84.44
355.718	87.44
355.945	99.44
356.172	90.44
356.399	94.44
356.626	79.44
356.853	77.44
357.08	92.44
357.307	97.44
357.534	97.44
357.761	84.44
357.988	82.44
358.215	83.44
358.441	101.44
358.668	96.44
358.895	88.44
359.122	83.44
359.349	77.44
359.576	90.44
359.802	98.44
360.029	126.44
360.256	127.44
360.483	105.44
360.709	81.44
360.936	85.44
361.163	91.44
361.39	114.44
361.616	96.44
361.843	86.44
362.07	88.44
362.296	97.44
362.523	97.44
362.749	93.44
362.976	89.44
363.203	74.44
363.429	75.44
363.656	78.44
363.882	84.44
364.109	85.44
364.335	89.44
364.562	95.44
364.788	88.44
365.015	88.44
365.241	90.44
365.468	103.44
365.694	111.44
365.92	94.44
366.147	95.44
366.373	83.44
366.599	101.44
366.826	91.44
367.052	96.44
367.278	90.44
367.505	82.44
367.731	97.44
367.957	106.44
368.184	102.44
368.41	104.44
368.636	124.44
368.862	125.44
369.089	116.44
369.315	102.44
369.541	109.44
369.767	102.44
369.993	92.44
370.219	93.44
370.445	85.44
370.672	89.44
370.898	76.44
371.124	79.44
371.35	98.44
371.576	87.44
371.802	84.44
372.028	91.44
372.254	75.44
372.48	83.44
372.706	82.44
372.932	93.44
373.158	84.44
373.384	90.44
373.61	104.44
373.835	74.44
374.061	83.44
374.287	106.44
374.513	82.44
374.739	83.44
374.965	90.44
375.191	72.44
375.416	98.44
375.642	85.44
375.868	94.44
376.094	87.44
376.319	93.44
376.545	87.44
376.771	83.44
376.997	88.44
377.222	89.44
377.448	88.44
377.674	88.44
377.899	89.44
378.125	86.44
378.35	87.44
378.576	84.44
378.802	83.44
379.027	80.44
379.253	84.44
379.478	100.44
379.704	85.44
379.929	99.44
380.155	91.44
380.38	91.44
380.606	86.44
380.831	85.44
381.057	95.44
381.282	88.44
381.507	91.44
381.733	82.44
381.958	85.44
382.184	92.44
382.409	108.44
382.634	82.44
382.86	90.44
383.085	76.44
383.31	89.44
383.535	78.44
383.761	101.44
383.986	92.44
384.211	93.44
384.436	93.44
384.662	88.44
384.887	98.44
385.112	98.44
385.337	101.44
385.562	83.44
385.787	107.44
386.013	108.44
386.238	108.44
386.463	110.44
386.688	99.44
386.913	96.44
387.138	90.44
387.363	101.44
387.588	95.44
387.813	93.44
388.038	103.44
388.263	96.44
388.488	87.44
388.713	101.44
388.938	87.44
389.163	80.44
389.387	94.44
389.612	89.44
389.837	92.44
390.062	95.44
390.287	91.44
390.512	99.44
390.736	85.44
390.961	78.44
391.186	95.44
391.411	90.44
391.636	98.44
391.86	97.44
392.085	92.44
392.31	84.44
392.534	84.44
392.759	82.44
392.984	84.44
393.208	84.44
393.433	87.44
393.658	91.44
393.882	82.44
394.107	86.44
394.331	86.44
394.556	95.44
394.78	75.44
395.005	95.44
395.229	97.44
395.454	92.44
395.678	101.44
395.903	94.44
396.127	95.44
396.352	92.44
396.576	92.44
396.801	94.44
397.025	83.44
397.249	79.44
397.474	98.44
397.698	85.44
397.922	89.44
398.147	92.44
398.371	95.44
398.595	86.44
398.82	99.44
399.044	80.44
399.268	78.44
399.492	83.44
399.717	79.44
399.941	80.44
400.165	90.44
400.389	84.44
400.613	71.44
400.837	91.44
401.062	70.44
401.286	90.44
401.51	102.44
401.734	84.44
401.958	92.44
402.182	134.44
402.406	183.44
402.63	139.44
402.854	116.44
403.078	95.44
403.302	86.44
403.526	92.44
403.75	83.44
403.974	94.44
404.198	86.44
404.422	74.44
404.645	98.44
404.869	105.44
405.093	116.44
405.317	143.44
405.541	126.44
405.765	122.44
405.988	116.44
406.212	194.44
406.436	293.44
406.66	186.44
406.883	108.44
407.107	106.44
407.331	109.44
407.555	110.44
407.778	90.44
408.002	94.44
408.226	92.44
408.449	82.44
408.673	76.44
408.896	92.44
409.12	90.44
409.344	93.44
409.567	89.44
409.791	97.44
410.014	93.44
410.238	84.44
410.461	99.44
410.685	83.44
410.908	95.44
411.132	101.44
411.355	97.44
411.578	102.44
411.802	83.44
412.025	84.44
412.249	111.44
412.472	125.44
412.695	127.44
412.919	108.44
413.142	107.44
413.365	88.44
413.589	95.44
413.812	95.44
414.035	88.44
414.258	91.44
414.482	84.44
414.705	90.44
414.928	78.44
415.151	99.44
415.374	97.44
415.597	94.44
415.821	98.44
416.044	86.44
416.267	102.44
416.49	85.44
416.713	91.44
416.936	102.44
417.159	90.44
417.382	85.44
417.605	114.44
417.828	111.44
418.051	95.44
418.274	86.44
418.497	86.44
418.72	86.44
418.943	86.44
419.166	91.44
419.389	89.44
419.611	99.44
419.834	99.44
420.057	87.44
420.28	100.44
420.503	86.44
420.726	94.44
420.948	96.44
421.171	106.44
421.394	102.44
421.617	78.44
421.839	71.44
422.062	97.44
422.285	103.44
422.507	96.44
422.73	91.44
422.953	98.44
423.175	97.44
423.398	82.44
423.621	92.44
423.843	96.44
424.066	107.44
424.288	97.44
424.511	94.44
424.733	114.44
424.956	122.44
425.178	118.44
425.401	118.44
425.623	91.44
425.846	90.44
426.068	103.44
426.291	93.44
426.513	93.44
426.735	89.44
426.958	103.44
427.18	134.44
427.402	188.44
427.625	248.44
427.847	227.44
428.069	199.44
428.292	120.44
428.514	94.44
428.736	95.44
428.958	85.44
429.181	91.44
429.403	103.44
429.625	94.44
429.847	90.44
430.069	94.44
430.292	81.44
430.514	91.44
430.736	97.44
430.958	108.44
431.18	83.44
431.402	98.44
431.624	89.44
431.846	91.44
432.068	83.44
432.29	73.44
432.512	80.44
432.734	78.44
432.956	90.44
433.178	106.44
433.4	93.44
433.622	79.44
433.844	90.44
434.066	76.44
434.287	82.44
434.509	90.44
434.731	84.44
434.953	86.44
435.175	92.44
435.397	101.44
435.618	80.44
435.84	103.44
436.062	144.44
436.284	138.44
436.505	123.44
436.727	111.44
436.949	87.44
437.17	81.44
437.392	100.44
437.614	96.44
437.835	105.44
438.057	144.44
438.278	125.44
438.5	119.44
438.721	145.44
438.943	121.44
439.165	82.44
439.386	94.44
439.608	97.44
439.829	98.44
440.05	126.44
440.272	180.44
440.493	98.44
440.715	101.44
440.936	82.44
441.158	84.44
441.379	90.44
441.6	74.44
441.822	101.44
442.043	97.44
442.264	112.44
442.486	104.44
442.707	110.44
442.928	114.44
443.149	171.44
443.371	160.44
443.592	132.44
443.813	130.44
444.034	120.44
444.255	89.44
444.476	90.44
444.698	90.44
444.919	89.44
445.14	132.44
445.361	142.44
445.582	129.44
445.803	179.44
446.024	186.44
446.245	150.44
446.466	123.44
446.687	90.44
446.908	91.44
447.129	111.44
447.35	86.44
447.571	93.44
447.792	88.44
448.013	103.44
448.234	110.44
448.455	107.44
448.675	126.44
448.896	151.44
449.117	100.44
449.338	115.44
449.559	140.44
449.779	150.44
450	103.44
450.221	77.44
450.442	89.44
450.662	98.44
450.883	117.44
451.104	125.44
451.324	107.44
451.545	101.44
451.766	91.44
451.986	97.44
452.207	99.44
452.428	110.44
452.648	113.44
452.869	131.44
453.089	112.44
453.31	125.44
453.53	105.44
453.751	100.44
453.971	110.44
454.192	140.44
454.412	95.44
454.633	84.44
454.853	80.44
455.073	101.44
455.294	89.44
455.514	105.44
455.734	90.44
455.955	83.44
456.175	78.44
456.395	88.44
456.616	78.44
456.836	98.44
457.056	103.44
457.276	88.44
457.497	77.44
457.717	79.44
457.937	100.44
458.157	86.44
458.377	89.44
458.598	119.44
458.818	189.44
459.038	215.44
459.258	162.44
459.478	94.44
459.698	95.44
459.918	90.44
460.138	78.44
460.358	91.44
460.578	86.44
460.798	81.44
461.018	80.44
461.238	93.44
461.458	80.44
461.678	81.44
461.898	81.44
462.118	87.44
462.338	83.44
462.558	63.44
462.777	90.44
462.997	101.44
463.217	114.44
463.437	94.44
463.657	90.44
463.876	84.44
464.096	99.44
464.316	101.44
464.536	96.44
464.755	94.44
464.975	106.44
465.195	194.44
465.414	219.44
465.634	108.44
465.854	103.44
466.073	95.44
466.293	87.44
466.512	83.44
466.732	93.44
466.951	82.44
467.171	83.44
467.391	119.44
467.61	140.44
467.829	184.44
468.049	476.44
468.268	679.44
468.488	180.44
468.707	110.44
468.927	99.44
469.146	93.44
469.365	86.44
469.585	94.44
469.804	108.44
470.023	129.44
470.243	96.44
470.462	108.44
470.681	139.44
470.901	110.44
471.12	100.44
471.339	95.44
471.558	115.44
471.777	138.44
471.997	266.44
472.216	930.44
472.435	2154.44
472.654	512.44
472.873	149.44
473.092	114.44
473.311	94.44
473.53	92.44
473.749	86.44
473.968	112.44
474.187	129.44
474.406	106.44
474.625	87.44
474.844	95.44
475.063	84.44
475.282	91.44
475.501	101.44
475.72	94.44
475.939	82.44
476.158	98.44
476.377	98.44
476.596	94.44
476.814	95.44
477.033	113.44
477.252	76.44
477.471	104.44
477.69	80.44
477.908	90.44
478.127	106.44
478.346	88.44
478.564	98.44
478.783	91.44
479.002	111.44
479.22	102.44
479.439	126.44
479.658	121.44
479.876	107.44
480.095	123.44
480.313	120.44
480.532	154.44
480.751	244.44
480.969	848.44
481.188	3728.44
481.406	2134.44
481.624	323.44
481.843	115.44
482.061	104.44
482.28	86.44
482.498	83.44
482.717	94.44
482.935	101.44
483.153	83.44
483.372	98.44
483.59	84.44
483.808	90.44
484.027	80.44
484.245	94.44
484.463	90.44
484.681	88.44
484.9	93.44
485.118	88.44
485.336	86.44
485.554	103.44
485.772	122.44
485.99	111.44
486.209	99.44
486.427	104.44
486.645	113.44
486.863	117.44
487.081	102.44
487.299	88.44
487.517	101.44
487.735	97.44
487.953	90.44
488.171	81.44
488.389	93.44
488.607	112.44
488.825	82.44
489.043	93.44
489.261	90.44
489.479	92.44
489.696	83.44
489.914	86.44
490.132	77.44
490.35	102.44
490.568	87.44
490.786	95.44
491.003	90.44
491.221	100.44
491.439	107.44
491.657	99.44
491.874	89.44
492.092	93.44
492.31	100.44
492.527	101.44
492.745	104.44
492.963	87.44
493.18	85.44
493.398	102.44
493.615	98.44
493.833	107.44
494.05	95.44
494.268	81.44
494.485	90.44
494.703	90.44
494.92	90.44
495.138	93.44
495.355	105.44
495.573	80.44
495.79	80.44
496.008	92.44
496.225	81.44
496.442	77.44
496.66	91.44
496.877	88.44
497.094	85.44
497.312	90.44
497.529	93.44
497.746	89.44
497.963	95.44
498.181	82.44
498.398	98.44
498.615	118.44
498.832	116.44
499.049	96.44
499.267	97.44
499.484	81.44
499.701	97.44
499.918	81.44
500.135	83.44
500.352	92.44
500.569	98.44
500.786	90.44
501.003	78.44
501.22	89.44
501.437	84.44
501.654	98.44
501.871	114.44
502.088	93.44
502.305	93.44
502.522	86.44
502.739	88.44
502.956	99.44
503.172	91.44
503.389	97.44
503.606	95.44
503.823	86.44
504.04	82.44
504.256	93.44
504.473	92.44
504.69	88.44
504.907	83.44
505.123	74.44
505.34	94.44
505.557	82.44
505.773	94.44
505.99	102.44
506.207	92.44
506.423	104.44
506.64	85.44
506.856	85.44
507.073	80.44
507.289	70.44
507.506	106.44
507.722	134.44
507.939	125.44
508.155	94.44
508.372	84.44
508.588	100.44
508.805	86.44
509.021	90.44
509.238	101.44
509.454	97.44
509.67	103.44
509.887	120.44
510.103	129.44
510.319	207.44
510.536	801.44
510.752	2739.44
510.968	759.44
511.184	160.44
511.401	128.44
511.617	114.44
511.833	102.44
512.049	90.44
512.265	103.44
512.481	97.44
512.698	94.44
512.914	90.44
513.13	78.44
513.346	94.44
513.562	92.44
513.778	112.44
513.994	87.44
514.21	115.44
514.426	129.44
