Data from Circ_1987_H10_HRD10591_00007.txt Node
Date: Wed Jan 03 12:10:34 EST 2024
User: Yrep
Spectrometer: HR+D1059
Trigger mode: 1
Integration Time (sec): 1.000000E-1
Scans to average: 1
Electric dark correction enabled: true
Nonlinearity correction enabled: false
Boxcar width: 0
XAxis mode: Wavelengths
Number of Pixels in Spectrum: 2048
>>>>>Begin Spectral Data<<<<<
223.165	-18.12
223.4	-18.12
223.635	-18.12
223.869	-14.12
224.104	-25.12
224.338	-8.12
224.573	-20.12
224.808	-13.12
225.042	-6.12
225.277	3.88
225.511	-9.12
225.746	-10.12
225.98	14.88
226.215	6.88
226.449	21.88
226.683	25.88
226.918	27.88
227.152	22.88
227.387	32.88
227.621	60.88
227.856	49.88
228.09	42.88
228.324	36.88
228.559	52.88
228.793	59.88
229.027	72.88
229.262	66.88
229.496	62.88
229.73	79.88
229.964	92.88
230.199	64.88
230.433	82.88
230.667	102.88
230.901	82.88
231.136	75.88
231.37	86.88
231.604	70.88
231.838	87.88
232.072	93.88
232.306	80.88
232.541	92.88
232.775	91.88
233.009	90.88
233.243	100.88
233.477	86.88
233.711	88.88
233.945	95.88
234.179	70.88
234.413	81.88
234.647	78.88
234.881	75.88
235.115	71.88
235.349	83.88
235.583	90.88
235.817	68.88
236.051	70.88
236.285	82.88
236.519	78.88
236.753	77.88
236.987	87.88
237.221	93.88
237.455	90.88
237.689	93.88
237.922	84.88
238.156	66.88
238.39	95.88
238.624	80.88
238.858	74.88
239.091	81.88
239.325	85.88
239.559	72.88
239.793	79.88
240.027	78.88
240.26	74.88
240.494	79.88
240.728	82.88
240.961	73.88
241.195	96.88
241.429	94.88
241.662	75.88
241.896	84.88
242.13	75.88
242.363	82.88
242.597	79.88
242.83	73.88
243.064	72.88
243.298	73.88
243.531	72.88
243.765	88.88
243.998	75.88
244.232	80.88
244.465	88.88
244.699	72.88
244.932	80.88
245.166	72.88
245.399	81.88
245.633	72.88
245.866	86.88
246.099	82.88
246.333	82.88
246.566	84.88
246.8	74.88
247.033	80.88
247.266	67.88
247.5	83.88
247.733	76.88
247.966	81.88
248.2	85.88
248.433	71.88
248.666	95.88
248.899	80.88
249.133	96.88
249.366	102.88
249.599	107.88
249.832	81.88
250.066	76.88
250.299	71.88
250.532	81.88
250.765	74.88
250.998	86.88
251.231	82.88
251.465	90.88
251.698	90.88
251.931	84.88
252.164	76.88
252.397	75.88
252.63	71.88
252.863	86.88
253.096	68.88
253.329	76.88
253.562	94.88
253.795	80.88
254.028	83.88
254.261	74.88
254.494	94.88
254.727	95.88
254.96	101.88
255.193	92.88
255.426	78.88
255.659	81.88
255.892	100.88
256.124	75.88
256.357	76.88
256.59	73.88
256.823	88.88
257.056	88.88
257.289	85.88
257.521	90.88
257.754	81.88
257.987	94.88
258.22	91.88
258.452	88.88
258.685	80.88
258.918	78.88
259.151	83.88
259.383	80.88
259.616	103.88
259.849	81.88
260.081	95.88
260.314	82.88
260.547	99.88
260.779	81.88
261.012	82.88
261.244	94.88
261.477	102.88
261.71	106.88
261.942	106.88
262.175	122.88
262.407	89.88
262.64	91.88
262.872	79.88
263.105	81.88
263.337	91.88
263.57	74.88
263.802	84.88
264.035	94.88
264.267	75.88
264.499	80.88
264.732	88.88
264.964	74.88
265.197	88.88
265.429	80.88
265.661	78.88
265.894	86.88
266.126	82.88
266.358	79.88
266.591	88.88
266.823	88.88
267.055	83.88
267.287	79.88
267.52	83.88
267.752	90.88
267.984	81.88
268.216	90.88
268.448	82.88
268.681	81.88
268.913	85.88
269.145	97.88
269.377	85.88
269.609	85.88
269.841	91.88
270.073	89.88
270.306	77.88
270.538	94.88
270.77	64.88
271.002	94.88
271.234	78.88
271.466	86.88
271.698	99.88
271.93	97.88
272.162	108.88
272.394	100.88
272.626	88.88
272.858	87.88
273.09	93.88
273.322	95.88
273.553	83.88
273.785	82.88
274.017	86.88
274.249	88.88
274.481	93.88
274.713	93.88
274.945	82.88
275.176	87.88
275.408	98.88
275.64	105.88
275.872	86.88
276.104	100.88
276.335	91.88
276.567	108.88
276.799	108.88
277.031	120.88
277.262	125.88
277.494	114.88
277.726	95.88
277.957	82.88
278.189	91.88
278.421	91.88
278.652	83.88
278.884	97.88
279.115	87.88
279.347	92.88
279.579	97.88
279.81	115.88
280.042	122.88
280.273	134.88
280.505	120.88
280.736	95.88
280.968	96.88
281.199	85.88
281.431	91.88
281.662	99.88
281.894	94.88
282.125	108.88
282.356	115.88
282.588	134.88
282.819	136.88
283.051	98.88
283.282	64.88
283.513	86.88
283.745	84.88
283.976	83.88
284.207	92.88
284.439	82.88
284.67	86.88
284.901	84.88
285.132	86.88
285.364	86.88
285.595	96.88
285.826	85.88
286.057	82.88
286.288	90.88
286.52	100.88
286.751	94.88
286.982	89.88
287.213	97.88
287.444	96.88
287.675	79.88
287.906	89.88
288.138	98.88
288.369	96.88
288.6	96.88
288.831	103.88
289.062	86.88
289.293	82.88
289.524	92.88
289.755	76.88
289.986	86.88
290.217	82.88
290.448	82.88
290.679	94.88
290.91	100.88
291.141	93.88
291.371	72.88
291.602	87.88
291.833	82.88
292.064	80.88
292.295	82.88
292.526	84.88
292.757	96.88
292.987	95.88
293.218	80.88
293.449	77.88
293.68	72.88
293.91	78.88
294.141	84.88
294.372	98.88
294.603	90.88
294.833	88.88
295.064	83.88
295.295	87.88
295.525	90.88
295.756	103.88
295.987	106.88
296.217	131.88
296.448	126.88
296.679	86.88
296.909	99.88
297.14	107.88
297.37	83.88
297.601	90.88
297.831	90.88
298.062	83.88
298.292	89.88
298.523	98.88
298.753	88.88
298.984	74.88
299.214	84.88
299.445	95.88
299.675	86.88
299.905	103.88
300.136	91.88
300.366	92.88
300.597	88.88
300.827	86.88
301.057	87.88
301.288	105.88
301.518	92.88
301.748	95.88
301.979	100.88
302.209	102.88
302.439	99.88
302.669	106.88
302.9	98.88
303.13	98.88
303.36	91.88
303.59	107.88
303.82	113.88
304.051	107.88
304.281	83.88
304.511	104.88
304.741	103.88
304.971	89.88
305.201	91.88
305.431	97.88
305.661	83.88
305.891	87.88
306.121	99.88
306.352	109.88
306.582	100.88
306.812	99.88
307.042	119.88
307.272	121.88
307.502	118.88
307.731	127.88
307.961	102.88
308.191	92.88
308.421	82.88
308.651	90.88
308.881	83.88
309.111	97.88
309.341	98.88
309.571	103.88
309.8	91.88
310.03	98.88
310.26	98.88
310.49	102.88
310.72	102.88
310.949	99.88
311.179	110.88
311.409	96.88
311.639	91.88
311.868	111.88
312.098	102.88
312.328	99.88
312.557	125.88
312.787	98.88
313.017	112.88
313.246	107.88
313.476	81.88
313.706	96.88
313.935	87.88
314.165	89.88
314.394	86.88
314.624	94.88
314.853	100.88
315.083	98.88
315.312	94.88
315.542	97.88
315.771	95.88
316.001	85.88
316.23	92.88
316.46	94.88
316.689	89.88
316.919	78.88
317.148	92.88
317.377	116.88
317.607	97.88
317.836	102.88
318.065	86.88
318.295	112.88
318.524	79.88
318.753	96.88
318.983	97.88
319.212	99.88
319.441	107.88
319.67	112.88
319.9	115.88
320.129	102.88
320.358	104.88
320.587	97.88
320.816	91.88
321.046	104.88
321.275	109.88
321.504	103.88
321.733	110.88
321.962	104.88
322.191	95.88
322.42	99.88
322.649	113.88
322.878	104.88
323.108	124.88
323.337	139.88
323.566	128.88
323.795	147.88
324.024	181.88
324.253	315.88
324.482	655.88
324.71	1326.88
324.939	1774.88
325.168	675.88
325.397	213.88
325.626	133.88
325.855	127.88
326.084	116.88
326.313	123.88
326.542	133.88
326.77	199.88
326.999	375.88
327.228	748.88
327.457	1285.88
327.686	1000.88
327.914	361.88
328.143	270.88
328.372	325.88
328.6	194.88
328.829	140.88
329.058	146.88
329.287	141.88
329.515	129.88
329.744	148.88
329.972	240.88
330.201	437.88
330.43	606.88
330.658	315.88
330.887	196.88
331.115	136.88
331.344	110.88
331.572	96.88
331.801	106.88
332.03	103.88
332.258	112.88
332.486	100.88
332.715	97.88
332.943	101.88
333.172	106.88
333.4	124.88
333.629	139.88
333.857	170.88
334.085	233.88
334.314	410.88
334.542	742.88
334.771	748.88
334.999	222.88
335.227	129.88
335.455	107.88
335.684	102.88
335.912	111.88
336.14	97.88
336.369	115.88
336.597	110.88
336.825	97.88
337.053	102.88
337.281	101.88
337.51	99.88
337.738	118.88
337.966	102.88
338.194	107.88
338.422	107.88
338.65	104.88
338.878	93.88
339.106	91.88
339.334	94.88
339.562	97.88
339.79	102.88
340.018	88.88
340.246	97.88
340.474	92.88
340.702	94.88
340.93	95.88
341.158	99.88
341.386	107.88
341.614	106.88
341.842	106.88
342.07	91.88
342.298	83.88
342.526	91.88
342.754	90.88
342.981	75.88
343.209	74.88
343.437	115.88
343.665	101.88
343.893	88.88
344.12	98.88
344.348	99.88
344.576	91.88
344.804	81.88
345.031	101.88
345.259	119.88
345.487	99.88
345.714	106.88
345.942	91.88
346.17	87.88
346.397	86.88
346.625	100.88
346.853	94.88
347.08	98.88
347.308	92.88
347.535	102.88
347.763	93.88
347.99	99.88
348.218	100.88
348.445	108.88
348.673	98.88
348.9	103.88
349.128	101.88
349.355	83.88
349.583	84.88
349.81	90.88
350.037	96.88
350.265	89.88
350.492	106.88
350.72	81.88
350.947	94.88
351.174	102.88
351.402	124.88
351.629	98.88
351.856	117.88
352.083	110.88
352.311	117.88
352.538	116.88
352.765	106.88
352.992	102.88
353.22	112.88
353.447	102.88
353.674	95.88
353.901	109.88
354.128	105.88
354.355	107.88
354.583	88.88
354.81	95.88
355.037	107.88
355.264	86.88
355.491	98.88
355.718	103.88
355.945	84.88
356.172	100.88
356.399	91.88
356.626	97.88
356.853	92.88
357.08	106.88
357.307	95.88
357.534	98.88
357.761	89.88
357.988	90.88
358.215	99.88
358.441	117.88
358.668	90.88
358.895	95.88
359.122	90.88
359.349	92.88
359.576	93.88
359.802	106.88
360.029	117.88
360.256	115.88
360.483	103.88
360.709	95.88
360.936	106.88
361.163	87.88
361.39	91.88
361.616	92.88
361.843	106.88
362.07	78.88
362.296	90.88
362.523	99.88
362.749	92.88
362.976	102.88
363.203	91.88
363.429	98.88
363.656	100.88
363.882	97.88
364.109	91.88
364.335	86.88
364.562	83.88
364.788	88.88
365.015	96.88
365.241	101.88
365.468	115.88
365.694	103.88
365.92	94.88
366.147	105.88
366.373	89.88
366.599	96.88
366.826	83.88
367.052	90.88
367.278	99.88
367.505	88.88
367.731	86.88
367.957	97.88
368.184	89.88
368.41	80.88
368.636	119.88
368.862	118.88
369.089	104.88
369.315	108.88
369.541	111.88
369.767	92.88
369.993	103.88
370.219	96.88
370.445	87.88
370.672	97.88
370.898	92.88
371.124	98.88
371.35	98.88
371.576	79.88
371.802	78.88
372.028	97.88
372.254	84.88
372.48	106.88
372.706	79.88
372.932	100.88
373.158	99.88
373.384	98.88
373.61	86.88
373.835	98.88
374.061	99.88
374.287	89.88
374.513	103.88
374.739	94.88
374.965	90.88
375.191	91.88
375.416	99.88
375.642	85.88
375.868	105.88
376.094	82.88
376.319	87.88
376.545	86.88
376.771	81.88
376.997	100.88
377.222	86.88
377.448	98.88
377.674	80.88
377.899	83.88
378.125	92.88
378.35	91.88
378.576	91.88
378.802	89.88
379.027	111.88
379.253	96.88
379.478	97.88
379.704	101.88
379.929	85.88
380.155	98.88
380.38	106.88
380.606	98.88
380.831	102.88
381.057	110.88
381.282	107.88
381.507	105.88
381.733	85.88
381.958	96.88
382.184	98.88
382.409	110.88
382.634	110.88
382.86	115.88
383.085	115.88
383.31	86.88
383.535	84.88
383.761	96.88
383.986	99.88
384.211	108.88
384.436	97.88
384.662	104.88
384.887	118.88
385.112	124.88
385.337	115.88
385.562	113.88
385.787	119.88
386.013	110.88
386.238	119.88
386.463	119.88
386.688	118.88
386.913	114.88
387.138	129.88
387.363	92.88
387.588	112.88
387.813	114.88
388.038	116.88
388.263	120.88
388.488	116.88
388.713	98.88
388.938	94.88
389.163	92.88
389.387	100.88
389.612	97.88
389.837	100.88
390.062	99.88
390.287	99.88
390.512	90.88
390.736	97.88
390.961	89.88
391.186	89.88
391.411	99.88
391.636	88.88
391.86	82.88
392.085	87.88
392.31	97.88
392.534	92.88
392.759	93.88
392.984	92.88
393.208	98.88
393.433	109.88
393.658	89.88
393.882	86.88
394.107	89.88
394.331	95.88
394.556	80.88
394.78	84.88
395.005	90.88
395.229	87.88
395.454	97.88
395.678	88.88
395.903	93.88
396.127	94.88
396.352	103.88
396.576	90.88
396.801	102.88
397.025	83.88
397.249	91.88
397.474	104.88
397.698	99.88
397.922	84.88
398.147	98.88
398.371	83.88
398.595	99.88
398.82	103.88
399.044	87.88
399.268	88.88
399.492	80.88
399.717	96.88
399.941	70.88
400.165	94.88
400.389	94.88
400.613	98.88
400.837	89.88
401.062	87.88
401.286	96.88
401.51	96.88
401.734	103.88
401.958	103.88
402.182	125.88
402.406	168.88
402.63	132.88
402.854	111.88
403.078	84.88
403.302	101.88
403.526	86.88
403.75	83.88
403.974	100.88
404.198	86.88
404.422	95.88
404.645	81.88
404.869	100.88
405.093	90.88
405.317	115.88
405.541	113.88
405.765	101.88
405.988	115.88
406.212	164.88
406.436	223.88
406.66	147.88
406.883	104.88
407.107	110.88
407.331	108.88
407.555	99.88
407.778	94.88
408.002	87.88
408.226	92.88
408.449	90.88
408.673	97.88
408.896	88.88
409.12	85.88
409.344	102.88
409.567	91.88
409.791	104.88
410.014	110.88
410.238	103.88
410.461	87.88
410.685	105.88
410.908	106.88
411.132	117.88
411.355	103.88
411.578	98.88
411.802	93.88
412.025	94.88
412.249	104.88
412.472	100.88
412.695	125.88
412.919	96.88
413.142	85.88
413.365	102.88
413.589	98.88
413.812	85.88
414.035	108.88
414.258	99.88
414.482	91.88
414.705	93.88
414.928	102.88
415.151	83.88
415.374	99.88
415.597	85.88
415.821	86.88
416.044	90.88
416.267	79.88
416.49	104.88
416.713	95.88
416.936	103.88
417.159	91.88
417.382	96.88
417.605	94.88
417.828	97.88
418.051	91.88
418.274	86.88
418.497	104.88
418.72	81.88
418.943	91.88
419.166	82.88
419.389	90.88
419.611	95.88
419.834	87.88
420.057	100.88
420.28	86.88
420.503	90.88
420.726	95.88
420.948	89.88
421.171	90.88
421.394	92.88
421.617	86.88
421.839	92.88
422.062	99.88
422.285	95.88
422.507	105.88
422.73	106.88
422.953	100.88
423.175	100.88
423.398	103.88
423.621	106.88
423.843	95.88
424.066	76.88
424.288	98.88
424.511	93.88
424.733	106.88
424.956	115.88
425.178	119.88
425.401	94.88
425.623	116.88
425.846	83.88
426.068	90.88
426.291	96.88
426.513	88.88
426.735	84.88
426.958	91.88
427.18	95.88
427.402	138.88
427.625	204.88
427.847	173.88
428.069	162.88
428.292	113.88
428.514	94.88
428.736	90.88
428.958	101.88
429.181	92.88
429.403	87.88
429.625	99.88
429.847	85.88
430.069	104.88
430.292	102.88
430.514	86.88
430.736	89.88
430.958	104.88
431.18	100.88
431.402	86.88
431.624	96.88
431.846	89.88
432.068	98.88
432.29	86.88
432.512	90.88
432.734	89.88
432.956	94.88
433.178	98.88
433.4	97.88
433.622	87.88
433.844	96.88
434.066	81.88
434.287	94.88
434.509	106.88
434.731	108.88
434.953	86.88
435.175	98.88
435.397	88.88
435.618	108.88
435.84	105.88
436.062	120.88
436.284	114.88
436.505	99.88
436.727	90.88
436.949	94.88
437.17	81.88
437.392	89.88
437.614	73.88
437.835	107.88
438.057	120.88
438.278	112.88
438.5	107.88
438.721	134.88
438.943	105.88
439.165	94.88
439.386	85.88
439.608	99.88
439.829	112.88
440.05	120.88
440.272	142.88
440.493	118.88
440.715	80.88
440.936	92.88
441.158	105.88
441.379	91.88
441.6	94.88
441.822	99.88
442.043	105.88
442.264	106.88
442.486	115.88
442.707	90.88
442.928	92.88
443.149	133.88
443.371	130.88
443.592	107.88
443.813	122.88
444.034	105.88
444.255	97.88
444.476	97.88
444.698	101.88
444.919	92.88
445.14	127.88
445.361	112.88
445.582	102.88
445.803	134.88
446.024	142.88
446.245	140.88
446.466	103.88
446.687	94.88
446.908	85.88
447.129	98.88
447.35	92.88
447.571	94.88
447.792	84.88
448.013	106.88
448.234	105.88
448.455	97.88
448.675	128.88
448.896	120.88
449.117	112.88
449.338	97.88
449.559	133.88
449.779	164.88
450	110.88
450.221	90.88
450.442	83.88
450.662	102.88
450.883	91.88
451.104	107.88
451.324	84.88
451.545	80.88
451.766	90.88
451.986	91.88
452.207	86.88
452.428	94.88
452.648	108.88
452.869	118.88
453.089	102.88
453.31	107.88
453.53	100.88
453.751	95.88
453.971	109.88
454.192	109.88
454.412	101.88
454.633	102.88
454.853	98.88
455.073	82.88
455.294	89.88
455.514	107.88
455.734	85.88
455.955	97.88
456.175	94.88
456.395	69.88
456.616	73.88
456.836	76.88
457.056	82.88
457.276	83.88
457.497	86.88
457.717	87.88
457.937	98.88
458.157	98.88
458.377	95.88
458.598	106.88
458.818	139.88
459.038	165.88
459.258	115.88
459.478	98.88
459.698	88.88
459.918	76.88
460.138	81.88
460.358	84.88
460.578	80.88
460.798	96.88
461.018	86.88
461.238	103.88
461.458	90.88
461.678	82.88
461.898	90.88
462.118	88.88
462.338	88.88
462.558	99.88
462.777	98.88
462.997	101.88
463.217	91.88
463.437	87.88
463.657	86.88
463.876	95.88
464.096	86.88
464.316	86.88
464.536	118.88
464.755	104.88
464.975	106.88
465.195	172.88
465.414	178.88
465.634	94.88
465.854	95.88
466.073	81.88
466.293	104.88
466.512	91.88
466.732	96.88
466.951	92.88
467.171	93.88
467.391	105.88
467.61	107.88
467.829	117.88
468.049	265.88
468.268	367.88
468.488	121.88
468.707	115.88
468.927	96.88
469.146	89.88
469.365	94.88
469.585	87.88
469.804	100.88
470.023	102.88
470.243	92.88
470.462	103.88
470.681	107.88
470.901	98.88
471.12	96.88
471.339	101.88
471.558	90.88
471.777	116.88
471.997	167.88
472.216	474.88
472.435	1038.88
472.654	281.88
472.873	110.88
473.092	98.88
473.311	105.88
473.53	86.88
473.749	88.88
473.968	107.88
474.187	128.88
474.406	113.88
474.625	89.88
474.844	90.88
475.063	95.88
475.282	106.88
475.501	86.88
475.72	98.88
475.939	102.88
476.158	98.88
476.377	85.88
476.596	83.88
476.814	99.88
477.033	94.88
477.252	78.88
477.471	85.88
477.69	91.88
477.908	83.88
478.127	111.88
478.346	96.88
478.564	104.88
478.783	92.88
479.002	95.88
479.22	93.88
479.439	109.88
479.658	116.88
479.876	118.88
480.095	107.88
480.313	107.88
480.532	136.88
480.751	174.88
480.969	453.88
481.188	1788.88
481.406	1078.88
481.624	200.88
481.843	121.88
482.061	106.88
482.28	97.88
482.498	103.88
482.717	106.88
482.935	80.88
483.153	88.88
483.372	104.88
483.59	98.88
483.808	94.88
484.027	108.88
484.245	91.88
484.463	89.88
484.681	104.88
484.9	113.88
485.118	108.88
485.336	105.88
485.554	102.88
485.772	120.88
485.99	106.88
486.209	103.88
486.427	101.88
486.645	108.88
486.863	118.88
487.081	100.88
487.299	114.88
487.517	98.88
487.735	94.88
487.953	103.88
488.171	90.88
488.389	94.88
488.607	91.88
488.825	95.88
489.043	97.88
489.261	86.88
489.479	87.88
489.696	83.88
489.914	88.88
490.132	97.88
490.35	95.88
490.568	105.88
490.786	96.88
491.003	91.88
491.221	103.88
491.439	73.88
491.657	102.88
491.874	86.88
492.092	79.88
492.31	103.88
492.527	106.88
492.745	87.88
492.963	107.88
493.18	95.88
493.398	97.88
493.615	81.88
493.833	106.88
494.05	88.88
494.268	95.88
494.485	102.88
494.703	75.88
494.92	89.88
495.138	97.88
495.355	91.88
495.573	106.88
495.79	90.88
496.008	90.88
496.225	84.88
496.442	96.88
496.66	104.88
496.877	85.88
497.094	89.88
497.312	93.88
497.529	81.88
497.746	104.88
497.963	106.88
498.181	94.88
498.398	99.88
498.615	122.88
498.832	98.88
499.049	102.88
499.267	82.88
499.484	82.88
499.701	103.88
499.918	86.88
500.135	92.88
500.352	86.88
500.569	99.88
500.786	91.88
501.003	84.88
501.22	90.88
501.437	91.88
501.654	102.88
501.871	110.88
502.088	87.88
502.305	90.88
502.522	101.88
502.739	78.88
502.956	97.88
503.172	94.88
503.389	101.88
503.606	117.88
503.823	91.88
504.04	90.88
504.256	93.88
504.473	91.88
504.69	90.88
504.907	100.88
505.123	85.88
505.34	96.88
505.557	80.88
505.773	83.88
505.99	107.88
506.207	94.88
506.423	83.88
506.64	73.88
506.856	90.88
507.073	83.88
507.289	98.88
507.506	108.88
507.722	123.88
507.939	100.88
508.155	93.88
508.372	92.88
508.588	100.88
508.805	98.88
509.021	96.88
509.238	107.88
509.454	99.88
509.67	97.88
509.887	111.88
510.103	134.88
510.319	206.88
510.536	678.88
510.752	2275.88
510.968	619.88
511.184	161.88
511.401	115.88
511.617	97.88
511.833	111.88
512.049	102.88
512.265	98.88
512.481	93.88
512.698	95.88
512.914	93.88
513.13	105.88
513.346	84.88
513.562	89.88
