Data from Circ_1987_H10_HRD10591_00004.txt Node
Date: Wed Jan 03 12:10:33 EST 2024
User: Yrep
Spectrometer: HR+D1059
Trigger mode: 1
Integration Time (sec): 1.000000E-1
Scans to average: 1
Electric dark correction enabled: true
Nonlinearity correction enabled: false
Boxcar width: 0
XAxis mode: Wavelengths
Number of Pixels in Spectrum: 2048
>>>>>Begin Spectral Data<<<<<
223.165	-16.88
223.4	-16.88
223.635	-16.88
223.869	-17.88
224.104	-24.88
224.338	-10.88
224.573	-16.88
224.808	-15.88
225.042	-16.88
225.277	-6.88
225.511	-0.88
225.746	12.12
225.98	15.12
226.215	18.12
226.449	14.12
226.683	15.12
226.918	23.12
227.152	30.12
227.387	38.12
227.621	37.12
227.856	50.12
228.09	60.12
228.324	47.12
228.559	58.12
228.793	63.12
229.027	75.12
229.262	61.12
229.496	67.12
229.73	82.12
229.964	79.12
230.199	68.12
230.433	79.12
230.667	84.12
230.901	91.12
231.136	72.12
231.37	63.12
231.604	78.12
231.838	77.12
232.072	81.12
232.306	90.12
232.541	74.12
232.775	83.12
233.009	82.12
233.243	82.12
233.477	79.12
233.711	76.12
233.945	78.12
234.179	97.12
234.413	92.12
234.647	90.12
234.881	80.12
235.115	69.12
235.349	84.12
235.583	76.12
235.817	81.12
236.051	79.12
236.285	76.12
236.519	83.12
236.753	75.12
236.987	80.12
237.221	83.12
237.455	78.12
237.689	77.12
237.922	72.12
238.156	68.12
238.39	62.12
238.624	76.12
238.858	80.12
239.091	70.12
239.325	67.12
239.559	84.12
239.793	75.12
240.027	80.12
240.26	80.12
240.494	77.12
240.728	77.12
240.961	85.12
241.195	83.12
241.429	70.12
241.662	58.12
241.896	74.12
242.13	77.12
242.363	65.12
242.597	62.12
242.83	90.12
243.064	75.12
243.298	67.12
243.531	84.12
243.765	68.12
243.998	68.12
244.232	72.12
244.465	88.12
244.699	78.12
244.932	91.12
245.166	77.12
245.399	78.12
245.633	90.12
245.866	82.12
246.099	71.12
246.333	70.12
246.566	82.12
246.8	78.12
247.033	67.12
247.266	67.12
247.5	71.12
247.733	83.12
247.966	84.12
248.2	70.12
248.433	79.12
248.666	92.12
248.899	83.12
249.133	77.12
249.366	94.12
249.599	94.12
249.832	78.12
250.066	84.12
250.299	100.12
250.532	79.12
250.765	80.12
250.998	77.12
251.231	78.12
251.465	92.12
251.698	77.12
251.931	82.12
252.164	81.12
252.397	78.12
252.63	81.12
252.863	81.12
253.096	78.12
253.329	80.12
253.562	76.12
253.795	77.12
254.028	68.12
254.261	86.12
254.494	78.12
254.727	84.12
254.96	86.12
255.193	85.12
255.426	61.12
255.659	93.12
255.892	95.12
256.124	92.12
256.357	98.12
256.59	84.12
256.823	76.12
257.056	91.12
257.289	85.12
257.521	75.12
257.754	75.12
257.987	79.12
258.22	83.12
258.452	90.12
258.685	87.12
258.918	92.12
259.151	78.12
259.383	76.12
259.616	63.12
259.849	88.12
260.081	86.12
260.314	94.12
260.547	79.12
260.779	97.12
261.012	105.12
261.244	94.12
261.477	76.12
261.71	99.12
261.942	122.12
262.175	125.12
262.407	90.12
262.64	100.12
262.872	74.12
263.105	83.12
263.337	97.12
263.57	78.12
263.802	84.12
264.035	82.12
264.267	79.12
264.499	77.12
264.732	83.12
264.964	91.12
265.197	93.12
265.429	74.12
265.661	88.12
265.894	81.12
266.126	81.12
266.358	79.12
266.591	68.12
266.823	76.12
267.055	78.12
267.287	96.12
267.52	94.12
267.752	93.12
267.984	93.12
268.216	84.12
268.448	94.12
268.681	98.12
268.913	86.12
269.145	89.12
269.377	80.12
269.609	87.12
269.841	81.12
270.073	85.12
270.306	78.12
270.538	79.12
270.77	61.12
271.002	82.12
271.234	93.12
271.466	99.12
271.698	86.12
271.93	91.12
272.162	76.12
272.394	67.12
272.626	83.12
272.858	81.12
273.09	87.12
273.322	83.12
273.553	76.12
273.785	82.12
274.017	98.12
274.249	95.12
274.481	79.12
274.713	84.12
274.945	94.12
275.176	97.12
275.408	96.12
275.64	112.12
275.872	121.12
276.104	98.12
276.335	98.12
276.567	115.12
276.799	128.12
277.031	162.12
277.262	152.12
277.494	128.12
277.726	98.12
277.957	86.12
278.189	90.12
278.421	94.12
278.652	91.12
278.884	80.12
279.115	95.12
279.347	95.12
279.579	92.12
279.81	114.12
280.042	156.12
280.273	203.12
280.505	150.12
280.736	93.12
280.968	78.12
281.199	76.12
281.431	84.12
281.662	103.12
281.894	97.12
282.125	92.12
282.356	119.12
282.588	162.12
282.819	126.12
283.051	83.12
283.282	85.12
283.513	86.12
283.745	84.12
283.976	91.12
284.207	76.12
284.439	86.12
284.67	92.12
284.901	79.12
285.132	99.12
285.364	98.12
285.595	96.12
285.826	96.12
286.057	91.12
286.288	89.12
286.52	76.12
286.751	87.12
286.982	90.12
287.213	93.12
287.444	91.12
287.675	81.12
287.906	85.12
288.138	86.12
288.369	108.12
288.6	105.12
288.831	90.12
289.062	87.12
289.293	93.12
289.524	90.12
289.755	91.12
289.986	79.12
290.217	80.12
290.448	90.12
290.679	82.12
290.91	100.12
291.141	107.12
291.371	94.12
291.602	81.12
291.833	88.12
292.064	84.12
292.295	100.12
292.526	82.12
292.757	79.12
292.987	90.12
293.218	88.12
293.449	72.12
293.68	95.12
293.91	103.12
294.141	83.12
294.372	96.12
294.603	79.12
294.833	91.12
295.064	84.12
295.295	79.12
295.525	85.12
295.756	97.12
295.987	132.12
296.217	156.12
296.448	138.12
296.679	91.12
296.909	96.12
297.14	85.12
297.37	90.12
297.601	80.12
297.831	94.12
298.062	83.12
298.292	90.12
298.523	86.12
298.753	95.12
298.984	98.12
299.214	84.12
299.445	82.12
299.675	97.12
299.905	103.12
300.136	96.12
300.366	93.12
300.597	97.12
300.827	94.12
301.057	115.12
301.288	108.12
301.518	97.12
301.748	93.12
301.979	107.12
302.209	98.12
302.439	81.12
302.669	100.12
302.9	98.12
303.13	89.12
303.36	95.12
303.59	130.12
303.82	127.12
304.051	101.12
304.281	88.12
304.511	90.12
304.741	87.12
304.971	78.12
305.201	100.12
305.431	80.12
305.661	100.12
305.891	91.12
306.121	90.12
306.352	105.12
306.582	103.12
306.812	111.12
307.042	117.12
307.272	117.12
307.502	131.12
307.731	160.12
307.961	116.12
308.191	94.12
308.421	96.12
308.651	92.12
308.881	78.12
309.111	92.12
309.341	96.12
309.571	93.12
309.8	98.12
310.03	77.12
310.26	93.12
310.49	99.12
310.72	100.12
310.949	110.12
311.179	115.12
311.409	103.12
311.639	92.12
311.868	104.12
312.098	103.12
312.328	103.12
312.557	116.12
312.787	117.12
313.017	104.12
313.246	105.12
313.476	99.12
313.706	108.12
313.935	95.12
314.165	103.12
314.394	103.12
314.624	83.12
314.853	100.12
315.083	87.12
315.312	90.12
315.542	85.12
315.771	93.12
316.001	94.12
316.23	87.12
316.46	81.12
316.689	91.12
316.919	103.12
317.148	103.12
317.377	85.12
317.607	93.12
317.836	99.12
318.065	88.12
318.295	93.12
318.524	92.12
318.753	83.12
318.983	105.12
319.212	103.12
319.441	109.12
319.67	106.12
319.9	95.12
320.129	99.12
320.358	101.12
320.587	89.12
320.816	92.12
321.046	114.12
321.275	83.12
321.504	83.12
321.733	97.12
321.962	82.12
322.191	95.12
322.42	110.12
322.649	109.12
322.878	122.12
323.108	112.12
323.337	133.12
323.566	129.12
323.795	157.12
324.024	186.12
324.253	365.12
324.482	745.12
324.71	1540.12
324.939	1973.12
325.168	753.12
325.397	224.12
325.626	156.12
325.855	137.12
326.084	114.12
326.313	132.12
326.542	153.12
326.77	201.12
326.999	390.12
327.228	755.12
327.457	1375.12
327.686	1114.12
327.914	423.12
328.143	354.12
328.372	456.12
328.6	305.12
328.829	150.12
329.058	166.12
329.287	171.12
329.515	161.12
329.744	180.12
329.972	318.12
330.201	654.12
330.43	983.12
330.658	473.12
330.887	228.12
331.115	174.12
331.344	120.12
331.572	115.12
331.801	126.12
332.03	123.12
332.258	100.12
332.486	106.12
332.715	103.12
332.943	103.12
333.172	106.12
333.4	112.12
333.629	130.12
333.857	170.12
334.085	309.12
334.314	590.12
334.542	1157.12
334.771	1121.12
334.999	321.12
335.227	142.12
335.455	106.12
335.684	108.12
335.912	104.12
336.14	100.12
336.369	102.12
336.597	91.12
336.825	102.12
337.053	107.12
337.281	95.12
337.51	78.12
337.738	93.12
337.966	95.12
338.194	108.12
338.422	110.12
338.65	108.12
338.878	99.12
339.106	89.12
339.334	93.12
339.562	82.12
339.79	91.12
340.018	94.12
340.246	104.12
340.474	96.12
340.702	106.12
340.93	90.12
341.158	97.12
341.386	90.12
341.614	88.12
341.842	89.12
342.07	91.12
342.298	95.12
342.526	73.12
342.754	83.12
342.981	98.12
343.209	90.12
343.437	94.12
343.665	90.12
343.893	93.12
344.12	101.12
344.348	91.12
344.576	97.12
344.804	84.12
345.031	103.12
345.259	104.12
345.487	102.12
345.714	103.12
345.942	98.12
346.17	90.12
346.397	81.12
346.625	107.12
346.853	89.12
347.08	96.12
347.308	101.12
347.535	84.12
347.763	101.12
347.99	102.12
348.218	103.12
348.445	116.12
348.673	115.12
348.9	92.12
349.128	99.12
349.355	92.12
349.583	99.12
349.81	93.12
350.037	98.12
350.265	108.12
350.492	83.12
350.72	93.12
350.947	94.12
351.174	101.12
351.402	114.12
351.629	96.12
351.856	107.12
352.083	110.12
352.311	105.12
352.538	124.12
352.765	100.12
352.992	119.12
353.22	111.12
353.447	106.12
353.674	99.12
353.901	90.12
354.128	91.12
354.355	97.12
354.583	92.12
354.81	90.12
355.037	95.12
355.264	108.12
355.491	84.12
355.718	88.12
355.945	107.12
356.172	86.12
356.399	101.12
356.626	100.12
356.853	84.12
357.08	87.12
357.307	85.12
357.534	84.12
357.761	92.12
357.988	84.12
358.215	85.12
358.441	100.12
358.668	92.12
358.895	81.12
359.122	88.12
359.349	90.12
359.576	110.12
359.802	109.12
360.029	141.12
360.256	130.12
360.483	108.12
360.709	93.12
360.936	80.12
361.163	98.12
361.39	92.12
361.616	92.12
361.843	98.12
362.07	101.12
362.296	108.12
362.523	82.12
362.749	93.12
362.976	83.12
363.203	92.12
363.429	98.12
363.656	105.12
363.882	91.12
364.109	86.12
364.335	81.12
364.562	93.12
364.788	90.12
365.015	87.12
365.241	110.12
365.468	107.12
365.694	123.12
365.92	94.12
366.147	93.12
366.373	83.12
366.599	88.12
366.826	94.12
367.052	92.12
367.278	80.12
367.505	100.12
367.731	105.12
367.957	92.12
368.184	112.12
368.41	104.12
368.636	126.12
368.862	124.12
369.089	128.12
369.315	99.12
369.541	101.12
369.767	90.12
369.993	100.12
370.219	93.12
370.445	97.12
370.672	86.12
370.898	84.12
371.124	82.12
371.35	91.12
371.576	86.12
371.802	81.12
372.028	85.12
372.254	95.12
372.48	96.12
372.706	78.12
372.932	86.12
373.158	92.12
373.384	88.12
373.61	94.12
373.835	85.12
374.061	91.12
374.287	91.12
374.513	87.12
374.739	92.12
374.965	93.12
375.191	103.12
375.416	93.12
375.642	89.12
375.868	80.12
376.094	96.12
376.319	88.12
376.545	88.12
376.771	96.12
376.997	88.12
377.222	90.12
377.448	93.12
377.674	87.12
377.899	86.12
378.125	94.12
378.35	94.12
378.576	91.12
378.802	84.12
379.027	102.12
379.253	103.12
379.478	99.12
379.704	87.12
379.929	88.12
380.155	82.12
380.38	92.12
380.606	78.12
380.831	92.12
381.057	107.12
381.282	94.12
381.507	103.12
381.733	102.12
381.958	100.12
382.184	109.12
382.409	102.12
382.634	121.12
382.86	96.12
383.085	91.12
383.31	108.12
383.535	98.12
383.761	86.12
383.986	92.12
384.211	98.12
384.436	101.12
384.662	118.12
384.887	119.12
385.112	110.12
385.337	110.12
385.562	124.12
385.787	112.12
386.013	118.12
386.238	129.12
386.463	115.12
386.688	117.12
386.913	123.12
387.138	116.12
387.363	103.12
387.588	115.12
387.813	108.12
388.038	108.12
388.263	117.12
388.488	115.12
388.713	91.12
388.938	98.12
389.163	93.12
389.387	93.12
389.612	93.12
389.837	79.12
390.062	96.12
390.287	87.12
390.512	88.12
390.736	71.12
390.961	92.12
391.186	116.12
391.411	91.12
391.636	80.12
391.86	78.12
392.085	77.12
392.31	91.12
392.534	70.12
392.759	83.12
392.984	90.12
393.208	71.12
393.433	103.12
393.658	108.12
393.882	91.12
394.107	85.12
394.331	74.12
394.556	71.12
394.78	81.12
395.005	74.12
395.229	77.12
395.454	95.12
395.678	82.12
395.903	98.12
396.127	86.12
396.352	74.12
396.576	89.12
396.801	86.12
397.025	103.12
397.249	82.12
397.474	94.12
397.698	74.12
397.922	90.12
398.147	84.12
398.371	90.12
398.595	95.12
398.82	78.12
399.044	91.12
399.268	94.12
399.492	91.12
399.717	80.12
399.941	64.12
400.165	99.12
400.389	87.12
400.613	89.12
400.837	81.12
401.062	86.12
401.286	77.12
401.51	88.12
401.734	98.12
401.958	100.12
402.182	139.12
402.406	202.12
402.63	132.12
402.854	96.12
403.078	85.12
403.302	92.12
403.526	93.12
403.75	86.12
403.974	84.12
404.198	99.12
404.422	78.12
404.645	83.12
404.869	92.12
405.093	112.12
405.317	138.12
405.541	124.12
405.765	108.12
405.988	144.12
406.212	221.12
406.436	296.12
406.66	209.12
406.883	108.12
407.107	111.12
407.331	109.12
407.555	95.12
407.778	109.12
408.002	86.12
408.226	100.12
408.449	88.12
408.673	94.12
408.896	92.12
409.12	107.12
409.344	67.12
409.567	83.12
409.791	98.12
410.014	78.12
410.238	84.12
410.461	89.12
410.685	92.12
410.908	92.12
411.132	110.12
411.355	79.12
411.578	91.12
411.802	93.12
412.025	79.12
412.249	96.12
412.472	122.12
412.695	132.12
412.919	112.12
413.142	101.12
413.365	80.12
413.589	91.12
413.812	86.12
414.035	94.12
414.258	93.12
414.482	97.12
414.705	86.12
414.928	85.12
415.151	101.12
415.374	80.12
415.597	82.12
415.821	87.12
416.044	77.12
416.267	84.12
416.49	77.12
416.713	98.12
416.936	100.12
417.159	104.12
417.382	83.12
417.605	71.12
417.828	103.12
418.051	102.12
418.274	83.12
418.497	98.12
418.72	93.12
418.943	82.12
419.166	79.12
419.389	91.12
419.611	94.12
419.834	86.12
420.057	88.12
420.28	77.12
420.503	94.12
420.726	86.12
420.948	98.12
421.171	92.12
421.394	94.12
421.617	85.12
421.839	86.12
422.062	71.12
422.285	102.12
422.507	97.12
422.73	107.12
422.953	99.12
423.175	90.12
423.398	80.12
423.621	84.12
423.843	103.12
424.066	95.12
424.288	93.12
424.511	98.12
424.733	90.12
424.956	109.12
425.178	113.12
425.401	102.12
425.623	103.12
425.846	92.12
426.068	82.12
426.291	89.12
426.513	106.12
426.735	94.12
426.958	89.12
427.18	117.12
427.402	167.12
427.625	235.12
427.847	200.12
428.069	167.12
428.292	108.12
428.514	94.12
428.736	75.12
428.958	93.12
429.181	70.12
429.403	68.12
429.625	66.12
429.847	103.12
430.069	114.12
430.292	92.12
430.514	91.12
430.736	96.12
430.958	92.12
431.18	88.12
431.402	79.12
431.624	79.12
431.846	92.12
432.068	84.12
432.29	96.12
432.512	77.12
432.734	85.12
432.956	90.12
433.178	88.12
433.4	102.12
433.622	79.12
433.844	93.12
434.066	92.12
434.287	83.12
434.509	95.12
434.731	96.12
434.953	87.12
435.175	88.12
435.397	88.12
435.618	88.12
435.84	97.12
436.062	114.12
436.284	124.12
436.505	94.12
436.727	79.12
436.949	88.12
437.17	74.12
437.392	96.12
437.614	110.12
437.835	110.12
438.057	154.12
438.278	110.12
438.5	111.12
438.721	129.12
438.943	102.12
439.165	90.12
439.386	114.12
439.608	94.12
439.829	97.12
440.05	123.12
440.272	158.12
440.493	106.12
440.715	70.12
440.936	91.12
441.158	84.12
441.379	92.12
441.6	98.12
441.822	90.12
442.043	76.12
442.264	114.12
442.486	109.12
442.707	95.12
442.928	126.12
443.149	143.12
443.371	155.12
443.592	132.12
443.813	115.12
444.034	114.12
444.255	96.12
444.476	99.12
444.698	86.12
444.919	89.12
445.14	117.12
445.361	108.12
445.582	138.12
445.803	160.12
446.024	148.12
446.245	135.12
446.466	113.12
446.687	91.12
446.908	98.12
447.129	95.12
447.35	94.12
447.571	93.12
447.792	95.12
448.013	102.12
448.234	106.12
448.455	93.12
448.675	125.12
448.896	119.12
449.117	99.12
449.338	101.12
449.559	123.12
449.779	129.12
450	98.12
450.221	84.12
450.442	94.12
450.662	100.12
450.883	124.12
451.104	127.12
451.324	100.12
451.545	92.12
451.766	85.12
451.986	82.12
452.207	85.12
452.428	105.12
452.648	116.12
452.869	127.12
453.089	133.12
453.31	132.12
453.53	120.12
453.751	100.12
453.971	115.12
454.192	128.12
454.412	94.12
454.633	82.12
454.853	84.12
455.073	78.12
455.294	91.12
455.514	104.12
455.734	90.12
455.955	85.12
456.175	84.12
456.395	79.12
456.616	87.12
456.836	91.12
457.056	85.12
457.276	87.12
457.497	94.12
457.717	81.12
457.937	90.12
458.157	82.12
458.377	104.12
458.598	118.12
458.818	189.12
459.038	206.12
459.258	139.12
459.478	98.12
459.698	89.12
459.918	94.12
460.138	93.12
460.358	87.12
460.578	103.12
460.798	91.12
461.018	93.12
461.238	80.12
461.458	80.12
461.678	82.12
461.898	81.12
462.118	82.12
462.338	82.12
462.558	97.12
462.777	80.12
462.997	78.12
463.217	101.12
463.437	103.12
463.657	82.12
463.876	82.12
464.096	91.12
464.316	94.12
464.536	99.12
464.755	92.12
464.975	109.12
465.195	211.12
465.414	224.12
465.634	116.12
465.854	103.12
466.073	86.12
466.293	84.12
466.512	75.12
466.732	84.12
466.951	93.12
467.171	98.12
467.391	104.12
467.61	124.12
467.829	171.12
468.049	390.12
468.268	566.12
468.488	165.12
468.707	88.12
468.927	94.12
469.146	90.12
469.365	93.12
469.585	98.12
469.804	108.12
470.023	100.12
470.243	100.12
470.462	113.12
470.681	132.12
470.901	99.12
471.12	92.12
471.339	88.12
471.558	99.12
471.777	132.12
471.997	214.12
472.216	724.12
472.435	1620.12
472.654	405.12
472.873	146.12
473.092	96.12
473.311	99.12
473.53	88.12
473.749	88.12
473.968	101.12
474.187	120.12
474.406	100.12
474.625	91.12
474.844	85.12
475.063	102.12
475.282	102.12
475.501	89.12
475.72	109.12
475.939	99.12
476.158	82.12
476.377	82.12
476.596	95.12
476.814	95.12
477.033	93.12
477.252	91.12
477.471	80.12
477.69	99.12
477.908	107.12
478.127	90.12
478.346	86.12
478.564	94.12
478.783	106.12
479.002	91.12
479.22	110.12
479.439	118.12
479.658	120.12
479.876	118.12
480.095	103.12
480.313	117.12
480.532	130.12
480.751	221.12
480.969	672.12
481.188	2803.12
481.406	1638.12
481.624	274.12
481.843	106.12
482.061	99.12
482.28	108.12
482.498	94.12
482.717	83.12
482.935	84.12
483.153	88.12
483.372	92.12
483.59	86.12
483.808	86.12
484.027	85.12
484.245	98.12
484.463	89.12
484.681	102.12
484.9	94.12
485.118	86.12
485.336	96.12
485.554	95.12
485.772	108.12
485.99	93.12
486.209	118.12
486.427	115.12
486.645	126.12
486.863	114.12
487.081	103.12
487.299	95.12
487.517	103.12
487.735	94.12
487.953	91.12
488.171	102.12
488.389	103.12
488.607	104.12
488.825	101.12
489.043	81.12
489.261	94.12
489.479	83.12
489.696	87.12
489.914	106.12
490.132	84.12
490.35	83.12
490.568	86.12
490.786	101.12
491.003	93.12
491.221	94.12
491.439	102.12
491.657	90.12
491.874	92.12
492.092	90.12
492.31	99.12
492.527	88.12
492.745	108.12
492.963	97.12
493.18	86.12
493.398	81.12
493.615	91.12
493.833	92.12
494.05	94.12
494.268	101.12
494.485	96.12
494.703	100.12
494.92	86.12
495.138	92.12
495.355	95.12
495.573	88.12
495.79	95.12
496.008	101.12
496.225	102.12
496.442	92.12
496.66	108.12
496.877	88.12
497.094	99.12
497.312	90.12
497.529	85.12
497.746	92.12
497.963	91.12
498.181	93.12
498.398	119.12
498.615	115.12
498.832	107.12
499.049	86.12
499.267	92.12
499.484	80.12
499.701	100.12
499.918	91.12
500.135	92.12
500.352	109.12
500.569	100.12
500.786	85.12
501.003	81.12
501.22	92.12
501.437	90.12
501.654	92.12
501.871	109.12
502.088	88.12
502.305	80.12
502.522	82.12
502.739	84.12
502.956	88.12
503.172	83.12
503.389	104.12
503.606	114.12
503.823	106.12
504.04	90.12
504.256	91.12
504.473	86.12
504.69	87.12
504.907	98.12
505.123	94.12
505.34	100.12
505.557	102.12
505.773	104.12
505.99	99.12
506.207	86.12
506.423	80.12
506.64	105.12
506.856	61.12
507.073	85.12
507.289	94.12
507.506	90.12
507.722	116.12
507.939	131.12
508.155	103.12
508.372	95.12
508.588	94.12
508.805	97.12
509.021	106.12
509.238	104.12
509.454	102.12
509.67	116.12
509.887	116.12
510.103	131.12
510.319	226.12
510.536	872.12
510.752	3011.12
510.968	792.12
511.184	170.12
511.401	130.12
511.617	106.12
511.833	102.12
512.049	98.12
512.265	101.12
512.481	86.12
512.698	97.12
512.914	94.12
513.13	90.12
513.346	102.12
513.562	87.12
513.778	99.12
513.994	100.12
