Data from Circ_1987_H10_HRD10591_00047.txt Node
Date: Wed Jan 03 12:10:42 EST 2024
User: Yrep
Spectrometer: HR+D1059
Trigger mode: 1
Integration Time (sec): 1.000000E-1
Scans to average: 1
Electric dark correction enabled: true
Nonlinearity correction enabled: false
Boxcar width: 0
XAxis mode: Wavelengths
Number of Pixels in Spectrum: 2048
>>>>>Begin Spectral Data<<<<<
223.165	-12.75
223.4	-12.75
223.635	-12.75
223.869	-20.75
224.104	-21.75
224.338	-16.75
224.573	-12.75
224.808	-1.75
225.042	-0.75
225.277	-5.75
225.511	5.25
225.746	-0.75
225.98	-3.75
226.215	7.25
226.449	16.25
226.683	12.25
226.918	31.25
227.152	25.25
227.387	37.25
227.621	35.25
227.856	49.25
228.09	40.25
228.324	50.25
228.559	48.25
228.793	46.25
229.027	71.25
229.262	64.25
229.496	73.25
229.73	84.25
229.964	96.25
230.199	67.25
230.433	73.25
230.667	77.25
230.901	81.25
231.136	73.25
231.37	71.25
231.604	94.25
231.838	96.25
232.072	82.25
232.306	83.25
232.541	68.25
232.775	78.25
233.009	77.25
233.243	86.25
233.477	83.25
233.711	78.25
233.945	64.25
234.179	90.25
234.413	76.25
234.647	84.25
234.881	73.25
235.115	88.25
235.349	74.25
235.583	76.25
235.817	67.25
236.051	80.25
236.285	94.25
236.519	82.25
236.753	82.25
236.987	81.25
237.221	89.25
237.455	95.25
237.689	68.25
237.922	76.25
238.156	74.25
238.39	89.25
238.624	89.25
238.858	74.25
239.091	73.25
239.325	77.25
239.559	98.25
239.793	78.25
240.027	74.25
240.26	86.25
240.494	72.25
240.728	66.25
240.961	64.25
241.195	89.25
241.429	82.25
241.662	84.25
241.896	76.25
242.13	73.25
242.363	86.25
242.597	83.25
242.83	79.25
243.064	80.25
243.298	79.25
243.531	66.25
243.765	81.25
243.998	76.25
244.232	93.25
244.465	83.25
244.699	70.25
244.932	82.25
245.166	85.25
245.399	78.25
245.633	77.25
245.866	78.25
246.099	80.25
246.333	91.25
246.566	82.25
246.8	85.25
247.033	86.25
247.266	74.25
247.5	83.25
247.733	81.25
247.966	66.25
248.2	76.25
248.433	84.25
248.666	79.25
248.899	86.25
249.133	89.25
249.366	95.25
249.599	84.25
249.832	80.25
250.066	80.25
250.299	81.25
250.532	77.25
250.765	85.25
250.998	91.25
251.231	68.25
251.465	81.25
251.698	89.25
251.931	85.25
252.164	82.25
252.397	64.25
252.63	78.25
252.863	79.25
253.096	78.25
253.329	79.25
253.562	95.25
253.795	87.25
254.028	74.25
254.261	74.25
254.494	87.25
254.727	88.25
254.96	80.25
255.193	72.25
255.426	88.25
255.659	86.25
255.892	81.25
256.124	109.25
256.357	82.25
256.59	85.25
256.823	78.25
257.056	81.25
257.289	90.25
257.521	96.25
257.754	85.25
257.987	74.25
258.22	88.25
258.452	106.25
258.685	105.25
258.918	88.25
259.151	78.25
259.383	70.25
259.616	77.25
259.849	90.25
260.081	72.25
260.314	77.25
260.547	84.25
260.779	92.25
261.012	91.25
261.244	107.25
261.477	104.25
261.71	105.25
261.942	114.25
262.175	140.25
262.407	101.25
262.64	85.25
262.872	85.25
263.105	105.25
263.337	82.25
263.57	90.25
263.802	97.25
264.035	74.25
264.267	89.25
264.499	88.25
264.732	90.25
264.964	77.25
265.197	81.25
265.429	70.25
265.661	68.25
265.894	77.25
266.126	80.25
266.358	79.25
266.591	85.25
266.823	85.25
267.055	70.25
267.287	101.25
267.52	77.25
267.752	73.25
267.984	88.25
268.216	84.25
268.448	89.25
268.681	93.25
268.913	101.25
269.145	82.25
269.377	85.25
269.609	76.25
269.841	89.25
270.073	92.25
270.306	83.25
270.538	96.25
270.77	81.25
271.002	101.25
271.234	96.25
271.466	97.25
271.698	81.25
271.93	65.25
272.162	97.25
272.394	80.25
272.626	92.25
272.858	82.25
273.09	77.25
273.322	87.25
273.553	80.25
273.785	82.25
274.017	84.25
274.249	80.25
274.481	83.25
274.713	88.25
274.945	89.25
275.176	94.25
275.408	113.25
275.64	103.25
275.872	119.25
276.104	103.25
276.335	97.25
276.567	124.25
276.799	132.25
277.031	154.25
277.262	156.25
277.494	137.25
277.726	110.25
277.957	101.25
278.189	85.25
278.421	85.25
278.652	71.25
278.884	86.25
279.115	87.25
279.347	93.25
279.579	95.25
279.81	134.25
280.042	189.25
280.273	227.25
280.505	166.25
280.736	102.25
280.968	89.25
281.199	100.25
281.431	88.25
281.662	81.25
281.894	86.25
282.125	107.25
282.356	129.25
282.588	169.25
282.819	118.25
283.051	92.25
283.282	86.25
283.513	101.25
283.745	83.25
283.976	91.25
284.207	85.25
284.439	81.25
284.67	105.25
284.901	78.25
285.132	81.25
285.364	84.25
285.595	100.25
285.826	91.25
286.057	80.25
286.288	80.25
286.52	82.25
286.751	92.25
286.982	98.25
287.213	92.25
287.444	89.25
287.675	88.25
287.906	87.25
288.138	94.25
288.369	98.25
288.6	84.25
288.831	88.25
289.062	101.25
289.293	87.25
289.524	97.25
289.755	87.25
289.986	80.25
290.217	65.25
290.448	87.25
290.679	71.25
290.91	84.25
291.141	104.25
291.371	82.25
291.602	78.25
291.833	77.25
292.064	93.25
292.295	81.25
292.526	83.25
292.757	84.25
292.987	79.25
293.218	86.25
293.449	94.25
293.68	97.25
293.91	97.25
294.141	92.25
294.372	80.25
294.603	89.25
294.833	96.25
295.064	100.25
295.295	97.25
295.525	93.25
295.756	103.25
295.987	135.25
296.217	171.25
296.448	154.25
296.679	100.25
296.909	96.25
297.14	84.25
297.37	96.25
297.601	90.25
297.831	94.25
298.062	97.25
298.292	93.25
298.523	95.25
298.753	83.25
298.984	101.25
299.214	80.25
299.445	86.25
299.675	93.25
299.905	111.25
300.136	95.25
300.366	100.25
300.597	86.25
300.827	97.25
301.057	102.25
301.288	103.25
301.518	92.25
301.748	106.25
301.979	109.25
302.209	88.25
302.439	89.25
302.669	98.25
302.9	88.25
303.13	101.25
303.36	112.25
303.59	136.25
303.82	135.25
304.051	106.25
304.281	104.25
304.511	97.25
304.741	88.25
304.971	96.25
305.201	94.25
305.431	110.25
305.661	89.25
305.891	105.25
306.121	105.25
306.352	121.25
306.582	107.25
306.812	105.25
307.042	113.25
307.272	137.25
307.502	165.25
307.731	160.25
307.961	124.25
308.191	85.25
308.421	88.25
308.651	83.25
308.881	96.25
309.111	96.25
309.341	90.25
309.571	105.25
309.8	104.25
310.03	116.25
310.26	93.25
310.49	95.25
310.72	105.25
310.949	112.25
311.179	111.25
311.409	93.25
311.639	104.25
311.868	109.25
312.098	106.25
312.328	92.25
312.557	96.25
312.787	120.25
313.017	109.25
313.246	98.25
313.476	93.25
313.706	92.25
313.935	112.25
314.165	105.25
314.394	106.25
314.624	107.25
314.853	89.25
315.083	103.25
315.312	94.25
315.542	95.25
315.771	94.25
316.001	91.25
316.23	87.25
316.46	90.25
316.689	88.25
316.919	82.25
317.148	103.25
317.377	105.25
317.607	95.25
317.836	96.25
318.065	98.25
318.295	96.25
318.524	83.25
318.753	95.25
318.983	94.25
319.212	120.25
319.441	112.25
319.67	124.25
319.9	97.25
320.129	97.25
320.358	98.25
320.587	93.25
320.816	119.25
321.046	110.25
321.275	94.25
321.504	92.25
321.733	100.25
321.962	106.25
322.191	98.25
322.42	107.25
322.649	117.25
322.878	108.25
323.108	131.25
323.337	145.25
323.566	140.25
323.795	160.25
324.024	200.25
324.253	373.25
324.482	736.25
324.71	1481.25
324.939	1891.25
325.168	790.25
325.397	268.25
325.626	155.25
325.855	134.25
326.084	132.25
326.313	104.25
326.542	145.25
326.77	221.25
326.999	398.25
327.228	727.25
327.457	1374.25
327.686	1118.25
327.914	441.25
328.143	434.25
328.372	566.25
328.6	326.25
328.829	174.25
329.058	190.25
329.287	212.25
329.515	178.25
329.744	226.25
329.972	400.25
330.201	787.25
330.43	1145.25
330.658	520.25
330.887	277.25
331.115	192.25
331.344	119.25
331.572	124.25
331.801	131.25
332.03	124.25
332.258	116.25
332.486	106.25
332.715	98.25
332.943	109.25
333.172	107.25
333.4	117.25
333.629	143.25
333.857	202.25
334.085	348.25
334.314	729.25
334.542	1382.25
334.771	1337.25
334.999	354.25
335.227	147.25
335.455	123.25
335.684	114.25
335.912	105.25
336.14	100.25
336.369	103.25
336.597	112.25
336.825	92.25
337.053	81.25
337.281	97.25
337.51	92.25
337.738	101.25
337.966	119.25
338.194	107.25
338.422	112.25
338.65	88.25
338.878	98.25
339.106	93.25
339.334	95.25
339.562	87.25
339.79	100.25
340.018	97.25
340.246	101.25
340.474	102.25
340.702	105.25
340.93	90.25
341.158	96.25
341.386	106.25
341.614	103.25
341.842	116.25
342.07	106.25
342.298	94.25
342.526	91.25
342.754	91.25
342.981	81.25
343.209	93.25
343.437	102.25
343.665	89.25
343.893	91.25
344.12	93.25
344.348	98.25
344.576	92.25
344.804	90.25
345.031	100.25
345.259	97.25
345.487	103.25
345.714	106.25
345.942	89.25
346.17	94.25
346.397	99.25
346.625	103.25
346.853	94.25
347.08	99.25
347.308	99.25
347.535	105.25
347.763	120.25
347.99	105.25
348.218	109.25
348.445	113.25
348.673	113.25
348.9	104.25
349.128	86.25
349.355	97.25
349.583	96.25
349.81	81.25
350.037	79.25
350.265	109.25
350.492	100.25
350.72	107.25
350.947	108.25
351.174	102.25
351.402	112.25
351.629	113.25
351.856	107.25
352.083	124.25
352.311	109.25
352.538	110.25
352.765	112.25
352.992	118.25
353.22	124.25
353.447	112.25
353.674	88.25
353.901	92.25
354.128	91.25
354.355	95.25
354.583	100.25
354.81	94.25
355.037	91.25
355.264	87.25
355.491	83.25
355.718	83.25
355.945	103.25
356.172	90.25
356.399	101.25
356.626	79.25
356.853	85.25
357.08	90.25
357.307	103.25
357.534	86.25
357.761	80.25
357.988	93.25
358.215	90.25
358.441	85.25
358.668	97.25
358.895	83.25
359.122	98.25
359.349	86.25
359.576	106.25
359.802	107.25
360.029	148.25
360.256	140.25
360.483	114.25
360.709	101.25
360.936	95.25
361.163	99.25
361.39	111.25
361.616	105.25
361.843	87.25
362.07	105.25
362.296	101.25
362.523	93.25
362.749	93.25
362.976	85.25
363.203	91.25
363.429	86.25
363.656	114.25
363.882	97.25
364.109	95.25
364.335	104.25
364.562	103.25
364.788	114.25
365.015	87.25
365.241	116.25
365.468	125.25
365.694	124.25
365.92	100.25
366.147	94.25
366.373	93.25
366.599	105.25
366.826	93.25
367.052	101.25
367.278	103.25
367.505	95.25
367.731	87.25
367.957	98.25
368.184	102.25
368.41	114.25
368.636	126.25
368.862	122.25
369.089	123.25
369.315	100.25
369.541	96.25
369.767	93.25
369.993	103.25
370.219	92.25
370.445	91.25
370.672	72.25
370.898	93.25
371.124	88.25
371.35	87.25
371.576	99.25
371.802	83.25
372.028	93.25
372.254	88.25
372.48	92.25
372.706	80.25
372.932	86.25
373.158	89.25
373.384	94.25
373.61	103.25
373.835	99.25
374.061	105.25
374.287	96.25
374.513	87.25
374.739	85.25
374.965	93.25
375.191	105.25
375.416	102.25
375.642	99.25
375.868	92.25
376.094	101.25
376.319	92.25
376.545	88.25
376.771	83.25
376.997	97.25
377.222	80.25
377.448	102.25
377.674	88.25
377.899	94.25
378.125	86.25
378.35	90.25
378.576	88.25
378.802	73.25
379.027	89.25
379.253	90.25
379.478	77.25
379.704	82.25
379.929	94.25
380.155	93.25
380.38	95.25
380.606	110.25
380.831	101.25
381.057	98.25
381.282	98.25
381.507	93.25
381.733	88.25
381.958	106.25
382.184	94.25
382.409	91.25
382.634	94.25
382.86	96.25
383.085	100.25
383.31	99.25
383.535	105.25
383.761	101.25
383.986	87.25
384.211	88.25
384.436	97.25
384.662	92.25
384.887	105.25
385.112	98.25
385.337	89.25
385.562	103.25
385.787	94.25
386.013	107.25
386.238	124.25
386.463	104.25
386.688	100.25
386.913	95.25
387.138	106.25
387.363	99.25
387.588	109.25
387.813	98.25
388.038	106.25
388.263	102.25
388.488	97.25
388.713	100.25
388.938	94.25
389.163	94.25
389.387	89.25
389.612	90.25
389.837	92.25
390.062	93.25
390.287	94.25
390.512	81.25
390.736	87.25
390.961	78.25
391.186	86.25
391.411	92.25
391.636	84.25
391.86	94.25
392.085	80.25
392.31	69.25
392.534	92.25
392.759	74.25
392.984	93.25
393.208	82.25
393.433	98.25
393.658	84.25
393.882	67.25
394.107	80.25
394.331	94.25
394.556	91.25
394.78	85.25
395.005	94.25
395.229	71.25
395.454	92.25
395.678	80.25
395.903	83.25
396.127	81.25
396.352	93.25
396.576	80.25
396.801	83.25
397.025	83.25
397.249	94.25
397.474	99.25
397.698	77.25
397.922	80.25
398.147	92.25
398.371	80.25
398.595	89.25
398.82	71.25
399.044	92.25
399.268	82.25
399.492	81.25
399.717	87.25
399.941	100.25
400.165	90.25
400.389	82.25
400.613	97.25
400.837	89.25
401.062	111.25
401.286	101.25
401.51	90.25
401.734	111.25
401.958	113.25
402.182	124.25
402.406	208.25
402.63	139.25
402.854	107.25
403.078	92.25
403.302	96.25
403.526	99.25
403.75	90.25
403.974	78.25
404.198	89.25
404.422	102.25
404.645	91.25
404.869	108.25
405.093	108.25
405.317	125.25
405.541	133.25
405.765	112.25
405.988	134.25
406.212	215.25
406.436	318.25
406.66	218.25
406.883	133.25
407.107	99.25
407.331	115.25
407.555	106.25
407.778	101.25
408.002	92.25
408.226	82.25
408.449	91.25
408.673	93.25
408.896	96.25
409.12	84.25
409.344	100.25
409.567	78.25
409.791	82.25
410.014	85.25
410.238	83.25
410.461	98.25
410.685	88.25
410.908	84.25
411.132	97.25
411.355	103.25
411.578	88.25
411.802	85.25
412.025	89.25
412.249	102.25
412.472	116.25
412.695	120.25
412.919	91.25
413.142	91.25
413.365	93.25
413.589	102.25
413.812	84.25
414.035	101.25
414.258	97.25
414.482	113.25
414.705	84.25
414.928	91.25
415.151	103.25
415.374	93.25
415.597	85.25
415.821	85.25
416.044	88.25
416.267	102.25
416.49	91.25
416.713	102.25
416.936	84.25
417.159	90.25
417.382	119.25
417.605	102.25
417.828	109.25
418.051	99.25
418.274	92.25
418.497	87.25
418.72	84.25
418.943	86.25
419.166	85.25
419.389	96.25
419.611	78.25
419.834	72.25
420.057	110.25
420.28	83.25
420.503	85.25
420.726	88.25
420.948	100.25
421.171	99.25
421.394	100.25
421.617	95.25
421.839	89.25
422.062	78.25
422.285	89.25
422.507	103.25
422.73	115.25
422.953	97.25
423.175	87.25
423.398	97.25
423.621	89.25
423.843	78.25
424.066	88.25
424.288	94.25
424.511	88.25
424.733	100.25
424.956	109.25
425.178	100.25
425.401	100.25
425.623	98.25
425.846	84.25
426.068	101.25
426.291	102.25
426.513	89.25
426.735	90.25
426.958	90.25
427.18	115.25
427.402	169.25
427.625	236.25
427.847	201.25
428.069	176.25
428.292	114.25
428.514	86.25
428.736	82.25
428.958	89.25
429.181	102.25
429.403	93.25
429.625	102.25
429.847	105.25
430.069	88.25
430.292	113.25
430.514	83.25
430.736	67.25
430.958	91.25
431.18	86.25
431.402	93.25
431.624	75.25
431.846	74.25
432.068	88.25
432.29	89.25
432.512	93.25
432.734	92.25
432.956	100.25
433.178	91.25
433.4	98.25
433.622	87.25
433.844	101.25
434.066	91.25
434.287	87.25
434.509	89.25
434.731	95.25
434.953	92.25
435.175	96.25
435.397	107.25
435.618	106.25
435.84	109.25
436.062	118.25
436.284	110.25
436.505	96.25
436.727	96.25
436.949	102.25
437.17	95.25
437.392	95.25
437.614	96.25
437.835	121.25
438.057	148.25
438.278	128.25
438.5	112.25
438.721	140.25
438.943	104.25
439.165	90.25
439.386	89.25
439.608	86.25
439.829	99.25
440.05	116.25
440.272	150.25
440.493	106.25
440.715	101.25
440.936	83.25
441.158	92.25
441.379	92.25
441.6	95.25
441.822	91.25
442.043	98.25
442.264	118.25
442.486	98.25
442.707	84.25
442.928	110.25
443.149	168.25
443.371	154.25
443.592	128.25
443.813	126.25
444.034	106.25
444.255	109.25
444.476	98.25
444.698	93.25
444.919	92.25
445.14	148.25
445.361	106.25
445.582	142.25
445.803	163.25
446.024	158.25
446.245	129.25
446.466	120.25
446.687	82.25
446.908	85.25
447.129	96.25
447.35	82.25
447.571	92.25
447.792	94.25
448.013	109.25
448.234	109.25
448.455	113.25
448.675	116.25
448.896	132.25
449.117	100.25
449.338	117.25
449.559	133.25
449.779	141.25
450	112.25
450.221	96.25
450.442	102.25
450.662	94.25
450.883	141.25
451.104	149.25
451.324	112.25
451.545	98.25
451.766	82.25
451.986	93.25
452.207	92.25
452.428	95.25
452.648	115.25
452.869	116.25
453.089	134.25
453.31	140.25
453.53	96.25
453.751	114.25
453.971	109.25
454.192	129.25
454.412	107.25
454.633	86.25
454.853	81.25
455.073	104.25
455.294	87.25
455.514	89.25
455.734	94.25
455.955	77.25
456.175	69.25
456.395	80.25
456.616	77.25
456.836	84.25
457.056	92.25
457.276	84.25
457.497	90.25
457.717	96.25
457.937	80.25
458.157	104.25
458.377	99.25
458.598	129.25
458.818	185.25
459.038	202.25
459.258	157.25
459.478	94.25
459.698	93.25
459.918	86.25
460.138	96.25
460.358	81.25
460.578	98.25
460.798	101.25
461.018	87.25
461.238	85.25
461.458	93.25
461.678	89.25
461.898	77.25
462.118	106.25
462.338	95.25
462.558	78.25
462.777	86.25
462.997	95.25
463.217	97.25
463.437	84.25
463.657	93.25
463.876	88.25
464.096	96.25
464.316	89.25
464.536	106.25
464.755	94.25
464.975	123.25
465.195	228.25
465.414	241.25
465.634	116.25
465.854	96.25
466.073	100.25
466.293	87.25
466.512	84.25
466.732	84.25
466.951	96.25
467.171	95.25
467.391	125.25
467.61	142.25
467.829	188.25
468.049	490.25
468.268	715.25
468.488	195.25
468.707	99.25
468.927	91.25
469.146	91.25
469.365	92.25
469.585	100.25
469.804	92.25
470.023	125.25
470.243	106.25
470.462	113.25
470.681	144.25
470.901	96.25
471.12	101.25
471.339	98.25
471.558	116.25
471.777	152.25
471.997	263.25
472.216	896.25
472.435	2126.25
472.654	478.25
472.873	157.25
473.092	103.25
473.311	99.25
473.53	82.25
473.749	98.25
473.968	92.25
474.187	104.25
474.406	99.25
474.625	101.25
474.844	95.25
475.063	102.25
475.282	105.25
475.501	103.25
475.72	89.25
475.939	98.25
476.158	87.25
476.377	82.25
476.596	96.25
476.814	95.25
477.033	105.25
477.252	92.25
477.471	96.25
477.69	98.25
477.908	106.25
478.127	93.25
478.346	95.25
478.564	88.25
478.783	103.25
479.002	120.25
479.22	94.25
479.439	125.25
479.658	125.25
479.876	120.25
480.095	113.25
480.313	116.25
480.532	138.25
480.751	253.25
480.969	831.25
481.188	3550.25
481.406	2033.25
481.624	311.25
481.843	135.25
482.061	106.25
482.28	93.25
482.498	105.25
482.717	90.25
482.935	86.25
483.153	88.25
483.372	87.25
483.59	83.25
483.808	93.25
484.027	80.25
484.245	86.25
484.463	98.25
484.681	96.25
484.9	93.25
485.118	99.25
485.336	87.25
485.554	102.25
485.772	92.25
485.99	112.25
486.209	112.25
486.427	109.25
486.645	118.25
486.863	122.25
487.081	116.25
487.299	106.25
487.517	98.25
487.735	92.25
487.953	82.25
488.171	88.25
488.389	100.25
488.607	91.25
488.825	103.25
489.043	90.25
489.261	89.25
489.479	91.25
489.696	98.25
489.914	94.25
490.132	83.25
490.35	98.25
490.568	100.25
490.786	87.25
491.003	96.25
491.221	95.25
491.439	89.25
491.657	91.25
491.874	79.25
492.092	89.25
492.31	87.25
492.527	95.25
492.745	98.25
492.963	100.25
493.18	99.25
493.398	89.25
493.615	86.25
493.833	92.25
494.05	89.25
494.268	82.25
494.485	84.25
494.703	98.25
494.92	81.25
495.138	90.25
495.355	86.25
495.573	92.25
495.79	96.25
496.008	93.25
496.225	94.25
496.442	93.25
496.66	103.25
496.877	94.25
497.094	89.25
497.312	81.25
497.529	97.25
497.746	97.25
497.963	84.25
498.181	92.25
498.398	105.25
498.615	103.25
498.832	88.25
499.049	88.25
499.267	91.25
499.484	96.25
499.701	85.25
499.918	94.25
500.135	86.25
500.352	85.25
500.569	101.25
500.786	93.25
501.003	93.25
501.22	90.25
501.437	86.25
501.654	106.25
501.871	124.25
502.088	93.25
502.305	94.25
502.522	81.25
502.739	82.25
502.956	81.25
503.172	88.25
503.389	109.25
503.606	130.25
503.823	99.25
504.04	96.25
504.256	98.25
504.473	86.25
504.69	86.25
504.907	119.25
505.123	96.25
505.34	81.25
505.557	89.25
505.773	93.25
505.99	100.25
506.207	105.25
506.423	93.25
506.64	100.25
506.856	84.25
507.073	92.25
507.289	109.25
507.506	112.25
507.722	133.25
507.939	124.25
508.155	109.25
508.372	99.25
508.588	97.25
508.805	93.25
509.021	109.25
509.238	94.25
509.454	100.25
509.67	112.25
509.887	120.25
510.103	160.25
510.319	250.25
510.536	956.25
510.752	3401.25
510.968	900.25
511.184	192.25
511.401	131.25
511.617	107.25
511.833	113.25
512.049	100.25
512.265	77.25
512.481	96.25
512.698	88.25
512.914	104.25
513.13	95.25
513.346	97.25
