Data from Circ_1987_H10_HRD10591_00060.txt Node
Date: Wed Jan 03 12:10:44 EST 2024
User: Yrep
Spectrometer: HR+D1059
Trigger mode: 1
Integration Time (sec): 1.000000E-1
Scans to average: 1
Electric dark correction enabled: true
Nonlinearity correction enabled: false
Boxcar width: 0
XAxis mode: Wavelengths
Number of Pixels in Spectrum: 2048
>>>>>Begin Spectral Data<<<<<
223.165	-12.56
223.4	-12.56
223.635	-12.56
223.869	-24.56
224.104	-12.56
224.338	-17.56
224.573	-15.56
224.808	-26.56
225.042	-5.56
225.277	-6.56
225.511	-4.56
225.746	7.44
225.98	0.44
226.215	16.44
226.449	8.44
226.683	14.44
226.918	25.44
227.152	53.44
227.387	42.44
227.621	31.44
227.856	40.44
228.09	47.44
228.324	59.44
228.559	55.44
228.793	45.44
229.027	53.44
229.262	60.44
229.496	72.44
229.73	85.44
229.964	84.44
230.199	70.44
230.433	75.44
230.667	75.44
230.901	104.44
231.136	79.44
231.37	60.44
231.604	84.44
231.838	83.44
232.072	82.44
232.306	64.44
232.541	87.44
232.775	79.44
233.009	71.44
233.243	98.44
233.477	82.44
233.711	80.44
233.945	90.44
234.179	81.44
234.413	75.44
234.647	70.44
234.881	77.44
235.115	72.44
235.349	75.44
235.583	77.44
235.817	79.44
236.051	88.44
236.285	77.44
236.519	69.44
236.753	79.44
236.987	76.44
237.221	91.44
237.455	77.44
237.689	95.44
237.922	72.44
238.156	76.44
238.39	75.44
238.624	77.44
238.858	72.44
239.091	61.44
239.325	91.44
239.559	75.44
239.793	72.44
240.027	77.44
240.26	68.44
240.494	79.44
240.728	70.44
240.961	76.44
241.195	77.44
241.429	62.44
241.662	89.44
241.896	73.44
242.13	75.44
242.363	87.44
242.597	65.44
242.83	82.44
243.064	64.44
243.298	76.44
243.531	69.44
243.765	74.44
243.998	83.44
244.232	80.44
244.465	78.44
244.699	76.44
244.932	79.44
245.166	69.44
245.399	84.44
245.633	81.44
245.866	103.44
246.099	72.44
246.333	72.44
246.566	73.44
246.8	76.44
247.033	85.44
247.266	76.44
247.5	71.44
247.733	67.44
247.966	83.44
248.2	80.44
248.433	76.44
248.666	81.44
248.899	72.44
249.133	88.44
249.366	93.44
249.599	101.44
249.832	84.44
250.066	69.44
250.299	80.44
250.532	91.44
250.765	93.44
250.998	76.44
251.231	88.44
251.465	85.44
251.698	73.44
251.931	80.44
252.164	83.44
252.397	94.44
252.63	70.44
252.863	96.44
253.096	69.44
253.329	89.44
253.562	76.44
253.795	76.44
254.028	91.44
254.261	75.44
254.494	92.44
254.727	91.44
254.96	81.44
255.193	80.44
255.426	80.44
255.659	80.44
255.892	91.44
256.124	97.44
256.357	84.44
256.59	85.44
256.823	85.44
257.056	79.44
257.289	82.44
257.521	65.44
257.754	88.44
257.987	73.44
258.22	94.44
258.452	79.44
258.685	88.44
258.918	84.44
259.151	73.44
259.383	94.44
259.616	76.44
259.849	91.44
260.081	89.44
260.314	88.44
260.547	88.44
260.779	102.44
261.012	110.44
261.244	112.44
261.477	87.44
261.71	87.44
261.942	119.44
262.175	133.44
262.407	100.44
262.64	81.44
262.872	79.44
263.105	81.44
263.337	93.44
263.57	87.44
263.802	79.44
264.035	95.44
264.267	78.44
264.499	80.44
264.732	81.44
264.964	79.44
265.197	72.44
265.429	79.44
265.661	64.44
265.894	75.44
266.126	75.44
266.358	92.44
266.591	91.44
266.823	100.44
267.055	69.44
267.287	88.44
267.52	85.44
267.752	82.44
267.984	77.44
268.216	84.44
268.448	87.44
268.681	83.44
268.913	73.44
269.145	65.44
269.377	86.44
269.609	87.44
269.841	85.44
270.073	79.44
270.306	91.44
270.538	92.44
270.77	86.44
271.002	70.44
271.234	78.44
271.466	87.44
271.698	85.44
271.93	96.44
272.162	81.44
272.394	72.44
272.626	79.44
272.858	77.44
273.09	81.44
273.322	81.44
273.553	85.44
273.785	81.44
274.017	72.44
274.249	81.44
274.481	86.44
274.713	81.44
274.945	92.44
275.176	88.44
275.408	99.44
275.64	115.44
275.872	120.44
276.104	118.44
276.335	97.44
276.567	109.44
276.799	139.44
277.031	166.44
277.262	190.44
277.494	156.44
277.726	107.44
277.957	94.44
278.189	87.44
278.421	96.44
278.652	96.44
278.884	85.44
279.115	96.44
279.347	89.44
279.579	103.44
279.81	120.44
280.042	179.44
280.273	249.44
280.505	173.44
280.736	118.44
280.968	83.44
281.199	80.44
281.431	92.44
281.662	89.44
281.894	91.44
282.125	104.44
282.356	124.44
282.588	164.44
282.819	120.44
283.051	87.44
283.282	88.44
283.513	104.44
283.745	100.44
283.976	84.44
284.207	86.44
284.439	91.44
284.67	84.44
284.901	79.44
285.132	103.44
285.364	82.44
285.595	79.44
285.826	79.44
286.057	83.44
286.288	92.44
286.52	97.44
286.751	93.44
286.982	85.44
287.213	85.44
287.444	87.44
287.675	96.44
287.906	81.44
288.138	99.44
288.369	85.44
288.6	91.44
288.831	79.44
289.062	93.44
289.293	89.44
289.524	91.44
289.755	95.44
289.986	94.44
290.217	89.44
290.448	79.44
290.679	67.44
290.91	86.44
291.141	91.44
291.371	99.44
291.602	99.44
291.833	83.44
292.064	96.44
292.295	97.44
292.526	79.44
292.757	93.44
292.987	83.44
293.218	73.44
293.449	92.44
293.68	100.44
293.91	71.44
294.141	85.44
294.372	89.44
294.603	97.44
294.833	94.44
295.064	81.44
295.295	101.44
295.525	83.44
295.756	102.44
295.987	135.44
296.217	169.44
296.448	153.44
296.679	99.44
296.909	87.44
297.14	102.44
297.37	97.44
297.601	88.44
297.831	99.44
298.062	77.44
298.292	88.44
298.523	103.44
298.753	65.44
298.984	89.44
299.214	103.44
299.445	97.44
299.675	107.44
299.905	104.44
300.136	85.44
300.366	89.44
300.597	84.44
300.827	95.44
301.057	103.44
301.288	112.44
301.518	102.44
301.748	92.44
301.979	108.44
302.209	95.44
302.439	85.44
302.669	96.44
302.9	100.44
303.13	108.44
303.36	111.44
303.59	128.44
303.82	135.44
304.051	109.44
304.281	102.44
304.511	83.44
304.741	92.44
304.971	89.44
305.201	98.44
305.431	95.44
305.661	94.44
305.891	93.44
306.121	92.44
306.352	108.44
306.582	100.44
306.812	101.44
307.042	128.44
307.272	153.44
307.502	180.44
307.731	160.44
307.961	126.44
308.191	100.44
308.421	91.44
308.651	92.44
308.881	91.44
309.111	92.44
309.341	94.44
309.571	102.44
309.8	111.44
310.03	109.44
310.26	112.44
310.49	107.44
310.72	105.44
310.949	125.44
311.179	106.44
311.409	100.44
311.639	95.44
311.868	114.44
312.098	112.44
312.328	98.44
312.557	105.44
312.787	123.44
313.017	124.44
313.246	97.44
313.476	106.44
313.706	93.44
313.935	103.44
314.165	105.44
314.394	113.44
314.624	111.44
314.853	97.44
315.083	90.44
315.312	91.44
315.542	91.44
315.771	101.44
316.001	91.44
316.23	94.44
316.46	93.44
316.689	92.44
316.919	81.44
317.148	111.44
317.377	92.44
317.607	100.44
317.836	91.44
318.065	89.44
318.295	101.44
318.524	86.44
318.753	81.44
318.983	97.44
319.212	104.44
319.441	110.44
319.67	115.44
319.9	100.44
320.129	102.44
320.358	85.44
320.587	83.44
320.816	95.44
321.046	104.44
321.275	110.44
321.504	112.44
321.733	94.44
321.962	94.44
322.191	122.44
322.42	113.44
322.649	129.44
322.878	124.44
323.108	110.44
323.337	123.44
323.566	160.44
323.795	191.44
324.024	229.44
324.253	405.44
324.482	881.44
324.71	1717.44
324.939	2315.44
325.168	863.44
325.397	272.44
325.626	168.44
325.855	134.44
326.084	115.44
326.313	140.44
326.542	166.44
326.77	233.44
326.999	450.44
327.228	901.44
327.457	1623.44
327.686	1346.44
327.914	510.44
328.143	508.44
328.372	654.44
328.6	361.44
328.829	181.44
329.058	186.44
329.287	194.44
329.515	167.44
329.744	246.44
329.972	461.44
330.201	927.44
330.43	1409.44
330.658	639.44
330.887	284.44
331.115	187.44
331.344	125.44
331.572	118.44
331.801	118.44
332.03	133.44
332.258	110.44
332.486	106.44
332.715	103.44
332.943	107.44
333.172	117.44
333.4	115.44
333.629	156.44
333.857	226.44
334.085	413.44
334.314	896.44
334.542	1725.44
334.771	1664.44
334.999	438.44
335.227	181.44
335.455	118.44
335.684	106.44
335.912	109.44
336.14	115.44
336.369	121.44
336.597	119.44
336.825	110.44
337.053	94.44
337.281	86.44
337.51	97.44
337.738	105.44
337.966	111.44
338.194	124.44
338.422	98.44
338.65	87.44
338.878	92.44
339.106	81.44
339.334	92.44
339.562	101.44
339.79	100.44
340.018	84.44
340.246	103.44
340.474	105.44
340.702	82.44
340.93	93.44
341.158	99.44
341.386	97.44
341.614	111.44
341.842	105.44
342.07	89.44
342.298	79.44
342.526	73.44
342.754	93.44
342.981	87.44
343.209	86.44
343.437	93.44
343.665	105.44
343.893	86.44
344.12	94.44
344.348	80.44
344.576	101.44
344.804	85.44
345.031	96.44
345.259	128.44
345.487	104.44
345.714	107.44
345.942	101.44
346.17	101.44
346.397	100.44
346.625	105.44
346.853	102.44
347.08	84.44
347.308	87.44
347.535	100.44
347.763	94.44
347.99	106.44
348.218	95.44
348.445	125.44
348.673	116.44
348.9	105.44
349.128	99.44
349.355	100.44
349.583	85.44
349.81	78.44
350.037	98.44
350.265	105.44
350.492	91.44
350.72	103.44
350.947	104.44
351.174	111.44
351.402	126.44
351.629	118.44
351.856	109.44
352.083	96.44
352.311	111.44
352.538	120.44
352.765	129.44
352.992	101.44
353.22	103.44
353.447	102.44
353.674	109.44
353.901	102.44
354.128	92.44
354.355	84.44
354.583	101.44
354.81	96.44
355.037	94.44
355.264	91.44
355.491	79.44
355.718	105.44
355.945	95.44
356.172	86.44
356.399	89.44
356.626	94.44
356.853	91.44
357.08	88.44
357.307	91.44
357.534	86.44
357.761	92.44
357.988	89.44
358.215	101.44
358.441	94.44
358.668	88.44
358.895	101.44
359.122	89.44
359.349	95.44
359.576	98.44
359.802	111.44
360.029	139.44
360.256	130.44
360.483	111.44
360.709	92.44
360.936	93.44
361.163	98.44
361.39	99.44
361.616	95.44
361.843	96.44
362.07	88.44
362.296	113.44
362.523	95.44
362.749	98.44
362.976	94.44
363.203	104.44
363.429	83.44
363.656	97.44
363.882	90.44
364.109	97.44
364.335	111.44
364.562	75.44
364.788	95.44
365.015	98.44
365.241	111.44
365.468	123.44
365.694	125.44
365.92	120.44
366.147	96.44
366.373	91.44
366.599	98.44
366.826	91.44
367.052	97.44
367.278	92.44
367.505	85.44
367.731	96.44
367.957	98.44
368.184	88.44
368.41	119.44
368.636	119.44
368.862	120.44
369.089	104.44
369.315	110.44
369.541	97.44
369.767	76.44
369.993	91.44
370.219	93.44
370.445	89.44
370.672	88.44
370.898	76.44
371.124	92.44
371.35	97.44
371.576	72.44
371.802	96.44
372.028	94.44
372.254	90.44
372.48	87.44
372.706	98.44
372.932	84.44
373.158	84.44
373.384	102.44
373.61	89.44
373.835	99.44
374.061	93.44
374.287	88.44
374.513	94.44
374.739	85.44
374.965	86.44
375.191	87.44
375.416	84.44
375.642	82.44
375.868	100.44
376.094	86.44
376.319	95.44
376.545	96.44
376.771	93.44
376.997	95.44
377.222	93.44
377.448	89.44
377.674	92.44
377.899	103.44
378.125	93.44
378.35	91.44
378.576	83.44
378.802	81.44
379.027	90.44
379.253	85.44
379.478	95.44
379.704	83.44
379.929	85.44
380.155	96.44
380.38	92.44
380.606	107.44
380.831	93.44
381.057	98.44
381.282	80.44
381.507	95.44
381.733	84.44
381.958	99.44
382.184	99.44
382.409	114.44
382.634	96.44
382.86	87.44
383.085	100.44
383.31	100.44
383.535	101.44
383.761	88.44
383.986	88.44
384.211	100.44
384.436	96.44
384.662	91.44
384.887	92.44
385.112	83.44
385.337	95.44
385.562	106.44
385.787	109.44
386.013	116.44
386.238	114.44
386.463	91.44
386.688	91.44
386.913	97.44
387.138	98.44
387.363	92.44
387.588	98.44
387.813	105.44
388.038	98.44
388.263	100.44
388.488	116.44
388.713	84.44
388.938	98.44
389.163	93.44
389.387	94.44
389.612	88.44
389.837	69.44
390.062	87.44
390.287	88.44
390.512	88.44
390.736	61.44
390.961	80.44
391.186	88.44
391.411	79.44
391.636	82.44
391.86	79.44
392.085	88.44
392.31	84.44
392.534	77.44
392.759	87.44
392.984	94.44
393.208	101.44
393.433	80.44
393.658	91.44
393.882	90.44
394.107	94.44
394.331	76.44
394.556	86.44
394.78	93.44
395.005	76.44
395.229	79.44
395.454	76.44
395.678	86.44
395.903	84.44
396.127	86.44
396.352	79.44
396.576	68.44
396.801	83.44
397.025	98.44
397.249	85.44
397.474	91.44
397.698	80.44
397.922	88.44
398.147	91.44
398.371	80.44
398.595	80.44
398.82	93.44
399.044	78.44
399.268	88.44
399.492	87.44
399.717	85.44
399.941	86.44
400.165	108.44
400.389	91.44
400.613	94.44
400.837	99.44
401.062	88.44
401.286	100.44
401.51	87.44
401.734	87.44
401.958	115.44
402.182	146.44
402.406	189.44
402.63	154.44
402.854	91.44
403.078	92.44
403.302	82.44
403.526	93.44
403.75	92.44
403.974	80.44
404.198	85.44
404.422	93.44
404.645	105.44
404.869	94.44
405.093	116.44
405.317	149.44
405.541	140.44
405.765	116.44
405.988	144.44
406.212	204.44
406.436	309.44
406.66	198.44
406.883	104.44
407.107	100.44
407.331	105.44
407.555	97.44
407.778	104.44
408.002	119.44
408.226	92.44
408.449	75.44
408.673	89.44
408.896	84.44
409.12	102.44
409.344	90.44
409.567	88.44
409.791	90.44
410.014	95.44
410.238	83.44
410.461	89.44
410.685	113.44
410.908	93.44
411.132	91.44
411.355	85.44
411.578	101.44
411.802	78.44
412.025	100.44
412.249	104.44
412.472	115.44
412.695	135.44
412.919	109.44
413.142	97.44
413.365	99.44
413.589	84.44
413.812	100.44
414.035	87.44
414.258	93.44
414.482	105.44
414.705	89.44
414.928	85.44
415.151	80.44
415.374	97.44
415.597	96.44
415.821	106.44
416.044	87.44
416.267	84.44
416.49	90.44
416.713	86.44
416.936	87.44
417.159	89.44
417.382	104.44
417.605	102.44
417.828	108.44
418.051	87.44
418.274	85.44
418.497	84.44
418.72	94.44
418.943	79.44
419.166	90.44
419.389	88.44
419.611	88.44
419.834	103.44
420.057	80.44
420.28	93.44
420.503	81.44
420.726	93.44
420.948	83.44
421.171	90.44
421.394	106.44
421.617	84.44
421.839	85.44
422.062	92.44
422.285	85.44
422.507	98.44
422.73	99.44
422.953	96.44
423.175	92.44
423.398	102.44
423.621	86.44
423.843	87.44
424.066	83.44
424.288	90.44
424.511	90.44
424.733	102.44
424.956	125.44
425.178	122.44
425.401	100.44
425.623	102.44
425.846	94.44
426.068	89.44
426.291	85.44
426.513	91.44
426.735	96.44
426.958	92.44
427.18	124.44
427.402	183.44
427.625	264.44
427.847	219.44
428.069	197.44
428.292	144.44
428.514	99.44
428.736	97.44
428.958	99.44
429.181	96.44
429.403	95.44
429.625	89.44
429.847	100.44
430.069	113.44
430.292	107.44
430.514	97.44
430.736	86.44
430.958	75.44
431.18	85.44
431.402	94.44
431.624	79.44
431.846	83.44
432.068	97.44
432.29	84.44
432.512	87.44
432.734	84.44
432.956	92.44
433.178	94.44
433.4	107.44
433.622	94.44
433.844	83.44
434.066	79.44
434.287	94.44
434.509	97.44
434.731	77.44
434.953	91.44
435.175	103.44
435.397	87.44
435.618	87.44
435.84	118.44
436.062	118.44
436.284	118.44
436.505	114.44
436.727	103.44
436.949	102.44
437.17	105.44
437.392	79.44
437.614	101.44
437.835	121.44
438.057	154.44
438.278	111.44
438.5	101.44
438.721	117.44
438.943	111.44
439.165	98.44
439.386	95.44
439.608	100.44
439.829	108.44
440.05	154.44
440.272	165.44
440.493	100.44
440.715	92.44
440.936	92.44
441.158	96.44
441.379	83.44
441.6	87.44
441.822	105.44
442.043	98.44
442.264	125.44
442.486	99.44
442.707	91.44
442.928	123.44
443.149	172.44
443.371	164.44
443.592	110.44
443.813	122.44
444.034	123.44
444.255	112.44
444.476	91.44
444.698	89.44
444.919	93.44
445.14	140.44
445.361	124.44
445.582	143.44
445.803	179.44
446.024	173.44
446.245	157.44
446.466	121.44
446.687	98.44
446.908	91.44
447.129	82.44
447.35	101.44
447.571	93.44
447.792	89.44
448.013	108.44
448.234	132.44
448.455	125.44
448.675	145.44
448.896	138.44
449.117	113.44
449.338	118.44
449.559	139.44
449.779	154.44
450	97.44
450.221	79.44
450.442	102.44
450.662	108.44
450.883	124.44
451.104	134.44
451.324	103.44
451.545	83.44
451.766	85.44
451.986	88.44
452.207	84.44
452.428	78.44
452.648	105.44
452.869	127.44
453.089	134.44
453.31	132.44
453.53	104.44
453.751	97.44
453.971	119.44
454.192	137.44
454.412	106.44
454.633	79.44
454.853	83.44
455.073	94.44
455.294	80.44
455.514	104.44
455.734	95.44
455.955	73.44
456.175	84.44
456.395	92.44
456.616	87.44
456.836	92.44
457.056	85.44
457.276	84.44
457.497	89.44
457.717	86.44
457.937	86.44
458.157	88.44
458.377	104.44
458.598	133.44
458.818	207.44
459.038	247.44
459.258	143.44
459.478	93.44
459.698	96.44
459.918	90.44
460.138	82.44
460.358	90.44
460.578	103.44
460.798	102.44
461.018	82.44
461.238	78.44
461.458	84.44
461.678	93.44
461.898	83.44
462.118	88.44
462.338	87.44
462.558	81.44
462.777	77.44
462.997	95.44
463.217	110.44
463.437	105.44
463.657	81.44
463.876	95.44
464.096	98.44
464.316	97.44
464.536	116.44
464.755	96.44
464.975	115.44
465.195	247.44
465.414	243.44
465.634	127.44
465.854	96.44
466.073	92.44
466.293	93.44
466.512	98.44
466.732	91.44
466.951	91.44
467.171	97.44
467.391	102.44
467.61	152.44
467.829	195.44
468.049	558.44
468.268	819.44
468.488	219.44
468.707	99.44
468.927	91.44
469.146	102.44
469.365	82.44
469.585	92.44
469.804	104.44
470.023	123.44
470.243	98.44
470.462	113.44
470.681	151.44
470.901	113.44
471.12	96.44
471.339	108.44
471.558	125.44
471.777	157.44
471.997	274.44
472.216	1009.44
472.435	2393.44
472.654	569.44
472.873	175.44
473.092	111.44
473.311	104.44
473.53	94.44
473.749	99.44
473.968	104.44
474.187	116.44
474.406	104.44
474.625	108.44
474.844	82.44
475.063	89.44
475.282	89.44
475.501	80.44
475.72	87.44
475.939	84.44
476.158	90.44
476.377	91.44
476.596	100.44
476.814	97.44
477.033	101.44
477.252	105.44
477.471	86.44
477.69	95.44
477.908	111.44
478.127	92.44
478.346	87.44
478.564	89.44
478.783	81.44
479.002	104.44
479.22	101.44
479.439	119.44
479.658	134.44
479.876	117.44
480.095	109.44
480.313	135.44
480.532	167.44
480.751	270.44
480.969	931.44
481.188	4127.44
481.406	2390.44
481.624	365.44
481.843	144.44
482.061	115.44
482.28	99.44
482.498	88.44
482.717	108.44
482.935	100.44
483.153	91.44
483.372	88.44
483.59	101.44
483.808	87.44
484.027	93.44
484.245	91.44
484.463	105.44
484.681	94.44
484.9	95.44
485.118	98.44
485.336	96.44
485.554	108.44
485.772	94.44
485.99	117.44
486.209	109.44
486.427	109.44
486.645	128.44
486.863	135.44
487.081	120.44
487.299	108.44
487.517	104.44
487.735	85.44
487.953	88.44
488.171	87.44
488.389	107.44
488.607	112.44
488.825	96.44
489.043	88.44
489.261	99.44
489.479	80.44
489.696	80.44
489.914	86.44
490.132	80.44
490.35	83.44
490.568	77.44
490.786	96.44
491.003	92.44
491.221	89.44
491.439	92.44
491.657	88.44
491.874	66.44
492.092	84.44
492.31	88.44
492.527	90.44
492.745	102.44
492.963	84.44
493.18	97.44
493.398	87.44
493.615	102.44
493.833	96.44
494.05	83.44
494.268	87.44
494.485	108.44
494.703	95.44
494.92	89.44
495.138	77.44
495.355	92.44
495.573	89.44
495.79	91.44
496.008	97.44
496.225	90.44
496.442	93.44
496.66	96.44
496.877	91.44
497.094	90.44
497.312	93.44
497.529	101.44
497.746	89.44
497.963	115.44
498.181	100.44
498.398	114.44
498.615	119.44
498.832	114.44
499.049	111.44
499.267	90.44
499.484	86.44
499.701	92.44
499.918	83.44
500.135	102.44
500.352	91.44
500.569	82.44
500.786	88.44
501.003	99.44
501.22	87.44
501.437	90.44
501.654	104.44
501.871	106.44
502.088	94.44
502.305	87.44
502.522	97.44
502.739	91.44
502.956	94.44
503.172	96.44
503.389	88.44
503.606	125.44
503.823	110.44
504.04	91.44
504.256	88.44
504.473	77.44
504.69	84.44
504.907	91.44
505.123	90.44
505.34	82.44
505.557	93.44
505.773	104.44
505.99	94.44
506.207	93.44
506.423	92.44
506.64	97.44
506.856	94.44
507.073	92.44
507.289	92.44
507.506	96.44
507.722	134.44
507.939	131.44
508.155	100.44
508.372	88.44
508.588	95.44
508.805	94.44
509.021	106.44
509.238	101.44
509.454	98.44
509.67	91.44
509.887	125.44
510.103	156.44
510.319	241.44
510.536	941.44
510.752	3218.44
510.968	851.44
511.184	176.44
511.401	138.44
511.617	118.44
511.833	124.44
512.049	106.44
512.265	107.44
512.481	93.44
512.698	95.44
512.914	95.44
513.13	95.44
513.346	91.44
513.562	97.44
