Data from Circ_1987_H10_HRD10591_00093.txt Node
Date: Wed Jan 03 12:10:51 EST 2024
User: Yrep
Spectrometer: HR+D1059
Trigger mode: 1
Integration Time (sec): 1.000000E-1
Scans to average: 1
Electric dark correction enabled: true
Nonlinearity correction enabled: false
Boxcar width: 0
XAxis mode: Wavelengths
Number of Pixels in Spectrum: 2048
>>>>>Begin Spectral Data<<<<<
223.165	-17.75
223.4	-17.75
223.635	-17.75
223.869	-15.75
224.104	-15.75
224.338	-11.75
224.573	-6.75
224.808	-2.75
225.042	-13.75
225.277	-2.75
225.511	-15.75
225.746	8.25
225.98	5.25
226.215	3.25
226.449	17.25
226.683	8.25
226.918	22.25
227.152	38.25
227.387	26.25
227.621	36.25
227.856	35.25
228.09	49.25
228.324	66.25
228.559	53.25
228.793	79.25
229.027	72.25
229.262	72.25
229.496	84.25
229.73	99.25
229.964	101.25
230.199	79.25
230.433	77.25
230.667	89.25
230.901	80.25
231.136	74.25
231.37	84.25
231.604	88.25
231.838	55.25
232.072	78.25
232.306	66.25
232.541	90.25
232.775	77.25
233.009	79.25
233.243	94.25
233.477	90.25
233.711	81.25
233.945	79.25
234.179	87.25
234.413	96.25
234.647	83.25
234.881	80.25
235.115	97.25
235.349	89.25
235.583	81.25
235.817	84.25
236.051	69.25
236.285	86.25
236.519	85.25
236.753	79.25
236.987	89.25
237.221	80.25
237.455	107.25
237.689	80.25
237.922	86.25
238.156	65.25
238.39	73.25
238.624	75.25
238.858	75.25
239.091	71.25
239.325	89.25
239.559	85.25
239.793	81.25
240.027	69.25
240.26	90.25
240.494	83.25
240.728	87.25
240.961	102.25
241.195	77.25
241.429	91.25
241.662	90.25
241.896	84.25
242.13	89.25
242.363	80.25
242.597	82.25
242.83	80.25
243.064	86.25
243.298	72.25
243.531	84.25
243.765	72.25
243.998	75.25
244.232	83.25
244.465	100.25
244.699	86.25
244.932	86.25
245.166	81.25
245.399	84.25
245.633	76.25
245.866	84.25
246.099	98.25
246.333	82.25
246.566	95.25
246.8	74.25
247.033	97.25
247.266	77.25
247.5	74.25
247.733	98.25
247.966	89.25
248.2	72.25
248.433	75.25
248.666	69.25
248.899	83.25
249.133	77.25
249.366	103.25
249.599	97.25
249.832	90.25
250.066	80.25
250.299	97.25
250.532	87.25
250.765	80.25
250.998	89.25
251.231	88.25
251.465	91.25
251.698	98.25
251.931	92.25
252.164	67.25
252.397	82.25
252.63	83.25
252.863	90.25
253.096	71.25
253.329	81.25
253.562	83.25
253.795	87.25
254.028	80.25
254.261	74.25
254.494	85.25
254.727	85.25
254.96	103.25
255.193	81.25
255.426	77.25
255.659	90.25
255.892	111.25
256.124	98.25
256.357	89.25
256.59	89.25
256.823	82.25
257.056	99.25
257.289	98.25
257.521	87.25
257.754	89.25
257.987	89.25
258.22	94.25
258.452	111.25
258.685	97.25
258.918	94.25
259.151	80.25
259.383	85.25
259.616	84.25
259.849	83.25
260.081	86.25
260.314	85.25
260.547	89.25
260.779	95.25
261.012	116.25
261.244	120.25
261.477	96.25
261.71	105.25
261.942	135.25
262.175	141.25
262.407	99.25
262.64	97.25
262.872	81.25
263.105	85.25
263.337	90.25
263.57	91.25
263.802	104.25
264.035	80.25
264.267	74.25
264.499	81.25
264.732	87.25
264.964	95.25
265.197	86.25
265.429	97.25
265.661	86.25
265.894	97.25
266.126	94.25
266.358	82.25
266.591	89.25
266.823	93.25
267.055	98.25
267.287	98.25
267.52	75.25
267.752	85.25
267.984	79.25
268.216	96.25
268.448	88.25
268.681	81.25
268.913	83.25
269.145	97.25
269.377	101.25
269.609	79.25
269.841	90.25
270.073	103.25
270.306	83.25
270.538	89.25
270.77	62.25
271.002	81.25
271.234	83.25
271.466	113.25
271.698	98.25
271.93	84.25
272.162	99.25
272.394	91.25
272.626	97.25
272.858	89.25
273.09	85.25
273.322	84.25
273.553	96.25
273.785	89.25
274.017	85.25
274.249	85.25
274.481	103.25
274.713	89.25
274.945	101.25
275.176	95.25
275.408	127.25
275.64	115.25
275.872	131.25
276.104	110.25
276.335	100.25
276.567	132.25
276.799	175.25
277.031	193.25
277.262	229.25
277.494	163.25
277.726	107.25
277.957	90.25
278.189	97.25
278.421	100.25
278.652	89.25
278.884	107.25
279.115	95.25
279.347	95.25
279.579	116.25
279.81	145.25
280.042	220.25
280.273	319.25
280.505	209.25
280.736	120.25
280.968	102.25
281.199	90.25
281.431	85.25
281.662	106.25
281.894	103.25
282.125	107.25
282.356	145.25
282.588	179.25
282.819	137.25
283.051	109.25
283.282	89.25
283.513	93.25
283.745	84.25
283.976	89.25
284.207	101.25
284.439	99.25
284.67	88.25
284.901	81.25
285.132	89.25
285.364	93.25
285.595	82.25
285.826	89.25
286.057	103.25
286.288	84.25
286.52	102.25
286.751	88.25
286.982	80.25
287.213	96.25
287.444	86.25
287.675	96.25
287.906	93.25
288.138	86.25
288.369	111.25
288.6	107.25
288.831	84.25
289.062	106.25
289.293	97.25
289.524	105.25
289.755	85.25
289.986	90.25
290.217	84.25
290.448	82.25
290.679	82.25
290.91	87.25
291.141	79.25
291.371	97.25
291.602	93.25
291.833	79.25
292.064	81.25
292.295	98.25
292.526	102.25
292.757	104.25
292.987	97.25
293.218	89.25
293.449	90.25
293.68	84.25
293.91	77.25
294.141	79.25
294.372	97.25
294.603	82.25
294.833	101.25
295.064	83.25
295.295	83.25
295.525	90.25
295.756	117.25
295.987	140.25
296.217	181.25
296.448	158.25
296.679	113.25
296.909	97.25
297.14	97.25
297.37	98.25
297.601	97.25
297.831	91.25
298.062	103.25
298.292	89.25
298.523	88.25
298.753	94.25
298.984	105.25
299.214	98.25
299.445	96.25
299.675	96.25
299.905	114.25
300.136	102.25
300.366	83.25
300.597	96.25
300.827	116.25
301.057	106.25
301.288	113.25
301.518	97.25
301.748	95.25
301.979	121.25
302.209	105.25
302.439	109.25
302.669	106.25
302.9	85.25
303.13	105.25
303.36	119.25
303.59	156.25
303.82	162.25
304.051	101.25
304.281	100.25
304.511	106.25
304.741	102.25
304.971	91.25
305.201	88.25
305.431	85.25
305.661	97.25
305.891	97.25
306.121	111.25
306.352	120.25
306.582	129.25
306.812	130.25
307.042	141.25
307.272	187.25
307.502	205.25
307.731	169.25
307.961	147.25
308.191	117.25
308.421	102.25
308.651	89.25
308.881	89.25
309.111	89.25
309.341	110.25
309.571	110.25
309.8	102.25
310.03	110.25
310.26	104.25
310.49	97.25
310.72	120.25
310.949	133.25
311.179	115.25
311.409	88.25
311.639	113.25
311.868	105.25
312.098	114.25
312.328	106.25
312.557	119.25
312.787	131.25
313.017	126.25
313.246	100.25
313.476	95.25
313.706	106.25
313.935	112.25
314.165	122.25
314.394	114.25
314.624	108.25
314.853	109.25
315.083	92.25
315.312	106.25
315.542	98.25
315.771	89.25
316.001	108.25
316.23	110.25
316.46	98.25
316.689	89.25
316.919	91.25
317.148	103.25
317.377	102.25
317.607	104.25
317.836	105.25
318.065	98.25
318.295	90.25
318.524	89.25
318.753	101.25
318.983	101.25
319.212	103.25
319.441	119.25
319.67	106.25
319.9	91.25
320.129	88.25
320.358	111.25
320.587	105.25
320.816	112.25
321.046	113.25
321.275	101.25
321.504	97.25
321.733	110.25
321.962	114.25
322.191	107.25
322.42	127.25
322.649	123.25
322.878	123.25
323.108	137.25
323.337	162.25
323.566	167.25
323.795	189.25
324.024	276.25
324.253	510.25
324.482	1118.25
324.71	2296.25
324.939	3041.25
325.168	1110.25
325.397	313.25
325.626	166.25
325.855	153.25
326.084	143.25
326.313	173.25
326.542	190.25
326.77	282.25
326.999	551.25
327.228	1153.25
327.457	2147.25
327.686	1766.25
327.914	616.25
328.143	626.25
328.372	820.25
328.6	454.25
328.829	213.25
329.058	221.25
329.287	229.25
329.515	200.25
329.744	301.25
329.972	583.25
330.201	1264.25
330.43	1871.25
330.658	817.25
330.887	351.25
331.115	224.25
331.344	128.25
331.572	116.25
331.801	138.25
332.03	119.25
332.258	129.25
332.486	102.25
332.715	119.25
332.943	125.25
333.172	137.25
333.4	156.25
333.629	157.25
333.857	273.25
334.085	547.25
334.314	1182.25
334.542	2315.25
334.771	2183.25
334.999	555.25
335.227	198.25
335.455	136.25
335.684	118.25
335.912	119.25
336.14	107.25
336.369	111.25
336.597	118.25
336.825	128.25
337.053	103.25
337.281	98.25
337.51	113.25
337.738	129.25
337.966	103.25
338.194	109.25
338.422	119.25
338.65	99.25
338.878	100.25
339.106	90.25
339.334	110.25
339.562	98.25
339.79	103.25
340.018	104.25
340.246	110.25
340.474	109.25
340.702	96.25
340.93	97.25
341.158	105.25
341.386	109.25
341.614	105.25
341.842	89.25
342.07	97.25
342.298	95.25
342.526	102.25
342.754	79.25
342.981	92.25
343.209	100.25
343.437	92.25
343.665	88.25
343.893	95.25
344.12	103.25
344.348	97.25
344.576	85.25
344.804	94.25
345.031	126.25
345.259	110.25
345.487	119.25
345.714	118.25
345.942	99.25
346.17	96.25
346.397	102.25
346.625	104.25
346.853	100.25
347.08	105.25
347.308	90.25
347.535	117.25
347.763	119.25
347.99	112.25
348.218	115.25
348.445	134.25
348.673	113.25
348.9	109.25
349.128	97.25
349.355	111.25
349.583	95.25
349.81	122.25
350.037	99.25
350.265	105.25
350.492	91.25
350.72	98.25
350.947	113.25
351.174	109.25
351.402	142.25
351.629	111.25
351.856	108.25
352.083	102.25
352.311	121.25
352.538	127.25
352.765	132.25
352.992	132.25
353.22	127.25
353.447	105.25
353.674	101.25
353.901	122.25
354.128	97.25
354.355	100.25
354.583	112.25
354.81	103.25
355.037	100.25
355.264	112.25
355.491	106.25
355.718	85.25
355.945	109.25
356.172	93.25
356.399	101.25
356.626	101.25
356.853	111.25
357.08	98.25
357.307	83.25
357.534	85.25
357.761	105.25
357.988	98.25
358.215	88.25
358.441	79.25
358.668	96.25
358.895	102.25
359.122	97.25
359.349	99.25
359.576	114.25
359.802	130.25
360.029	158.25
360.256	175.25
360.483	115.25
360.709	96.25
360.936	88.25
361.163	95.25
361.39	107.25
361.616	106.25
361.843	103.25
362.07	113.25
362.296	118.25
362.523	95.25
362.749	96.25
362.976	106.25
363.203	91.25
363.429	90.25
363.656	113.25
363.882	91.25
364.109	81.25
364.335	99.25
364.562	95.25
364.788	97.25
365.015	117.25
365.241	106.25
365.468	120.25
365.694	124.25
365.92	113.25
366.147	95.25
366.373	97.25
366.599	95.25
366.826	95.25
367.052	99.25
367.278	102.25
367.505	101.25
367.731	111.25
367.957	110.25
368.184	91.25
368.41	108.25
368.636	124.25
368.862	139.25
369.089	129.25
369.315	94.25
369.541	86.25
369.767	99.25
369.993	96.25
370.219	105.25
370.445	90.25
370.672	99.25
370.898	87.25
371.124	110.25
371.35	88.25
371.576	89.25
371.802	98.25
372.028	97.25
372.254	100.25
372.48	94.25
372.706	74.25
372.932	90.25
373.158	89.25
373.384	96.25
373.61	87.25
373.835	94.25
374.061	85.25
374.287	86.25
374.513	98.25
374.739	95.25
374.965	86.25
375.191	96.25
375.416	97.25
375.642	107.25
375.868	96.25
376.094	94.25
376.319	91.25
376.545	81.25
376.771	98.25
376.997	84.25
377.222	94.25
377.448	96.25
377.674	96.25
377.899	86.25
378.125	98.25
378.35	81.25
378.576	107.25
378.802	97.25
379.027	90.25
379.253	92.25
379.478	80.25
379.704	89.25
379.929	101.25
380.155	96.25
380.38	96.25
380.606	80.25
380.831	106.25
381.057	109.25
381.282	84.25
381.507	93.25
381.733	110.25
381.958	81.25
382.184	105.25
382.409	87.25
382.634	120.25
382.86	99.25
383.085	93.25
383.31	89.25
383.535	89.25
383.761	92.25
383.986	95.25
384.211	94.25
384.436	95.25
384.662	91.25
384.887	112.25
385.112	111.25
385.337	99.25
385.562	88.25
385.787	112.25
386.013	120.25
386.238	107.25
386.463	101.25
386.688	120.25
386.913	104.25
387.138	93.25
387.363	106.25
387.588	98.25
387.813	89.25
388.038	110.25
388.263	104.25
388.488	105.25
388.713	101.25
388.938	91.25
389.163	87.25
389.387	89.25
389.612	109.25
389.837	83.25
390.062	97.25
390.287	82.25
390.512	92.25
390.736	91.25
390.961	93.25
391.186	86.25
391.411	74.25
391.636	96.25
391.86	100.25
392.085	89.25
392.31	64.25
392.534	92.25
392.759	89.25
392.984	85.25
393.208	72.25
393.433	81.25
393.658	93.25
393.882	98.25
394.107	85.25
394.331	86.25
394.556	88.25
394.78	93.25
395.005	83.25
395.229	89.25
395.454	88.25
395.678	95.25
395.903	74.25
396.127	101.25
396.352	88.25
396.576	88.25
396.801	97.25
397.025	82.25
397.249	100.25
397.474	95.25
397.698	97.25
397.922	94.25
398.147	90.25
398.371	92.25
398.595	86.25
398.82	95.25
399.044	98.25
399.268	96.25
399.492	83.25
399.717	95.25
399.941	94.25
400.165	101.25
400.389	99.25
400.613	98.25
400.837	85.25
401.062	88.25
401.286	95.25
401.51	89.25
401.734	100.25
401.958	123.25
402.182	158.25
402.406	221.25
402.63	159.25
402.854	108.25
403.078	121.25
403.302	95.25
403.526	100.25
403.75	102.25
403.974	101.25
404.198	84.25
404.422	102.25
404.645	105.25
404.869	106.25
405.093	137.25
405.317	167.25
405.541	147.25
405.765	121.25
405.988	159.25
406.212	235.25
406.436	339.25
406.66	227.25
406.883	136.25
407.107	120.25
407.331	106.25
407.555	111.25
407.778	105.25
408.002	103.25
408.226	89.25
408.449	91.25
408.673	99.25
408.896	107.25
409.12	100.25
409.344	96.25
409.567	101.25
409.791	98.25
410.014	101.25
410.238	111.25
410.461	94.25
410.685	96.25
410.908	99.25
411.132	122.25
411.355	111.25
411.578	85.25
411.802	88.25
412.025	94.25
412.249	111.25
412.472	126.25
412.695	147.25
412.919	131.25
413.142	97.25
413.365	96.25
413.589	101.25
413.812	107.25
414.035	98.25
414.258	110.25
414.482	99.25
414.705	74.25
414.928	96.25
415.151	98.25
415.374	95.25
415.597	82.25
415.821	97.25
416.044	105.25
416.267	107.25
416.49	92.25
416.713	92.25
416.936	98.25
417.159	110.25
417.382	98.25
417.605	127.25
417.828	126.25
418.051	101.25
418.274	89.25
418.497	87.25
418.72	85.25
418.943	88.25
419.166	87.25
419.389	80.25
419.611	89.25
419.834	84.25
420.057	106.25
420.28	98.25
420.503	90.25
420.726	86.25
420.948	95.25
421.171	105.25
421.394	93.25
421.617	89.25
421.839	90.25
422.062	85.25
422.285	105.25
422.507	95.25
422.73	122.25
422.953	91.25
423.175	93.25
423.398	96.25
423.621	99.25
423.843	95.25
424.066	91.25
424.288	107.25
424.511	97.25
424.733	105.25
424.956	129.25
425.178	119.25
425.401	111.25
425.623	110.25
425.846	90.25
426.068	112.25
426.291	98.25
426.513	104.25
426.735	85.25
426.958	102.25
427.18	139.25
427.402	181.25
427.625	310.25
427.847	269.25
428.069	243.25
428.292	146.25
428.514	105.25
428.736	89.25
428.958	94.25
429.181	87.25
429.403	90.25
429.625	95.25
429.847	102.25
430.069	121.25
430.292	112.25
430.514	98.25
430.736	88.25
430.958	93.25
431.18	81.25
431.402	89.25
431.624	83.25
431.846	97.25
432.068	82.25
432.29	95.25
432.512	83.25
432.734	89.25
432.956	97.25
433.178	102.25
433.4	101.25
433.622	101.25
433.844	106.25
434.066	99.25
434.287	102.25
434.509	96.25
434.731	95.25
434.953	90.25
435.175	85.25
435.397	96.25
435.618	103.25
435.84	116.25
436.062	143.25
436.284	143.25
436.505	122.25
436.727	115.25
436.949	104.25
437.17	90.25
437.392	97.25
437.614	111.25
437.835	143.25
438.057	154.25
438.278	134.25
438.5	127.25
438.721	153.25
438.943	129.25
439.165	89.25
439.386	87.25
439.608	98.25
439.829	121.25
440.05	158.25
440.272	207.25
440.493	118.25
440.715	97.25
440.936	101.25
441.158	82.25
441.379	101.25
441.6	114.25
441.822	106.25
442.043	114.25
442.264	123.25
442.486	142.25
442.707	109.25
442.928	135.25
443.149	199.25
443.371	172.25
443.592	149.25
443.813	138.25
444.034	126.25
444.255	100.25
444.476	91.25
444.698	97.25
444.919	94.25
445.14	129.25
445.361	145.25
445.582	158.25
445.803	217.25
446.024	182.25
446.245	183.25
446.466	135.25
446.687	95.25
446.908	87.25
447.129	89.25
447.35	94.25
447.571	99.25
447.792	107.25
448.013	110.25
448.234	106.25
448.455	104.25
448.675	143.25
448.896	143.25
449.117	111.25
449.338	131.25
449.559	162.25
449.779	195.25
450	114.25
450.221	103.25
450.442	111.25
450.662	119.25
450.883	141.25
451.104	162.25
451.324	109.25
451.545	97.25
451.766	98.25
451.986	88.25
452.207	92.25
452.428	101.25
452.648	111.25
452.869	128.25
453.089	141.25
453.31	157.25
453.53	106.25
453.751	97.25
453.971	126.25
454.192	135.25
454.412	107.25
454.633	103.25
454.853	101.25
455.073	77.25
455.294	99.25
455.514	110.25
455.734	93.25
455.955	96.25
456.175	87.25
456.395	83.25
456.616	93.25
456.836	81.25
457.056	83.25
457.276	66.25
457.497	81.25
457.717	95.25
457.937	96.25
458.157	82.25
458.377	91.25
458.598	143.25
458.818	233.25
459.038	259.25
459.258	154.25
459.478	101.25
459.698	101.25
459.918	94.25
460.138	87.25
460.358	77.25
460.578	82.25
460.798	118.25
461.018	105.25
461.238	95.25
461.458	91.25
461.678	100.25
461.898	87.25
462.118	79.25
462.338	91.25
462.558	87.25
462.777	88.25
462.997	93.25
463.217	122.25
463.437	107.25
463.657	92.25
463.876	117.25
464.096	96.25
464.316	100.25
464.536	106.25
464.755	111.25
464.975	135.25
465.195	284.25
465.414	267.25
465.634	107.25
465.854	101.25
466.073	94.25
466.293	106.25
466.512	86.25
466.732	83.25
466.951	99.25
467.171	105.25
467.391	109.25
467.61	157.25
467.829	234.25
468.049	683.25
468.268	1035.25
468.488	258.25
468.707	121.25
468.927	101.25
469.146	93.25
469.365	98.25
469.585	88.25
469.804	104.25
470.023	110.25
470.243	111.25
470.462	134.25
470.681	131.25
470.901	112.25
471.12	112.25
471.339	97.25
471.558	126.25
471.777	169.25
471.997	360.25
472.216	1316.25
472.435	3163.25
472.654	705.25
472.873	175.25
473.092	108.25
473.311	96.25
473.53	85.25
473.749	105.25
473.968	135.25
474.187	146.25
474.406	118.25
474.625	93.25
474.844	94.25
475.063	94.25
475.282	80.25
475.501	83.25
475.72	102.25
475.939	66.25
476.158	85.25
476.377	91.25
476.596	96.25
476.814	100.25
477.033	114.25
477.252	92.25
477.471	100.25
477.69	99.25
477.908	107.25
478.127	96.25
478.346	90.25
478.564	112.25
478.783	108.25
479.002	117.25
479.22	123.25
479.439	136.25
479.658	145.25
479.876	119.25
480.095	122.25
480.313	146.25
480.532	181.25
480.751	329.25
480.969	1190.25
481.188	5297.25
481.406	3079.25
481.624	433.25
481.843	157.25
482.061	126.25
482.28	113.25
482.498	113.25
482.717	92.25
482.935	98.25
483.153	94.25
483.372	92.25
483.59	111.25
483.808	99.25
484.027	97.25
484.245	106.25
484.463	98.25
484.681	105.25
484.9	98.25
485.118	93.25
485.336	94.25
485.554	101.25
485.772	94.25
485.99	116.25
486.209	113.25
486.427	119.25
486.645	134.25
486.863	134.25
487.081	118.25
487.299	112.25
487.517	105.25
487.735	102.25
487.953	90.25
488.171	82.25
488.389	96.25
488.607	99.25
488.825	91.25
489.043	100.25
489.261	86.25
489.479	97.25
489.696	88.25
489.914	109.25
490.132	96.25
490.35	81.25
490.568	99.25
490.786	96.25
491.003	85.25
491.221	94.25
491.439	96.25
491.657	117.25
491.874	95.25
492.092	87.25
492.31	94.25
492.527	92.25
492.745	106.25
492.963	108.25
493.18	87.25
493.398	100.25
493.615	85.25
493.833	112.25
494.05	82.25
494.268	91.25
494.485	86.25
494.703	92.25
494.92	101.25
495.138	93.25
495.355	94.25
495.573	95.25
495.79	96.25
496.008	94.25
496.225	87.25
496.442	81.25
496.66	89.25
496.877	100.25
497.094	95.25
497.312	106.25
497.529	80.25
497.746	75.25
497.963	105.25
498.181	95.25
498.398	112.25
498.615	127.25
498.832	99.25
499.049	99.25
499.267	104.25
499.484	92.25
499.701	98.25
499.918	98.25
500.135	99.25
500.352	88.25
500.569	103.25
500.786	93.25
501.003	88.25
501.22	98.25
501.437	106.25
501.654	99.25
501.871	130.25
502.088	122.25
502.305	101.25
502.522	111.25
502.739	93.25
502.956	100.25
503.172	96.25
503.389	108.25
503.606	131.25
503.823	115.25
504.04	89.25
504.256	94.25
504.473	90.25
504.69	89.25
504.907	97.25
505.123	90.25
505.34	82.25
505.557	88.25
505.773	102.25
505.99	84.25
506.207	94.25
506.423	97.25
506.64	105.25
506.856	91.25
507.073	98.25
507.289	108.25
507.506	103.25
507.722	153.25
507.939	145.25
508.155	98.25
508.372	94.25
508.588	94.25
508.805	114.25
509.021	95.25
509.238	117.25
509.454	105.25
509.67	88.25
509.887	112.25
510.103	143.25
510.319	240.25
510.536	1000.25
510.752	3499.25
510.968	905.25
511.184	188.25
511.401	118.25
