Data from Circ_1987_H10_HRD10591_00021.txt Node
Date: Wed Jan 03 12:10:37 EST 2024
User: Yrep
Spectrometer: HR+D1059
Trigger mode: 1
Integration Time (sec): 1.000000E-1
Scans to average: 1
Electric dark correction enabled: true
Nonlinearity correction enabled: false
Boxcar width: 0
XAxis mode: Wavelengths
Number of Pixels in Spectrum: 2048
>>>>>Begin Spectral Data<<<<<
223.165	-18.88
223.4	-18.88
223.635	-18.88
223.869	-13.88
224.104	-17.88
224.338	-6.88
224.573	-14.88
224.808	-21.88
225.042	-16.88
225.277	-7.88
225.511	17.12
225.746	2.12
225.98	8.12
226.215	19.12
226.449	-2.88
226.683	21.12
226.918	20.12
227.152	34.12
227.387	16.12
227.621	39.12
227.856	51.12
228.09	56.12
228.324	52.12
228.559	55.12
228.793	56.12
229.027	55.12
229.262	67.12
229.496	69.12
229.73	92.12
229.964	95.12
230.199	79.12
230.433	72.12
230.667	79.12
230.901	63.12
231.136	82.12
231.37	83.12
231.604	89.12
231.838	77.12
232.072	82.12
232.306	86.12
232.541	88.12
232.775	72.12
233.009	75.12
233.243	83.12
233.477	77.12
233.711	85.12
233.945	85.12
234.179	70.12
234.413	90.12
234.647	93.12
234.881	73.12
235.115	71.12
235.349	72.12
235.583	84.12
235.817	81.12
236.051	66.12
236.285	65.12
236.519	77.12
236.753	71.12
236.987	87.12
237.221	89.12
237.455	87.12
237.689	75.12
237.922	83.12
238.156	79.12
238.39	71.12
238.624	69.12
238.858	72.12
239.091	72.12
239.325	81.12
239.559	79.12
239.793	75.12
240.027	93.12
240.26	76.12
240.494	83.12
240.728	75.12
240.961	83.12
241.195	79.12
241.429	86.12
241.662	82.12
241.896	67.12
242.13	77.12
242.363	83.12
242.597	71.12
242.83	76.12
243.064	76.12
243.298	88.12
243.531	79.12
243.765	78.12
243.998	94.12
244.232	88.12
244.465	87.12
244.699	78.12
244.932	79.12
245.166	71.12
245.399	60.12
245.633	84.12
245.866	92.12
246.099	91.12
246.333	82.12
246.566	82.12
246.8	89.12
247.033	83.12
247.266	69.12
247.5	100.12
247.733	83.12
247.966	79.12
248.2	80.12
248.433	77.12
248.666	80.12
248.899	84.12
249.133	72.12
249.366	89.12
249.599	92.12
249.832	82.12
250.066	87.12
250.299	92.12
250.532	78.12
250.765	63.12
250.998	79.12
251.231	75.12
251.465	83.12
251.698	81.12
251.931	79.12
252.164	76.12
252.397	81.12
252.63	84.12
252.863	85.12
253.096	75.12
253.329	60.12
253.562	80.12
253.795	87.12
254.028	87.12
254.261	85.12
254.494	71.12
254.727	72.12
254.96	93.12
255.193	82.12
255.426	75.12
255.659	81.12
255.892	87.12
256.124	85.12
256.357	89.12
256.59	72.12
256.823	80.12
257.056	88.12
257.289	79.12
257.521	67.12
257.754	72.12
257.987	83.12
258.22	73.12
258.452	83.12
258.685	86.12
258.918	81.12
259.151	76.12
259.383	83.12
259.616	84.12
259.849	81.12
260.081	78.12
260.314	84.12
260.547	82.12
260.779	81.12
261.012	99.12
261.244	94.12
261.477	89.12
261.71	88.12
261.942	112.12
262.175	115.12
262.407	84.12
262.64	85.12
262.872	82.12
263.105	81.12
263.337	81.12
263.57	77.12
263.802	77.12
264.035	80.12
264.267	89.12
264.499	93.12
264.732	76.12
264.964	79.12
265.197	83.12
265.429	84.12
265.661	81.12
265.894	92.12
266.126	81.12
266.358	70.12
266.591	84.12
266.823	86.12
267.055	86.12
267.287	87.12
267.52	89.12
267.752	96.12
267.984	88.12
268.216	73.12
268.448	85.12
268.681	86.12
268.913	87.12
269.145	85.12
269.377	79.12
269.609	86.12
269.841	89.12
270.073	89.12
270.306	84.12
270.538	94.12
270.77	83.12
271.002	81.12
271.234	84.12
271.466	99.12
271.698	93.12
271.93	95.12
272.162	92.12
272.394	93.12
272.626	82.12
272.858	75.12
273.09	69.12
273.322	73.12
273.553	82.12
273.785	93.12
274.017	77.12
274.249	92.12
274.481	93.12
274.713	91.12
274.945	86.12
275.176	91.12
275.408	89.12
275.64	93.12
275.872	93.12
276.104	96.12
276.335	101.12
276.567	102.12
276.799	115.12
277.031	127.12
277.262	129.12
277.494	133.12
277.726	88.12
277.957	79.12
278.189	75.12
278.421	92.12
278.652	86.12
278.884	88.12
279.115	93.12
279.347	96.12
279.579	86.12
279.81	105.12
280.042	126.12
280.273	175.12
280.505	132.12
280.736	102.12
280.968	87.12
281.199	86.12
281.431	93.12
281.662	98.12
281.894	78.12
282.125	99.12
282.356	108.12
282.588	144.12
282.819	110.12
283.051	86.12
283.282	78.12
283.513	95.12
283.745	83.12
283.976	92.12
284.207	93.12
284.439	86.12
284.67	79.12
284.901	87.12
285.132	93.12
285.364	91.12
285.595	92.12
285.826	89.12
286.057	97.12
286.288	87.12
286.52	88.12
286.751	91.12
286.982	86.12
287.213	95.12
287.444	94.12
287.675	96.12
287.906	87.12
288.138	103.12
288.369	89.12
288.6	87.12
288.831	96.12
289.062	83.12
289.293	97.12
289.524	81.12
289.755	86.12
289.986	77.12
290.217	81.12
290.448	91.12
290.679	89.12
290.91	98.12
291.141	94.12
291.371	85.12
291.602	97.12
291.833	86.12
292.064	85.12
292.295	108.12
292.526	73.12
292.757	79.12
292.987	84.12
293.218	80.12
293.449	91.12
293.68	93.12
293.91	89.12
294.141	86.12
294.372	92.12
294.603	81.12
294.833	85.12
295.064	87.12
295.295	85.12
295.525	91.12
295.756	107.12
295.987	123.12
296.217	131.12
296.448	125.12
296.679	108.12
296.909	105.12
297.14	102.12
297.37	110.12
297.601	92.12
297.831	86.12
298.062	87.12
298.292	88.12
298.523	106.12
298.753	93.12
298.984	93.12
299.214	86.12
299.445	90.12
299.675	83.12
299.905	87.12
300.136	102.12
300.366	73.12
300.597	84.12
300.827	80.12
301.057	103.12
301.288	91.12
301.518	96.12
301.748	99.12
301.979	96.12
302.209	100.12
302.439	83.12
302.669	72.12
302.9	93.12
303.13	91.12
303.36	102.12
303.59	103.12
303.82	123.12
304.051	101.12
304.281	98.12
304.511	90.12
304.741	94.12
304.971	83.12
305.201	97.12
305.431	91.12
305.661	85.12
305.891	71.12
306.121	92.12
306.352	105.12
306.582	105.12
306.812	91.12
307.042	110.12
307.272	131.12
307.502	129.12
307.731	125.12
307.961	103.12
308.191	102.12
308.421	96.12
308.651	92.12
308.881	89.12
309.111	97.12
309.341	111.12
309.571	93.12
309.8	81.12
310.03	87.12
310.26	105.12
310.49	96.12
310.72	97.12
310.949	102.12
311.179	96.12
311.409	100.12
311.639	96.12
311.868	99.12
312.098	104.12
312.328	86.12
312.557	107.12
312.787	112.12
313.017	100.12
313.246	120.12
313.476	96.12
313.706	102.12
313.935	107.12
314.165	93.12
314.394	120.12
314.624	99.12
314.853	86.12
315.083	80.12
315.312	91.12
315.542	91.12
315.771	97.12
316.001	81.12
316.23	90.12
316.46	91.12
316.689	93.12
316.919	96.12
317.148	103.12
317.377	88.12
317.607	92.12
317.836	103.12
318.065	81.12
318.295	82.12
318.524	95.12
318.753	105.12
318.983	100.12
319.212	95.12
319.441	109.12
319.67	116.12
319.9	91.12
320.129	93.12
320.358	101.12
320.587	97.12
320.816	99.12
321.046	95.12
321.275	109.12
321.504	109.12
321.733	113.12
321.962	91.12
322.191	91.12
322.42	89.12
322.649	114.12
322.878	109.12
323.108	114.12
323.337	125.12
323.566	135.12
323.795	164.12
324.024	197.12
324.253	372.12
324.482	786.12
324.71	1612.12
324.939	2151.12
325.168	819.12
325.397	235.12
325.626	154.12
325.855	130.12
326.084	111.12
326.313	128.12
326.542	161.12
326.77	216.12
326.999	417.12
327.228	849.12
327.457	1544.12
327.686	1285.12
327.914	423.12
328.143	343.12
328.372	419.12
328.6	226.12
328.829	132.12
329.058	162.12
329.287	185.12
329.515	155.12
329.744	148.12
329.972	284.12
330.201	553.12
330.43	792.12
330.658	393.12
330.887	215.12
331.115	157.12
331.344	115.12
331.572	129.12
331.801	123.12
332.03	103.12
332.258	102.12
332.486	91.12
332.715	93.12
332.943	99.12
333.172	119.12
333.4	115.12
333.629	137.12
333.857	183.12
334.085	266.12
334.314	532.12
334.542	1008.12
334.771	951.12
334.999	281.12
335.227	139.12
335.455	110.12
335.684	103.12
335.912	100.12
336.14	93.12
336.369	101.12
336.597	107.12
336.825	92.12
337.053	86.12
337.281	94.12
337.51	108.12
337.738	105.12
337.966	82.12
338.194	93.12
338.422	98.12
338.65	94.12
338.878	101.12
339.106	96.12
339.334	71.12
339.562	87.12
339.79	103.12
340.018	87.12
340.246	99.12
340.474	92.12
340.702	88.12
340.93	95.12
341.158	96.12
341.386	100.12
341.614	103.12
341.842	105.12
342.07	84.12
342.298	90.12
342.526	81.12
342.754	100.12
342.981	98.12
343.209	82.12
343.437	96.12
343.665	89.12
343.893	95.12
344.12	90.12
344.348	89.12
344.576	99.12
344.804	80.12
345.031	107.12
345.259	115.12
345.487	86.12
345.714	96.12
345.942	99.12
346.17	84.12
346.397	72.12
346.625	100.12
346.853	85.12
347.08	79.12
347.308	103.12
347.535	87.12
347.763	112.12
347.99	104.12
348.218	98.12
348.445	98.12
348.673	101.12
348.9	99.12
349.128	98.12
349.355	90.12
349.583	97.12
349.81	105.12
350.037	92.12
350.265	83.12
350.492	89.12
350.72	100.12
350.947	109.12
351.174	109.12
351.402	99.12
351.629	116.12
351.856	109.12
352.083	95.12
352.311	112.12
352.538	104.12
352.765	115.12
352.992	94.12
353.22	109.12
353.447	100.12
353.674	103.12
353.901	91.12
354.128	99.12
354.355	92.12
354.583	102.12
354.81	87.12
355.037	75.12
355.264	92.12
355.491	101.12
355.718	88.12
355.945	85.12
356.172	96.12
356.399	96.12
356.626	94.12
356.853	102.12
357.08	89.12
357.307	102.12
357.534	87.12
357.761	87.12
357.988	92.12
358.215	96.12
358.441	87.12
358.668	96.12
358.895	80.12
359.122	93.12
359.349	84.12
359.576	80.12
359.802	104.12
360.029	125.12
360.256	118.12
360.483	110.12
360.709	89.12
360.936	75.12
361.163	100.12
361.39	101.12
361.616	94.12
361.843	93.12
362.07	95.12
362.296	100.12
362.523	92.12
362.749	92.12
362.976	87.12
363.203	91.12
363.429	83.12
363.656	83.12
363.882	98.12
364.109	75.12
364.335	94.12
364.562	94.12
364.788	93.12
365.015	100.12
365.241	114.12
365.468	115.12
365.694	116.12
365.92	102.12
366.147	108.12
366.373	72.12
366.599	87.12
366.826	85.12
367.052	92.12
367.278	95.12
367.505	89.12
367.731	85.12
367.957	100.12
368.184	93.12
368.41	101.12
368.636	108.12
368.862	122.12
369.089	105.12
369.315	78.12
369.541	99.12
369.767	100.12
369.993	97.12
370.219	94.12
370.445	86.12
370.672	75.12
370.898	80.12
371.124	88.12
371.35	88.12
371.576	88.12
371.802	86.12
372.028	66.12
372.254	92.12
372.48	85.12
372.706	84.12
372.932	99.12
373.158	66.12
373.384	91.12
373.61	85.12
373.835	84.12
374.061	104.12
374.287	92.12
374.513	89.12
374.739	78.12
374.965	96.12
375.191	92.12
375.416	73.12
375.642	91.12
375.868	94.12
376.094	84.12
376.319	83.12
376.545	78.12
376.771	80.12
376.997	99.12
377.222	77.12
377.448	102.12
377.674	96.12
377.899	93.12
378.125	100.12
378.35	90.12
378.576	77.12
378.802	96.12
379.027	77.12
379.253	95.12
379.478	88.12
379.704	89.12
379.929	99.12
380.155	84.12
380.38	77.12
380.606	79.12
380.831	96.12
381.057	103.12
381.282	87.12
381.507	99.12
381.733	96.12
381.958	85.12
382.184	96.12
382.409	111.12
382.634	81.12
382.86	87.12
383.085	100.12
383.31	97.12
383.535	98.12
383.761	102.12
383.986	97.12
384.211	91.12
384.436	94.12
384.662	96.12
384.887	96.12
385.112	112.12
385.337	96.12
385.562	110.12
385.787	104.12
386.013	120.12
386.238	111.12
386.463	107.12
386.688	118.12
386.913	88.12
387.138	108.12
387.363	105.12
387.588	103.12
387.813	81.12
388.038	112.12
388.263	101.12
388.488	102.12
388.713	82.12
388.938	86.12
389.163	84.12
389.387	96.12
389.612	98.12
389.837	95.12
390.062	84.12
390.287	91.12
390.512	89.12
390.736	84.12
390.961	104.12
391.186	92.12
391.411	93.12
391.636	91.12
391.86	92.12
392.085	85.12
392.31	65.12
392.534	101.12
392.759	87.12
392.984	88.12
393.208	77.12
393.433	88.12
393.658	90.12
393.882	71.12
394.107	63.12
394.331	85.12
394.556	84.12
394.78	93.12
395.005	79.12
395.229	73.12
395.454	91.12
395.678	75.12
395.903	88.12
396.127	103.12
396.352	79.12
396.576	71.12
396.801	88.12
397.025	86.12
397.249	95.12
397.474	93.12
397.698	87.12
397.922	99.12
398.147	97.12
398.371	83.12
398.595	74.12
398.82	94.12
399.044	86.12
399.268	87.12
399.492	98.12
399.717	88.12
399.941	85.12
400.165	89.12
400.389	91.12
400.613	89.12
400.837	81.12
401.062	105.12
401.286	92.12
401.51	84.12
401.734	85.12
401.958	89.12
402.182	125.12
402.406	164.12
402.63	129.12
402.854	93.12
403.078	92.12
403.302	82.12
403.526	94.12
403.75	78.12
403.974	93.12
404.198	79.12
404.422	73.12
404.645	87.12
404.869	93.12
405.093	109.12
405.317	113.12
405.541	143.12
405.765	113.12
405.988	123.12
406.212	167.12
406.436	231.12
406.66	160.12
406.883	105.12
407.107	101.12
407.331	87.12
407.555	98.12
407.778	84.12
408.002	91.12
408.226	89.12
408.449	96.12
408.673	82.12
408.896	87.12
409.12	93.12
409.344	93.12
409.567	98.12
409.791	88.12
410.014	86.12
410.238	69.12
410.461	91.12
410.685	88.12
410.908	93.12
411.132	98.12
411.355	92.12
411.578	88.12
411.802	92.12
412.025	84.12
412.249	91.12
412.472	104.12
412.695	130.12
412.919	110.12
413.142	86.12
413.365	82.12
413.589	87.12
413.812	98.12
414.035	94.12
414.258	86.12
414.482	78.12
414.705	85.12
414.928	86.12
415.151	92.12
415.374	81.12
415.597	76.12
415.821	104.12
416.044	86.12
416.267	87.12
416.49	101.12
416.713	83.12
416.936	86.12
417.159	96.12
417.382	84.12
417.605	102.12
417.828	96.12
418.051	88.12
418.274	93.12
418.497	72.12
418.72	88.12
418.943	90.12
419.166	87.12
419.389	86.12
419.611	74.12
419.834	78.12
420.057	69.12
420.28	94.12
420.503	89.12
420.726	94.12
420.948	97.12
421.171	109.12
421.394	98.12
421.617	91.12
421.839	90.12
422.062	86.12
422.285	87.12
422.507	117.12
422.73	113.12
422.953	99.12
423.175	87.12
423.398	72.12
423.621	72.12
423.843	104.12
424.066	72.12
424.288	85.12
424.511	78.12
424.733	101.12
424.956	105.12
425.178	92.12
425.401	108.12
425.623	99.12
425.846	95.12
426.068	111.12
426.291	92.12
426.513	89.12
426.735	96.12
426.958	87.12
427.18	103.12
427.402	149.12
427.625	204.12
427.847	189.12
428.069	169.12
428.292	109.12
428.514	88.12
428.736	69.12
428.958	89.12
429.181	79.12
429.403	88.12
429.625	94.12
429.847	86.12
430.069	116.12
430.292	104.12
430.514	83.12
430.736	103.12
430.958	85.12
431.18	80.12
431.402	95.12
431.624	75.12
431.846	78.12
432.068	64.12
432.29	90.12
432.512	75.12
432.734	101.12
432.956	95.12
433.178	109.12
433.4	107.12
433.622	81.12
433.844	95.12
434.066	85.12
434.287	91.12
434.509	93.12
434.731	98.12
434.953	84.12
435.175	93.12
435.397	95.12
435.618	104.12
435.84	113.12
436.062	116.12
436.284	120.12
436.505	105.12
436.727	92.12
436.949	79.12
437.17	93.12
437.392	67.12
437.614	85.12
437.835	123.12
438.057	135.12
438.278	113.12
438.5	95.12
438.721	132.12
438.943	114.12
439.165	91.12
439.386	91.12
439.608	94.12
439.829	94.12
440.05	132.12
440.272	139.12
440.493	98.12
440.715	79.12
440.936	85.12
441.158	84.12
441.379	95.12
441.6	92.12
441.822	94.12
442.043	100.12
442.264	98.12
442.486	123.12
442.707	101.12
442.928	98.12
443.149	141.12
443.371	151.12
443.592	110.12
443.813	128.12
444.034	122.12
444.255	86.12
444.476	84.12
444.698	98.12
444.919	75.12
445.14	128.12
445.361	123.12
445.582	116.12
445.803	168.12
446.024	157.12
446.245	154.12
446.466	117.12
446.687	85.12
446.908	83.12
447.129	73.12
447.35	93.12
447.571	93.12
447.792	98.12
448.013	92.12
448.234	112.12
448.455	107.12
448.675	114.12
448.896	124.12
449.117	85.12
449.338	104.12
449.559	128.12
449.779	134.12
450	97.12
450.221	85.12
450.442	95.12
450.662	97.12
450.883	121.12
451.104	109.12
451.324	91.12
451.545	96.12
451.766	73.12
451.986	75.12
452.207	86.12
452.428	100.12
452.648	95.12
452.869	103.12
453.089	113.12
453.31	118.12
453.53	96.12
453.751	103.12
453.971	109.12
454.192	119.12
454.412	87.12
454.633	91.12
454.853	79.12
455.073	72.12
455.294	87.12
455.514	107.12
455.734	71.12
455.955	84.12
456.175	80.12
456.395	97.12
456.616	99.12
456.836	96.12
457.056	93.12
457.276	84.12
457.497	69.12
457.717	76.12
457.937	75.12
458.157	95.12
458.377	95.12
458.598	109.12
458.818	175.12
459.038	193.12
459.258	127.12
459.478	89.12
459.698	72.12
459.918	84.12
460.138	80.12
460.358	72.12
460.578	87.12
460.798	103.12
461.018	85.12
461.238	84.12
461.458	77.12
461.678	96.12
461.898	83.12
462.118	89.12
462.338	87.12
462.558	94.12
462.777	79.12
462.997	88.12
463.217	99.12
463.437	85.12
463.657	82.12
463.876	73.12
464.096	94.12
464.316	99.12
464.536	98.12
464.755	100.12
464.975	109.12
465.195	181.12
465.414	176.12
465.634	115.12
465.854	89.12
466.073	88.12
466.293	80.12
466.512	80.12
466.732	84.12
466.951	104.12
467.171	91.12
467.391	85.12
467.61	120.12
467.829	136.12
468.049	345.12
468.268	452.12
468.488	147.12
468.707	91.12
468.927	99.12
469.146	93.12
469.365	96.12
469.585	100.12
469.804	86.12
470.023	112.12
470.243	84.12
470.462	103.12
470.681	118.12
470.901	84.12
471.12	97.12
471.339	86.12
471.558	110.12
471.777	117.12
471.997	195.12
472.216	626.12
472.435	1359.12
472.654	367.12
472.873	128.12
473.092	84.12
473.311	96.12
473.53	89.12
473.749	72.12
473.968	101.12
474.187	101.12
474.406	85.12
474.625	91.12
474.844	100.12
475.063	81.12
475.282	95.12
475.501	89.12
475.72	84.12
475.939	94.12
476.158	92.12
476.377	83.12
476.596	91.12
476.814	97.12
477.033	80.12
477.252	105.12
477.471	103.12
477.69	85.12
477.908	95.12
478.127	97.12
478.346	88.12
478.564	100.12
478.783	110.12
479.002	91.12
479.22	93.12
479.439	119.12
479.658	117.12
479.876	98.12
480.095	97.12
480.313	119.12
480.532	129.12
480.751	176.12
480.969	577.12
481.188	2352.12
481.406	1406.12
481.624	246.12
481.843	120.12
482.061	101.12
482.28	97.12
482.498	97.12
482.717	102.12
482.935	90.12
483.153	105.12
483.372	87.12
483.59	93.12
483.808	77.12
484.027	91.12
484.245	97.12
484.463	90.12
484.681	97.12
484.9	94.12
485.118	91.12
485.336	97.12
485.554	103.12
485.772	87.12
485.99	106.12
486.209	107.12
486.427	112.12
486.645	108.12
486.863	113.12
487.081	111.12
487.299	84.12
487.517	101.12
487.735	94.12
487.953	91.12
488.171	101.12
488.389	98.12
488.607	109.12
488.825	85.12
489.043	73.12
489.261	81.12
489.479	95.12
489.696	76.12
489.914	86.12
490.132	83.12
490.35	86.12
490.568	101.12
490.786	101.12
491.003	100.12
491.221	92.12
491.439	99.12
491.657	106.12
491.874	82.12
492.092	92.12
492.31	97.12
492.527	101.12
492.745	109.12
492.963	87.12
493.18	88.12
493.398	76.12
493.615	90.12
493.833	96.12
494.05	92.12
494.268	88.12
494.485	91.12
494.703	87.12
494.92	103.12
495.138	86.12
495.355	86.12
495.573	95.12
495.79	86.12
496.008	88.12
496.225	98.12
496.442	97.12
496.66	96.12
496.877	95.12
497.094	82.12
497.312	83.12
497.529	78.12
497.746	87.12
497.963	95.12
498.181	79.12
498.398	95.12
498.615	103.12
498.832	100.12
499.049	86.12
499.267	102.12
499.484	95.12
499.701	108.12
499.918	91.12
500.135	95.12
500.352	90.12
500.569	96.12
500.786	80.12
501.003	89.12
501.22	93.12
501.437	80.12
501.654	98.12
501.871	117.12
502.088	89.12
502.305	91.12
502.522	87.12
502.739	81.12
502.956	89.12
503.172	95.12
503.389	99.12
503.606	95.12
503.823	97.12
504.04	102.12
504.256	87.12
504.473	88.12
504.69	83.12
504.907	94.12
505.123	104.12
505.34	90.12
505.557	79.12
505.773	92.12
505.99	105.12
506.207	79.12
506.423	82.12
506.64	80.12
506.856	94.12
507.073	85.12
507.289	95.12
507.506	96.12
507.722	117.12
507.939	125.12
508.155	104.12
508.372	95.12
508.588	92.12
508.805	94.12
509.021	94.12
509.238	87.12
509.454	96.12
509.67	108.12
509.887	112.12
510.103	132.12
510.319	204.12
510.536	758.12
510.752	2449.12
510.968	667.12
511.184	163.12
511.401	113.12
511.617	105.12
511.833	104.12
512.049	108.12
512.265	99.12
512.481	87.12
512.698	96.12
512.914	83.12
513.13	87.12
513.346	105.12
513.562	94.12
513.778	96.12
513.994	94.12
514.21	108.12
514.426	135.12
514.642	145.12
