Data from Circ_1987_H10_HRD10591_00087.txt Node
Date: Wed Jan 03 12:10:50 EST 2024
User: Yrep
Spectrometer: HR+D1059
Trigger mode: 1
Integration Time (sec): 1.000000E-1
Scans to average: 1
Electric dark correction enabled: true
Nonlinearity correction enabled: false
Boxcar width: 0
XAxis mode: Wavelengths
Number of Pixels in Spectrum: 2048
>>>>>Begin Spectral Data<<<<<
223.165	-12.94
223.4	-12.94
223.635	-12.94
223.869	-22.94
224.104	-24.94
224.338	-15.94
224.573	-23.94
224.808	-10.94
225.042	-4.94
225.277	-1.94
225.511	11.06
225.746	1.06
225.98	7.06
226.215	13.06
226.449	19.06
226.683	15.06
226.918	27.06
227.152	25.06
227.387	24.06
227.621	37.06
227.856	50.06
228.09	41.06
228.324	45.06
228.559	67.06
228.793	59.06
229.027	56.06
229.262	69.06
229.496	77.06
229.73	99.06
229.964	91.06
230.199	70.06
230.433	77.06
230.667	78.06
230.901	63.06
231.136	62.06
231.37	71.06
231.604	77.06
231.838	88.06
232.072	78.06
232.306	91.06
232.541	87.06
232.775	71.06
233.009	86.06
233.243	89.06
233.477	88.06
233.711	79.06
233.945	83.06
234.179	86.06
234.413	71.06
234.647	77.06
234.881	83.06
235.115	91.06
235.349	84.06
235.583	86.06
235.817	86.06
236.051	69.06
236.285	77.06
236.519	85.06
236.753	86.06
236.987	91.06
237.221	71.06
237.455	92.06
237.689	89.06
237.922	77.06
238.156	63.06
238.39	80.06
238.624	72.06
238.858	77.06
239.091	69.06
239.325	72.06
239.559	83.06
239.793	71.06
240.027	73.06
240.26	72.06
240.494	89.06
240.728	85.06
240.961	72.06
241.195	86.06
241.429	68.06
241.662	76.06
241.896	72.06
242.13	71.06
242.363	80.06
242.597	68.06
242.83	80.06
243.064	71.06
243.298	87.06
243.531	87.06
243.765	83.06
243.998	77.06
244.232	90.06
244.465	87.06
244.699	84.06
244.932	83.06
245.166	72.06
245.399	65.06
245.633	87.06
245.866	83.06
246.099	85.06
246.333	76.06
246.566	83.06
246.8	86.06
247.033	76.06
247.266	89.06
247.5	79.06
247.733	87.06
247.966	68.06
248.2	79.06
248.433	82.06
248.666	79.06
248.899	86.06
249.133	98.06
249.366	104.06
249.599	109.06
249.832	81.06
250.066	85.06
250.299	70.06
250.532	94.06
250.765	73.06
250.998	77.06
251.231	81.06
251.465	68.06
251.698	93.06
251.931	69.06
252.164	92.06
252.397	87.06
252.63	85.06
252.863	72.06
253.096	73.06
253.329	77.06
253.562	83.06
253.795	86.06
254.028	81.06
254.261	80.06
254.494	86.06
254.727	88.06
254.96	83.06
255.193	65.06
255.426	81.06
255.659	87.06
255.892	99.06
256.124	94.06
256.357	93.06
256.59	83.06
256.823	79.06
257.056	77.06
257.289	97.06
257.521	81.06
257.754	77.06
257.987	86.06
258.22	92.06
258.452	104.06
258.685	95.06
258.918	73.06
259.151	83.06
259.383	62.06
259.616	77.06
259.849	69.06
260.081	84.06
260.314	89.06
260.547	94.06
260.779	101.06
261.012	116.06
261.244	99.06
261.477	93.06
261.71	107.06
261.942	147.06
262.175	135.06
262.407	94.06
262.64	96.06
262.872	87.06
263.105	80.06
263.337	104.06
263.57	79.06
263.802	79.06
264.035	86.06
264.267	80.06
264.499	92.06
264.732	81.06
264.964	92.06
265.197	83.06
265.429	77.06
265.661	97.06
265.894	91.06
266.126	101.06
266.358	93.06
266.591	84.06
266.823	88.06
267.055	96.06
267.287	95.06
267.52	76.06
267.752	69.06
267.984	94.06
268.216	84.06
268.448	76.06
268.681	83.06
268.913	95.06
269.145	98.06
269.377	83.06
269.609	98.06
269.841	86.06
270.073	79.06
270.306	87.06
270.538	88.06
270.77	79.06
271.002	86.06
271.234	88.06
271.466	96.06
271.698	91.06
271.93	77.06
272.162	89.06
272.394	89.06
272.626	89.06
272.858	85.06
273.09	68.06
273.322	81.06
273.553	81.06
273.785	76.06
274.017	72.06
274.249	94.06
274.481	93.06
274.713	81.06
274.945	99.06
275.176	107.06
275.408	100.06
275.64	111.06
275.872	133.06
276.104	107.06
276.335	101.06
276.567	128.06
276.799	148.06
277.031	177.06
277.262	213.06
277.494	136.06
277.726	101.06
277.957	91.06
278.189	96.06
278.421	85.06
278.652	85.06
278.884	96.06
279.115	99.06
279.347	87.06
279.579	114.06
279.81	134.06
280.042	223.06
280.273	286.06
280.505	191.06
280.736	110.06
280.968	104.06
281.199	91.06
281.431	93.06
281.662	97.06
281.894	97.06
282.125	106.06
282.356	111.06
282.588	177.06
282.819	140.06
283.051	91.06
283.282	78.06
283.513	81.06
283.745	79.06
283.976	99.06
284.207	79.06
284.439	84.06
284.67	80.06
284.901	80.06
285.132	96.06
285.364	86.06
285.595	80.06
285.826	81.06
286.057	76.06
286.288	78.06
286.52	82.06
286.751	91.06
286.982	86.06
287.213	92.06
287.444	98.06
287.675	88.06
287.906	104.06
288.138	84.06
288.369	89.06
288.6	118.06
288.831	97.06
289.062	102.06
289.293	110.06
289.524	79.06
289.755	78.06
289.986	75.06
290.217	82.06
290.448	95.06
290.679	96.06
290.91	100.06
291.141	86.06
291.371	101.06
291.602	84.06
291.833	93.06
292.064	79.06
292.295	101.06
292.526	95.06
292.757	92.06
292.987	87.06
293.218	85.06
293.449	85.06
293.68	91.06
293.91	83.06
294.141	91.06
294.372	92.06
294.603	100.06
294.833	88.06
295.064	94.06
295.295	105.06
295.525	97.06
295.756	82.06
295.987	125.06
296.217	168.06
296.448	153.06
296.679	99.06
296.909	77.06
297.14	96.06
297.37	84.06
297.601	95.06
297.831	85.06
298.062	87.06
298.292	94.06
298.523	88.06
298.753	96.06
298.984	98.06
299.214	83.06
299.445	96.06
299.675	96.06
299.905	103.06
300.136	83.06
300.366	88.06
300.597	97.06
300.827	96.06
301.057	102.06
301.288	116.06
301.518	94.06
301.748	107.06
301.979	113.06
302.209	109.06
302.439	97.06
302.669	97.06
302.9	94.06
303.13	96.06
303.36	98.06
303.59	134.06
303.82	145.06
304.051	97.06
304.281	85.06
304.511	93.06
304.741	94.06
304.971	85.06
305.201	85.06
305.431	102.06
305.661	79.06
305.891	93.06
306.121	112.06
306.352	106.06
306.582	129.06
306.812	128.06
307.042	123.06
307.272	165.06
307.502	184.06
307.731	191.06
307.961	128.06
308.191	100.06
308.421	96.06
308.651	77.06
308.881	87.06
309.111	94.06
309.341	93.06
309.571	102.06
309.8	91.06
310.03	111.06
310.26	102.06
310.49	104.06
310.72	99.06
310.949	130.06
311.179	128.06
311.409	96.06
311.639	99.06
311.868	112.06
312.098	99.06
312.328	99.06
312.557	96.06
312.787	117.06
313.017	100.06
313.246	102.06
313.476	83.06
313.706	93.06
313.935	96.06
314.165	110.06
314.394	111.06
314.624	111.06
314.853	104.06
315.083	103.06
315.312	98.06
315.542	91.06
315.771	93.06
316.001	102.06
316.23	93.06
316.46	108.06
316.689	100.06
316.919	104.06
317.148	98.06
317.377	103.06
317.607	103.06
317.836	88.06
318.065	88.06
318.295	112.06
318.524	89.06
318.753	97.06
318.983	92.06
319.212	112.06
319.441	118.06
319.67	120.06
319.9	92.06
320.129	99.06
320.358	95.06
320.587	100.06
320.816	99.06
321.046	115.06
321.275	115.06
321.504	110.06
321.733	103.06
321.962	112.06
322.191	103.06
322.42	99.06
322.649	109.06
322.878	117.06
323.108	112.06
323.337	143.06
323.566	149.06
323.795	176.06
324.024	241.06
324.253	415.06
324.482	873.06
324.71	1706.06
324.939	2221.06
325.168	860.06
325.397	276.06
325.626	155.06
325.855	145.06
326.084	133.06
326.313	147.06
326.542	158.06
326.77	230.06
326.999	429.06
327.228	851.06
327.457	1572.06
327.686	1251.06
327.914	505.06
328.143	559.06
328.372	704.06
328.6	375.06
328.829	194.06
329.058	199.06
329.287	187.06
329.515	191.06
329.744	248.06
329.972	501.06
330.201	1043.06
330.43	1529.06
330.658	673.06
330.887	336.06
331.115	199.06
331.344	121.06
331.572	110.06
331.801	129.06
332.03	129.06
332.258	117.06
332.486	108.06
332.715	114.06
332.943	104.06
333.172	128.06
333.4	146.06
333.629	163.06
333.857	244.06
334.085	447.06
334.314	925.06
334.542	1867.06
334.771	1744.06
334.999	452.06
335.227	183.06
335.455	141.06
335.684	118.06
335.912	120.06
336.14	113.06
336.369	92.06
336.597	106.06
336.825	92.06
337.053	94.06
337.281	96.06
337.51	94.06
337.738	94.06
337.966	99.06
338.194	117.06
338.422	109.06
338.65	105.06
338.878	93.06
339.106	104.06
339.334	100.06
339.562	95.06
339.79	101.06
340.018	98.06
340.246	94.06
340.474	88.06
340.702	97.06
340.93	95.06
341.158	92.06
341.386	107.06
341.614	101.06
341.842	96.06
342.07	95.06
342.298	82.06
342.526	86.06
342.754	92.06
342.981	92.06
343.209	86.06
343.437	97.06
343.665	92.06
343.893	89.06
344.12	93.06
344.348	87.06
344.576	75.06
344.804	88.06
345.031	104.06
345.259	116.06
345.487	103.06
345.714	93.06
345.942	86.06
346.17	92.06
346.397	104.06
346.625	85.06
346.853	90.06
347.08	109.06
347.308	91.06
347.535	102.06
347.763	114.06
347.99	107.06
348.218	97.06
348.445	112.06
348.673	105.06
348.9	85.06
349.128	100.06
349.355	99.06
349.583	90.06
349.81	96.06
350.037	98.06
350.265	96.06
350.492	80.06
350.72	98.06
350.947	99.06
351.174	126.06
351.402	124.06
351.629	109.06
351.856	101.06
352.083	103.06
352.311	122.06
352.538	134.06
352.765	126.06
352.992	124.06
353.22	115.06
353.447	111.06
353.674	122.06
353.901	104.06
354.128	91.06
354.355	90.06
354.583	85.06
354.81	98.06
355.037	85.06
355.264	92.06
355.491	95.06
355.718	83.06
355.945	102.06
356.172	98.06
356.399	88.06
356.626	92.06
356.853	87.06
357.08	93.06
357.307	81.06
357.534	92.06
357.761	83.06
357.988	95.06
358.215	96.06
358.441	80.06
358.668	98.06
358.895	83.06
359.122	99.06
359.349	81.06
359.576	82.06
359.802	104.06
360.029	149.06
360.256	128.06
360.483	127.06
360.709	98.06
360.936	89.06
361.163	102.06
361.39	120.06
361.616	115.06
361.843	106.06
362.07	96.06
362.296	94.06
362.523	90.06
362.749	95.06
362.976	100.06
363.203	89.06
363.429	99.06
363.656	96.06
363.882	97.06
364.109	102.06
364.335	95.06
364.562	88.06
364.788	102.06
365.015	110.06
365.241	104.06
365.468	120.06
365.694	124.06
365.92	110.06
366.147	100.06
366.373	98.06
366.599	85.06
366.826	81.06
367.052	97.06
367.278	105.06
367.505	91.06
367.731	98.06
367.957	96.06
368.184	96.06
368.41	126.06
368.636	130.06
368.862	125.06
369.089	111.06
369.315	90.06
369.541	80.06
369.767	85.06
369.993	100.06
370.219	87.06
370.445	91.06
370.672	80.06
370.898	84.06
371.124	94.06
371.35	91.06
371.576	95.06
371.802	89.06
372.028	84.06
372.254	101.06
372.48	92.06
372.706	90.06
372.932	82.06
373.158	92.06
373.384	95.06
373.61	97.06
373.835	95.06
374.061	102.06
374.287	109.06
374.513	87.06
374.739	98.06
374.965	90.06
375.191	83.06
375.416	100.06
375.642	116.06
375.868	95.06
376.094	90.06
376.319	88.06
376.545	94.06
376.771	80.06
376.997	95.06
377.222	80.06
377.448	90.06
377.674	75.06
377.899	93.06
378.125	99.06
378.35	74.06
378.576	94.06
378.802	99.06
379.027	69.06
379.253	79.06
379.478	87.06
379.704	93.06
379.929	104.06
380.155	85.06
380.38	100.06
380.606	83.06
380.831	88.06
381.057	104.06
381.282	91.06
381.507	91.06
381.733	92.06
381.958	96.06
382.184	88.06
382.409	98.06
382.634	105.06
382.86	100.06
383.085	96.06
383.31	99.06
383.535	102.06
383.761	110.06
383.986	102.06
384.211	90.06
384.436	80.06
384.662	90.06
384.887	101.06
385.112	85.06
385.337	86.06
385.562	101.06
385.787	99.06
386.013	113.06
386.238	120.06
386.463	109.06
386.688	105.06
386.913	99.06
387.138	96.06
387.363	100.06
387.588	101.06
387.813	97.06
388.038	100.06
388.263	109.06
388.488	93.06
388.713	87.06
388.938	103.06
389.163	100.06
389.387	89.06
389.612	85.06
389.837	86.06
390.062	88.06
390.287	101.06
390.512	90.06
390.736	82.06
390.961	93.06
391.186	95.06
391.411	101.06
391.636	98.06
391.86	85.06
392.085	93.06
392.31	87.06
392.534	79.06
392.759	80.06
392.984	79.06
393.208	99.06
393.433	87.06
393.658	86.06
393.882	86.06
394.107	77.06
394.331	95.06
394.556	82.06
394.78	82.06
395.005	89.06
395.229	95.06
395.454	95.06
395.678	76.06
395.903	86.06
396.127	82.06
396.352	85.06
396.576	95.06
396.801	79.06
397.025	95.06
397.249	85.06
397.474	79.06
397.698	93.06
397.922	82.06
398.147	76.06
398.371	98.06
398.595	91.06
398.82	68.06
399.044	75.06
399.268	91.06
399.492	84.06
399.717	92.06
399.941	97.06
400.165	97.06
400.389	93.06
400.613	79.06
400.837	95.06
401.062	95.06
401.286	106.06
401.51	85.06
401.734	83.06
401.958	95.06
402.182	142.06
402.406	212.06
402.63	143.06
402.854	115.06
403.078	85.06
403.302	86.06
403.526	92.06
403.75	97.06
403.974	88.06
404.198	86.06
404.422	93.06
404.645	98.06
404.869	101.06
405.093	124.06
405.317	139.06
405.541	132.06
405.765	111.06
405.988	146.06
406.212	204.06
406.436	335.06
406.66	209.06
406.883	118.06
407.107	107.06
407.331	103.06
407.555	108.06
407.778	122.06
408.002	94.06
408.226	88.06
408.449	91.06
408.673	93.06
408.896	98.06
409.12	89.06
409.344	89.06
409.567	85.06
409.791	92.06
410.014	85.06
410.238	89.06
410.461	94.06
410.685	96.06
410.908	96.06
411.132	109.06
411.355	95.06
411.578	86.06
411.802	76.06
412.025	106.06
412.249	101.06
412.472	123.06
412.695	130.06
412.919	107.06
413.142	84.06
413.365	87.06
413.589	86.06
413.812	84.06
414.035	98.06
414.258	102.06
414.482	103.06
414.705	95.06
414.928	96.06
415.151	96.06
415.374	94.06
415.597	70.06
415.821	84.06
416.044	80.06
416.267	75.06
416.49	85.06
416.713	89.06
416.936	92.06
417.159	90.06
417.382	91.06
417.605	104.06
417.828	117.06
418.051	111.06
418.274	89.06
418.497	72.06
418.72	69.06
418.943	76.06
419.166	84.06
419.389	95.06
419.611	97.06
419.834	89.06
420.057	79.06
420.28	102.06
420.503	97.06
420.726	88.06
420.948	91.06
421.171	84.06
421.394	101.06
421.617	95.06
421.839	86.06
422.062	93.06
422.285	86.06
422.507	97.06
422.73	109.06
422.953	100.06
423.175	90.06
423.398	96.06
423.621	79.06
423.843	89.06
424.066	96.06
424.288	85.06
424.511	93.06
424.733	107.06
424.956	117.06
425.178	112.06
425.401	121.06
425.623	108.06
425.846	95.06
426.068	94.06
426.291	84.06
426.513	94.06
426.735	99.06
426.958	107.06
427.18	113.06
427.402	161.06
427.625	256.06
427.847	229.06
428.069	194.06
428.292	131.06
428.514	94.06
428.736	81.06
428.958	83.06
429.181	81.06
429.403	79.06
429.625	87.06
429.847	92.06
430.069	114.06
430.292	99.06
430.514	88.06
430.736	85.06
430.958	86.06
431.18	87.06
431.402	93.06
431.624	74.06
431.846	84.06
432.068	79.06
432.29	87.06
432.512	86.06
432.734	90.06
432.956	97.06
433.178	89.06
433.4	101.06
433.622	91.06
433.844	89.06
434.066	87.06
434.287	95.06
434.509	97.06
434.731	105.06
434.953	90.06
435.175	91.06
435.397	93.06
435.618	96.06
435.84	111.06
436.062	129.06
436.284	127.06
436.505	84.06
436.727	114.06
436.949	109.06
437.17	91.06
437.392	89.06
437.614	85.06
437.835	134.06
438.057	141.06
438.278	135.06
438.5	110.06
438.721	142.06
438.943	111.06
439.165	97.06
439.386	100.06
439.608	99.06
439.829	105.06
440.05	145.06
440.272	158.06
440.493	105.06
440.715	92.06
440.936	87.06
441.158	93.06
441.379	88.06
441.6	113.06
441.822	97.06
442.043	106.06
442.264	117.06
442.486	113.06
442.707	105.06
442.928	128.06
443.149	170.06
443.371	169.06
443.592	122.06
443.813	128.06
444.034	123.06
444.255	93.06
444.476	107.06
444.698	91.06
444.919	80.06
445.14	144.06
445.361	125.06
445.582	123.06
445.803	181.06
446.024	168.06
446.245	165.06
446.466	116.06
446.687	91.06
446.908	93.06
447.129	104.06
447.35	94.06
447.571	110.06
447.792	97.06
448.013	113.06
448.234	127.06
448.455	111.06
448.675	127.06
448.896	130.06
449.117	102.06
449.338	96.06
449.559	142.06
449.779	141.06
450	99.06
450.221	82.06
450.442	97.06
450.662	114.06
450.883	121.06
451.104	154.06
451.324	112.06
451.545	99.06
451.766	93.06
451.986	90.06
452.207	95.06
452.428	101.06
452.648	96.06
452.869	126.06
453.089	136.06
453.31	154.06
453.53	98.06
453.751	91.06
453.971	113.06
454.192	118.06
454.412	112.06
454.633	88.06
454.853	89.06
455.073	86.06
455.294	99.06
455.514	114.06
455.734	92.06
455.955	94.06
456.175	85.06
456.395	91.06
456.616	83.06
456.836	92.06
457.056	80.06
457.276	80.06
457.497	84.06
457.717	80.06
457.937	93.06
458.157	93.06
458.377	89.06
458.598	113.06
458.818	192.06
459.038	227.06
459.258	142.06
459.478	103.06
459.698	72.06
459.918	85.06
460.138	95.06
460.358	93.06
460.578	82.06
460.798	100.06
461.018	91.06
461.238	88.06
461.458	83.06
461.678	84.06
461.898	91.06
462.118	87.06
462.338	110.06
462.558	83.06
462.777	75.06
462.997	90.06
463.217	114.06
463.437	95.06
463.657	94.06
463.876	104.06
464.096	90.06
464.316	108.06
464.536	101.06
464.755	105.06
464.975	132.06
465.195	251.06
465.414	260.06
465.634	99.06
465.854	89.06
466.073	98.06
466.293	81.06
466.512	93.06
466.732	83.06
466.951	81.06
467.171	112.06
467.391	112.06
467.61	160.06
467.829	220.06
468.049	572.06
468.268	887.06
468.488	216.06
468.707	108.06
468.927	108.06
469.146	99.06
469.365	93.06
469.585	91.06
469.804	108.06
470.023	104.06
470.243	98.06
470.462	121.06
470.681	134.06
470.901	107.06
471.12	99.06
471.339	96.06
471.558	108.06
471.777	149.06
471.997	311.06
472.216	1154.06
472.435	2659.06
472.654	609.06
472.873	154.06
473.092	105.06
473.311	93.06
473.53	105.06
473.749	98.06
473.968	112.06
474.187	123.06
474.406	115.06
474.625	91.06
474.844	80.06
475.063	96.06
475.282	88.06
475.501	92.06
475.72	93.06
475.939	86.06
476.158	96.06
476.377	92.06
476.596	77.06
476.814	91.06
477.033	90.06
477.252	97.06
477.471	90.06
477.69	80.06
477.908	94.06
478.127	93.06
478.346	91.06
478.564	89.06
478.783	112.06
479.002	112.06
479.22	118.06
479.439	125.06
479.658	153.06
479.876	126.06
480.095	123.06
480.313	129.06
480.532	169.06
480.751	284.06
480.969	1001.06
481.188	4482.06
481.406	2545.06
481.624	367.06
481.843	128.06
482.061	107.06
482.28	116.06
482.498	101.06
482.717	111.06
482.935	80.06
483.153	92.06
483.372	88.06
483.59	101.06
483.808	84.06
484.027	72.06
484.245	102.06
484.463	102.06
484.681	104.06
484.9	92.06
485.118	99.06
485.336	90.06
485.554	99.06
485.772	101.06
485.99	113.06
486.209	110.06
486.427	113.06
486.645	114.06
486.863	131.06
487.081	111.06
487.299	99.06
487.517	89.06
487.735	108.06
487.953	93.06
488.171	99.06
488.389	77.06
488.607	101.06
488.825	93.06
489.043	93.06
489.261	89.06
489.479	85.06
489.696	88.06
489.914	93.06
490.132	88.06
490.35	87.06
490.568	87.06
490.786	89.06
491.003	91.06
491.221	97.06
491.439	110.06
491.657	92.06
491.874	99.06
492.092	83.06
492.31	91.06
492.527	88.06
492.745	95.06
492.963	88.06
493.18	84.06
493.398	101.06
493.615	91.06
493.833	86.06
494.05	100.06
494.268	97.06
494.485	83.06
494.703	100.06
494.92	95.06
495.138	83.06
495.355	88.06
495.573	85.06
495.79	79.06
496.008	87.06
496.225	93.06
496.442	99.06
496.66	91.06
496.877	95.06
497.094	101.06
497.312	93.06
497.529	89.06
497.746	80.06
497.963	79.06
498.181	105.06
498.398	109.06
498.615	110.06
498.832	109.06
499.049	93.06
499.267	97.06
499.484	91.06
499.701	92.06
499.918	88.06
500.135	86.06
500.352	97.06
500.569	92.06
500.786	101.06
501.003	97.06
501.22	92.06
501.437	103.06
501.654	101.06
501.871	134.06
502.088	97.06
502.305	90.06
502.522	82.06
502.739	101.06
502.956	82.06
503.172	88.06
503.389	103.06
503.606	124.06
503.823	110.06
504.04	88.06
504.256	92.06
504.473	82.06
504.69	73.06
504.907	108.06
505.123	99.06
505.34	88.06
505.557	96.06
505.773	93.06
505.99	99.06
506.207	85.06
506.423	94.06
506.64	97.06
506.856	87.06
507.073	91.06
507.289	92.06
507.506	102.06
507.722	129.06
507.939	135.06
508.155	95.06
508.372	89.06
508.588	109.06
508.805	111.06
509.021	105.06
509.238	97.06
509.454	105.06
509.67	90.06
509.887	117.06
510.103	139.06
510.319	243.06
510.536	974.06
510.752	3441.06
510.968	896.06
511.184	180.06
511.401	129.06
511.617	112.06
511.833	114.06
512.049	96.06
512.265	107.06
512.481	83.06
512.698	98.06
512.914	99.06
513.13	95.06
513.346	87.06
