Data from Circ_1987_H10_HRD10591_00079.txt Node
Date: Wed Jan 03 12:10:48 EST 2024
User: Yrep
Spectrometer: HR+D1059
Trigger mode: 1
Integration Time (sec): 1.000000E-1
Scans to average: 1
Electric dark correction enabled: true
Nonlinearity correction enabled: false
Boxcar width: 0
XAxis mode: Wavelengths
Number of Pixels in Spectrum: 2048
>>>>>Begin Spectral Data<<<<<
223.165	-19.12
223.4	-19.12
223.635	-19.12
223.869	-24.12
224.104	-13.12
224.338	-1.12
224.573	-7.12
224.808	-23.12
225.042	-11.12
225.277	-7.12
225.511	-12.12
225.746	3.88
225.98	9.88
226.215	10.88
226.449	22.88
226.683	20.88
226.918	26.88
227.152	22.88
227.387	41.88
227.621	41.88
227.856	36.88
228.09	45.88
228.324	54.88
228.559	55.88
228.793	56.88
229.027	71.88
229.262	69.88
229.496	81.88
229.73	92.88
229.964	103.88
230.199	85.88
230.433	82.88
230.667	78.88
230.901	76.88
231.136	67.88
231.37	83.88
231.604	97.88
231.838	72.88
232.072	86.88
232.306	85.88
232.541	85.88
232.775	84.88
233.009	76.88
233.243	71.88
233.477	75.88
233.711	88.88
233.945	91.88
234.179	80.88
234.413	85.88
234.647	73.88
234.881	78.88
235.115	90.88
235.349	83.88
235.583	75.88
235.817	82.88
236.051	84.88
236.285	88.88
236.519	81.88
236.753	86.88
236.987	73.88
237.221	116.88
237.455	89.88
237.689	90.88
237.922	80.88
238.156	71.88
238.39	73.88
238.624	84.88
238.858	89.88
239.091	73.88
239.325	83.88
239.559	76.88
239.793	83.88
240.027	90.88
240.26	96.88
240.494	77.88
240.728	73.88
240.961	80.88
241.195	92.88
241.429	98.88
241.662	81.88
241.896	90.88
242.13	80.88
242.363	75.88
242.597	57.88
242.83	81.88
243.064	74.88
243.298	79.88
243.531	82.88
243.765	91.88
243.998	87.88
244.232	90.88
244.465	90.88
244.699	84.88
244.932	63.88
245.166	84.88
245.399	80.88
245.633	75.88
245.866	82.88
246.099	70.88
246.333	77.88
246.566	80.88
246.8	72.88
247.033	82.88
247.266	86.88
247.5	78.88
247.733	83.88
247.966	75.88
248.2	84.88
248.433	85.88
248.666	78.88
248.899	101.88
249.133	104.88
249.366	95.88
249.599	110.88
249.832	92.88
250.066	82.88
250.299	85.88
250.532	104.88
250.765	94.88
250.998	91.88
251.231	73.88
251.465	75.88
251.698	79.88
251.931	103.88
252.164	87.88
252.397	105.88
252.63	74.88
252.863	92.88
253.096	81.88
253.329	86.88
253.562	93.88
253.795	85.88
254.028	85.88
254.261	96.88
254.494	93.88
254.727	87.88
254.96	94.88
255.193	86.88
255.426	82.88
255.659	95.88
255.892	96.88
256.124	117.88
256.357	108.88
256.59	82.88
256.823	77.88
257.056	85.88
257.289	98.88
257.521	81.88
257.754	94.88
257.987	91.88
258.22	98.88
258.452	98.88
258.685	100.88
258.918	79.88
259.151	96.88
259.383	79.88
259.616	75.88
259.849	88.88
260.081	102.88
260.314	89.88
260.547	82.88
260.779	94.88
261.012	110.88
261.244	96.88
261.477	111.88
261.71	118.88
261.942	153.88
262.175	152.88
262.407	106.88
262.64	88.88
262.872	94.88
263.105	85.88
263.337	90.88
263.57	87.88
263.802	96.88
264.035	95.88
264.267	85.88
264.499	96.88
264.732	69.88
264.964	82.88
265.197	90.88
265.429	86.88
265.661	95.88
265.894	90.88
266.126	84.88
266.358	73.88
266.591	89.88
266.823	90.88
267.055	84.88
267.287	86.88
267.52	81.88
267.752	90.88
267.984	78.88
268.216	83.88
268.448	94.88
268.681	94.88
268.913	83.88
269.145	98.88
269.377	82.88
269.609	90.88
269.841	98.88
270.073	67.88
270.306	84.88
270.538	92.88
270.77	88.88
271.002	90.88
271.234	98.88
271.466	99.88
271.698	95.88
271.93	85.88
272.162	85.88
272.394	89.88
272.626	93.88
272.858	97.88
273.09	79.88
273.322	97.88
273.553	91.88
273.785	80.88
274.017	84.88
274.249	87.88
274.481	90.88
274.713	90.88
274.945	88.88
275.176	91.88
275.408	98.88
275.64	120.88
275.872	123.88
276.104	121.88
276.335	104.88
276.567	136.88
276.799	175.88
277.031	203.88
277.262	223.88
277.494	180.88
277.726	107.88
277.957	90.88
278.189	82.88
278.421	101.88
278.652	91.88
278.884	106.88
279.115	97.88
279.347	87.88
279.579	104.88
279.81	140.88
280.042	235.88
280.273	312.88
280.505	198.88
280.736	120.88
280.968	104.88
281.199	86.88
281.431	82.88
281.662	84.88
281.894	81.88
282.125	99.88
282.356	146.88
282.588	212.88
282.819	151.88
283.051	85.88
283.282	91.88
283.513	93.88
283.745	94.88
283.976	95.88
284.207	94.88
284.439	94.88
284.67	99.88
284.901	80.88
285.132	84.88
285.364	90.88
285.595	84.88
285.826	84.88
286.057	84.88
286.288	81.88
286.52	95.88
286.751	90.88
286.982	86.88
287.213	83.88
287.444	92.88
287.675	90.88
287.906	97.88
288.138	93.88
288.369	111.88
288.6	99.88
288.831	105.88
289.062	104.88
289.293	95.88
289.524	84.88
289.755	82.88
289.986	73.88
290.217	94.88
290.448	88.88
290.679	82.88
290.91	98.88
291.141	74.88
291.371	91.88
291.602	82.88
291.833	80.88
292.064	104.88
292.295	94.88
292.526	98.88
292.757	82.88
292.987	93.88
293.218	89.88
293.449	86.88
293.68	90.88
293.91	88.88
294.141	92.88
294.372	96.88
294.603	87.88
294.833	88.88
295.064	104.88
295.295	83.88
295.525	95.88
295.756	119.88
295.987	139.88
296.217	190.88
296.448	168.88
296.679	109.88
296.909	101.88
297.14	92.88
297.37	96.88
297.601	77.88
297.831	99.88
298.062	98.88
298.292	97.88
298.523	88.88
298.753	93.88
298.984	92.88
299.214	98.88
299.445	90.88
299.675	99.88
299.905	92.88
300.136	102.88
300.366	97.88
300.597	92.88
300.827	101.88
301.057	118.88
301.288	118.88
301.518	108.88
301.748	111.88
301.979	100.88
302.209	116.88
302.439	88.88
302.669	90.88
302.9	92.88
303.13	99.88
303.36	114.88
303.59	138.88
303.82	157.88
304.051	102.88
304.281	95.88
304.511	100.88
304.741	95.88
304.971	98.88
305.201	85.88
305.431	79.88
305.661	100.88
305.891	96.88
306.121	99.88
306.352	111.88
306.582	127.88
306.812	112.88
307.042	148.88
307.272	176.88
307.502	197.88
307.731	181.88
307.961	127.88
308.191	94.88
308.421	98.88
308.651	104.88
308.881	114.88
309.111	113.88
309.341	98.88
309.571	105.88
309.8	103.88
310.03	118.88
310.26	121.88
310.49	114.88
310.72	108.88
310.949	146.88
311.179	127.88
311.409	119.88
311.639	93.88
311.868	108.88
312.098	111.88
312.328	106.88
312.557	133.88
312.787	146.88
313.017	109.88
313.246	94.88
313.476	90.88
313.706	94.88
313.935	102.88
314.165	112.88
314.394	103.88
314.624	113.88
314.853	106.88
315.083	102.88
315.312	105.88
315.542	98.88
315.771	94.88
316.001	92.88
316.23	90.88
316.46	102.88
316.689	91.88
316.919	112.88
317.148	106.88
317.377	89.88
317.607	122.88
317.836	110.88
318.065	103.88
318.295	93.88
318.524	98.88
318.753	104.88
318.983	106.88
319.212	101.88
319.441	126.88
319.67	124.88
319.9	106.88
320.129	97.88
320.358	111.88
320.587	88.88
320.816	100.88
321.046	123.88
321.275	110.88
321.504	90.88
321.733	112.88
321.962	100.88
322.191	108.88
322.42	115.88
322.649	140.88
322.878	155.88
323.108	149.88
323.337	153.88
323.566	169.88
323.795	197.88
324.024	241.88
324.253	475.88
324.482	1072.88
324.71	2130.88
324.939	2812.88
325.168	1058.88
325.397	302.88
325.626	185.88
325.855	153.88
326.084	140.88
326.313	166.88
326.542	185.88
326.77	266.88
326.999	517.88
327.228	1088.88
327.457	2020.88
327.686	1600.88
327.914	606.88
328.143	646.88
328.372	842.88
328.6	479.88
328.829	218.88
329.058	218.88
329.287	247.88
329.515	210.88
329.744	294.88
329.972	578.88
330.201	1242.88
330.43	1847.88
330.658	782.88
330.887	384.88
331.115	228.88
331.344	148.88
331.572	130.88
331.801	137.88
332.03	127.88
332.258	132.88
332.486	126.88
332.715	120.88
332.943	123.88
333.172	137.88
333.4	151.88
333.629	174.88
333.857	261.88
334.085	511.88
334.314	1113.88
334.542	2241.88
334.771	2130.88
334.999	538.88
335.227	219.88
335.455	129.88
335.684	133.88
335.912	116.88
336.14	112.88
336.369	125.88
336.597	132.88
336.825	119.88
337.053	107.88
337.281	110.88
337.51	101.88
337.738	108.88
337.966	102.88
338.194	112.88
338.422	107.88
338.65	100.88
338.878	95.88
339.106	110.88
339.334	91.88
339.562	104.88
339.79	102.88
340.018	86.88
340.246	113.88
340.474	116.88
340.702	98.88
340.93	100.88
341.158	92.88
341.386	88.88
341.614	107.88
341.842	108.88
342.07	101.88
342.298	104.88
342.526	107.88
342.754	106.88
342.981	82.88
343.209	94.88
343.437	114.88
343.665	102.88
343.893	97.88
344.12	84.88
344.348	95.88
344.576	98.88
344.804	108.88
345.031	107.88
345.259	131.88
345.487	103.88
345.714	104.88
345.942	95.88
346.17	92.88
346.397	101.88
346.625	101.88
346.853	108.88
347.08	101.88
347.308	122.88
347.535	113.88
347.763	114.88
347.99	122.88
348.218	114.88
348.445	114.88
348.673	109.88
348.9	102.88
349.128	106.88
349.355	88.88
349.583	94.88
349.81	84.88
350.037	112.88
350.265	105.88
350.492	90.88
350.72	98.88
350.947	116.88
351.174	126.88
351.402	132.88
351.629	116.88
351.856	106.88
352.083	118.88
352.311	132.88
352.538	136.88
352.765	136.88
352.992	122.88
353.22	126.88
353.447	144.88
353.674	115.88
353.901	94.88
354.128	95.88
354.355	95.88
354.583	92.88
354.81	102.88
355.037	96.88
355.264	83.88
355.491	84.88
355.718	86.88
355.945	86.88
356.172	98.88
356.399	101.88
356.626	95.88
356.853	98.88
357.08	86.88
357.307	110.88
357.534	86.88
357.761	101.88
357.988	86.88
358.215	98.88
358.441	93.88
358.668	91.88
358.895	95.88
359.122	102.88
359.349	98.88
359.576	112.88
359.802	116.88
360.029	135.88
360.256	167.88
360.483	137.88
360.709	94.88
360.936	103.88
361.163	112.88
361.39	107.88
361.616	115.88
361.843	103.88
362.07	112.88
362.296	133.88
362.523	101.88
362.749	110.88
362.976	90.88
363.203	103.88
363.429	102.88
363.656	92.88
363.882	111.88
364.109	96.88
364.335	98.88
364.562	101.88
364.788	105.88
365.015	115.88
365.241	116.88
365.468	120.88
365.694	130.88
365.92	107.88
366.147	115.88
366.373	88.88
366.599	90.88
366.826	93.88
367.052	92.88
367.278	110.88
367.505	100.88
367.731	109.88
367.957	106.88
368.184	107.88
368.41	107.88
368.636	137.88
368.862	126.88
369.089	117.88
369.315	112.88
369.541	110.88
369.767	103.88
369.993	99.88
370.219	104.88
370.445	96.88
370.672	82.88
370.898	96.88
371.124	87.88
371.35	91.88
371.576	83.88
371.802	96.88
372.028	94.88
372.254	85.88
372.48	97.88
372.706	86.88
372.932	85.88
373.158	87.88
373.384	102.88
373.61	86.88
373.835	94.88
374.061	82.88
374.287	104.88
374.513	89.88
374.739	93.88
374.965	106.88
375.191	86.88
375.416	99.88
375.642	88.88
375.868	91.88
376.094	92.88
376.319	104.88
376.545	93.88
376.771	102.88
376.997	72.88
377.222	95.88
377.448	112.88
377.674	95.88
377.899	90.88
378.125	84.88
378.35	102.88
378.576	80.88
378.802	87.88
379.027	103.88
379.253	92.88
379.478	94.88
379.704	68.88
379.929	84.88
380.155	103.88
380.38	104.88
380.606	103.88
380.831	96.88
381.057	96.88
381.282	99.88
381.507	92.88
381.733	107.88
381.958	93.88
382.184	108.88
382.409	109.88
382.634	103.88
382.86	82.88
383.085	105.88
383.31	95.88
383.535	96.88
383.761	113.88
383.986	89.88
384.211	91.88
384.436	86.88
384.662	99.88
384.887	86.88
385.112	102.88
385.337	88.88
385.562	95.88
385.787	96.88
386.013	112.88
386.238	127.88
386.463	119.88
386.688	95.88
386.913	98.88
387.138	100.88
387.363	94.88
387.588	110.88
387.813	115.88
388.038	99.88
388.263	92.88
388.488	108.88
388.713	86.88
388.938	95.88
389.163	82.88
389.387	73.88
389.612	101.88
389.837	88.88
390.062	88.88
390.287	91.88
390.512	95.88
390.736	95.88
390.961	88.88
391.186	87.88
391.411	91.88
391.636	83.88
391.86	99.88
392.085	87.88
392.31	87.88
392.534	110.88
392.759	89.88
392.984	90.88
393.208	90.88
393.433	92.88
393.658	82.88
393.882	82.88
394.107	77.88
394.331	99.88
394.556	78.88
394.78	91.88
395.005	88.88
395.229	102.88
395.454	89.88
395.678	83.88
395.903	96.88
396.127	91.88
396.352	78.88
396.576	82.88
396.801	98.88
397.025	100.88
397.249	91.88
397.474	88.88
397.698	90.88
397.922	80.88
398.147	83.88
398.371	81.88
398.595	87.88
398.82	71.88
399.044	80.88
399.268	89.88
399.492	96.88
399.717	82.88
399.941	98.88
400.165	111.88
400.389	102.88
400.613	94.88
400.837	89.88
401.062	105.88
401.286	101.88
401.51	103.88
401.734	111.88
401.958	125.88
402.182	164.88
402.406	232.88
402.63	178.88
402.854	130.88
403.078	105.88
403.302	102.88
403.526	105.88
403.75	96.88
403.974	84.88
404.198	90.88
404.422	92.88
404.645	83.88
404.869	109.88
405.093	139.88
405.317	168.88
405.541	168.88
405.765	137.88
405.988	140.88
406.212	246.88
406.436	379.88
406.66	255.88
406.883	124.88
407.107	114.88
407.331	119.88
407.555	104.88
407.778	119.88
408.002	101.88
408.226	88.88
408.449	84.88
408.673	95.88
408.896	97.88
409.12	98.88
409.344	80.88
409.567	95.88
409.791	98.88
410.014	108.88
410.238	88.88
410.461	106.88
410.685	90.88
410.908	105.88
411.132	108.88
411.355	102.88
411.578	92.88
411.802	83.88
412.025	96.88
412.249	100.88
412.472	123.88
412.695	153.88
412.919	131.88
413.142	97.88
413.365	92.88
413.589	87.88
413.812	94.88
414.035	95.88
414.258	105.88
414.482	87.88
414.705	95.88
414.928	89.88
415.151	89.88
415.374	91.88
415.597	92.88
415.821	85.88
416.044	94.88
416.267	98.88
416.49	89.88
416.713	83.88
416.936	106.88
417.159	107.88
417.382	115.88
417.605	120.88
417.828	123.88
418.051	99.88
418.274	89.88
418.497	106.88
418.72	82.88
418.943	92.88
419.166	78.88
419.389	76.88
419.611	98.88
419.834	101.88
420.057	98.88
420.28	99.88
420.503	95.88
420.726	94.88
420.948	103.88
421.171	109.88
421.394	102.88
421.617	96.88
421.839	102.88
422.062	90.88
422.285	91.88
422.507	102.88
422.73	113.88
422.953	94.88
423.175	90.88
423.398	83.88
423.621	94.88
423.843	96.88
424.066	88.88
424.288	93.88
424.511	100.88
424.733	99.88
424.956	136.88
425.178	123.88
425.401	122.88
425.623	122.88
425.846	101.88
426.068	97.88
426.291	118.88
426.513	99.88
426.735	80.88
426.958	104.88
427.18	138.88
427.402	211.88
427.625	314.88
427.847	277.88
428.069	234.88
428.292	135.88
428.514	91.88
428.736	75.88
428.958	68.88
429.181	106.88
429.403	90.88
429.625	105.88
429.847	101.88
430.069	119.88
430.292	99.88
430.514	83.88
430.736	82.88
430.958	90.88
431.18	79.88
431.402	85.88
431.624	90.88
431.846	94.88
432.068	85.88
432.29	91.88
432.512	94.88
432.734	87.88
432.956	94.88
433.178	95.88
433.4	105.88
433.622	92.88
433.844	103.88
434.066	87.88
434.287	95.88
434.509	92.88
434.731	92.88
434.953	101.88
435.175	97.88
435.397	76.88
435.618	92.88
435.84	115.88
436.062	137.88
436.284	139.88
436.505	99.88
436.727	104.88
436.949	90.88
437.17	85.88
437.392	96.88
437.614	106.88
437.835	146.88
438.057	176.88
438.278	129.88
438.5	115.88
438.721	167.88
438.943	104.88
439.165	80.88
439.386	94.88
439.608	98.88
439.829	125.88
440.05	178.88
440.272	210.88
440.493	115.88
440.715	85.88
440.936	96.88
441.158	98.88
441.379	94.88
441.6	92.88
441.822	119.88
442.043	113.88
442.264	119.88
442.486	116.88
442.707	107.88
442.928	151.88
443.149	191.88
443.371	174.88
443.592	143.88
443.813	160.88
444.034	131.88
444.255	92.88
444.476	100.88
444.698	103.88
444.919	89.88
445.14	151.88
445.361	141.88
445.582	156.88
445.803	203.88
446.024	211.88
446.245	209.88
446.466	142.88
446.687	100.88
446.908	81.88
447.129	91.88
447.35	97.88
447.571	109.88
447.792	103.88
448.013	122.88
448.234	126.88
448.455	128.88
448.675	140.88
448.896	152.88
449.117	119.88
449.338	126.88
449.559	167.88
449.779	168.88
450	124.88
450.221	102.88
450.442	84.88
450.662	103.88
450.883	122.88
451.104	143.88
451.324	116.88
451.545	100.88
451.766	91.88
451.986	96.88
452.207	100.88
452.428	111.88
452.648	118.88
452.869	149.88
453.089	168.88
453.31	160.88
453.53	114.88
453.751	108.88
453.971	123.88
454.192	142.88
454.412	108.88
454.633	94.88
454.853	98.88
455.073	95.88
455.294	99.88
455.514	108.88
455.734	95.88
455.955	91.88
456.175	81.88
456.395	79.88
456.616	91.88
456.836	104.88
457.056	99.88
457.276	85.88
457.497	82.88
457.717	97.88
457.937	92.88
458.157	100.88
458.377	102.88
458.598	146.88
458.818	252.88
459.038	265.88
459.258	178.88
459.478	112.88
459.698	94.88
459.918	97.88
460.138	104.88
460.358	83.88
460.578	106.88
460.798	94.88
461.018	85.88
461.238	94.88
461.458	90.88
461.678	89.88
461.898	91.88
462.118	65.88
462.338	84.88
462.558	76.88
462.777	103.88
462.997	111.88
463.217	127.88
463.437	112.88
463.657	90.88
463.876	102.88
464.096	107.88
464.316	97.88
464.536	98.88
464.755	115.88
464.975	138.88
465.195	280.88
465.414	301.88
465.634	128.88
465.854	94.88
466.073	90.88
466.293	94.88
466.512	95.88
466.732	91.88
466.951	98.88
467.171	96.88
467.391	122.88
467.61	175.88
467.829	242.88
468.049	671.88
468.268	1033.88
468.488	277.88
468.707	123.88
468.927	100.88
469.146	90.88
469.365	96.88
469.585	100.88
469.804	119.88
470.023	137.88
470.243	116.88
470.462	142.88
470.681	158.88
470.901	127.88
471.12	105.88
471.339	118.88
471.558	124.88
471.777	172.88
471.997	341.88
472.216	1308.88
472.435	3051.88
472.654	717.88
472.873	185.88
473.092	131.88
473.311	105.88
473.53	94.88
473.749	112.88
473.968	122.88
474.187	134.88
474.406	116.88
474.625	92.88
474.844	93.88
475.063	98.88
475.282	90.88
475.501	81.88
475.72	99.88
475.939	91.88
476.158	83.88
476.377	102.88
476.596	113.88
476.814	114.88
477.033	103.88
477.252	102.88
477.471	100.88
477.69	101.88
477.908	95.88
478.127	90.88
478.346	106.88
478.564	96.88
478.783	130.88
479.002	123.88
479.22	115.88
479.439	144.88
479.658	153.88
479.876	131.88
480.095	123.88
480.313	147.88
480.532	182.88
480.751	353.88
480.969	1198.88
481.188	5316.88
481.406	3050.88
481.624	436.88
481.843	153.88
482.061	115.88
482.28	102.88
482.498	103.88
482.717	95.88
482.935	87.88
483.153	84.88
483.372	87.88
483.59	94.88
483.808	84.88
484.027	98.88
484.245	102.88
484.463	101.88
484.681	93.88
484.9	94.88
485.118	83.88
485.336	108.88
485.554	96.88
485.772	107.88
485.99	115.88
486.209	106.88
486.427	112.88
486.645	141.88
486.863	140.88
487.081	127.88
487.299	100.88
487.517	108.88
487.735	87.88
487.953	115.88
488.171	94.88
488.389	96.88
488.607	116.88
488.825	104.88
489.043	88.88
489.261	107.88
489.479	100.88
489.696	91.88
489.914	97.88
490.132	95.88
490.35	96.88
490.568	94.88
490.786	97.88
491.003	98.88
491.221	111.88
491.439	102.88
491.657	84.88
491.874	87.88
492.092	88.88
492.31	90.88
492.527	100.88
492.745	107.88
492.963	98.88
493.18	98.88
493.398	92.88
493.615	104.88
493.833	97.88
494.05	98.88
494.268	92.88
494.485	89.88
494.703	92.88
494.92	101.88
495.138	86.88
495.355	95.88
495.573	86.88
495.79	105.88
496.008	101.88
496.225	91.88
496.442	100.88
496.66	89.88
496.877	90.88
497.094	104.88
497.312	86.88
497.529	98.88
497.746	110.88
497.963	98.88
498.181	98.88
498.398	95.88
498.615	119.88
498.832	114.88
499.049	94.88
499.267	96.88
499.484	80.88
499.701	97.88
499.918	107.88
500.135	87.88
500.352	98.88
500.569	100.88
500.786	107.88
501.003	95.88
501.22	98.88
501.437	90.88
501.654	94.88
501.871	154.88
502.088	104.88
502.305	106.88
502.522	109.88
502.739	84.88
502.956	98.88
503.172	99.88
503.389	91.88
503.606	133.88
503.823	107.88
504.04	96.88
504.256	95.88
504.473	86.88
504.69	106.88
504.907	91.88
505.123	98.88
505.34	95.88
505.557	100.88
505.773	101.88
505.99	106.88
506.207	102.88
506.423	103.88
506.64	97.88
506.856	95.88
507.073	110.88
507.289	99.88
507.506	122.88
507.722	146.88
507.939	159.88
508.155	121.88
508.372	113.88
508.588	106.88
508.805	100.88
509.021	113.88
509.238	118.88
509.454	112.88
509.67	129.88
509.887	133.88
510.103	147.88
510.319	271.88
510.536	1058.88
510.752	3832.88
510.968	988.88
511.184	206.88
511.401	143.88
