Data from Circ_1987_H10_HRD10591_00034.txt Node
Date: Wed Jan 03 12:10:39 EST 2024
User: Yrep
Spectrometer: HR+D1059
Trigger mode: 1
Integration Time (sec): 1.000000E-1
Scans to average: 1
Electric dark correction enabled: true
Nonlinearity correction enabled: false
Boxcar width: 0
XAxis mode: Wavelengths
Number of Pixels in Spectrum: 2048
>>>>>Begin Spectral Data<<<<<
223.165	-12.19
223.4	-12.19
223.635	-12.19
223.869	-20.19
224.104	-18.19
224.338	-23.19
224.573	-11.19
224.808	-14.19
225.042	-9.19
225.277	-3.19
225.511	1.81
225.746	-0.19
225.98	20.81
226.215	15.81
226.449	17.81
226.683	12.81
226.918	4.81
227.152	37.81
227.387	45.81
227.621	38.81
227.856	30.81
228.09	40.81
228.324	47.81
228.559	57.81
228.793	53.81
229.027	57.81
229.262	64.81
229.496	71.81
229.73	84.81
229.964	79.81
230.199	69.81
230.433	77.81
230.667	80.81
230.901	60.81
231.136	67.81
231.37	76.81
231.604	81.81
231.838	83.81
232.072	75.81
232.306	68.81
232.541	67.81
232.775	86.81
233.009	76.81
233.243	80.81
233.477	89.81
233.711	65.81
233.945	73.81
234.179	70.81
234.413	85.81
234.647	77.81
234.881	77.81
235.115	68.81
235.349	64.81
235.583	66.81
235.817	73.81
236.051	63.81
236.285	88.81
236.519	70.81
236.753	79.81
236.987	85.81
237.221	66.81
237.455	88.81
237.689	86.81
237.922	69.81
238.156	67.81
238.39	76.81
238.624	66.81
238.858	69.81
239.091	77.81
239.325	71.81
239.559	81.81
239.793	79.81
240.027	95.81
240.26	87.81
240.494	76.81
240.728	84.81
240.961	92.81
241.195	80.81
241.429	87.81
241.662	85.81
241.896	72.81
242.13	81.81
242.363	93.81
242.597	78.81
242.83	70.81
243.064	72.81
243.298	73.81
243.531	93.81
243.765	83.81
243.998	79.81
244.232	73.81
244.465	94.81
244.699	83.81
244.932	80.81
245.166	75.81
245.399	77.81
245.633	80.81
245.866	75.81
246.099	71.81
246.333	76.81
246.566	75.81
246.8	71.81
247.033	90.81
247.266	71.81
247.5	75.81
247.733	69.81
247.966	69.81
248.2	94.81
248.433	83.81
248.666	88.81
248.899	69.81
249.133	85.81
249.366	98.81
249.599	104.81
249.832	82.81
250.066	85.81
250.299	85.81
250.532	83.81
250.765	80.81
250.998	77.81
251.231	67.81
251.465	75.81
251.698	87.81
251.931	76.81
252.164	84.81
252.397	78.81
252.63	76.81
252.863	61.81
253.096	72.81
253.329	83.81
253.562	75.81
253.795	88.81
254.028	89.81
254.261	95.81
254.494	78.81
254.727	77.81
254.96	84.81
255.193	83.81
255.426	65.81
255.659	75.81
255.892	94.81
256.124	109.81
256.357	94.81
256.59	78.81
256.823	90.81
257.056	87.81
257.289	77.81
257.521	76.81
257.754	88.81
257.987	88.81
258.22	88.81
258.452	84.81
258.685	76.81
258.918	93.81
259.151	92.81
259.383	82.81
259.616	77.81
259.849	92.81
260.081	87.81
260.314	80.81
260.547	85.81
260.779	96.81
261.012	100.81
261.244	95.81
261.477	89.81
261.71	102.81
261.942	132.81
262.175	135.81
262.407	85.81
262.64	87.81
262.872	82.81
263.105	85.81
263.337	83.81
263.57	82.81
263.802	81.81
264.035	86.81
264.267	91.81
264.499	88.81
264.732	89.81
264.964	79.81
265.197	68.81
265.429	81.81
265.661	87.81
265.894	83.81
266.126	96.81
266.358	79.81
266.591	83.81
266.823	81.81
267.055	91.81
267.287	96.81
267.52	93.81
267.752	93.81
267.984	90.81
268.216	89.81
268.448	92.81
268.681	93.81
268.913	83.81
269.145	88.81
269.377	83.81
269.609	70.81
269.841	83.81
270.073	85.81
270.306	84.81
270.538	81.81
270.77	89.81
271.002	92.81
271.234	101.81
271.466	85.81
271.698	95.81
271.93	87.81
272.162	71.81
272.394	92.81
272.626	91.81
272.858	69.81
273.09	84.81
273.322	92.81
273.553	80.81
273.785	79.81
274.017	88.81
274.249	81.81
274.481	88.81
274.713	83.81
274.945	88.81
275.176	96.81
275.408	89.81
275.64	95.81
275.872	103.81
276.104	104.81
276.335	103.81
276.567	112.81
276.799	134.81
277.031	145.81
277.262	167.81
277.494	138.81
277.726	97.81
277.957	92.81
278.189	91.81
278.421	84.81
278.652	86.81
278.884	84.81
279.115	83.81
279.347	86.81
279.579	97.81
279.81	129.81
280.042	168.81
280.273	222.81
280.505	173.81
280.736	95.81
280.968	84.81
281.199	88.81
281.431	97.81
281.662	86.81
281.894	86.81
282.125	103.81
282.356	119.81
282.588	156.81
282.819	124.81
283.051	95.81
283.282	90.81
283.513	75.81
283.745	87.81
283.976	82.81
284.207	93.81
284.439	83.81
284.67	100.81
284.901	89.81
285.132	77.81
285.364	85.81
285.595	87.81
285.826	84.81
286.057	84.81
286.288	91.81
286.52	91.81
286.751	84.81
286.982	87.81
287.213	93.81
287.444	94.81
287.675	94.81
287.906	82.81
288.138	91.81
288.369	88.81
288.6	92.81
288.831	96.81
289.062	108.81
289.293	100.81
289.524	94.81
289.755	81.81
289.986	92.81
290.217	80.81
290.448	94.81
290.679	77.81
290.91	86.81
291.141	88.81
291.371	88.81
291.602	84.81
291.833	84.81
292.064	81.81
292.295	87.81
292.526	97.81
292.757	93.81
292.987	88.81
293.218	88.81
293.449	87.81
293.68	69.81
293.91	85.81
294.141	89.81
294.372	101.81
294.603	91.81
294.833	92.81
295.064	92.81
295.295	96.81
295.525	87.81
295.756	109.81
295.987	122.81
296.217	149.81
296.448	141.81
296.679	103.81
296.909	106.81
297.14	95.81
297.37	80.81
297.601	97.81
297.831	91.81
298.062	97.81
298.292	100.81
298.523	91.81
298.753	77.81
298.984	94.81
299.214	90.81
299.445	79.81
299.675	98.81
299.905	90.81
300.136	100.81
300.366	102.81
300.597	87.81
300.827	94.81
301.057	93.81
301.288	113.81
301.518	89.81
301.748	82.81
301.979	112.81
302.209	93.81
302.439	99.81
302.669	96.81
302.9	79.81
303.13	101.81
303.36	104.81
303.59	128.81
303.82	128.81
304.051	92.81
304.281	95.81
304.511	97.81
304.741	89.81
304.971	87.81
305.201	93.81
305.431	100.81
305.661	92.81
305.891	96.81
306.121	98.81
306.352	105.81
306.582	114.81
306.812	102.81
307.042	114.81
307.272	132.81
307.502	163.81
307.731	144.81
307.961	122.81
308.191	97.81
308.421	89.81
308.651	96.81
308.881	102.81
309.111	96.81
309.341	89.81
309.571	106.81
309.8	98.81
310.03	108.81
310.26	103.81
310.49	103.81
310.72	116.81
310.949	119.81
311.179	119.81
311.409	111.81
311.639	101.81
311.868	102.81
312.098	100.81
312.328	101.81
312.557	115.81
312.787	132.81
313.017	117.81
313.246	103.81
313.476	88.81
313.706	87.81
313.935	105.81
314.165	116.81
314.394	112.81
314.624	123.81
314.853	107.81
315.083	100.81
315.312	98.81
315.542	97.81
315.771	99.81
316.001	92.81
316.23	91.81
316.46	89.81
316.689	86.81
316.919	99.81
317.148	105.81
317.377	97.81
317.607	95.81
317.836	105.81
318.065	88.81
318.295	102.81
318.524	90.81
318.753	96.81
318.983	98.81
319.212	108.81
319.441	127.81
319.67	125.81
319.9	95.81
320.129	93.81
320.358	87.81
320.587	91.81
320.816	100.81
321.046	107.81
321.275	109.81
321.504	97.81
321.733	97.81
321.962	104.81
322.191	108.81
322.42	105.81
322.649	122.81
322.878	107.81
323.108	120.81
323.337	125.81
323.566	148.81
323.795	165.81
324.024	212.81
324.253	372.81
324.482	785.81
324.71	1590.81
324.939	2097.81
325.168	770.81
325.397	249.81
325.626	158.81
325.855	139.81
326.084	127.81
326.313	132.81
326.542	145.81
326.77	215.81
326.999	399.81
327.228	830.81
327.457	1504.81
327.686	1237.81
327.914	453.81
328.143	422.81
328.372	577.81
328.6	337.81
328.829	170.81
329.058	177.81
329.287	193.81
329.515	152.81
329.744	239.81
329.972	421.81
330.201	810.81
330.43	1181.81
330.658	549.81
330.887	248.81
331.115	189.81
331.344	144.81
331.572	120.81
331.801	133.81
332.03	114.81
332.258	100.81
332.486	107.81
332.715	100.81
332.943	105.81
333.172	121.81
333.4	130.81
333.629	161.81
333.857	208.81
334.085	384.81
334.314	786.81
334.542	1508.81
334.771	1455.81
334.999	366.81
335.227	158.81
335.455	130.81
335.684	113.81
335.912	105.81
336.14	113.81
336.369	101.81
336.597	123.81
336.825	110.81
337.053	104.81
337.281	96.81
337.51	100.81
337.738	96.81
337.966	112.81
338.194	113.81
338.422	102.81
338.65	95.81
338.878	77.81
339.106	84.81
339.334	96.81
339.562	91.81
339.79	95.81
340.018	98.81
340.246	89.81
340.474	102.81
340.702	108.81
340.93	89.81
341.158	90.81
341.386	117.81
341.614	107.81
341.842	108.81
342.07	87.81
342.298	95.81
342.526	78.81
342.754	102.81
342.981	90.81
343.209	83.81
343.437	95.81
343.665	101.81
343.893	83.81
344.12	87.81
344.348	101.81
344.576	92.81
344.804	95.81
345.031	103.81
345.259	101.81
345.487	111.81
345.714	111.81
345.942	100.81
346.17	90.81
346.397	95.81
346.625	96.81
346.853	99.81
347.08	90.81
347.308	108.81
347.535	103.81
347.763	106.81
347.99	111.81
348.218	108.81
348.445	116.81
348.673	104.81
348.9	104.81
349.128	87.81
349.355	91.81
349.583	95.81
349.81	87.81
350.037	93.81
350.265	85.81
350.492	94.81
350.72	102.81
350.947	106.81
351.174	117.81
351.402	109.81
351.629	110.81
351.856	115.81
352.083	104.81
352.311	105.81
352.538	100.81
352.765	118.81
352.992	110.81
353.22	124.81
353.447	106.81
353.674	86.81
353.901	97.81
354.128	93.81
354.355	95.81
354.583	99.81
354.81	93.81
355.037	88.81
355.264	99.81
355.491	87.81
355.718	96.81
355.945	85.81
356.172	92.81
356.399	85.81
356.626	82.81
356.853	96.81
357.08	97.81
357.307	103.81
357.534	101.81
357.761	96.81
357.988	90.81
358.215	92.81
358.441	79.81
358.668	90.81
358.895	100.81
359.122	99.81
359.349	89.81
359.576	97.81
359.802	110.81
360.029	135.81
360.256	140.81
360.483	115.81
360.709	93.81
360.936	95.81
361.163	111.81
361.39	106.81
361.616	108.81
361.843	110.81
362.07	84.81
362.296	113.81
362.523	90.81
362.749	93.81
362.976	88.81
363.203	85.81
363.429	96.81
363.656	102.81
363.882	92.81
364.109	99.81
364.335	106.81
364.562	92.81
364.788	85.81
365.015	109.81
365.241	87.81
365.468	113.81
365.694	105.81
365.92	89.81
366.147	100.81
366.373	87.81
366.599	82.81
366.826	82.81
367.052	99.81
367.278	90.81
367.505	103.81
367.731	98.81
367.957	86.81
368.184	92.81
368.41	89.81
368.636	111.81
368.862	120.81
369.089	110.81
369.315	102.81
369.541	100.81
369.767	103.81
369.993	94.81
370.219	78.81
370.445	95.81
370.672	85.81
370.898	98.81
371.124	95.81
371.35	93.81
371.576	78.81
371.802	97.81
372.028	85.81
372.254	72.81
372.48	91.81
372.706	82.81
372.932	97.81
373.158	73.81
373.384	90.81
373.61	84.81
373.835	92.81
374.061	90.81
374.287	104.81
374.513	83.81
374.739	80.81
374.965	80.81
375.191	84.81
375.416	88.81
375.642	83.81
375.868	90.81
376.094	104.81
376.319	89.81
376.545	83.81
376.771	86.81
376.997	100.81
377.222	80.81
377.448	94.81
377.674	86.81
377.899	86.81
378.125	79.81
378.35	87.81
378.576	80.81
378.802	91.81
379.027	86.81
379.253	83.81
379.478	100.81
379.704	98.81
379.929	99.81
380.155	90.81
380.38	93.81
380.606	100.81
380.831	87.81
381.057	99.81
381.282	106.81
381.507	103.81
381.733	91.81
381.958	84.81
382.184	102.81
382.409	100.81
382.634	103.81
382.86	103.81
383.085	104.81
383.31	106.81
383.535	105.81
383.761	114.81
383.986	99.81
384.211	88.81
384.436	94.81
384.662	90.81
384.887	96.81
385.112	105.81
385.337	104.81
385.562	89.81
385.787	112.81
386.013	115.81
386.238	130.81
386.463	121.81
386.688	114.81
386.913	86.81
387.138	102.81
387.363	114.81
387.588	102.81
387.813	100.81
388.038	93.81
388.263	96.81
388.488	105.81
388.713	79.81
388.938	91.81
389.163	94.81
389.387	88.81
389.612	92.81
389.837	96.81
390.062	83.81
390.287	95.81
390.512	88.81
390.736	88.81
390.961	98.81
391.186	83.81
391.411	88.81
391.636	90.81
391.86	80.81
392.085	89.81
392.31	79.81
392.534	79.81
392.759	95.81
392.984	99.81
393.208	88.81
393.433	101.81
393.658	96.81
393.882	64.81
394.107	94.81
394.331	88.81
394.556	86.81
394.78	90.81
395.005	85.81
395.229	104.81
395.454	98.81
395.678	89.81
395.903	84.81
396.127	89.81
396.352	109.81
396.576	80.81
396.801	98.81
397.025	93.81
397.249	93.81
397.474	75.81
397.698	95.81
397.922	82.81
398.147	93.81
398.371	80.81
398.595	93.81
398.82	88.81
399.044	93.81
399.268	73.81
399.492	85.81
399.717	81.81
399.941	82.81
400.165	90.81
400.389	87.81
400.613	72.81
400.837	84.81
401.062	100.81
401.286	86.81
401.51	96.81
401.734	99.81
401.958	100.81
402.182	136.81
402.406	200.81
402.63	129.81
402.854	102.81
403.078	89.81
403.302	96.81
403.526	93.81
403.75	84.81
403.974	72.81
404.198	89.81
404.422	87.81
404.645	103.81
404.869	107.81
405.093	114.81
405.317	151.81
405.541	132.81
405.765	117.81
405.988	139.81
406.212	190.81
406.436	276.81
406.66	188.81
406.883	131.81
407.107	103.81
407.331	97.81
407.555	111.81
407.778	103.81
408.002	109.81
408.226	83.81
408.449	83.81
408.673	89.81
408.896	103.81
409.12	94.81
409.344	85.81
409.567	99.81
409.791	99.81
410.014	85.81
410.238	90.81
410.461	99.81
410.685	111.81
410.908	104.81
411.132	96.81
411.355	103.81
411.578	83.81
411.802	87.81
412.025	93.81
412.249	103.81
412.472	116.81
412.695	132.81
412.919	91.81
413.142	78.81
413.365	95.81
413.589	98.81
413.812	79.81
414.035	85.81
414.258	95.81
414.482	107.81
414.705	93.81
414.928	92.81
415.151	94.81
415.374	93.81
415.597	94.81
415.821	78.81
416.044	86.81
416.267	88.81
416.49	94.81
416.713	94.81
416.936	85.81
417.159	90.81
417.382	98.81
417.605	99.81
417.828	89.81
418.051	99.81
418.274	96.81
418.497	77.81
418.72	87.81
418.943	101.81
419.166	98.81
419.389	92.81
419.611	90.81
419.834	69.81
420.057	98.81
420.28	95.81
420.503	83.81
420.726	89.81
420.948	72.81
421.171	103.81
421.394	86.81
421.617	96.81
421.839	89.81
422.062	88.81
422.285	107.81
422.507	103.81
422.73	105.81
422.953	91.81
423.175	86.81
423.398	64.81
423.621	102.81
423.843	90.81
424.066	96.81
424.288	78.81
424.511	108.81
424.733	92.81
424.956	108.81
425.178	101.81
425.401	106.81
425.623	105.81
425.846	94.81
426.068	96.81
426.291	95.81
426.513	89.81
426.735	101.81
426.958	99.81
427.18	112.81
427.402	162.81
427.625	233.81
427.847	221.81
428.069	179.81
428.292	116.81
428.514	93.81
428.736	75.81
428.958	78.81
429.181	87.81
429.403	80.81
429.625	84.81
429.847	98.81
430.069	93.81
430.292	101.81
430.514	89.81
430.736	72.81
430.958	77.81
431.18	83.81
431.402	80.81
431.624	98.81
431.846	85.81
432.068	93.81
432.29	87.81
432.512	90.81
432.734	83.81
432.956	92.81
433.178	98.81
433.4	115.81
433.622	75.81
433.844	103.81
434.066	85.81
434.287	98.81
434.509	85.81
434.731	90.81
434.953	90.81
435.175	84.81
435.397	81.81
435.618	95.81
435.84	95.81
436.062	125.81
436.284	126.81
436.505	111.81
436.727	89.81
436.949	111.81
437.17	99.81
437.392	85.81
437.614	89.81
437.835	144.81
438.057	148.81
438.278	125.81
438.5	116.81
438.721	137.81
438.943	109.81
439.165	84.81
439.386	73.81
439.608	92.81
439.829	110.81
440.05	139.81
440.272	171.81
440.493	104.81
440.715	87.81
440.936	85.81
441.158	89.81
441.379	78.81
441.6	84.81
441.822	96.81
442.043	104.81
442.264	103.81
442.486	107.81
442.707	83.81
442.928	112.81
443.149	152.81
443.371	143.81
443.592	125.81
443.813	128.81
444.034	126.81
444.255	97.81
444.476	85.81
444.698	93.81
444.919	82.81
445.14	125.81
445.361	142.81
445.582	132.81
445.803	187.81
446.024	179.81
446.245	157.81
446.466	112.81
446.687	89.81
446.908	88.81
447.129	102.81
447.35	81.81
447.571	89.81
447.792	89.81
448.013	86.81
448.234	124.81
448.455	104.81
448.675	132.81
448.896	128.81
449.117	115.81
449.338	107.81
449.559	147.81
449.779	132.81
450	101.81
450.221	87.81
450.442	89.81
450.662	102.81
450.883	121.81
451.104	130.81
451.324	110.81
451.545	88.81
451.766	103.81
451.986	85.81
452.207	94.81
452.428	83.81
452.648	99.81
452.869	119.81
453.089	124.81
453.31	128.81
453.53	105.81
453.751	98.81
453.971	121.81
454.192	117.81
454.412	94.81
454.633	95.81
454.853	82.81
455.073	91.81
455.294	96.81
455.514	94.81
455.734	85.81
455.955	84.81
456.175	85.81
456.395	80.81
456.616	93.81
456.836	80.81
457.056	93.81
457.276	79.81
457.497	87.81
457.717	95.81
457.937	82.81
458.157	83.81
458.377	93.81
458.598	120.81
458.818	177.81
459.038	226.81
459.258	154.81
459.478	85.81
459.698	88.81
459.918	88.81
460.138	80.81
460.358	77.81
460.578	101.81
460.798	86.81
461.018	93.81
461.238	89.81
461.458	71.81
461.678	98.81
461.898	86.81
462.118	86.81
462.338	71.81
462.558	87.81
462.777	92.81
462.997	98.81
463.217	102.81
463.437	95.81
463.657	81.81
463.876	80.81
464.096	94.81
464.316	96.81
464.536	103.81
464.755	107.81
464.975	111.81
465.195	209.81
465.414	237.81
465.634	110.81
465.854	71.81
466.073	86.81
466.293	74.81
466.512	72.81
466.732	73.81
466.951	89.81
467.171	107.81
467.391	92.81
467.61	142.81
467.829	182.81
468.049	430.81
468.268	648.81
468.488	201.81
468.707	102.81
468.927	94.81
469.146	89.81
469.365	95.81
469.585	102.81
469.804	117.81
470.023	102.81
470.243	95.81
470.462	122.81
470.681	140.81
470.901	113.81
471.12	105.81
471.339	104.81
471.558	91.81
471.777	130.81
471.997	260.81
472.216	848.81
472.435	1969.81
472.654	469.81
472.873	147.81
473.092	100.81
473.311	93.81
473.53	90.81
473.749	90.81
473.968	96.81
474.187	123.81
474.406	89.81
474.625	98.81
474.844	81.81
475.063	94.81
475.282	85.81
475.501	95.81
475.72	97.81
475.939	82.81
476.158	80.81
476.377	100.81
476.596	87.81
476.814	111.81
477.033	85.81
477.252	90.81
477.471	83.81
477.69	97.81
477.908	99.81
478.127	92.81
478.346	90.81
478.564	96.81
478.783	111.81
479.002	100.81
479.22	99.81
479.439	112.81
479.658	129.81
479.876	123.81
480.095	106.81
480.313	118.81
480.532	143.81
480.751	238.81
480.969	772.81
481.188	3412.81
481.406	1997.81
481.624	305.81
481.843	121.81
482.061	110.81
482.28	100.81
482.498	95.81
482.717	93.81
482.935	98.81
483.153	100.81
483.372	103.81
483.59	88.81
483.808	91.81
484.027	78.81
484.245	95.81
484.463	97.81
484.681	108.81
484.9	88.81
485.118	96.81
485.336	88.81
485.554	102.81
485.772	109.81
485.99	104.81
486.209	87.81
486.427	107.81
486.645	106.81
486.863	127.81
487.081	102.81
487.299	98.81
487.517	93.81
487.735	102.81
487.953	80.81
488.171	92.81
488.389	85.81
488.607	107.81
488.825	88.81
489.043	104.81
489.261	97.81
489.479	88.81
489.696	87.81
489.914	68.81
490.132	97.81
490.35	89.81
490.568	89.81
490.786	97.81
491.003	93.81
491.221	87.81
491.439	89.81
491.657	101.81
491.874	101.81
492.092	92.81
492.31	69.81
492.527	92.81
492.745	86.81
492.963	86.81
493.18	89.81
493.398	105.81
493.615	87.81
493.833	104.81
494.05	96.81
494.268	89.81
494.485	90.81
494.703	95.81
494.92	105.81
495.138	82.81
495.355	90.81
495.573	88.81
495.79	95.81
496.008	91.81
496.225	83.81
496.442	82.81
496.66	95.81
496.877	88.81
497.094	103.81
497.312	89.81
497.529	79.81
497.746	80.81
497.963	91.81
498.181	88.81
498.398	90.81
498.615	99.81
498.832	101.81
499.049	79.81
499.267	79.81
499.484	73.81
499.701	100.81
499.918	100.81
500.135	71.81
500.352	112.81
500.569	87.81
500.786	99.81
501.003	98.81
501.22	89.81
501.437	88.81
501.654	99.81
501.871	134.81
502.088	100.81
502.305	104.81
502.522	93.81
502.739	88.81
502.956	87.81
503.172	92.81
503.389	99.81
503.606	113.81
503.823	101.81
504.04	100.81
504.256	90.81
504.473	89.81
504.69	83.81
504.907	90.81
505.123	86.81
505.34	85.81
505.557	89.81
505.773	87.81
505.99	79.81
506.207	89.81
506.423	87.81
506.64	99.81
506.856	88.81
507.073	82.81
507.289	83.81
507.506	90.81
507.722	134.81
507.939	112.81
508.155	90.81
508.372	100.81
508.588	87.81
508.805	96.81
509.021	101.81
509.238	98.81
509.454	108.81
509.67	107.81
509.887	133.81
510.103	135.81
510.319	220.81
510.536	804.81
510.752	2787.81
510.968	763.81
511.184	156.81
511.401	125.81
511.617	104.81
511.833	105.81
512.049	95.81
512.265	92.81
512.481	93.81
512.698	94.81
512.914	89.81
513.13	100.81
513.346	81.81
513.562	101.81
