Data from Circ_1987_H10_HRD10591_00020.txt Node
Date: Wed Jan 03 12:10:36 EST 2024
User: Yrep
Spectrometer: HR+D1059
Trigger mode: 1
Integration Time (sec): 1.000000E-1
Scans to average: 1
Electric dark correction enabled: true
Nonlinearity correction enabled: false
Boxcar width: 0
XAxis mode: Wavelengths
Number of Pixels in Spectrum: 2048
>>>>>Begin Spectral Data<<<<<
223.165	-15.38
223.4	-15.38
223.635	-15.38
223.869	-7.38
224.104	-8.38
224.338	-22.38
224.573	-34.38
224.808	-16.38
225.042	-11.38
225.277	0.62
225.511	-8.38
225.746	4.62
225.98	5.62
226.215	19.62
226.449	5.62
226.683	14.62
226.918	27.62
227.152	45.62
227.387	28.62
227.621	37.62
227.856	66.62
228.09	53.62
228.324	57.62
228.559	61.62
228.793	60.62
229.027	74.62
229.262	81.62
229.496	82.62
229.73	107.62
229.964	109.62
230.199	89.62
230.433	73.62
230.667	72.62
230.901	64.62
231.136	70.62
231.37	70.62
231.604	91.62
231.838	85.62
232.072	86.62
232.306	82.62
232.541	84.62
232.775	87.62
233.009	81.62
233.243	78.62
233.477	87.62
233.711	64.62
233.945	73.62
234.179	85.62
234.413	81.62
234.647	71.62
234.881	71.62
235.115	74.62
235.349	72.62
235.583	83.62
235.817	85.62
236.051	87.62
236.285	95.62
236.519	85.62
236.753	91.62
236.987	70.62
237.221	87.62
237.455	85.62
237.689	87.62
237.922	81.62
238.156	74.62
238.39	75.62
238.624	71.62
238.858	70.62
239.091	72.62
239.325	93.62
239.559	80.62
239.793	84.62
240.027	81.62
240.26	74.62
240.494	85.62
240.728	75.62
240.961	82.62
241.195	67.62
241.429	75.62
241.662	69.62
241.896	73.62
242.13	76.62
242.363	83.62
242.597	72.62
242.83	97.62
243.064	75.62
243.298	68.62
243.531	77.62
243.765	84.62
243.998	79.62
244.232	87.62
244.465	98.62
244.699	74.62
244.932	79.62
245.166	75.62
245.399	83.62
245.633	85.62
245.866	89.62
246.099	73.62
246.333	77.62
246.566	83.62
246.8	87.62
247.033	77.62
247.266	74.62
247.5	83.62
247.733	95.62
247.966	83.62
248.2	75.62
248.433	81.62
248.666	96.62
248.899	96.62
249.133	97.62
249.366	104.62
249.599	101.62
249.832	84.62
250.066	81.62
250.299	73.62
250.532	77.62
250.765	86.62
250.998	90.62
251.231	89.62
251.465	88.62
251.698	86.62
251.931	75.62
252.164	90.62
252.397	77.62
252.63	77.62
252.863	77.62
253.096	87.62
253.329	71.62
253.562	87.62
253.795	83.62
254.028	90.62
254.261	94.62
254.494	85.62
254.727	97.62
254.96	90.62
255.193	73.62
255.426	81.62
255.659	90.62
255.892	102.62
256.124	99.62
256.357	99.62
256.59	90.62
256.823	86.62
257.056	73.62
257.289	79.62
257.521	85.62
257.754	82.62
257.987	89.62
258.22	97.62
258.452	101.62
258.685	94.62
258.918	103.62
259.151	83.62
259.383	75.62
259.616	92.62
259.849	81.62
260.081	79.62
260.314	80.62
260.547	91.62
260.779	105.62
261.012	127.62
261.244	107.62
261.477	110.62
261.71	113.62
261.942	155.62
262.175	161.62
262.407	96.62
262.64	86.62
262.872	79.62
263.105	83.62
263.337	88.62
263.57	65.62
263.802	85.62
264.035	83.62
264.267	86.62
264.499	83.62
264.732	83.62
264.964	87.62
265.197	89.62
265.429	86.62
265.661	73.62
265.894	93.62
266.126	87.62
266.358	88.62
266.591	90.62
266.823	96.62
267.055	81.62
267.287	88.62
267.52	97.62
267.752	98.62
267.984	85.62
268.216	89.62
268.448	91.62
268.681	86.62
268.913	71.62
269.145	82.62
269.377	81.62
269.609	90.62
269.841	97.62
270.073	91.62
270.306	86.62
270.538	84.62
270.77	83.62
271.002	102.62
271.234	85.62
271.466	90.62
271.698	91.62
271.93	101.62
272.162	78.62
272.394	97.62
272.626	95.62
272.858	88.62
273.09	77.62
273.322	78.62
273.553	86.62
273.785	80.62
274.017	79.62
274.249	84.62
274.481	82.62
274.713	87.62
274.945	83.62
275.176	98.62
275.408	97.62
275.64	101.62
275.872	113.62
276.104	85.62
276.335	107.62
276.567	115.62
276.799	137.62
277.031	181.62
277.262	182.62
277.494	142.62
277.726	110.62
277.957	85.62
278.189	85.62
278.421	107.62
278.652	96.62
278.884	88.62
279.115	101.62
279.347	77.62
279.579	118.62
279.81	138.62
280.042	170.62
280.273	233.62
280.505	173.62
280.736	112.62
280.968	119.62
281.199	79.62
281.431	85.62
281.662	89.62
281.894	66.62
282.125	105.62
282.356	138.62
282.588	181.62
282.819	150.62
283.051	106.62
283.282	79.62
283.513	89.62
283.745	89.62
283.976	86.62
284.207	96.62
284.439	81.62
284.67	92.62
284.901	90.62
285.132	79.62
285.364	78.62
285.595	86.62
285.826	95.62
286.057	89.62
286.288	80.62
286.52	88.62
286.751	89.62
286.982	105.62
287.213	81.62
287.444	78.62
287.675	80.62
287.906	95.62
288.138	91.62
288.369	97.62
288.6	95.62
288.831	97.62
289.062	87.62
289.293	92.62
289.524	88.62
289.755	100.62
289.986	90.62
290.217	90.62
290.448	92.62
290.679	97.62
290.91	98.62
291.141	90.62
291.371	97.62
291.602	73.62
291.833	83.62
292.064	98.62
292.295	102.62
292.526	99.62
292.757	100.62
292.987	95.62
293.218	90.62
293.449	94.62
293.68	106.62
293.91	88.62
294.141	84.62
294.372	98.62
294.603	81.62
294.833	98.62
295.064	91.62
295.295	97.62
295.525	105.62
295.756	106.62
295.987	142.62
296.217	190.62
296.448	148.62
296.679	107.62
296.909	104.62
297.14	95.62
297.37	93.62
297.601	84.62
297.831	102.62
298.062	90.62
298.292	103.62
298.523	99.62
298.753	85.62
298.984	91.62
299.214	98.62
299.445	94.62
299.675	106.62
299.905	104.62
300.136	96.62
300.366	93.62
300.597	104.62
300.827	99.62
301.057	103.62
301.288	124.62
301.518	104.62
301.748	90.62
301.979	112.62
302.209	104.62
302.439	103.62
302.669	105.62
302.9	113.62
303.13	81.62
303.36	86.62
303.59	135.62
303.82	141.62
304.051	105.62
304.281	95.62
304.511	96.62
304.741	93.62
304.971	96.62
305.201	112.62
305.431	106.62
305.661	94.62
305.891	108.62
306.121	108.62
306.352	138.62
306.582	131.62
306.812	102.62
307.042	122.62
307.272	138.62
307.502	156.62
307.731	164.62
307.961	111.62
308.191	93.62
308.421	76.62
308.651	93.62
308.881	94.62
309.111	101.62
309.341	88.62
309.571	103.62
309.8	111.62
310.03	113.62
310.26	103.62
310.49	92.62
310.72	117.62
310.949	126.62
311.179	118.62
311.409	118.62
311.639	102.62
311.868	106.62
312.098	97.62
312.328	107.62
312.557	125.62
312.787	129.62
313.017	119.62
313.246	112.62
313.476	99.62
313.706	106.62
313.935	111.62
314.165	112.62
314.394	124.62
314.624	101.62
314.853	107.62
315.083	106.62
315.312	97.62
315.542	96.62
315.771	100.62
316.001	103.62
316.23	91.62
316.46	92.62
316.689	91.62
316.919	90.62
317.148	108.62
317.377	113.62
317.607	98.62
317.836	98.62
318.065	107.62
318.295	93.62
318.524	78.62
318.753	79.62
318.983	86.62
319.212	114.62
319.441	116.62
319.67	112.62
319.9	102.62
320.129	101.62
320.358	99.62
320.587	95.62
320.816	115.62
321.046	110.62
321.275	117.62
321.504	101.62
321.733	100.62
321.962	94.62
322.191	107.62
322.42	105.62
322.649	118.62
322.878	131.62
323.108	133.62
323.337	157.62
323.566	153.62
323.795	190.62
324.024	258.62
324.253	462.62
324.482	969.62
324.71	1981.62
324.939	2606.62
325.168	997.62
325.397	291.62
325.626	168.62
325.855	149.62
326.084	137.62
326.313	155.62
326.542	168.62
326.77	262.62
326.999	494.62
327.228	1012.62
327.457	1822.62
327.686	1517.62
327.914	536.62
328.143	490.62
328.372	648.62
328.6	361.62
328.829	184.62
329.058	225.62
329.287	226.62
329.515	185.62
329.744	230.62
329.972	434.62
330.201	855.62
330.43	1344.62
330.658	591.62
330.887	329.62
331.115	213.62
331.344	138.62
331.572	129.62
331.801	138.62
332.03	142.62
332.258	121.62
332.486	112.62
332.715	105.62
332.943	111.62
333.172	113.62
333.4	132.62
333.629	146.62
333.857	215.62
334.085	400.62
334.314	833.62
334.542	1610.62
334.771	1521.62
334.999	416.62
335.227	165.62
335.455	129.62
335.684	101.62
335.912	126.62
336.14	109.62
336.369	109.62
336.597	117.62
336.825	110.62
337.053	99.62
337.281	95.62
337.51	98.62
337.738	114.62
337.966	105.62
338.194	119.62
338.422	105.62
338.65	97.62
338.878	118.62
339.106	86.62
339.334	119.62
339.562	109.62
339.79	82.62
340.018	104.62
340.246	104.62
340.474	92.62
340.702	93.62
340.93	97.62
341.158	117.62
341.386	102.62
341.614	120.62
341.842	105.62
342.07	93.62
342.298	102.62
342.526	90.62
342.754	90.62
342.981	83.62
343.209	74.62
343.437	100.62
343.665	98.62
343.893	85.62
344.12	95.62
344.348	89.62
344.576	96.62
344.804	91.62
345.031	114.62
345.259	110.62
345.487	112.62
345.714	104.62
345.942	99.62
346.17	100.62
346.397	84.62
346.625	98.62
346.853	96.62
347.08	104.62
347.308	117.62
347.535	109.62
347.763	126.62
347.99	110.62
348.218	113.62
348.445	122.62
348.673	110.62
348.9	121.62
349.128	93.62
349.355	88.62
349.583	103.62
349.81	100.62
350.037	101.62
350.265	93.62
350.492	82.62
350.72	98.62
350.947	101.62
351.174	127.62
351.402	146.62
351.629	131.62
351.856	129.62
352.083	110.62
352.311	113.62
352.538	130.62
352.765	130.62
352.992	127.62
353.22	118.62
353.447	110.62
353.674	123.62
353.901	106.62
354.128	107.62
354.355	101.62
354.583	88.62
354.81	98.62
355.037	79.62
355.264	103.62
355.491	92.62
355.718	101.62
355.945	84.62
356.172	87.62
356.399	106.62
356.626	104.62
356.853	97.62
357.08	87.62
357.307	97.62
357.534	102.62
357.761	94.62
357.988	93.62
358.215	108.62
358.441	97.62
358.668	92.62
358.895	94.62
359.122	82.62
359.349	95.62
359.576	112.62
359.802	124.62
360.029	165.62
360.256	153.62
360.483	131.62
360.709	99.62
360.936	114.62
361.163	106.62
361.39	116.62
361.616	107.62
361.843	100.62
362.07	93.62
362.296	114.62
362.523	94.62
362.749	89.62
362.976	94.62
363.203	101.62
363.429	86.62
363.656	104.62
363.882	98.62
364.109	107.62
364.335	95.62
364.562	99.62
364.788	107.62
365.015	109.62
365.241	104.62
365.468	131.62
365.694	130.62
365.92	102.62
366.147	93.62
366.373	92.62
366.599	112.62
366.826	106.62
367.052	82.62
367.278	102.62
367.505	90.62
367.731	101.62
367.957	107.62
368.184	106.62
368.41	106.62
368.636	130.62
368.862	145.62
369.089	117.62
369.315	105.62
369.541	97.62
369.767	94.62
369.993	93.62
370.219	111.62
370.445	98.62
370.672	105.62
370.898	85.62
371.124	79.62
371.35	91.62
371.576	91.62
371.802	85.62
372.028	87.62
372.254	93.62
372.48	90.62
372.706	80.62
372.932	97.62
373.158	91.62
373.384	98.62
373.61	97.62
373.835	99.62
374.061	97.62
374.287	95.62
374.513	93.62
374.739	95.62
374.965	81.62
375.191	97.62
375.416	87.62
375.642	90.62
375.868	97.62
376.094	85.62
376.319	65.62
376.545	93.62
376.771	85.62
376.997	100.62
377.222	92.62
377.448	104.62
377.674	87.62
377.899	91.62
378.125	88.62
378.35	82.62
378.576	94.62
378.802	90.62
379.027	74.62
379.253	107.62
379.478	92.62
379.704	91.62
379.929	86.62
380.155	97.62
380.38	94.62
380.606	105.62
380.831	99.62
381.057	100.62
381.282	105.62
381.507	107.62
381.733	93.62
381.958	95.62
382.184	106.62
382.409	96.62
382.634	106.62
382.86	99.62
383.085	106.62
383.31	104.62
383.535	116.62
383.761	109.62
383.986	111.62
384.211	105.62
384.436	88.62
384.662	104.62
384.887	109.62
385.112	125.62
385.337	112.62
385.562	114.62
385.787	104.62
386.013	126.62
386.238	145.62
386.463	123.62
386.688	101.62
386.913	96.62
387.138	104.62
387.363	98.62
387.588	112.62
387.813	111.62
388.038	107.62
388.263	121.62
388.488	101.62
388.713	96.62
388.938	92.62
389.163	103.62
389.387	97.62
389.612	99.62
389.837	93.62
390.062	97.62
390.287	101.62
390.512	81.62
390.736	96.62
390.961	88.62
391.186	86.62
391.411	101.62
391.636	85.62
391.86	95.62
392.085	95.62
392.31	90.62
392.534	103.62
392.759	84.62
392.984	92.62
393.208	97.62
393.433	113.62
393.658	91.62
393.882	94.62
394.107	89.62
394.331	85.62
394.556	85.62
394.78	98.62
395.005	104.62
395.229	91.62
395.454	98.62
395.678	105.62
395.903	95.62
396.127	100.62
396.352	75.62
396.576	101.62
396.801	102.62
397.025	117.62
397.249	97.62
397.474	99.62
397.698	98.62
397.922	89.62
398.147	82.62
398.371	87.62
398.595	98.62
398.82	85.62
399.044	80.62
399.268	94.62
399.492	77.62
399.717	89.62
399.941	102.62
400.165	97.62
400.389	90.62
400.613	86.62
400.837	95.62
401.062	96.62
401.286	95.62
401.51	97.62
401.734	103.62
401.958	114.62
402.182	156.62
402.406	225.62
402.63	175.62
402.854	113.62
403.078	102.62
403.302	97.62
403.526	80.62
403.75	106.62
403.974	100.62
404.198	88.62
404.422	77.62
404.645	110.62
404.869	100.62
405.093	110.62
405.317	147.62
405.541	133.62
405.765	129.62
405.988	143.62
406.212	233.62
406.436	359.62
406.66	228.62
406.883	125.62
407.107	117.62
407.331	105.62
407.555	132.62
407.778	102.62
408.002	96.62
408.226	104.62
408.449	88.62
408.673	87.62
408.896	103.62
409.12	112.62
409.344	80.62
409.567	91.62
409.791	92.62
410.014	105.62
410.238	98.62
410.461	103.62
410.685	93.62
410.908	105.62
411.132	104.62
411.355	100.62
411.578	97.62
411.802	88.62
412.025	90.62
412.249	107.62
412.472	125.62
412.695	145.62
412.919	118.62
413.142	104.62
413.365	88.62
413.589	89.62
413.812	89.62
414.035	96.62
414.258	98.62
414.482	104.62
414.705	87.62
414.928	89.62
415.151	94.62
415.374	98.62
415.597	101.62
415.821	82.62
416.044	93.62
416.267	91.62
416.49	91.62
416.713	94.62
416.936	88.62
417.159	80.62
417.382	97.62
417.605	99.62
417.828	110.62
418.051	96.62
418.274	96.62
418.497	85.62
418.72	93.62
418.943	98.62
419.166	82.62
419.389	86.62
419.611	90.62
419.834	82.62
420.057	96.62
420.28	107.62
420.503	106.62
420.726	89.62
420.948	98.62
421.171	113.62
421.394	101.62
421.617	85.62
421.839	89.62
422.062	101.62
422.285	103.62
422.507	97.62
422.73	126.62
422.953	104.62
423.175	98.62
423.398	95.62
423.621	97.62
423.843	87.62
424.066	89.62
424.288	86.62
424.511	98.62
424.733	97.62
424.956	125.62
425.178	117.62
425.401	116.62
425.623	118.62
425.846	103.62
426.068	112.62
426.291	98.62
426.513	103.62
426.735	100.62
426.958	101.62
427.18	134.62
427.402	179.62
427.625	282.62
427.847	253.62
428.069	208.62
428.292	123.62
428.514	104.62
428.736	84.62
428.958	93.62
429.181	74.62
429.403	93.62
429.625	100.62
429.847	101.62
430.069	98.62
430.292	93.62
430.514	90.62
430.736	97.62
430.958	87.62
431.18	88.62
431.402	92.62
431.624	77.62
431.846	74.62
432.068	90.62
432.29	84.62
432.512	91.62
432.734	87.62
432.956	98.62
433.178	103.62
433.4	107.62
433.622	98.62
433.844	93.62
434.066	92.62
434.287	98.62
434.509	94.62
434.731	110.62
434.953	87.62
435.175	97.62
435.397	105.62
435.618	105.62
435.84	107.62
436.062	129.62
436.284	138.62
436.505	94.62
436.727	99.62
436.949	98.62
437.17	91.62
437.392	102.62
437.614	99.62
437.835	126.62
438.057	178.62
438.278	151.62
438.5	134.62
438.721	136.62
438.943	109.62
439.165	86.62
439.386	89.62
439.608	93.62
439.829	120.62
440.05	159.62
440.272	192.62
440.493	122.62
440.715	91.62
440.936	82.62
441.158	87.62
441.379	83.62
441.6	112.62
441.822	103.62
442.043	114.62
442.264	128.62
442.486	119.62
442.707	111.62
442.928	125.62
443.149	162.62
443.371	185.62
443.592	147.62
443.813	130.62
444.034	128.62
444.255	96.62
444.476	104.62
444.698	91.62
444.919	92.62
445.14	129.62
445.361	134.62
445.582	142.62
445.803	186.62
446.024	198.62
446.245	169.62
446.466	129.62
446.687	98.62
446.908	91.62
447.129	110.62
447.35	94.62
447.571	86.62
447.792	102.62
448.013	123.62
448.234	118.62
448.455	135.62
448.675	155.62
448.896	147.62
449.117	107.62
449.338	112.62
449.559	154.62
449.779	167.62
450	87.62
450.221	90.62
450.442	100.62
450.662	111.62
450.883	131.62
451.104	150.62
451.324	102.62
451.545	91.62
451.766	96.62
451.986	90.62
452.207	103.62
452.428	97.62
452.648	124.62
452.869	134.62
453.089	147.62
453.31	146.62
453.53	105.62
453.751	114.62
453.971	138.62
454.192	146.62
454.412	122.62
454.633	85.62
454.853	79.62
455.073	84.62
455.294	93.62
455.514	117.62
455.734	99.62
455.955	74.62
456.175	74.62
456.395	95.62
456.616	102.62
456.836	101.62
457.056	81.62
457.276	82.62
457.497	75.62
457.717	86.62
457.937	101.62
458.157	88.62
458.377	105.62
458.598	122.62
458.818	233.62
459.038	250.62
459.258	163.62
459.478	109.62
459.698	104.62
459.918	92.62
460.138	88.62
460.358	90.62
460.578	94.62
460.798	98.62
461.018	96.62
461.238	84.62
461.458	85.62
461.678	88.62
461.898	97.62
462.118	90.62
462.338	95.62
462.558	109.62
462.777	93.62
462.997	90.62
463.217	104.62
463.437	99.62
463.657	79.62
463.876	85.62
464.096	100.62
464.316	105.62
464.536	112.62
464.755	114.62
464.975	142.62
465.195	269.62
465.414	275.62
465.634	114.62
465.854	85.62
466.073	94.62
466.293	112.62
466.512	80.62
466.732	97.62
466.951	96.62
467.171	103.62
467.391	116.62
467.61	151.62
467.829	199.62
468.049	489.62
468.268	735.62
468.488	194.62
468.707	103.62
468.927	104.62
469.146	94.62
469.365	100.62
469.585	95.62
469.804	114.62
470.023	113.62
470.243	102.62
470.462	122.62
470.681	163.62
470.901	105.62
471.12	106.62
471.339	115.62
471.558	121.62
471.777	145.62
471.997	267.62
472.216	926.62
472.435	2207.62
472.654	518.62
472.873	159.62
473.092	118.62
473.311	89.62
473.53	89.62
473.749	104.62
473.968	100.62
474.187	126.62
474.406	104.62
474.625	99.62
474.844	93.62
475.063	87.62
475.282	94.62
475.501	81.62
475.72	86.62
475.939	84.62
476.158	85.62
476.377	91.62
476.596	86.62
476.814	106.62
477.033	102.62
477.252	101.62
477.471	101.62
477.69	106.62
477.908	97.62
478.127	95.62
478.346	103.62
478.564	91.62
478.783	104.62
479.002	103.62
479.22	107.62
479.439	115.62
479.658	144.62
479.876	128.62
480.095	114.62
480.313	136.62
480.532	153.62
480.751	247.62
480.969	859.62
481.188	3729.62
481.406	2175.62
481.624	328.62
481.843	129.62
482.061	116.62
482.28	90.62
482.498	99.62
482.717	101.62
482.935	102.62
483.153	90.62
483.372	95.62
483.59	99.62
483.808	94.62
484.027	98.62
484.245	90.62
484.463	83.62
484.681	97.62
484.9	107.62
485.118	110.62
485.336	100.62
485.554	95.62
485.772	114.62
485.99	109.62
486.209	112.62
486.427	122.62
486.645	134.62
486.863	120.62
487.081	115.62
487.299	114.62
487.517	99.62
487.735	105.62
487.953	101.62
488.171	85.62
488.389	99.62
488.607	93.62
488.825	92.62
489.043	94.62
489.261	91.62
489.479	92.62
489.696	95.62
489.914	102.62
490.132	81.62
490.35	81.62
490.568	91.62
490.786	97.62
491.003	97.62
491.221	86.62
491.439	92.62
491.657	92.62
491.874	100.62
492.092	97.62
492.31	115.62
492.527	106.62
492.745	96.62
492.963	98.62
493.18	96.62
493.398	73.62
493.615	105.62
493.833	93.62
494.05	84.62
494.268	87.62
494.485	85.62
494.703	68.62
494.92	105.62
495.138	81.62
495.355	90.62
495.573	110.62
495.79	89.62
496.008	112.62
496.225	97.62
496.442	91.62
496.66	94.62
496.877	104.62
497.094	97.62
497.312	73.62
497.529	90.62
497.746	88.62
497.963	95.62
498.181	93.62
498.398	100.62
498.615	117.62
498.832	87.62
499.049	90.62
499.267	88.62
499.484	91.62
499.701	82.62
499.918	95.62
500.135	83.62
500.352	93.62
500.569	88.62
500.786	89.62
501.003	93.62
501.22	88.62
501.437	85.62
501.654	98.62
501.871	127.62
502.088	108.62
502.305	91.62
502.522	91.62
502.739	98.62
502.956	100.62
503.172	98.62
503.389	107.62
503.606	130.62
503.823	106.62
504.04	99.62
504.256	98.62
504.473	95.62
504.69	83.62
504.907	107.62
505.123	91.62
505.34	97.62
505.557	90.62
505.773	93.62
505.99	90.62
506.207	92.62
506.423	83.62
506.64	96.62
506.856	107.62
507.073	98.62
507.289	94.62
507.506	107.62
507.722	137.62
507.939	156.62
508.155	115.62
508.372	105.62
508.588	107.62
508.805	104.62
509.021	90.62
509.238	94.62
509.454	103.62
509.67	115.62
509.887	121.62
510.103	138.62
510.319	263.62
510.536	1015.62
510.752	3695.62
510.968	959.62
511.184	182.62
511.401	129.62
511.617	110.62
511.833	111.62
