Data from Circ_1987_H10_HRD10591_00006.txt Node
Date: Wed Jan 03 12:10:34 EST 2024
User: Yrep
Spectrometer: HR+D1059
Trigger mode: 1
Integration Time (sec): 1.000000E-1
Scans to average: 1
Electric dark correction enabled: true
Nonlinearity correction enabled: false
Boxcar width: 0
XAxis mode: Wavelengths
Number of Pixels in Spectrum: 2048
>>>>>Begin Spectral Data<<<<<
223.165	-20.56
223.4	-20.56
223.635	-20.56
223.869	-11.56
224.104	-18.56
224.338	-23.56
224.573	-29.56
224.808	-1.56
225.042	-9.56
225.277	-8.56
225.511	-6.56
225.746	-3.56
225.98	4.44
226.215	16.44
226.449	13.44
226.683	26.44
226.918	41.44
227.152	31.44
227.387	54.44
227.621	44.44
227.856	53.44
228.09	51.44
228.324	60.44
228.559	53.44
228.793	58.44
229.027	64.44
229.262	66.44
229.496	78.44
229.73	93.44
229.964	93.44
230.199	83.44
230.433	78.44
230.667	77.44
230.901	84.44
231.136	69.44
231.37	88.44
231.604	87.44
231.838	81.44
232.072	86.44
232.306	80.44
232.541	101.44
232.775	84.44
233.009	88.44
233.243	82.44
233.477	76.44
233.711	69.44
233.945	85.44
234.179	93.44
234.413	91.44
234.647	84.44
234.881	87.44
235.115	69.44
235.349	78.44
235.583	80.44
235.817	92.44
236.051	80.44
236.285	83.44
236.519	76.44
236.753	72.44
236.987	81.44
237.221	80.44
237.455	88.44
237.689	80.44
237.922	80.44
238.156	73.44
238.39	79.44
238.624	78.44
238.858	73.44
239.091	84.44
239.325	77.44
239.559	72.44
239.793	87.44
240.027	74.44
240.26	83.44
240.494	78.44
240.728	61.44
240.961	86.44
241.195	78.44
241.429	86.44
241.662	73.44
241.896	88.44
242.13	78.44
242.363	85.44
242.597	82.44
242.83	89.44
243.064	73.44
243.298	82.44
243.531	75.44
243.765	80.44
243.998	86.44
244.232	96.44
244.465	90.44
244.699	94.44
244.932	81.44
245.166	75.44
245.399	86.44
245.633	97.44
245.866	80.44
246.099	83.44
246.333	85.44
246.566	83.44
246.8	82.44
247.033	92.44
247.266	74.44
247.5	84.44
247.733	84.44
247.966	84.44
248.2	73.44
248.433	84.44
248.666	99.44
248.899	91.44
249.133	86.44
249.366	91.44
249.599	102.44
249.832	93.44
250.066	81.44
250.299	84.44
250.532	82.44
250.765	94.44
250.998	67.44
251.231	92.44
251.465	60.44
251.698	82.44
251.931	88.44
252.164	85.44
252.397	81.44
252.63	89.44
252.863	84.44
253.096	78.44
253.329	86.44
253.562	77.44
253.795	73.44
254.028	85.44
254.261	88.44
254.494	80.44
254.727	89.44
254.96	83.44
255.193	103.44
255.426	75.44
255.659	82.44
255.892	93.44
256.124	84.44
256.357	86.44
256.59	85.44
256.823	87.44
257.056	99.44
257.289	82.44
257.521	73.44
257.754	77.44
257.987	85.44
258.22	91.44
258.452	77.44
258.685	77.44
258.918	83.44
259.151	93.44
259.383	77.44
259.616	87.44
259.849	88.44
260.081	88.44
260.314	102.44
260.547	80.44
260.779	78.44
261.012	95.44
261.244	97.44
261.477	101.44
261.71	96.44
261.942	126.44
262.175	107.44
262.407	106.44
262.64	80.44
262.872	85.44
263.105	96.44
263.337	92.44
263.57	74.44
263.802	86.44
264.035	93.44
264.267	83.44
264.499	86.44
264.732	97.44
264.964	86.44
265.197	89.44
265.429	95.44
265.661	80.44
265.894	99.44
266.126	82.44
266.358	82.44
266.591	92.44
266.823	84.44
267.055	90.44
267.287	92.44
267.52	83.44
267.752	88.44
267.984	90.44
268.216	69.44
268.448	80.44
268.681	86.44
268.913	112.44
269.145	92.44
269.377	86.44
269.609	81.44
269.841	76.44
270.073	86.44
270.306	82.44
270.538	91.44
270.77	84.44
271.002	94.44
271.234	89.44
271.466	88.44
271.698	83.44
271.93	96.44
272.162	77.44
272.394	93.44
272.626	74.44
272.858	89.44
273.09	97.44
273.322	98.44
273.553	81.44
273.785	100.44
274.017	80.44
274.249	101.44
274.481	89.44
274.713	89.44
274.945	96.44
275.176	96.44
275.408	87.44
275.64	99.44
275.872	107.44
276.104	97.44
276.335	96.44
276.567	104.44
276.799	126.44
277.031	121.44
277.262	133.44
277.494	115.44
277.726	110.44
277.957	100.44
278.189	95.44
278.421	80.44
278.652	81.44
278.884	100.44
279.115	88.44
279.347	91.44
279.579	105.44
279.81	101.44
280.042	117.44
280.273	160.44
280.505	118.44
280.736	97.44
280.968	94.44
281.199	98.44
281.431	87.44
281.662	101.44
281.894	100.44
282.125	110.44
282.356	129.44
282.588	149.44
282.819	117.44
283.051	102.44
283.282	86.44
283.513	101.44
283.745	99.44
283.976	52.44
284.207	82.44
284.439	97.44
284.67	88.44
284.901	89.44
285.132	96.44
285.364	98.44
285.595	97.44
285.826	84.44
286.057	86.44
286.288	92.44
286.52	99.44
286.751	94.44
286.982	93.44
287.213	79.44
287.444	88.44
287.675	91.44
287.906	110.44
288.138	98.44
288.369	96.44
288.6	96.44
288.831	100.44
289.062	98.44
289.293	86.44
289.524	86.44
289.755	70.44
289.986	84.44
290.217	92.44
290.448	82.44
290.679	74.44
290.91	82.44
291.141	76.44
291.371	70.44
291.602	94.44
291.833	92.44
292.064	88.44
292.295	85.44
292.526	92.44
292.757	92.44
292.987	92.44
293.218	96.44
293.449	97.44
293.68	97.44
293.91	100.44
294.141	85.44
294.372	90.44
294.603	86.44
294.833	91.44
295.064	100.44
295.295	92.44
295.525	91.44
295.756	93.44
295.987	124.44
296.217	157.44
296.448	132.44
296.679	109.44
296.909	97.44
297.14	73.44
297.37	84.44
297.601	94.44
297.831	92.44
298.062	82.44
298.292	88.44
298.523	90.44
298.753	82.44
298.984	103.44
299.214	86.44
299.445	88.44
299.675	83.44
299.905	104.44
300.136	104.44
300.366	85.44
300.597	98.44
300.827	98.44
301.057	97.44
301.288	98.44
301.518	103.44
301.748	99.44
301.979	109.44
302.209	105.44
302.439	108.44
302.669	90.44
302.9	110.44
303.13	107.44
303.36	96.44
303.59	113.44
303.82	123.44
304.051	86.44
304.281	109.44
304.511	83.44
304.741	97.44
304.971	90.44
305.201	103.44
305.431	97.44
305.661	106.44
305.891	100.44
306.121	90.44
306.352	101.44
306.582	106.44
306.812	96.44
307.042	109.44
307.272	119.44
307.502	128.44
307.731	124.44
307.961	113.44
308.191	114.44
308.421	105.44
308.651	101.44
308.881	92.44
309.111	95.44
309.341	104.44
309.571	100.44
309.8	91.44
310.03	99.44
310.26	97.44
310.49	97.44
310.72	101.44
310.949	117.44
311.179	92.44
311.409	116.44
311.639	104.44
311.868	101.44
312.098	94.44
312.328	102.44
312.557	103.44
312.787	106.44
313.017	120.44
313.246	106.44
313.476	90.44
313.706	94.44
313.935	95.44
314.165	109.44
314.394	104.44
314.624	100.44
314.853	104.44
315.083	78.44
315.312	97.44
315.542	90.44
315.771	101.44
316.001	87.44
316.23	84.44
316.46	82.44
316.689	95.44
316.919	107.44
317.148	102.44
317.377	102.44
317.607	97.44
317.836	95.44
318.065	96.44
318.295	90.44
318.524	86.44
318.753	94.44
318.983	94.44
319.212	100.44
319.441	114.44
319.67	105.44
319.9	88.44
320.129	91.44
320.358	91.44
320.587	97.44
320.816	105.44
321.046	91.44
321.275	100.44
321.504	107.44
321.733	89.44
321.962	102.44
322.191	105.44
322.42	96.44
322.649	109.44
322.878	119.44
323.108	124.44
323.337	123.44
323.566	135.44
323.795	140.44
324.024	192.44
324.253	348.44
324.482	676.44
324.71	1382.44
324.939	1770.44
325.168	691.44
325.397	230.44
325.626	158.44
325.855	123.44
326.084	117.44
326.313	124.44
326.542	129.44
326.77	214.44
326.999	362.44
327.228	726.44
327.457	1284.44
327.686	1056.44
327.914	348.44
328.143	306.44
328.372	348.44
328.6	228.44
328.829	158.44
329.058	158.44
329.287	156.44
329.515	135.44
329.744	175.44
329.972	252.44
330.201	465.44
330.43	690.44
330.658	360.44
330.887	202.44
331.115	160.44
331.344	111.44
331.572	107.44
331.801	124.44
332.03	124.44
332.258	108.44
332.486	95.44
332.715	109.44
332.943	107.44
333.172	105.44
333.4	106.44
333.629	142.44
333.857	168.44
334.085	235.44
334.314	443.44
334.542	856.44
334.771	821.44
334.999	267.44
335.227	125.44
335.455	103.44
335.684	112.44
335.912	117.44
336.14	116.44
336.369	101.44
336.597	108.44
336.825	105.44
337.053	99.44
337.281	94.44
337.51	108.44
337.738	104.44
337.966	99.44
338.194	104.44
338.422	96.44
338.65	98.44
338.878	97.44
339.106	93.44
339.334	119.44
339.562	109.44
339.79	99.44
340.018	90.44
340.246	102.44
340.474	86.44
340.702	103.44
340.93	99.44
341.158	90.44
341.386	96.44
341.614	90.44
341.842	101.44
342.07	91.44
342.298	92.44
342.526	86.44
342.754	89.44
342.981	100.44
343.209	99.44
343.437	105.44
343.665	94.44
343.893	99.44
344.12	79.44
344.348	90.44
344.576	87.44
344.804	92.44
345.031	103.44
345.259	99.44
345.487	96.44
345.714	96.44
345.942	92.44
346.17	96.44
346.397	98.44
346.625	81.44
346.853	98.44
347.08	96.44
347.308	95.44
347.535	112.44
347.763	113.44
347.99	103.44
348.218	110.44
348.445	109.44
348.673	125.44
348.9	109.44
349.128	106.44
349.355	96.44
349.583	93.44
349.81	98.44
350.037	90.44
350.265	96.44
350.492	102.44
350.72	113.44
350.947	111.44
351.174	114.44
351.402	113.44
351.629	109.44
351.856	103.44
352.083	126.44
352.311	109.44
352.538	112.44
352.765	118.44
352.992	116.44
353.22	113.44
353.447	103.44
353.674	94.44
353.901	108.44
354.128	96.44
354.355	88.44
354.583	98.44
354.81	89.44
355.037	103.44
355.264	106.44
355.491	95.44
355.718	102.44
355.945	119.44
356.172	110.44
356.399	102.44
356.626	88.44
356.853	96.44
357.08	88.44
357.307	102.44
357.534	86.44
357.761	90.44
357.988	108.44
358.215	108.44
358.441	99.44
358.668	103.44
358.895	102.44
359.122	82.44
359.349	101.44
359.576	100.44
359.802	114.44
360.029	103.44
360.256	128.44
360.483	107.44
360.709	103.44
360.936	84.44
361.163	108.44
361.39	92.44
361.616	104.44
361.843	102.44
362.07	101.44
362.296	96.44
362.523	97.44
362.749	101.44
362.976	108.44
363.203	80.44
363.429	85.44
363.656	100.44
363.882	88.44
364.109	109.44
364.335	101.44
364.562	98.44
364.788	83.44
365.015	93.44
365.241	102.44
365.468	111.44
365.694	111.44
365.92	98.44
366.147	93.44
366.373	97.44
366.599	93.44
366.826	98.44
367.052	106.44
367.278	82.44
367.505	95.44
367.731	98.44
367.957	94.44
368.184	102.44
368.41	122.44
368.636	103.44
368.862	118.44
369.089	109.44
369.315	107.44
369.541	92.44
369.767	102.44
369.993	88.44
370.219	91.44
370.445	100.44
370.672	85.44
370.898	87.44
371.124	95.44
371.35	98.44
371.576	100.44
371.802	95.44
372.028	91.44
372.254	88.44
372.48	104.44
372.706	96.44
372.932	76.44
373.158	89.44
373.384	98.44
373.61	82.44
373.835	99.44
374.061	115.44
374.287	100.44
374.513	89.44
374.739	85.44
374.965	79.44
375.191	105.44
375.416	98.44
375.642	99.44
375.868	94.44
376.094	88.44
376.319	83.44
376.545	84.44
376.771	104.44
376.997	86.44
377.222	106.44
377.448	80.44
377.674	97.44
377.899	101.44
378.125	101.44
378.35	83.44
378.576	90.44
378.802	101.44
379.027	100.44
379.253	90.44
379.478	91.44
379.704	106.44
379.929	102.44
380.155	105.44
380.38	100.44
380.606	113.44
380.831	112.44
381.057	97.44
381.282	113.44
381.507	105.44
381.733	116.44
381.958	104.44
382.184	114.44
382.409	105.44
382.634	92.44
382.86	106.44
383.085	106.44
383.31	111.44
383.535	100.44
383.761	101.44
383.986	115.44
384.211	107.44
384.436	93.44
384.662	120.44
384.887	108.44
385.112	118.44
385.337	111.44
385.562	134.44
385.787	128.44
386.013	124.44
386.238	137.44
386.463	107.44
386.688	113.44
386.913	103.44
387.138	116.44
387.363	117.44
387.588	113.44
387.813	107.44
388.038	118.44
388.263	134.44
388.488	117.44
388.713	111.44
388.938	104.44
389.163	85.44
389.387	99.44
389.612	89.44
389.837	102.44
390.062	90.44
390.287	92.44
390.512	97.44
390.736	85.44
390.961	94.44
391.186	96.44
391.411	106.44
391.636	88.44
391.86	85.44
392.085	104.44
392.31	106.44
392.534	100.44
392.759	103.44
392.984	90.44
393.208	96.44
393.433	112.44
393.658	99.44
393.882	96.44
394.107	85.44
394.331	98.44
394.556	92.44
394.78	88.44
395.005	88.44
395.229	85.44
395.454	96.44
395.678	92.44
395.903	93.44
396.127	92.44
396.352	94.44
396.576	109.44
396.801	97.44
397.025	106.44
397.249	88.44
397.474	87.44
397.698	91.44
397.922	104.44
398.147	82.44
398.371	77.44
398.595	98.44
398.82	80.44
399.044	92.44
399.268	89.44
399.492	103.44
399.717	82.44
399.941	95.44
400.165	82.44
400.389	106.44
400.613	86.44
400.837	93.44
401.062	96.44
401.286	88.44
401.51	94.44
401.734	102.44
401.958	104.44
402.182	131.44
402.406	151.44
402.63	128.44
402.854	99.44
403.078	86.44
403.302	84.44
403.526	105.44
403.75	101.44
403.974	94.44
404.198	66.44
404.422	96.44
404.645	82.44
404.869	92.44
405.093	116.44
405.317	115.44
405.541	124.44
405.765	110.44
405.988	123.44
406.212	173.44
406.436	244.44
406.66	170.44
406.883	106.44
407.107	103.44
407.331	103.44
407.555	105.44
407.778	100.44
408.002	99.44
408.226	97.44
408.449	83.44
408.673	90.44
408.896	104.44
409.12	100.44
409.344	108.44
409.567	84.44
409.791	104.44
410.014	93.44
410.238	87.44
410.461	103.44
410.685	85.44
410.908	110.44
411.132	113.44
411.355	113.44
411.578	93.44
411.802	83.44
412.025	92.44
412.249	95.44
412.472	104.44
412.695	125.44
412.919	120.44
413.142	99.44
413.365	85.44
413.589	88.44
413.812	102.44
414.035	96.44
414.258	73.44
414.482	106.44
414.705	94.44
414.928	88.44
415.151	104.44
415.374	96.44
415.597	87.44
415.821	95.44
416.044	94.44
416.267	93.44
416.49	84.44
416.713	93.44
416.936	92.44
417.159	115.44
417.382	102.44
417.605	96.44
417.828	112.44
418.051	103.44
418.274	92.44
418.497	91.44
418.72	98.44
418.943	100.44
419.166	85.44
419.389	90.44
419.611	98.44
419.834	96.44
420.057	100.44
420.28	104.44
420.503	76.44
420.726	92.44
420.948	78.44
421.171	104.44
421.394	114.44
421.617	97.44
421.839	94.44
422.062	93.44
422.285	101.44
422.507	105.44
422.73	106.44
422.953	94.44
423.175	109.44
423.398	89.44
423.621	99.44
423.843	107.44
424.066	82.44
424.288	90.44
424.511	98.44
424.733	90.44
424.956	109.44
425.178	108.44
425.401	125.44
425.623	92.44
425.846	113.44
426.068	100.44
426.291	93.44
426.513	85.44
426.735	106.44
426.958	96.44
427.18	98.44
427.402	154.44
427.625	194.44
427.847	188.44
428.069	172.44
428.292	108.44
428.514	83.44
428.736	94.44
428.958	86.44
429.181	97.44
429.403	82.44
429.625	99.44
429.847	96.44
430.069	104.44
430.292	78.44
430.514	89.44
430.736	105.44
430.958	93.44
431.18	96.44
431.402	88.44
431.624	93.44
431.846	84.44
432.068	80.44
432.29	96.44
432.512	99.44
432.734	71.44
432.956	90.44
433.178	101.44
433.4	99.44
433.622	97.44
433.844	93.44
434.066	108.44
434.287	108.44
434.509	86.44
434.731	101.44
434.953	99.44
435.175	86.44
435.397	92.44
435.618	94.44
435.84	97.44
436.062	132.44
436.284	117.44
436.505	98.44
436.727	92.44
436.949	96.44
437.17	90.44
437.392	88.44
437.614	105.44
437.835	124.44
438.057	142.44
438.278	135.44
438.5	128.44
438.721	139.44
438.943	99.44
439.165	76.44
439.386	91.44
439.608	95.44
439.829	89.44
440.05	147.44
440.272	153.44
440.493	113.44
440.715	88.44
440.936	99.44
441.158	92.44
441.379	82.44
441.6	93.44
441.822	109.44
442.043	109.44
442.264	108.44
442.486	108.44
442.707	107.44
442.928	104.44
443.149	123.44
443.371	144.44
443.592	121.44
443.813	116.44
444.034	106.44
444.255	110.44
444.476	108.44
444.698	88.44
444.919	100.44
445.14	138.44
445.361	117.44
445.582	120.44
445.803	150.44
446.024	154.44
446.245	153.44
446.466	113.44
446.687	88.44
446.908	92.44
447.129	99.44
447.35	98.44
447.571	102.44
447.792	98.44
448.013	102.44
448.234	121.44
448.455	92.44
448.675	112.44
448.896	132.44
449.117	104.44
449.338	96.44
449.559	131.44
449.779	145.44
450	98.44
450.221	84.44
450.442	94.44
450.662	97.44
450.883	99.44
451.104	122.44
451.324	104.44
451.545	102.44
451.766	101.44
451.986	89.44
452.207	93.44
452.428	100.44
452.648	99.44
452.869	124.44
453.089	128.44
453.31	115.44
453.53	105.44
453.751	99.44
453.971	104.44
454.192	107.44
454.412	96.44
454.633	85.44
454.853	80.44
455.073	95.44
455.294	88.44
455.514	109.44
455.734	96.44
455.955	103.44
456.175	82.44
456.395	100.44
456.616	93.44
456.836	89.44
457.056	90.44
457.276	96.44
457.497	84.44
457.717	89.44
457.937	82.44
458.157	91.44
458.377	77.44
458.598	110.44
458.818	164.44
459.038	183.44
459.258	123.44
459.478	102.44
459.698	84.44
459.918	103.44
460.138	99.44
460.358	96.44
460.578	96.44
460.798	86.44
461.018	97.44
461.238	85.44
461.458	91.44
461.678	81.44
461.898	87.44
462.118	101.44
462.338	68.44
462.558	99.44
462.777	93.44
462.997	88.44
463.217	100.44
463.437	94.44
463.657	97.44
463.876	87.44
464.096	98.44
464.316	108.44
464.536	100.44
464.755	89.44
464.975	101.44
465.195	194.44
465.414	178.44
465.634	100.44
465.854	88.44
466.073	93.44
466.293	105.44
466.512	97.44
466.732	80.44
466.951	83.44
467.171	87.44
467.391	97.44
467.61	122.44
467.829	156.44
468.049	306.44
468.268	407.44
468.488	150.44
468.707	116.44
468.927	94.44
469.146	85.44
469.365	106.44
469.585	109.44
469.804	101.44
470.023	105.44
470.243	118.44
470.462	117.44
470.681	125.44
470.901	117.44
471.12	110.44
471.339	105.44
471.558	104.44
471.777	119.44
471.997	185.44
472.216	548.44
472.435	1138.44
472.654	314.44
472.873	130.44
473.092	90.44
473.311	94.44
473.53	91.44
473.749	101.44
473.968	108.44
474.187	117.44
474.406	96.44
474.625	87.44
474.844	77.44
475.063	99.44
475.282	99.44
475.501	92.44
475.72	104.44
475.939	77.44
476.158	88.44
476.377	97.44
476.596	104.44
476.814	92.44
477.033	97.44
477.252	80.44
477.471	94.44
477.69	92.44
477.908	104.44
478.127	86.44
478.346	104.44
478.564	99.44
478.783	97.44
479.002	98.44
479.22	109.44
479.439	109.44
479.658	116.44
479.876	107.44
480.095	120.44
480.313	121.44
480.532	126.44
480.751	175.44
480.969	504.44
481.188	2031.44
481.406	1214.44
481.624	216.44
481.843	110.44
482.061	92.44
482.28	99.44
482.498	89.44
482.717	98.44
482.935	100.44
483.153	98.44
483.372	98.44
483.59	93.44
483.808	104.44
484.027	102.44
484.245	90.44
484.463	100.44
484.681	109.44
484.9	82.44
485.118	100.44
485.336	103.44
485.554	107.44
485.772	93.44
485.99	107.44
486.209	125.44
486.427	121.44
486.645	110.44
486.863	108.44
487.081	101.44
487.299	101.44
487.517	85.44
487.735	97.44
487.953	107.44
488.171	97.44
488.389	102.44
488.607	82.44
488.825	96.44
489.043	103.44
489.261	93.44
489.479	93.44
489.696	92.44
489.914	97.44
490.132	107.44
490.35	102.44
490.568	102.44
490.786	99.44
491.003	104.44
491.221	110.44
491.439	93.44
491.657	84.44
491.874	87.44
492.092	89.44
492.31	91.44
492.527	92.44
492.745	97.44
492.963	96.44
493.18	104.44
493.398	94.44
493.615	90.44
493.833	80.44
494.05	99.44
494.268	88.44
494.485	88.44
494.703	101.44
494.92	89.44
495.138	98.44
495.355	83.44
495.573	103.44
495.79	104.44
496.008	98.44
496.225	96.44
496.442	100.44
496.66	92.44
496.877	88.44
497.094	89.44
497.312	105.44
497.529	86.44
497.746	89.44
497.963	102.44
498.181	114.44
498.398	115.44
498.615	113.44
498.832	104.44
499.049	82.44
499.267	91.44
499.484	97.44
499.701	89.44
499.918	81.44
500.135	87.44
500.352	83.44
500.569	83.44
500.786	92.44
501.003	98.44
501.22	92.44
501.437	106.44
501.654	113.44
501.871	106.44
502.088	94.44
502.305	89.44
502.522	87.44
502.739	95.44
502.956	97.44
503.172	92.44
503.389	104.44
503.606	98.44
503.823	98.44
504.04	97.44
504.256	99.44
504.473	98.44
504.69	94.44
504.907	86.44
505.123	84.44
505.34	89.44
505.557	87.44
505.773	107.44
505.99	91.44
506.207	81.44
506.423	94.44
506.64	120.44
506.856	114.44
507.073	92.44
507.289	97.44
507.506	106.44
507.722	108.44
507.939	88.44
508.155	105.44
508.372	89.44
508.588	108.44
508.805	98.44
509.021	89.44
509.238	111.44
509.454	105.44
509.67	119.44
509.887	116.44
510.103	138.44
510.319	216.44
510.536	775.44
510.752	2528.44
510.968	694.44
511.184	166.44
511.401	121.44
511.617	107.44
511.833	105.44
512.049	107.44
512.265	101.44
512.481	87.44
