Data from Circ_1987_H10_HRD10591_00053.txt Node
Date: Wed Jan 03 12:10:43 EST 2024
User: Yrep
Spectrometer: HR+D1059
Trigger mode: 1
Integration Time (sec): 1.000000E-1
Scans to average: 1
Electric dark correction enabled: true
Nonlinearity correction enabled: false
Boxcar width: 0
XAxis mode: Wavelengths
Number of Pixels in Spectrum: 2048
>>>>>Begin Spectral Data<<<<<
223.165	-1.62
223.4	-1.62
223.635	-1.62
223.869	-9.62
224.104	-15.62
224.338	-24.62
224.573	-4.62
224.808	-14.62
225.042	-15.62
225.277	0.38
225.511	-9.62
225.746	11.38
225.98	-2.62
226.215	4.38
226.449	18.38
226.683	16.38
226.918	13.38
227.152	34.38
227.387	37.38
227.621	52.38
227.856	39.38
228.09	47.38
228.324	56.38
228.559	43.38
228.793	54.38
229.027	62.38
229.262	60.38
229.496	68.38
229.73	88.38
229.964	99.38
230.199	93.38
230.433	80.38
230.667	79.38
230.901	85.38
231.136	75.38
231.37	76.38
231.604	78.38
231.838	80.38
232.072	67.38
232.306	79.38
232.541	81.38
232.775	81.38
233.009	67.38
233.243	83.38
233.477	83.38
233.711	87.38
233.945	98.38
234.179	91.38
234.413	82.38
234.647	95.38
234.881	84.38
235.115	78.38
235.349	85.38
235.583	80.38
235.817	84.38
236.051	82.38
236.285	75.38
236.519	87.38
236.753	68.38
236.987	96.38
237.221	103.38
237.455	87.38
237.689	80.38
237.922	80.38
238.156	66.38
238.39	77.38
238.624	85.38
238.858	89.38
239.091	89.38
239.325	82.38
239.559	66.38
239.793	71.38
240.027	79.38
240.26	67.38
240.494	86.38
240.728	81.38
240.961	89.38
241.195	92.38
241.429	80.38
241.662	72.38
241.896	71.38
242.13	89.38
242.363	77.38
242.597	86.38
242.83	87.38
243.064	78.38
243.298	85.38
243.531	83.38
243.765	79.38
243.998	72.38
244.232	83.38
244.465	91.38
244.699	71.38
244.932	82.38
245.166	80.38
245.399	79.38
245.633	89.38
245.866	75.38
246.099	99.38
246.333	83.38
246.566	83.38
246.8	75.38
247.033	82.38
247.266	81.38
247.5	76.38
247.733	77.38
247.966	84.38
248.2	83.38
248.433	80.38
248.666	65.38
248.899	88.38
249.133	93.38
249.366	85.38
249.599	88.38
249.832	71.38
250.066	83.38
250.299	85.38
250.532	87.38
250.765	91.38
250.998	84.38
251.231	78.38
251.465	83.38
251.698	87.38
251.931	87.38
252.164	69.38
252.397	78.38
252.63	95.38
252.863	102.38
253.096	86.38
253.329	82.38
253.562	82.38
253.795	87.38
254.028	90.38
254.261	78.38
254.494	84.38
254.727	83.38
254.96	80.38
255.193	81.38
255.426	76.38
255.659	88.38
255.892	97.38
256.124	101.38
256.357	82.38
256.59	82.38
256.823	90.38
257.056	89.38
257.289	83.38
257.521	84.38
257.754	97.38
257.987	71.38
258.22	88.38
258.452	86.38
258.685	81.38
258.918	85.38
259.151	78.38
259.383	86.38
259.616	83.38
259.849	85.38
260.081	76.38
260.314	96.38
260.547	79.38
260.779	92.38
261.012	92.38
261.244	101.38
261.477	97.38
261.71	122.38
261.942	132.38
262.175	128.38
262.407	99.38
262.64	81.38
262.872	91.38
263.105	94.38
263.337	93.38
263.57	72.38
263.802	81.38
264.035	79.38
264.267	83.38
264.499	97.38
264.732	93.38
264.964	91.38
265.197	91.38
265.429	95.38
265.661	84.38
265.894	81.38
266.126	76.38
266.358	82.38
266.591	91.38
266.823	81.38
267.055	79.38
267.287	98.38
267.52	83.38
267.752	82.38
267.984	80.38
268.216	70.38
268.448	92.38
268.681	86.38
268.913	97.38
269.145	80.38
269.377	83.38
269.609	88.38
269.841	86.38
270.073	80.38
270.306	94.38
270.538	86.38
270.77	88.38
271.002	103.38
271.234	82.38
271.466	99.38
271.698	79.38
271.93	78.38
272.162	80.38
272.394	87.38
272.626	71.38
272.858	86.38
273.09	86.38
273.322	77.38
273.553	85.38
273.785	105.38
274.017	87.38
274.249	95.38
274.481	95.38
274.713	94.38
274.945	80.38
275.176	81.38
275.408	97.38
275.64	117.38
275.872	124.38
276.104	100.38
276.335	120.38
276.567	116.38
276.799	143.38
277.031	173.38
277.262	165.38
277.494	146.38
277.726	104.38
277.957	84.38
278.189	81.38
278.421	93.38
278.652	87.38
278.884	91.38
279.115	83.38
279.347	103.38
279.579	99.38
279.81	118.38
280.042	163.38
280.273	246.38
280.505	171.38
280.736	96.38
280.968	83.38
281.199	101.38
281.431	88.38
281.662	96.38
281.894	106.38
282.125	126.38
282.356	140.38
282.588	157.38
282.819	103.38
283.051	87.38
283.282	93.38
283.513	89.38
283.745	92.38
283.976	92.38
284.207	105.38
284.439	99.38
284.67	88.38
284.901	86.38
285.132	78.38
285.364	79.38
285.595	84.38
285.826	94.38
286.057	89.38
286.288	69.38
286.52	87.38
286.751	96.38
286.982	86.38
287.213	85.38
287.444	96.38
287.675	89.38
287.906	86.38
288.138	96.38
288.369	117.38
288.6	103.38
288.831	79.38
289.062	96.38
289.293	101.38
289.524	88.38
289.755	82.38
289.986	91.38
290.217	99.38
290.448	90.38
290.679	103.38
290.91	91.38
291.141	91.38
291.371	89.38
291.602	89.38
291.833	104.38
292.064	88.38
292.295	92.38
292.526	72.38
292.757	83.38
292.987	85.38
293.218	98.38
293.449	88.38
293.68	97.38
293.91	90.38
294.141	102.38
294.372	94.38
294.603	89.38
294.833	99.38
295.064	85.38
295.295	90.38
295.525	83.38
295.756	108.38
295.987	127.38
296.217	159.38
296.448	145.38
296.679	91.38
296.909	92.38
297.14	92.38
297.37	87.38
297.601	90.38
297.831	83.38
298.062	87.38
298.292	97.38
298.523	113.38
298.753	73.38
298.984	87.38
299.214	91.38
299.445	96.38
299.675	101.38
299.905	103.38
300.136	96.38
300.366	100.38
300.597	93.38
300.827	101.38
301.057	113.38
301.288	106.38
301.518	99.38
301.748	93.38
301.979	105.38
302.209	103.38
302.439	101.38
302.669	92.38
302.9	82.38
303.13	76.38
303.36	102.38
303.59	120.38
303.82	162.38
304.051	111.38
304.281	102.38
304.511	104.38
304.741	88.38
304.971	87.38
305.201	87.38
305.431	88.38
305.661	91.38
305.891	103.38
306.121	89.38
306.352	101.38
306.582	126.38
306.812	119.38
307.042	131.38
307.272	142.38
307.502	172.38
307.731	170.38
307.961	123.38
308.191	109.38
308.421	92.38
308.651	96.38
308.881	98.38
309.111	89.38
309.341	99.38
309.571	115.38
309.8	108.38
310.03	93.38
310.26	116.38
310.49	106.38
310.72	116.38
310.949	116.38
311.179	111.38
311.409	101.38
311.639	94.38
311.868	102.38
312.098	91.38
312.328	111.38
312.557	107.38
312.787	107.38
313.017	112.38
313.246	98.38
313.476	100.38
313.706	109.38
313.935	86.38
314.165	110.38
314.394	107.38
314.624	109.38
314.853	88.38
315.083	96.38
315.312	109.38
315.542	84.38
315.771	97.38
316.001	98.38
316.23	86.38
316.46	92.38
316.689	98.38
316.919	100.38
317.148	110.38
317.377	102.38
317.607	103.38
317.836	100.38
318.065	105.38
318.295	92.38
318.524	72.38
318.753	93.38
318.983	103.38
319.212	126.38
319.441	118.38
319.67	127.38
319.9	87.38
320.129	102.38
320.358	83.38
320.587	102.38
320.816	126.38
321.046	115.38
321.275	115.38
321.504	105.38
321.733	112.38
321.962	100.38
322.191	112.38
322.42	102.38
322.649	113.38
322.878	123.38
323.108	134.38
323.337	129.38
323.566	146.38
323.795	168.38
324.024	236.38
324.253	419.38
324.482	845.38
324.71	1659.38
324.939	2203.38
325.168	856.38
325.397	253.38
325.626	164.38
325.855	129.38
326.084	134.38
326.313	145.38
326.542	168.38
326.77	237.38
326.999	426.38
327.228	843.38
327.457	1556.38
327.686	1299.38
327.914	477.38
328.143	487.38
328.372	617.38
328.6	345.38
328.829	187.38
329.058	195.38
329.287	201.38
329.515	160.38
329.744	239.38
329.972	428.38
330.201	861.38
330.43	1359.38
330.658	629.38
330.887	297.38
331.115	173.38
331.344	127.38
331.572	123.38
331.801	122.38
332.03	130.38
332.258	101.38
332.486	108.38
332.715	111.38
332.943	113.38
333.172	120.38
333.4	140.38
333.629	162.38
333.857	209.38
334.085	382.38
334.314	815.38
334.542	1599.38
334.771	1584.38
334.999	440.38
335.227	197.38
335.455	120.38
335.684	121.38
335.912	123.38
336.14	105.38
336.369	119.38
336.597	127.38
336.825	108.38
337.053	88.38
337.281	91.38
337.51	99.38
337.738	101.38
337.966	93.38
338.194	115.38
338.422	90.38
338.65	98.38
338.878	97.38
339.106	87.38
339.334	95.38
339.562	88.38
339.79	97.38
340.018	105.38
340.246	106.38
340.474	105.38
340.702	104.38
340.93	103.38
341.158	115.38
341.386	104.38
341.614	108.38
341.842	103.38
342.07	89.38
342.298	101.38
342.526	109.38
342.754	86.38
342.981	94.38
343.209	87.38
343.437	100.38
343.665	91.38
343.893	81.38
344.12	91.38
344.348	92.38
344.576	101.38
344.804	103.38
345.031	101.38
345.259	110.38
345.487	100.38
345.714	96.38
345.942	91.38
346.17	96.38
346.397	89.38
346.625	109.38
346.853	95.38
347.08	100.38
347.308	97.38
347.535	91.38
347.763	111.38
347.99	113.38
348.218	104.38
348.445	126.38
348.673	101.38
348.9	102.38
349.128	102.38
349.355	86.38
349.583	100.38
349.81	87.38
350.037	99.38
350.265	104.38
350.492	95.38
350.72	99.38
350.947	104.38
351.174	109.38
351.402	140.38
351.629	108.38
351.856	122.38
352.083	132.38
352.311	125.38
352.538	129.38
352.765	132.38
352.992	131.38
353.22	120.38
353.447	110.38
353.674	91.38
353.901	91.38
354.128	102.38
354.355	89.38
354.583	111.38
354.81	99.38
355.037	83.38
355.264	104.38
355.491	98.38
355.718	90.38
355.945	89.38
356.172	79.38
356.399	82.38
356.626	97.38
356.853	95.38
357.08	75.38
357.307	94.38
357.534	83.38
357.761	84.38
357.988	99.38
358.215	88.38
358.441	80.38
358.668	96.38
358.895	83.38
359.122	86.38
359.349	93.38
359.576	108.38
359.802	119.38
360.029	136.38
360.256	150.38
360.483	119.38
360.709	92.38
360.936	96.38
361.163	83.38
361.39	105.38
361.616	112.38
361.843	95.38
362.07	107.38
362.296	113.38
362.523	102.38
362.749	93.38
362.976	109.38
363.203	106.38
363.429	99.38
363.656	96.38
363.882	107.38
364.109	116.38
364.335	96.38
364.562	84.38
364.788	99.38
365.015	94.38
365.241	111.38
365.468	116.38
365.694	124.38
365.92	108.38
366.147	87.38
366.373	91.38
366.599	91.38
366.826	96.38
367.052	96.38
367.278	84.38
367.505	98.38
367.731	111.38
367.957	102.38
368.184	95.38
368.41	101.38
368.636	127.38
368.862	128.38
369.089	126.38
369.315	110.38
369.541	102.38
369.767	108.38
369.993	104.38
370.219	106.38
370.445	92.38
370.672	92.38
370.898	91.38
371.124	75.38
371.35	89.38
371.576	95.38
371.802	83.38
372.028	93.38
372.254	81.38
372.48	91.38
372.706	84.38
372.932	82.38
373.158	94.38
373.384	95.38
373.61	91.38
373.835	89.38
374.061	82.38
374.287	96.38
374.513	99.38
374.739	94.38
374.965	79.38
375.191	82.38
375.416	89.38
375.642	119.38
375.868	86.38
376.094	83.38
376.319	87.38
376.545	99.38
376.771	90.38
376.997	83.38
377.222	83.38
377.448	94.38
377.674	87.38
377.899	82.38
378.125	97.38
378.35	86.38
378.576	86.38
378.802	81.38
379.027	78.38
379.253	109.38
379.478	93.38
379.704	85.38
379.929	83.38
380.155	86.38
380.38	88.38
380.606	88.38
380.831	72.38
381.057	103.38
381.282	112.38
381.507	100.38
381.733	89.38
381.958	91.38
382.184	105.38
382.409	113.38
382.634	99.38
382.86	109.38
383.085	101.38
383.31	103.38
383.535	103.38
383.761	96.38
383.986	94.38
384.211	107.38
384.436	103.38
384.662	94.38
384.887	101.38
385.112	107.38
385.337	99.38
385.562	104.38
385.787	104.38
386.013	113.38
386.238	111.38
386.463	115.38
386.688	108.38
386.913	98.38
387.138	117.38
387.363	104.38
387.588	112.38
387.813	108.38
388.038	104.38
388.263	103.38
388.488	99.38
388.713	84.38
388.938	94.38
389.163	88.38
389.387	95.38
389.612	93.38
389.837	93.38
390.062	86.38
390.287	104.38
390.512	93.38
390.736	79.38
390.961	99.38
391.186	87.38
391.411	103.38
391.636	88.38
391.86	79.38
392.085	79.38
392.31	92.38
392.534	85.38
392.759	77.38
392.984	78.38
393.208	87.38
393.433	92.38
393.658	92.38
393.882	88.38
394.107	93.38
394.331	89.38
394.556	105.38
394.78	88.38
395.005	92.38
395.229	85.38
395.454	95.38
395.678	97.38
395.903	86.38
396.127	98.38
396.352	106.38
396.576	95.38
396.801	83.38
397.025	85.38
397.249	85.38
397.474	92.38
397.698	98.38
397.922	93.38
398.147	90.38
398.371	105.38
398.595	87.38
398.82	84.38
399.044	91.38
399.268	85.38
399.492	73.38
399.717	101.38
399.941	98.38
400.165	97.38
400.389	103.38
400.613	103.38
400.837	78.38
401.062	94.38
401.286	80.38
401.51	84.38
401.734	108.38
401.958	102.38
402.182	140.38
402.406	190.38
402.63	141.38
402.854	104.38
403.078	105.38
403.302	85.38
403.526	96.38
403.75	83.38
403.974	103.38
404.198	97.38
404.422	85.38
404.645	95.38
404.869	95.38
405.093	121.38
405.317	145.38
405.541	133.38
405.765	119.38
405.988	140.38
406.212	215.38
406.436	311.38
406.66	211.38
406.883	129.38
407.107	101.38
407.331	94.38
407.555	103.38
407.778	89.38
408.002	96.38
408.226	87.38
408.449	75.38
408.673	93.38
408.896	100.38
409.12	79.38
409.344	95.38
409.567	94.38
409.791	80.38
410.014	97.38
410.238	85.38
410.461	88.38
410.685	108.38
410.908	100.38
411.132	98.38
411.355	106.38
411.578	94.38
411.802	90.38
412.025	96.38
412.249	103.38
412.472	109.38
412.695	136.38
412.919	106.38
413.142	97.38
413.365	91.38
413.589	98.38
413.812	81.38
414.035	96.38
414.258	93.38
414.482	96.38
414.705	91.38
414.928	91.38
415.151	88.38
415.374	94.38
415.597	93.38
415.821	79.38
416.044	94.38
416.267	85.38
416.49	109.38
416.713	100.38
416.936	95.38
417.159	93.38
417.382	94.38
417.605	102.38
417.828	118.38
418.051	88.38
418.274	84.38
418.497	88.38
418.72	80.38
418.943	91.38
419.166	79.38
419.389	95.38
419.611	79.38
419.834	89.38
420.057	81.38
420.28	91.38
420.503	84.38
420.726	84.38
420.948	85.38
421.171	93.38
421.394	100.38
421.617	95.38
421.839	92.38
422.062	96.38
422.285	85.38
422.507	93.38
422.73	110.38
422.953	88.38
423.175	103.38
423.398	80.38
423.621	86.38
423.843	87.38
424.066	78.38
424.288	91.38
424.511	86.38
424.733	109.38
424.956	116.38
425.178	104.38
425.401	101.38
425.623	95.38
425.846	86.38
426.068	93.38
426.291	105.38
426.513	81.38
426.735	106.38
426.958	81.38
427.18	121.38
427.402	175.38
427.625	245.38
427.847	209.38
428.069	199.38
428.292	115.38
428.514	96.38
428.736	86.38
428.958	72.38
429.181	98.38
429.403	88.38
429.625	72.38
429.847	86.38
430.069	110.38
430.292	100.38
430.514	93.38
430.736	84.38
430.958	85.38
431.18	93.38
431.402	92.38
431.624	80.38
431.846	80.38
432.068	87.38
432.29	99.38
432.512	77.38
432.734	99.38
432.956	95.38
433.178	87.38
433.4	95.38
433.622	96.38
433.844	89.38
434.066	77.38
434.287	73.38
434.509	83.38
434.731	95.38
434.953	85.38
435.175	101.38
435.397	89.38
435.618	96.38
435.84	98.38
436.062	126.38
436.284	120.38
436.505	102.38
436.727	107.38
436.949	91.38
437.17	101.38
437.392	101.38
437.614	100.38
437.835	144.38
438.057	140.38
438.278	132.38
438.5	117.38
438.721	129.38
438.943	109.38
439.165	83.38
439.386	95.38
439.608	99.38
439.829	101.38
440.05	142.38
440.272	163.38
440.493	113.38
440.715	89.38
440.936	106.38
441.158	91.38
441.379	93.38
441.6	103.38
441.822	98.38
442.043	89.38
442.264	125.38
442.486	106.38
442.707	103.38
442.928	102.38
443.149	180.38
443.371	177.38
443.592	134.38
443.813	143.38
444.034	117.38
444.255	88.38
444.476	88.38
444.698	78.38
444.919	84.38
445.14	137.38
445.361	119.38
445.582	122.38
445.803	161.38
446.024	173.38
446.245	149.38
446.466	108.38
446.687	94.38
446.908	83.38
447.129	95.38
447.35	91.38
447.571	115.38
447.792	92.38
448.013	111.38
448.234	118.38
448.455	98.38
448.675	120.38
448.896	130.38
449.117	101.38
449.338	110.38
449.559	129.38
449.779	133.38
450	99.38
450.221	77.38
450.442	102.38
450.662	100.38
450.883	128.38
451.104	123.38
451.324	96.38
451.545	79.38
451.766	87.38
451.986	93.38
452.207	84.38
452.428	86.38
452.648	109.38
452.869	116.38
453.089	140.38
453.31	150.38
453.53	105.38
453.751	91.38
453.971	113.38
454.192	135.38
454.412	103.38
454.633	67.38
454.853	81.38
455.073	83.38
455.294	106.38
455.514	117.38
455.734	97.38
455.955	90.38
456.175	83.38
456.395	79.38
456.616	97.38
456.836	78.38
457.056	86.38
457.276	91.38
457.497	78.38
457.717	99.38
457.937	84.38
458.157	80.38
458.377	100.38
458.598	127.38
458.818	211.38
459.038	223.38
459.258	139.38
459.478	97.38
459.698	81.38
459.918	90.38
460.138	90.38
460.358	92.38
460.578	89.38
460.798	106.38
461.018	102.38
461.238	93.38
461.458	96.38
461.678	87.38
461.898	86.38
462.118	83.38
462.338	81.38
462.558	82.38
462.777	65.38
462.997	94.38
463.217	109.38
463.437	99.38
463.657	93.38
463.876	83.38
464.096	89.38
464.316	104.38
464.536	106.38
464.755	105.38
464.975	128.38
465.195	224.38
465.414	234.38
465.634	103.38
465.854	94.38
466.073	95.38
466.293	105.38
466.512	95.38
466.732	85.38
466.951	98.38
467.171	114.38
467.391	120.38
467.61	137.38
467.829	203.38
468.049	526.38
468.268	804.38
468.488	211.38
468.707	111.38
468.927	102.38
469.146	80.38
469.365	92.38
469.585	99.38
469.804	118.38
470.023	103.38
470.243	112.38
470.462	118.38
470.681	154.38
470.901	107.38
471.12	97.38
471.339	104.38
471.558	106.38
471.777	131.38
471.997	268.38
472.216	995.38
472.435	2305.38
472.654	521.38
472.873	156.38
473.092	102.38
473.311	83.38
473.53	91.38
473.749	104.38
473.968	109.38
474.187	110.38
474.406	112.38
474.625	83.38
474.844	83.38
475.063	89.38
475.282	90.38
475.501	95.38
475.72	99.38
475.939	93.38
476.158	84.38
476.377	104.38
476.596	89.38
476.814	91.38
477.033	101.38
477.252	101.38
477.471	81.38
477.69	100.38
477.908	95.38
478.127	103.38
478.346	105.38
478.564	93.38
478.783	113.38
479.002	107.38
479.22	93.38
479.439	110.38
479.658	130.38
479.876	124.38
480.095	112.38
480.313	139.38
480.532	163.38
480.751	261.38
480.969	894.38
481.188	3839.38
481.406	2262.38
481.624	347.38
481.843	136.38
482.061	105.38
482.28	96.38
482.498	91.38
482.717	98.38
482.935	89.38
483.153	94.38
483.372	97.38
483.59	82.38
483.808	83.38
484.027	90.38
484.245	91.38
484.463	92.38
484.681	103.38
484.9	92.38
485.118	103.38
485.336	111.38
485.554	99.38
485.772	99.38
485.99	88.38
486.209	88.38
486.427	101.38
486.645	124.38
486.863	148.38
487.081	102.38
487.299	98.38
487.517	99.38
487.735	87.38
487.953	88.38
488.171	108.38
488.389	89.38
488.607	101.38
488.825	90.38
489.043	85.38
489.261	98.38
489.479	83.38
489.696	108.38
489.914	97.38
490.132	99.38
490.35	111.38
490.568	84.38
490.786	81.38
491.003	93.38
491.221	106.38
491.439	103.38
491.657	82.38
491.874	94.38
492.092	78.38
492.31	80.38
492.527	113.38
492.745	92.38
492.963	100.38
493.18	99.38
493.398	88.38
493.615	92.38
493.833	95.38
494.05	88.38
494.268	91.38
494.485	80.38
494.703	91.38
494.92	88.38
495.138	95.38
495.355	88.38
495.573	96.38
495.79	91.38
496.008	81.38
496.225	88.38
496.442	83.38
496.66	95.38
496.877	82.38
497.094	102.38
497.312	88.38
497.529	91.38
497.746	79.38
497.963	78.38
498.181	95.38
498.398	97.38
498.615	106.38
498.832	101.38
499.049	98.38
499.267	88.38
499.484	97.38
499.701	107.38
499.918	85.38
500.135	96.38
500.352	104.38
500.569	95.38
500.786	103.38
501.003	82.38
501.22	79.38
501.437	82.38
501.654	107.38
501.871	117.38
502.088	105.38
502.305	100.38
502.522	86.38
502.739	95.38
502.956	101.38
503.172	91.38
503.389	103.38
503.606	118.38
503.823	107.38
504.04	88.38
504.256	84.38
504.473	80.38
504.69	90.38
504.907	100.38
505.123	93.38
505.34	98.38
505.557	92.38
505.773	93.38
505.99	92.38
506.207	98.38
506.423	98.38
506.64	92.38
506.856	83.38
507.073	96.38
507.289	85.38
507.506	102.38
507.722	129.38
507.939	129.38
508.155	103.38
508.372	98.38
508.588	102.38
508.805	102.38
509.021	104.38
509.238	108.38
509.454	101.38
509.67	121.38
509.887	128.38
510.103	131.38
510.319	251.38
510.536	965.38
510.752	3357.38
510.968	894.38
511.184	181.38
511.401	124.38
511.617	113.38
511.833	107.38
512.049	95.38
512.265	91.38
512.481	101.38
512.698	88.38
512.914	80.38
