Data from Circ_1987_H10_HRD10591_00046.txt Node
Date: Wed Jan 03 12:10:42 EST 2024
User: Yrep
Spectrometer: HR+D1059
Trigger mode: 1
Integration Time (sec): 1.000000E-1
Scans to average: 1
Electric dark correction enabled: true
Nonlinearity correction enabled: false
Boxcar width: 0
XAxis mode: Wavelengths
Number of Pixels in Spectrum: 2048
>>>>>Begin Spectral Data<<<<<
223.165	-12.62
223.4	-12.62
223.635	-12.62
223.869	-27.62
224.104	-18.62
224.338	-5.62
224.573	-13.62
224.808	-12.62
225.042	-0.62
225.277	-3.62
225.511	-14.62
225.746	6.38
225.98	3.38
226.215	17.38
226.449	15.38
226.683	12.38
226.918	21.38
227.152	33.38
227.387	38.38
227.621	39.38
227.856	32.38
228.09	38.38
228.324	42.38
228.559	59.38
228.793	62.38
229.027	59.38
229.262	63.38
229.496	73.38
229.73	104.38
229.964	103.38
230.199	88.38
230.433	83.38
230.667	84.38
230.901	82.38
231.136	75.38
231.37	84.38
231.604	97.38
231.838	83.38
232.072	86.38
232.306	83.38
232.541	90.38
232.775	77.38
233.009	74.38
233.243	91.38
233.477	86.38
233.711	77.38
233.945	85.38
234.179	64.38
234.413	97.38
234.647	83.38
234.881	89.38
235.115	77.38
235.349	90.38
235.583	93.38
235.817	85.38
236.051	88.38
236.285	79.38
236.519	82.38
236.753	76.38
236.987	74.38
237.221	93.38
237.455	98.38
237.689	83.38
237.922	82.38
238.156	81.38
238.39	77.38
238.624	80.38
238.858	87.38
239.091	75.38
239.325	84.38
239.559	75.38
239.793	72.38
240.027	72.38
240.26	79.38
240.494	89.38
240.728	73.38
240.961	73.38
241.195	83.38
241.429	83.38
241.662	77.38
241.896	81.38
242.13	66.38
242.363	72.38
242.597	91.38
242.83	78.38
243.064	78.38
243.298	66.38
243.531	90.38
243.765	87.38
243.998	75.38
244.232	94.38
244.465	101.38
244.699	81.38
244.932	82.38
245.166	74.38
245.399	85.38
245.633	93.38
245.866	83.38
246.099	79.38
246.333	86.38
246.566	82.38
246.8	95.38
247.033	75.38
247.266	86.38
247.5	73.38
247.733	83.38
247.966	88.38
248.2	93.38
248.433	91.38
248.666	87.38
248.899	86.38
249.133	93.38
249.366	117.38
249.599	85.38
249.832	96.38
250.066	94.38
250.299	92.38
250.532	90.38
250.765	74.38
250.998	76.38
251.231	79.38
251.465	70.38
251.698	87.38
251.931	89.38
252.164	111.38
252.397	74.38
252.63	86.38
252.863	91.38
253.096	89.38
253.329	81.38
253.562	73.38
253.795	92.38
254.028	102.38
254.261	93.38
254.494	79.38
254.727	94.38
254.96	79.38
255.193	86.38
255.426	93.38
255.659	87.38
255.892	91.38
256.124	96.38
256.357	103.38
256.59	84.38
256.823	79.38
257.056	81.38
257.289	95.38
257.521	88.38
257.754	74.38
257.987	74.38
258.22	99.38
258.452	93.38
258.685	88.38
258.918	99.38
259.151	91.38
259.383	97.38
259.616	90.38
259.849	87.38
260.081	92.38
260.314	88.38
260.547	85.38
260.779	88.38
261.012	108.38
261.244	106.38
261.477	115.38
261.71	109.38
261.942	152.38
262.175	161.38
262.407	111.38
262.64	90.38
262.872	89.38
263.105	85.38
263.337	87.38
263.57	94.38
263.802	83.38
264.035	86.38
264.267	76.38
264.499	87.38
264.732	93.38
264.964	81.38
265.197	98.38
265.429	89.38
265.661	87.38
265.894	91.38
266.126	104.38
266.358	99.38
266.591	81.38
266.823	99.38
267.055	95.38
267.287	88.38
267.52	100.38
267.752	86.38
267.984	91.38
268.216	96.38
268.448	91.38
268.681	95.38
268.913	101.38
269.145	80.38
269.377	79.38
269.609	79.38
269.841	82.38
270.073	98.38
270.306	88.38
270.538	84.38
270.77	100.38
271.002	92.38
271.234	108.38
271.466	107.38
271.698	79.38
271.93	84.38
272.162	81.38
272.394	103.38
272.626	89.38
272.858	100.38
273.09	106.38
273.322	86.38
273.553	77.38
273.785	97.38
274.017	89.38
274.249	90.38
274.481	79.38
274.713	89.38
274.945	89.38
275.176	99.38
275.408	92.38
275.64	114.38
275.872	119.38
276.104	95.38
276.335	95.38
276.567	121.38
276.799	177.38
277.031	185.38
277.262	201.38
277.494	133.38
277.726	102.38
277.957	109.38
278.189	68.38
278.421	99.38
278.652	79.38
278.884	88.38
279.115	95.38
279.347	99.38
279.579	93.38
279.81	123.38
280.042	187.38
280.273	230.38
280.505	176.38
280.736	105.38
280.968	100.38
281.199	99.38
281.431	88.38
281.662	75.38
281.894	99.38
282.125	116.38
282.356	148.38
282.588	185.38
282.819	135.38
283.051	96.38
283.282	87.38
283.513	90.38
283.745	96.38
283.976	89.38
284.207	96.38
284.439	97.38
284.67	99.38
284.901	80.38
285.132	90.38
285.364	95.38
285.595	98.38
285.826	84.38
286.057	97.38
286.288	92.38
286.52	87.38
286.751	94.38
286.982	98.38
287.213	92.38
287.444	95.38
287.675	87.38
287.906	97.38
288.138	103.38
288.369	105.38
288.6	105.38
288.831	93.38
289.062	99.38
289.293	101.38
289.524	88.38
289.755	94.38
289.986	77.38
290.217	93.38
290.448	91.38
290.679	82.38
290.91	106.38
291.141	87.38
291.371	105.38
291.602	85.38
291.833	94.38
292.064	101.38
292.295	92.38
292.526	77.38
292.757	103.38
292.987	96.38
293.218	79.38
293.449	91.38
293.68	85.38
293.91	92.38
294.141	94.38
294.372	89.38
294.603	92.38
294.833	86.38
295.064	93.38
295.295	98.38
295.525	85.38
295.756	111.38
295.987	149.38
296.217	196.38
296.448	177.38
296.679	102.38
296.909	99.38
297.14	97.38
297.37	93.38
297.601	92.38
297.831	108.38
298.062	102.38
298.292	81.38
298.523	81.38
298.753	81.38
298.984	105.38
299.214	103.38
299.445	94.38
299.675	113.38
299.905	93.38
300.136	96.38
300.366	98.38
300.597	80.38
300.827	96.38
301.057	111.38
301.288	132.38
301.518	117.38
301.748	104.38
301.979	107.38
302.209	101.38
302.439	85.38
302.669	94.38
302.9	91.38
303.13	101.38
303.36	119.38
303.59	139.38
303.82	143.38
304.051	113.38
304.281	88.38
304.511	99.38
304.741	86.38
304.971	92.38
305.201	102.38
305.431	115.38
305.661	87.38
305.891	100.38
306.121	105.38
306.352	127.38
306.582	119.38
306.812	108.38
307.042	122.38
307.272	167.38
307.502	185.38
307.731	174.38
307.961	136.38
308.191	92.38
308.421	89.38
308.651	94.38
308.881	91.38
309.111	100.38
309.341	116.38
309.571	124.38
309.8	101.38
310.03	115.38
310.26	104.38
310.49	102.38
310.72	105.38
310.949	134.38
311.179	110.38
311.409	105.38
311.639	102.38
311.868	110.38
312.098	95.38
312.328	107.38
312.557	118.38
312.787	128.38
313.017	120.38
313.246	82.38
313.476	87.38
313.706	90.38
313.935	98.38
314.165	106.38
314.394	127.38
314.624	111.38
314.853	107.38
315.083	97.38
315.312	88.38
315.542	100.38
315.771	114.38
316.001	123.38
316.23	82.38
316.46	96.38
316.689	104.38
316.919	107.38
317.148	103.38
317.377	107.38
317.607	106.38
317.836	100.38
318.065	89.38
318.295	103.38
318.524	96.38
318.753	91.38
318.983	92.38
319.212	106.38
319.441	132.38
319.67	137.38
319.9	109.38
320.129	101.38
320.358	100.38
320.587	92.38
320.816	100.38
321.046	127.38
321.275	114.38
321.504	107.38
321.733	108.38
321.962	101.38
322.191	108.38
322.42	125.38
322.649	134.38
322.878	124.38
323.108	129.38
323.337	132.38
323.566	162.38
323.795	164.38
324.024	243.38
324.253	440.38
324.482	951.38
324.71	1923.38
324.939	2525.38
325.168	972.38
325.397	285.38
325.626	179.38
325.855	145.38
326.084	129.38
326.313	144.38
326.542	172.38
326.77	248.38
326.999	459.38
327.228	947.38
327.457	1713.38
327.686	1417.38
327.914	538.38
328.143	519.38
328.372	659.38
328.6	377.38
328.829	192.38
329.058	213.38
329.287	223.38
329.515	175.38
329.744	235.38
329.972	437.38
330.201	909.38
330.43	1388.38
330.658	645.38
330.887	337.38
331.115	211.38
331.344	140.38
331.572	132.38
331.801	153.38
332.03	124.38
332.258	118.38
332.486	119.38
332.715	115.38
332.943	113.38
333.172	111.38
333.4	144.38
333.629	167.38
333.857	227.38
334.085	400.38
334.314	834.38
334.542	1660.38
334.771	1599.38
334.999	435.38
335.227	186.38
335.455	128.38
335.684	121.38
335.912	96.38
336.14	108.38
336.369	104.38
336.597	122.38
336.825	132.38
337.053	104.38
337.281	106.38
337.51	97.38
337.738	97.38
337.966	109.38
338.194	116.38
338.422	117.38
338.65	98.38
338.878	103.38
339.106	107.38
339.334	97.38
339.562	98.38
339.79	119.38
340.018	102.38
340.246	95.38
340.474	114.38
340.702	98.38
340.93	102.38
341.158	98.38
341.386	108.38
341.614	113.38
341.842	106.38
342.07	102.38
342.298	119.38
342.526	97.38
342.754	103.38
342.981	93.38
343.209	89.38
343.437	101.38
343.665	107.38
343.893	95.38
344.12	105.38
344.348	93.38
344.576	96.38
344.804	104.38
345.031	117.38
345.259	125.38
345.487	105.38
345.714	96.38
345.942	103.38
346.17	102.38
346.397	82.38
346.625	99.38
346.853	95.38
347.08	86.38
347.308	106.38
347.535	120.38
347.763	112.38
347.99	114.38
348.218	117.38
348.445	129.38
348.673	110.38
348.9	109.38
349.128	99.38
349.355	104.38
349.583	93.38
349.81	92.38
350.037	85.38
350.265	115.38
350.492	104.38
350.72	112.38
350.947	117.38
351.174	130.38
351.402	133.38
351.629	114.38
351.856	122.38
352.083	122.38
352.311	109.38
352.538	120.38
352.765	124.38
352.992	142.38
353.22	125.38
353.447	119.38
353.674	102.38
353.901	110.38
354.128	103.38
354.355	102.38
354.583	102.38
354.81	93.38
355.037	103.38
355.264	85.38
355.491	95.38
355.718	90.38
355.945	92.38
356.172	93.38
356.399	109.38
356.626	103.38
356.853	82.38
357.08	84.38
357.307	86.38
357.534	90.38
357.761	100.38
357.988	100.38
358.215	92.38
358.441	94.38
358.668	93.38
358.895	101.38
359.122	80.38
359.349	75.38
359.576	102.38
359.802	129.38
360.029	152.38
360.256	163.38
360.483	128.38
360.709	109.38
360.936	97.38
361.163	123.38
361.39	107.38
361.616	111.38
361.843	114.38
362.07	113.38
362.296	119.38
362.523	98.38
362.749	108.38
362.976	97.38
363.203	101.38
363.429	95.38
363.656	95.38
363.882	86.38
364.109	103.38
364.335	101.38
364.562	97.38
364.788	100.38
365.015	105.38
365.241	114.38
365.468	127.38
365.694	117.38
365.92	108.38
366.147	102.38
366.373	94.38
366.599	98.38
366.826	93.38
367.052	89.38
367.278	99.38
367.505	81.38
367.731	97.38
367.957	90.38
368.184	118.38
368.41	123.38
368.636	121.38
368.862	147.38
369.089	132.38
369.315	106.38
369.541	107.38
369.767	87.38
369.993	98.38
370.219	107.38
370.445	107.38
370.672	97.38
370.898	95.38
371.124	96.38
371.35	97.38
371.576	89.38
371.802	96.38
372.028	75.38
372.254	106.38
372.48	94.38
372.706	75.38
372.932	83.38
373.158	102.38
373.384	93.38
373.61	101.38
373.835	97.38
374.061	87.38
374.287	83.38
374.513	86.38
374.739	97.38
374.965	91.38
375.191	79.38
375.416	82.38
375.642	84.38
375.868	87.38
376.094	92.38
376.319	88.38
376.545	75.38
376.771	87.38
376.997	83.38
377.222	81.38
377.448	92.38
377.674	106.38
377.899	103.38
378.125	91.38
378.35	79.38
378.576	102.38
378.802	95.38
379.027	97.38
379.253	90.38
379.478	83.38
379.704	99.38
379.929	96.38
380.155	88.38
380.38	101.38
380.606	104.38
380.831	98.38
381.057	119.38
381.282	96.38
381.507	100.38
381.733	113.38
381.958	98.38
382.184	86.38
382.409	94.38
382.634	105.38
382.86	99.38
383.085	88.38
383.31	105.38
383.535	99.38
383.761	113.38
383.986	105.38
384.211	94.38
384.436	98.38
384.662	100.38
384.887	102.38
385.112	100.38
385.337	115.38
385.562	106.38
385.787	107.38
386.013	119.38
386.238	130.38
386.463	109.38
386.688	108.38
386.913	110.38
387.138	122.38
387.363	114.38
387.588	91.38
387.813	96.38
388.038	114.38
388.263	116.38
388.488	103.38
388.713	109.38
388.938	91.38
389.163	106.38
389.387	105.38
389.612	89.38
389.837	100.38
390.062	92.38
390.287	89.38
390.512	84.38
390.736	106.38
390.961	89.38
391.186	84.38
391.411	103.38
391.636	93.38
391.86	107.38
392.085	91.38
392.31	103.38
392.534	82.38
392.759	74.38
392.984	86.38
393.208	99.38
393.433	119.38
393.658	127.38
393.882	93.38
394.107	83.38
394.331	73.38
394.556	81.38
394.78	98.38
395.005	88.38
395.229	89.38
395.454	100.38
395.678	82.38
395.903	84.38
396.127	104.38
396.352	91.38
396.576	84.38
396.801	97.38
397.025	96.38
397.249	101.38
397.474	104.38
397.698	98.38
397.922	101.38
398.147	91.38
398.371	86.38
398.595	107.38
398.82	87.38
399.044	90.38
399.268	87.38
399.492	84.38
399.717	95.38
399.941	85.38
400.165	98.38
400.389	99.38
400.613	92.38
400.837	96.38
401.062	95.38
401.286	100.38
401.51	103.38
401.734	98.38
401.958	125.38
402.182	165.38
402.406	255.38
402.63	181.38
402.854	113.38
403.078	101.38
403.302	92.38
403.526	91.38
403.75	102.38
403.974	99.38
404.198	89.38
404.422	99.38
404.645	96.38
404.869	116.38
405.093	102.38
405.317	138.38
405.541	146.38
405.765	130.38
405.988	151.38
406.212	259.38
406.436	404.38
406.66	244.38
406.883	147.38
407.107	104.38
407.331	105.38
407.555	109.38
407.778	121.38
408.002	103.38
408.226	111.38
408.449	87.38
408.673	108.38
408.896	105.38
409.12	106.38
409.344	83.38
409.567	91.38
409.791	100.38
410.014	96.38
410.238	88.38
410.461	97.38
410.685	98.38
410.908	100.38
411.132	118.38
411.355	91.38
411.578	98.38
411.802	86.38
412.025	100.38
412.249	98.38
412.472	113.38
412.695	118.38
412.919	112.38
413.142	94.38
413.365	95.38
413.589	88.38
413.812	90.38
414.035	97.38
414.258	89.38
414.482	90.38
414.705	83.38
414.928	94.38
415.151	99.38
415.374	99.38
415.597	79.38
415.821	89.38
416.044	92.38
416.267	86.38
416.49	91.38
416.713	92.38
416.936	90.38
417.159	87.38
417.382	92.38
417.605	108.38
417.828	115.38
418.051	97.38
418.274	81.38
418.497	97.38
418.72	92.38
418.943	92.38
419.166	95.38
419.389	87.38
419.611	95.38
419.834	85.38
420.057	92.38
420.28	83.38
420.503	92.38
420.726	93.38
420.948	93.38
421.171	106.38
421.394	109.38
421.617	99.38
421.839	90.38
422.062	84.38
422.285	111.38
422.507	107.38
422.73	108.38
422.953	97.38
423.175	98.38
423.398	106.38
423.621	88.38
423.843	83.38
424.066	99.38
424.288	88.38
424.511	77.38
424.733	109.38
424.956	114.38
425.178	129.38
425.401	127.38
425.623	122.38
425.846	104.38
426.068	101.38
426.291	98.38
426.513	99.38
426.735	101.38
426.958	111.38
427.18	127.38
427.402	179.38
427.625	289.38
427.847	249.38
428.069	195.38
428.292	120.38
428.514	90.38
428.736	99.38
428.958	86.38
429.181	93.38
429.403	93.38
429.625	90.38
429.847	98.38
430.069	109.38
430.292	106.38
430.514	87.38
430.736	87.38
430.958	83.38
431.18	88.38
431.402	87.38
431.624	91.38
431.846	92.38
432.068	90.38
432.29	83.38
432.512	92.38
432.734	81.38
432.956	98.38
433.178	108.38
433.4	100.38
433.622	109.38
433.844	106.38
434.066	103.38
434.287	92.38
434.509	100.38
434.731	99.38
434.953	77.38
435.175	94.38
435.397	87.38
435.618	103.38
435.84	115.38
436.062	131.38
436.284	117.38
436.505	104.38
436.727	101.38
436.949	92.38
437.17	114.38
437.392	103.38
437.614	120.38
437.835	147.38
438.057	167.38
438.278	125.38
438.5	107.38
438.721	149.38
438.943	106.38
439.165	87.38
439.386	93.38
439.608	104.38
439.829	107.38
440.05	161.38
440.272	187.38
440.493	121.38
440.715	96.38
440.936	100.38
441.158	90.38
441.379	87.38
441.6	97.38
441.822	107.38
442.043	105.38
442.264	121.38
442.486	113.38
442.707	94.38
442.928	129.38
443.149	174.38
443.371	181.38
443.592	143.38
443.813	135.38
444.034	121.38
444.255	102.38
444.476	89.38
444.698	107.38
444.919	106.38
445.14	130.38
445.361	126.38
445.582	124.38
445.803	180.38
446.024	173.38
446.245	164.38
446.466	119.38
446.687	103.38
446.908	90.38
447.129	98.38
447.35	96.38
447.571	102.38
447.792	117.38
448.013	96.38
448.234	133.38
448.455	114.38
448.675	129.38
448.896	136.38
449.117	118.38
449.338	103.38
449.559	151.38
449.779	133.38
450	103.38
450.221	99.38
450.442	99.38
450.662	104.38
450.883	144.38
451.104	144.38
451.324	99.38
451.545	94.38
451.766	96.38
451.986	96.38
452.207	97.38
452.428	109.38
452.648	121.38
452.869	137.38
453.089	157.38
453.31	159.38
453.53	110.38
453.751	112.38
453.971	131.38
454.192	155.38
454.412	104.38
454.633	70.38
454.853	88.38
455.073	87.38
455.294	94.38
455.514	102.38
455.734	91.38
455.955	79.38
456.175	96.38
456.395	74.38
456.616	80.38
456.836	90.38
457.056	104.38
457.276	82.38
457.497	91.38
457.717	81.38
457.937	84.38
458.157	100.38
458.377	120.38
458.598	148.38
458.818	240.38
459.038	268.38
459.258	163.38
459.478	111.38
459.698	106.38
459.918	91.38
460.138	97.38
460.358	99.38
460.578	98.38
460.798	98.38
461.018	87.38
461.238	76.38
461.458	91.38
461.678	89.38
461.898	98.38
462.118	102.38
462.338	81.38
462.558	93.38
462.777	90.38
462.997	109.38
463.217	104.38
463.437	99.38
463.657	93.38
463.876	90.38
464.096	95.38
464.316	115.38
464.536	113.38
464.755	116.38
464.975	136.38
465.195	272.38
465.414	272.38
465.634	113.38
465.854	103.38
466.073	89.38
466.293	100.38
466.512	93.38
466.732	77.38
466.951	83.38
467.171	85.38
467.391	111.38
467.61	160.38
467.829	229.38
468.049	539.38
468.268	860.38
468.488	226.38
468.707	116.38
468.927	96.38
469.146	112.38
469.365	104.38
469.585	112.38
469.804	108.38
470.023	134.38
470.243	119.38
470.462	127.38
470.681	156.38
470.901	119.38
471.12	97.38
471.339	108.38
471.558	136.38
471.777	148.38
471.997	283.38
472.216	1057.38
472.435	2411.38
472.654	571.38
472.873	184.38
473.092	119.38
473.311	97.38
473.53	100.38
473.749	99.38
473.968	104.38
474.187	136.38
474.406	117.38
474.625	76.38
474.844	75.38
475.063	93.38
475.282	99.38
475.501	96.38
475.72	89.38
475.939	95.38
476.158	99.38
476.377	106.38
476.596	107.38
476.814	112.38
477.033	107.38
477.252	91.38
477.471	91.38
477.69	91.38
477.908	96.38
478.127	99.38
478.346	101.38
478.564	98.38
478.783	106.38
479.002	107.38
479.22	107.38
479.439	132.38
479.658	155.38
479.876	125.38
480.095	127.38
480.313	124.38
480.532	158.38
480.751	262.38
480.969	932.38
481.188	4071.38
481.406	2355.38
481.624	348.38
481.843	130.38
482.061	111.38
482.28	100.38
482.498	100.38
482.717	100.38
482.935	95.38
483.153	93.38
483.372	88.38
483.59	102.38
483.808	102.38
484.027	97.38
484.245	90.38
484.463	114.38
484.681	101.38
484.9	94.38
485.118	111.38
485.336	104.38
485.554	116.38
485.772	103.38
485.99	116.38
486.209	101.38
486.427	115.38
486.645	140.38
486.863	129.38
487.081	122.38
487.299	111.38
487.517	107.38
487.735	114.38
487.953	85.38
488.171	99.38
488.389	100.38
488.607	116.38
488.825	111.38
489.043	106.38
489.261	103.38
489.479	97.38
489.696	97.38
489.914	92.38
490.132	105.38
490.35	108.38
490.568	79.38
490.786	101.38
491.003	103.38
491.221	85.38
491.439	100.38
491.657	104.38
491.874	87.38
492.092	86.38
492.31	93.38
492.527	96.38
492.745	103.38
492.963	108.38
493.18	100.38
493.398	108.38
493.615	92.38
493.833	100.38
494.05	90.38
494.268	89.38
494.485	81.38
494.703	82.38
494.92	95.38
495.138	84.38
495.355	95.38
495.573	109.38
495.79	80.38
496.008	92.38
496.225	95.38
496.442	104.38
496.66	83.38
496.877	85.38
497.094	107.38
497.312	83.38
497.529	107.38
497.746	96.38
497.963	100.38
498.181	104.38
498.398	103.38
498.615	120.38
498.832	102.38
499.049	100.38
499.267	101.38
499.484	88.38
499.701	87.38
499.918	91.38
500.135	97.38
500.352	106.38
500.569	88.38
500.786	101.38
501.003	101.38
501.22	91.38
501.437	95.38
501.654	110.38
501.871	126.38
502.088	107.38
502.305	88.38
502.522	94.38
502.739	103.38
502.956	79.38
503.172	90.38
503.389	121.38
503.606	138.38
503.823	121.38
504.04	100.38
504.256	96.38
504.473	103.38
504.69	114.38
504.907	99.38
505.123	98.38
505.34	114.38
505.557	84.38
505.773	95.38
505.99	103.38
506.207	99.38
506.423	87.38
506.64	101.38
506.856	90.38
507.073	92.38
507.289	93.38
507.506	106.38
507.722	141.38
507.939	151.38
508.155	114.38
508.372	99.38
508.588	120.38
508.805	94.38
509.021	91.38
509.238	109.38
509.454	116.38
509.67	116.38
509.887	120.38
510.103	165.38
510.319	277.38
510.536	1138.38
510.752	4049.38
510.968	1049.38
511.184	203.38
