Data from Circ_1987_H10_HRD10591_00024.txt Node
Date: Wed Jan 03 12:10:37 EST 2024
User: Yrep
Spectrometer: HR+D1059
Trigger mode: 1
Integration Time (sec): 1.000000E-1
Scans to average: 1
Electric dark correction enabled: true
Nonlinearity correction enabled: false
Boxcar width: 0
XAxis mode: Wavelengths
Number of Pixels in Spectrum: 2048
>>>>>Begin Spectral Data<<<<<
223.165	-12.19
223.4	-12.19
223.635	-12.19
223.869	-29.19
224.104	-15.19
224.338	-24.19
224.573	-18.19
224.808	-19.19
225.042	-13.19
225.277	-22.19
225.511	-1.19
225.746	-4.19
225.98	8.81
226.215	25.81
226.449	25.81
226.683	23.81
226.918	39.81
227.152	34.81
227.387	31.81
227.621	33.81
227.856	38.81
228.09	52.81
228.324	35.81
228.559	51.81
228.793	75.81
229.027	68.81
229.262	71.81
229.496	82.81
229.73	106.81
229.964	94.81
230.199	73.81
230.433	70.81
230.667	80.81
230.901	79.81
231.136	75.81
231.37	83.81
231.604	77.81
231.838	85.81
232.072	92.81
232.306	101.81
232.541	73.81
232.775	83.81
233.009	73.81
233.243	81.81
233.477	95.81
233.711	82.81
233.945	79.81
234.179	75.81
234.413	82.81
234.647	72.81
234.881	82.81
235.115	81.81
235.349	68.81
235.583	91.81
235.817	61.81
236.051	82.81
236.285	74.81
236.519	66.81
236.753	80.81
236.987	83.81
237.221	86.81
237.455	91.81
237.689	75.81
237.922	64.81
238.156	78.81
238.39	79.81
238.624	67.81
238.858	72.81
239.091	84.81
239.325	65.81
239.559	86.81
239.793	81.81
240.027	81.81
240.26	80.81
240.494	84.81
240.728	87.81
240.961	69.81
241.195	83.81
241.429	69.81
241.662	70.81
241.896	79.81
242.13	85.81
242.363	84.81
242.597	82.81
242.83	91.81
243.064	62.81
243.298	85.81
243.531	73.81
243.765	67.81
243.998	80.81
244.232	72.81
244.465	81.81
244.699	81.81
244.932	82.81
245.166	75.81
245.399	69.81
245.633	74.81
245.866	89.81
246.099	81.81
246.333	89.81
246.566	88.81
246.8	92.81
247.033	88.81
247.266	81.81
247.5	81.81
247.733	82.81
247.966	74.81
248.2	91.81
248.433	70.81
248.666	86.81
248.899	89.81
249.133	89.81
249.366	92.81
249.599	99.81
249.832	81.81
250.066	79.81
250.299	84.81
250.532	98.81
250.765	90.81
250.998	85.81
251.231	89.81
251.465	67.81
251.698	89.81
251.931	81.81
252.164	92.81
252.397	81.81
252.63	68.81
252.863	73.81
253.096	68.81
253.329	83.81
253.562	78.81
253.795	88.81
254.028	79.81
254.261	81.81
254.494	75.81
254.727	77.81
254.96	74.81
255.193	74.81
255.426	96.81
255.659	85.81
255.892	98.81
256.124	103.81
256.357	85.81
256.59	75.81
256.823	79.81
257.056	83.81
257.289	103.81
257.521	81.81
257.754	81.81
257.987	71.81
258.22	84.81
258.452	95.81
258.685	90.81
258.918	85.81
259.151	90.81
259.383	73.81
259.616	82.81
259.849	81.81
260.081	89.81
260.314	93.81
260.547	83.81
260.779	100.81
261.012	95.81
261.244	101.81
261.477	96.81
261.71	93.81
261.942	129.81
262.175	116.81
262.407	113.81
262.64	94.81
262.872	84.81
263.105	88.81
263.337	88.81
263.57	83.81
263.802	86.81
264.035	77.81
264.267	98.81
264.499	81.81
264.732	74.81
264.964	98.81
265.197	79.81
265.429	77.81
265.661	98.81
265.894	86.81
266.126	90.81
266.358	74.81
266.591	79.81
266.823	95.81
267.055	83.81
267.287	82.81
267.52	77.81
267.752	74.81
267.984	65.81
268.216	83.81
268.448	78.81
268.681	80.81
268.913	93.81
269.145	82.81
269.377	95.81
269.609	74.81
269.841	97.81
270.073	83.81
270.306	89.81
270.538	88.81
270.77	98.81
271.002	90.81
271.234	90.81
271.466	95.81
271.698	95.81
271.93	97.81
272.162	82.81
272.394	89.81
272.626	79.81
272.858	81.81
273.09	93.81
273.322	88.81
273.553	86.81
273.785	86.81
274.017	90.81
274.249	97.81
274.481	87.81
274.713	78.81
274.945	99.81
275.176	97.81
275.408	94.81
275.64	102.81
275.872	114.81
276.104	95.81
276.335	95.81
276.567	108.81
276.799	136.81
277.031	164.81
277.262	182.81
277.494	132.81
277.726	80.81
277.957	98.81
278.189	104.81
278.421	83.81
278.652	88.81
278.884	83.81
279.115	94.81
279.347	104.81
279.579	114.81
279.81	134.81
280.042	159.81
280.273	234.81
280.505	162.81
280.736	111.81
280.968	90.81
281.199	91.81
281.431	102.81
281.662	112.81
281.894	89.81
282.125	104.81
282.356	138.81
282.588	166.81
282.819	126.81
283.051	91.81
283.282	74.81
283.513	97.81
283.745	102.81
283.976	92.81
284.207	75.81
284.439	81.81
284.67	76.81
284.901	87.81
285.132	90.81
285.364	88.81
285.595	81.81
285.826	89.81
286.057	94.81
286.288	70.81
286.52	84.81
286.751	83.81
286.982	85.81
287.213	91.81
287.444	78.81
287.675	88.81
287.906	99.81
288.138	89.81
288.369	98.81
288.6	88.81
288.831	89.81
289.062	98.81
289.293	65.81
289.524	88.81
289.755	89.81
289.986	85.81
290.217	95.81
290.448	87.81
290.679	90.81
290.91	90.81
291.141	84.81
291.371	86.81
291.602	91.81
291.833	85.81
292.064	89.81
292.295	94.81
292.526	88.81
292.757	91.81
292.987	92.81
293.218	90.81
293.449	99.81
293.68	85.81
293.91	94.81
294.141	91.81
294.372	89.81
294.603	82.81
294.833	94.81
295.064	94.81
295.295	103.81
295.525	93.81
295.756	113.81
295.987	136.81
296.217	174.81
296.448	144.81
296.679	98.81
296.909	90.81
297.14	94.81
297.37	96.81
297.601	85.81
297.831	88.81
298.062	89.81
298.292	108.81
298.523	113.81
298.753	91.81
298.984	97.81
299.214	86.81
299.445	93.81
299.675	100.81
299.905	96.81
300.136	86.81
300.366	100.81
300.597	102.81
300.827	101.81
301.057	102.81
301.288	116.81
301.518	100.81
301.748	97.81
301.979	105.81
302.209	91.81
302.439	101.81
302.669	97.81
302.9	72.81
303.13	86.81
303.36	111.81
303.59	136.81
303.82	136.81
304.051	109.81
304.281	87.81
304.511	87.81
304.741	86.81
304.971	74.81
305.201	88.81
305.431	86.81
305.661	94.81
305.891	103.81
306.121	99.81
306.352	109.81
306.582	113.81
306.812	104.81
307.042	112.81
307.272	134.81
307.502	158.81
307.731	151.81
307.961	136.81
308.191	103.81
308.421	105.81
308.651	82.81
308.881	92.81
309.111	79.81
309.341	95.81
309.571	93.81
309.8	85.81
310.03	99.81
310.26	113.81
310.49	120.81
310.72	122.81
310.949	121.81
311.179	114.81
311.409	95.81
311.639	103.81
311.868	119.81
312.098	99.81
312.328	104.81
312.557	120.81
312.787	121.81
313.017	119.81
313.246	101.81
313.476	93.81
313.706	111.81
313.935	114.81
314.165	98.81
314.394	122.81
314.624	111.81
314.853	102.81
315.083	110.81
315.312	93.81
315.542	83.81
315.771	93.81
316.001	83.81
316.23	88.81
316.46	100.81
316.689	89.81
316.919	105.81
317.148	101.81
317.377	98.81
317.607	91.81
317.836	99.81
318.065	94.81
318.295	89.81
318.524	82.81
318.753	91.81
318.983	112.81
319.212	95.81
319.441	109.81
319.67	106.81
319.9	116.81
320.129	84.81
320.358	90.81
320.587	105.81
320.816	112.81
321.046	102.81
321.275	99.81
321.504	107.81
321.733	105.81
321.962	105.81
322.191	100.81
322.42	113.81
322.649	119.81
322.878	129.81
323.108	128.81
323.337	127.81
323.566	134.81
323.795	183.81
324.024	222.81
324.253	392.81
324.482	815.81
324.71	1563.81
324.939	1990.81
325.168	777.81
325.397	245.81
325.626	162.81
325.855	149.81
326.084	132.81
326.313	137.81
326.542	157.81
326.77	245.81
326.999	402.81
327.228	789.81
327.457	1402.81
327.686	1139.81
327.914	442.81
328.143	472.81
328.372	582.81
328.6	327.81
328.829	174.81
329.058	181.81
329.287	192.81
329.515	168.81
329.744	213.81
329.972	397.81
330.201	823.81
330.43	1178.81
330.658	535.81
330.887	279.81
331.115	193.81
331.344	124.81
331.572	109.81
331.801	123.81
332.03	134.81
332.258	115.81
332.486	107.81
332.715	106.81
332.943	113.81
333.172	123.81
333.4	130.81
333.629	154.81
333.857	221.81
334.085	369.81
334.314	743.81
334.542	1451.81
334.771	1345.81
334.999	361.81
335.227	162.81
335.455	116.81
335.684	115.81
335.912	109.81
336.14	107.81
336.369	106.81
336.597	110.81
336.825	110.81
337.053	98.81
337.281	93.81
337.51	98.81
337.738	98.81
337.966	109.81
338.194	121.81
338.422	104.81
338.65	102.81
338.878	105.81
339.106	100.81
339.334	85.81
339.562	87.81
339.79	70.81
340.018	89.81
340.246	101.81
340.474	110.81
340.702	110.81
340.93	95.81
341.158	105.81
341.386	96.81
341.614	90.81
341.842	87.81
342.07	95.81
342.298	95.81
342.526	103.81
342.754	102.81
342.981	97.81
343.209	83.81
343.437	108.81
343.665	96.81
343.893	94.81
344.12	91.81
344.348	95.81
344.576	94.81
344.804	90.81
345.031	93.81
345.259	121.81
345.487	105.81
345.714	116.81
345.942	105.81
346.17	85.81
346.397	101.81
346.625	101.81
346.853	82.81
347.08	91.81
347.308	91.81
347.535	103.81
347.763	97.81
347.99	107.81
348.218	105.81
348.445	118.81
348.673	117.81
348.9	98.81
349.128	97.81
349.355	93.81
349.583	101.81
349.81	85.81
350.037	96.81
350.265	91.81
350.492	91.81
350.72	84.81
350.947	111.81
351.174	119.81
351.402	131.81
351.629	109.81
351.856	113.81
352.083	109.81
352.311	111.81
352.538	111.81
352.765	117.81
352.992	107.81
353.22	121.81
353.447	108.81
353.674	120.81
353.901	90.81
354.128	96.81
354.355	102.81
354.583	106.81
354.81	86.81
355.037	90.81
355.264	87.81
355.491	91.81
355.718	94.81
355.945	100.81
356.172	104.81
356.399	90.81
356.626	92.81
356.853	91.81
357.08	91.81
357.307	102.81
357.534	96.81
357.761	89.81
357.988	105.81
358.215	94.81
358.441	82.81
358.668	111.81
358.895	98.81
359.122	111.81
359.349	85.81
359.576	98.81
359.802	113.81
360.029	124.81
360.256	144.81
360.483	117.81
360.709	103.81
360.936	103.81
361.163	89.81
361.39	113.81
361.616	103.81
361.843	99.81
362.07	103.81
362.296	110.81
362.523	90.81
362.749	105.81
362.976	102.81
363.203	100.81
363.429	89.81
363.656	94.81
363.882	101.81
364.109	95.81
364.335	93.81
364.562	89.81
364.788	99.81
365.015	100.81
365.241	114.81
365.468	113.81
365.694	125.81
365.92	110.81
366.147	106.81
366.373	94.81
366.599	89.81
366.826	88.81
367.052	91.81
367.278	97.81
367.505	96.81
367.731	106.81
367.957	96.81
368.184	88.81
368.41	100.81
368.636	128.81
368.862	124.81
369.089	131.81
369.315	100.81
369.541	88.81
369.767	92.81
369.993	103.81
370.219	96.81
370.445	96.81
370.672	81.81
370.898	75.81
371.124	81.81
371.35	92.81
371.576	89.81
371.802	87.81
372.028	96.81
372.254	87.81
372.48	96.81
372.706	89.81
372.932	81.81
373.158	97.81
373.384	96.81
373.61	97.81
373.835	89.81
374.061	94.81
374.287	101.81
374.513	99.81
374.739	84.81
374.965	79.81
375.191	91.81
375.416	92.81
375.642	91.81
375.868	94.81
376.094	99.81
376.319	75.81
376.545	79.81
376.771	86.81
376.997	99.81
377.222	109.81
377.448	94.81
377.674	101.81
377.899	90.81
378.125	79.81
378.35	82.81
378.576	90.81
378.802	106.81
379.027	103.81
379.253	104.81
379.478	94.81
379.704	101.81
379.929	97.81
380.155	98.81
380.38	106.81
380.606	104.81
380.831	87.81
381.057	87.81
381.282	96.81
381.507	99.81
381.733	101.81
381.958	80.81
382.184	102.81
382.409	103.81
382.634	106.81
382.86	94.81
383.085	92.81
383.31	112.81
383.535	94.81
383.761	96.81
383.986	98.81
384.211	111.81
384.436	104.81
384.662	113.81
384.887	92.81
385.112	104.81
385.337	112.81
385.562	110.81
385.787	106.81
386.013	113.81
386.238	121.81
386.463	107.81
386.688	120.81
386.913	102.81
387.138	102.81
387.363	104.81
387.588	97.81
387.813	94.81
388.038	113.81
388.263	117.81
388.488	115.81
388.713	95.81
388.938	81.81
389.163	87.81
389.387	93.81
389.612	73.81
389.837	87.81
390.062	93.81
390.287	84.81
390.512	94.81
390.736	86.81
390.961	87.81
391.186	101.81
391.411	87.81
391.636	91.81
391.86	96.81
392.085	89.81
392.31	88.81
392.534	94.81
392.759	81.81
392.984	94.81
393.208	96.81
393.433	97.81
393.658	97.81
393.882	75.81
394.107	88.81
394.331	101.81
394.556	96.81
394.78	89.81
395.005	88.81
395.229	101.81
395.454	77.81
395.678	92.81
395.903	82.81
396.127	92.81
396.352	99.81
396.576	101.81
396.801	92.81
397.025	97.81
397.249	96.81
397.474	90.81
397.698	100.81
397.922	90.81
398.147	96.81
398.371	90.81
398.595	83.81
398.82	89.81
399.044	91.81
399.268	94.81
399.492	85.81
399.717	98.81
399.941	86.81
400.165	102.81
400.389	87.81
400.613	93.81
400.837	81.81
401.062	88.81
401.286	86.81
401.51	101.81
401.734	92.81
401.958	117.81
402.182	153.81
402.406	202.81
402.63	161.81
402.854	98.81
403.078	99.81
403.302	92.81
403.526	87.81
403.75	89.81
403.974	97.81
404.198	82.81
404.422	88.81
404.645	75.81
404.869	90.81
405.093	114.81
405.317	138.81
405.541	146.81
405.765	120.81
405.988	141.81
406.212	213.81
406.436	324.81
406.66	199.81
406.883	102.81
407.107	111.81
407.331	106.81
407.555	106.81
407.778	118.81
408.002	103.81
408.226	91.81
408.449	96.81
408.673	97.81
408.896	99.81
409.12	106.81
409.344	87.81
409.567	91.81
409.791	86.81
410.014	97.81
410.238	113.81
410.461	95.81
410.685	105.81
410.908	113.81
411.132	108.81
411.355	112.81
411.578	91.81
411.802	89.81
412.025	99.81
412.249	93.81
412.472	113.81
412.695	114.81
412.919	98.81
413.142	100.81
413.365	80.81
413.589	102.81
413.812	98.81
414.035	100.81
414.258	93.81
414.482	97.81
414.705	82.81
414.928	97.81
415.151	103.81
415.374	96.81
415.597	96.81
415.821	100.81
416.044	81.81
416.267	92.81
416.49	88.81
416.713	84.81
416.936	89.81
417.159	95.81
417.382	100.81
417.605	110.81
417.828	98.81
418.051	107.81
418.274	91.81
418.497	84.81
418.72	86.81
418.943	96.81
419.166	85.81
419.389	90.81
419.611	98.81
419.834	96.81
420.057	87.81
420.28	99.81
420.503	82.81
420.726	72.81
420.948	93.81
421.171	113.81
421.394	91.81
421.617	89.81
421.839	87.81
422.062	89.81
422.285	94.81
422.507	95.81
422.73	113.81
422.953	93.81
423.175	88.81
423.398	89.81
423.621	94.81
423.843	81.81
424.066	88.81
424.288	80.81
424.511	113.81
424.733	104.81
424.956	130.81
425.178	113.81
425.401	100.81
425.623	101.81
425.846	95.81
426.068	109.81
426.291	84.81
426.513	97.81
426.735	85.81
426.958	91.81
427.18	117.81
427.402	166.81
427.625	242.81
427.847	208.81
428.069	192.81
428.292	95.81
428.514	102.81
428.736	94.81
428.958	83.81
429.181	81.81
429.403	82.81
429.625	81.81
429.847	103.81
430.069	115.81
430.292	98.81
430.514	77.81
430.736	88.81
430.958	101.81
431.18	75.81
431.402	93.81
431.624	85.81
431.846	79.81
432.068	97.81
432.29	86.81
432.512	69.81
432.734	82.81
432.956	97.81
433.178	87.81
433.4	93.81
433.622	91.81
433.844	97.81
434.066	94.81
434.287	83.81
434.509	96.81
434.731	93.81
434.953	93.81
435.175	98.81
435.397	89.81
435.618	87.81
435.84	103.81
436.062	132.81
436.284	135.81
436.505	95.81
436.727	102.81
436.949	93.81
437.17	91.81
437.392	78.81
437.614	101.81
437.835	120.81
438.057	160.81
438.278	140.81
438.5	135.81
438.721	118.81
438.943	99.81
439.165	104.81
439.386	96.81
439.608	100.81
439.829	118.81
440.05	118.81
440.272	178.81
440.493	106.81
440.715	89.81
440.936	91.81
441.158	92.81
441.379	95.81
441.6	117.81
441.822	115.81
442.043	100.81
442.264	123.81
442.486	111.81
442.707	96.81
442.928	123.81
443.149	171.81
443.371	153.81
443.592	141.81
443.813	123.81
444.034	126.81
444.255	85.81
444.476	93.81
444.698	96.81
444.919	90.81
445.14	127.81
445.361	130.81
445.582	129.81
445.803	178.81
446.024	155.81
446.245	160.81
446.466	109.81
446.687	102.81
446.908	92.81
447.129	90.81
447.35	85.81
447.571	97.81
447.792	94.81
448.013	114.81
448.234	120.81
448.455	98.81
448.675	137.81
448.896	130.81
449.117	113.81
449.338	115.81
449.559	148.81
449.779	147.81
450	104.81
450.221	88.81
450.442	95.81
450.662	98.81
450.883	127.81
451.104	128.81
451.324	110.81
451.545	107.81
451.766	89.81
451.986	94.81
452.207	90.81
452.428	98.81
452.648	103.81
452.869	143.81
453.089	154.81
453.31	135.81
453.53	92.81
453.751	115.81
453.971	118.81
454.192	128.81
454.412	94.81
454.633	102.81
454.853	80.81
455.073	94.81
455.294	95.81
455.514	114.81
455.734	95.81
455.955	93.81
456.175	79.81
456.395	93.81
456.616	91.81
456.836	95.81
457.056	86.81
457.276	98.81
457.497	66.81
457.717	84.81
457.937	83.81
458.157	89.81
458.377	111.81
458.598	143.81
458.818	205.81
459.038	231.81
459.258	142.81
459.478	81.81
459.698	91.81
459.918	85.81
460.138	92.81
460.358	78.81
460.578	101.81
460.798	93.81
461.018	97.81
461.238	82.81
461.458	80.81
461.678	91.81
461.898	80.81
462.118	83.81
462.338	96.81
462.558	98.81
462.777	95.81
462.997	90.81
463.217	106.81
463.437	101.81
463.657	96.81
463.876	83.81
464.096	89.81
464.316	107.81
464.536	94.81
464.755	110.81
464.975	114.81
465.195	252.81
465.414	233.81
465.634	109.81
465.854	93.81
466.073	97.81
466.293	96.81
466.512	105.81
466.732	82.81
466.951	96.81
467.171	110.81
467.391	117.81
467.61	151.81
467.829	193.81
468.049	464.81
468.268	693.81
468.488	199.81
468.707	115.81
468.927	94.81
469.146	95.81
469.365	81.81
469.585	104.81
469.804	109.81
470.023	114.81
470.243	114.81
470.462	116.81
470.681	141.81
470.901	92.81
471.12	93.81
471.339	92.81
471.558	117.81
471.777	138.81
471.997	257.81
472.216	878.81
472.435	1977.81
472.654	493.81
472.873	146.81
473.092	95.81
473.311	99.81
473.53	87.81
473.749	101.81
473.968	106.81
474.187	130.81
474.406	110.81
474.625	105.81
474.844	100.81
475.063	95.81
475.282	85.81
475.501	78.81
475.72	77.81
475.939	99.81
476.158	84.81
476.377	94.81
476.596	97.81
476.814	94.81
477.033	101.81
477.252	90.81
477.471	92.81
477.69	96.81
477.908	89.81
478.127	93.81
478.346	96.81
478.564	78.81
478.783	113.81
479.002	118.81
479.22	99.81
479.439	113.81
479.658	129.81
479.876	110.81
480.095	111.81
480.313	131.81
480.532	138.81
480.751	235.81
480.969	811.81
481.188	3471.81
481.406	1961.81
481.624	296.81
481.843	129.81
482.061	102.81
482.28	98.81
482.498	90.81
482.717	95.81
482.935	109.81
483.153	92.81
483.372	91.81
483.59	101.81
483.808	94.81
484.027	78.81
484.245	92.81
484.463	92.81
484.681	94.81
484.9	95.81
485.118	87.81
485.336	85.81
485.554	91.81
485.772	104.81
485.99	113.81
486.209	113.81
486.427	110.81
486.645	120.81
486.863	128.81
487.081	118.81
487.299	104.81
487.517	97.81
487.735	102.81
487.953	89.81
488.171	107.81
488.389	103.81
488.607	99.81
488.825	79.81
489.043	93.81
489.261	86.81
489.479	98.81
489.696	93.81
489.914	95.81
490.132	78.81
490.35	91.81
490.568	77.81
490.786	95.81
491.003	83.81
491.221	81.81
491.439	93.81
491.657	101.81
491.874	88.81
492.092	103.81
492.31	90.81
492.527	88.81
492.745	88.81
492.963	105.81
493.18	100.81
493.398	101.81
493.615	96.81
493.833	87.81
494.05	87.81
494.268	90.81
494.485	96.81
494.703	89.81
494.92	83.81
495.138	90.81
495.355	81.81
495.573	106.81
495.79	104.81
496.008	89.81
496.225	97.81
496.442	101.81
496.66	99.81
496.877	90.81
497.094	99.81
497.312	87.81
497.529	86.81
497.746	89.81
497.963	107.81
498.181	102.81
498.398	93.81
498.615	103.81
498.832	80.81
499.049	97.81
499.267	98.81
499.484	79.81
499.701	96.81
499.918	78.81
500.135	95.81
500.352	78.81
500.569	66.81
500.786	94.81
501.003	106.81
501.22	79.81
501.437	103.81
501.654	104.81
501.871	130.81
502.088	93.81
502.305	79.81
502.522	95.81
502.739	78.81
502.956	91.81
503.172	86.81
503.389	106.81
503.606	121.81
503.823	101.81
504.04	94.81
504.256	97.81
504.473	94.81
504.69	95.81
504.907	94.81
505.123	101.81
505.34	101.81
505.557	99.81
505.773	84.81
505.99	81.81
506.207	103.81
506.423	87.81
506.64	90.81
506.856	91.81
507.073	78.81
507.289	88.81
507.506	110.81
507.722	129.81
507.939	120.81
508.155	103.81
508.372	83.81
508.588	92.81
508.805	96.81
509.021	87.81
509.238	129.81
509.454	87.81
509.67	107.81
509.887	115.81
510.103	142.81
510.319	262.81
510.536	974.81
510.752	3439.81
510.968	887.81
511.184	192.81
511.401	133.81
511.617	94.81
511.833	114.81
512.049	91.81
512.265	102.81
512.481	98.81
512.698	103.81
512.914	88.81
