Data from Circ_1987_H10_HRD10591_00075.txt Node
Date: Wed Jan 03 12:10:47 EST 2024
User: Yrep
Spectrometer: HR+D1059
Trigger mode: 1
Integration Time (sec): 1.000000E-1
Scans to average: 1
Electric dark correction enabled: true
Nonlinearity correction enabled: false
Boxcar width: 0
XAxis mode: Wavelengths
Number of Pixels in Spectrum: 2048
>>>>>Begin Spectral Data<<<<<
223.165	-19.62
223.4	-19.62
223.635	-19.62
223.869	-6.62
224.104	-27.62
224.338	-21.62
224.573	-25.62
224.808	-7.62
225.042	1.38
225.277	-10.62
225.511	-13.62
225.746	8.38
225.98	16.38
226.215	10.38
226.449	9.38
226.683	21.38
226.918	36.38
227.152	29.38
227.387	22.38
227.621	38.38
227.856	37.38
228.09	36.38
228.324	48.38
228.559	63.38
228.793	59.38
229.027	58.38
229.262	69.38
229.496	86.38
229.73	88.38
229.964	93.38
230.199	86.38
230.433	78.38
230.667	87.38
230.901	72.38
231.136	94.38
231.37	80.38
231.604	89.38
231.838	86.38
232.072	76.38
232.306	77.38
232.541	82.38
232.775	88.38
233.009	85.38
233.243	76.38
233.477	94.38
233.711	86.38
233.945	71.38
234.179	81.38
234.413	82.38
234.647	87.38
234.881	76.38
235.115	80.38
235.349	81.38
235.583	82.38
235.817	78.38
236.051	91.38
236.285	92.38
236.519	84.38
236.753	72.38
236.987	83.38
237.221	86.38
237.455	90.38
237.689	78.38
237.922	78.38
238.156	77.38
238.39	80.38
238.624	77.38
238.858	81.38
239.091	71.38
239.325	82.38
239.559	92.38
239.793	85.38
240.027	76.38
240.26	83.38
240.494	78.38
240.728	72.38
240.961	71.38
241.195	83.38
241.429	81.38
241.662	85.38
241.896	73.38
242.13	82.38
242.363	92.38
242.597	79.38
242.83	72.38
243.064	85.38
243.298	80.38
243.531	87.38
243.765	84.38
243.998	72.38
244.232	86.38
244.465	82.38
244.699	93.38
244.932	82.38
245.166	86.38
245.399	84.38
245.633	87.38
245.866	85.38
246.099	82.38
246.333	90.38
246.566	71.38
246.8	80.38
247.033	88.38
247.266	79.38
247.5	80.38
247.733	63.38
247.966	74.38
248.2	68.38
248.433	96.38
248.666	76.38
248.899	79.38
249.133	86.38
249.366	89.38
249.599	89.38
249.832	79.38
250.066	95.38
250.299	85.38
250.532	93.38
250.765	76.38
250.998	73.38
251.231	70.38
251.465	73.38
251.698	82.38
251.931	80.38
252.164	85.38
252.397	69.38
252.63	84.38
252.863	68.38
253.096	89.38
253.329	82.38
253.562	94.38
253.795	84.38
254.028	89.38
254.261	86.38
254.494	81.38
254.727	96.38
254.96	88.38
255.193	80.38
255.426	69.38
255.659	85.38
255.892	101.38
256.124	101.38
256.357	79.38
256.59	69.38
256.823	91.38
257.056	94.38
257.289	85.38
257.521	89.38
257.754	92.38
257.987	96.38
258.22	105.38
258.452	87.38
258.685	101.38
258.918	95.38
259.151	86.38
259.383	82.38
259.616	77.38
259.849	80.38
260.081	87.38
260.314	82.38
260.547	89.38
260.779	88.38
261.012	98.38
261.244	96.38
261.477	109.38
261.71	112.38
261.942	143.38
262.175	127.38
262.407	88.38
262.64	94.38
262.872	76.38
263.105	88.38
263.337	93.38
263.57	86.38
263.802	76.38
264.035	80.38
264.267	83.38
264.499	89.38
264.732	90.38
264.964	80.38
265.197	86.38
265.429	90.38
265.661	94.38
265.894	88.38
266.126	95.38
266.358	96.38
266.591	73.38
266.823	69.38
267.055	91.38
267.287	96.38
267.52	86.38
267.752	91.38
267.984	82.38
268.216	87.38
268.448	84.38
268.681	88.38
268.913	85.38
269.145	87.38
269.377	84.38
269.609	92.38
269.841	90.38
270.073	80.38
270.306	75.38
270.538	72.38
270.77	82.38
271.002	81.38
271.234	94.38
271.466	92.38
271.698	97.38
271.93	95.38
272.162	85.38
272.394	92.38
272.626	96.38
272.858	83.38
273.09	97.38
273.322	82.38
273.553	73.38
273.785	98.38
274.017	89.38
274.249	77.38
274.481	80.38
274.713	93.38
274.945	88.38
275.176	109.38
275.408	99.38
275.64	87.38
275.872	111.38
276.104	106.38
276.335	93.38
276.567	110.38
276.799	148.38
277.031	170.38
277.262	199.38
277.494	159.38
277.726	88.38
277.957	92.38
278.189	87.38
278.421	82.38
278.652	98.38
278.884	95.38
279.115	84.38
279.347	92.38
279.579	104.38
279.81	128.38
280.042	192.38
280.273	242.38
280.505	188.38
280.736	96.38
280.968	88.38
281.199	88.38
281.431	88.38
281.662	85.38
281.894	87.38
282.125	103.38
282.356	138.38
282.588	172.38
282.819	142.38
283.051	106.38
283.282	85.38
283.513	101.38
283.745	61.38
283.976	100.38
284.207	92.38
284.439	86.38
284.67	80.38
284.901	95.38
285.132	95.38
285.364	96.38
285.595	84.38
285.826	88.38
286.057	95.38
286.288	82.38
286.52	74.38
286.751	89.38
286.982	84.38
287.213	94.38
287.444	84.38
287.675	91.38
287.906	104.38
288.138	84.38
288.369	106.38
288.6	105.38
288.831	117.38
289.062	90.38
289.293	97.38
289.524	97.38
289.755	85.38
289.986	89.38
290.217	95.38
290.448	92.38
290.679	85.38
290.91	94.38
291.141	82.38
291.371	81.38
291.602	93.38
291.833	88.38
292.064	88.38
292.295	85.38
292.526	93.38
292.757	82.38
292.987	78.38
293.218	82.38
293.449	74.38
293.68	84.38
293.91	88.38
294.141	97.38
294.372	83.38
294.603	78.38
294.833	90.38
295.064	74.38
295.295	91.38
295.525	97.38
295.756	98.38
295.987	134.38
296.217	177.38
296.448	140.38
296.679	105.38
296.909	86.38
297.14	90.38
297.37	86.38
297.601	93.38
297.831	80.38
298.062	78.38
298.292	94.38
298.523	99.38
298.753	85.38
298.984	79.38
299.214	90.38
299.445	99.38
299.675	98.38
299.905	96.38
300.136	95.38
300.366	88.38
300.597	94.38
300.827	82.38
301.057	102.38
301.288	88.38
301.518	93.38
301.748	107.38
301.979	120.38
302.209	99.38
302.439	102.38
302.669	86.38
302.9	96.38
303.13	100.38
303.36	101.38
303.59	132.38
303.82	156.38
304.051	112.38
304.281	89.38
304.511	80.38
304.741	91.38
304.971	88.38
305.201	77.38
305.431	97.38
305.661	86.38
305.891	86.38
306.121	109.38
306.352	109.38
306.582	112.38
306.812	106.38
307.042	121.38
307.272	165.38
307.502	168.38
307.731	166.38
307.961	142.38
308.191	92.38
308.421	92.38
308.651	89.38
308.881	102.38
309.111	108.38
309.341	110.38
309.571	111.38
309.8	101.38
310.03	104.38
310.26	115.38
310.49	104.38
310.72	103.38
310.949	113.38
311.179	108.38
311.409	94.38
311.639	115.38
311.868	99.38
312.098	90.38
312.328	105.38
312.557	111.38
312.787	124.38
313.017	122.38
313.246	103.38
313.476	99.38
313.706	92.38
313.935	95.38
314.165	120.38
314.394	115.38
314.624	92.38
314.853	106.38
315.083	106.38
315.312	102.38
315.542	85.38
315.771	92.38
316.001	97.38
316.23	89.38
316.46	76.38
316.689	89.38
316.919	101.38
317.148	97.38
317.377	98.38
317.607	106.38
317.836	96.38
318.065	87.38
318.295	83.38
318.524	86.38
318.753	95.38
318.983	80.38
319.212	118.38
319.441	117.38
319.67	106.38
319.9	106.38
320.129	98.38
320.358	96.38
320.587	106.38
320.816	129.38
321.046	108.38
321.275	87.38
321.504	97.38
321.733	108.38
321.962	111.38
322.191	113.38
322.42	111.38
322.649	118.38
322.878	120.38
323.108	132.38
323.337	149.38
323.566	163.38
323.795	164.38
324.024	236.38
324.253	467.38
324.482	926.38
324.71	1927.38
324.939	2476.38
325.168	924.38
325.397	280.38
325.626	178.38
325.855	135.38
326.084	138.38
326.313	156.38
326.542	165.38
326.77	246.38
326.999	488.38
327.228	1002.38
327.457	1796.38
327.686	1439.38
327.914	529.38
328.143	552.38
328.372	669.38
328.6	375.38
328.829	204.38
329.058	191.38
329.287	201.38
329.515	188.38
329.744	249.38
329.972	504.38
330.201	1024.38
330.43	1471.38
330.658	630.38
330.887	298.38
331.115	194.38
331.344	133.38
331.572	137.38
331.801	157.38
332.03	128.38
332.258	124.38
332.486	120.38
332.715	103.38
332.943	127.38
333.172	132.38
333.4	141.38
333.629	174.38
333.857	241.38
334.085	425.38
334.314	927.38
334.542	1812.38
334.771	1725.38
334.999	437.38
335.227	189.38
335.455	126.38
335.684	120.38
335.912	110.38
336.14	95.38
336.369	99.38
336.597	119.38
336.825	98.38
337.053	95.38
337.281	91.38
337.51	118.38
337.738	97.38
337.966	95.38
338.194	106.38
338.422	108.38
338.65	88.38
338.878	93.38
339.106	103.38
339.334	94.38
339.562	91.38
339.79	106.38
340.018	96.38
340.246	96.38
340.474	98.38
340.702	108.38
340.93	87.38
341.158	94.38
341.386	104.38
341.614	96.38
341.842	113.38
342.07	98.38
342.298	83.38
342.526	96.38
342.754	90.38
342.981	87.38
343.209	94.38
343.437	117.38
343.665	98.38
343.893	81.38
344.12	102.38
344.348	97.38
344.576	107.38
344.804	98.38
345.031	102.38
345.259	120.38
345.487	94.38
345.714	105.38
345.942	87.38
346.17	96.38
346.397	102.38
346.625	99.38
346.853	88.38
347.08	93.38
347.308	97.38
347.535	118.38
347.763	112.38
347.99	100.38
348.218	114.38
348.445	112.38
348.673	105.38
348.9	90.38
349.128	94.38
349.355	93.38
349.583	103.38
349.81	97.38
350.037	97.38
350.265	93.38
350.492	99.38
350.72	85.38
350.947	106.38
351.174	120.38
351.402	127.38
351.629	106.38
351.856	102.38
352.083	121.38
352.311	135.38
352.538	116.38
352.765	119.38
352.992	131.38
353.22	114.38
353.447	108.38
353.674	107.38
353.901	102.38
354.128	89.38
354.355	89.38
354.583	108.38
354.81	100.38
355.037	101.38
355.264	93.38
355.491	98.38
355.718	89.38
355.945	92.38
356.172	89.38
356.399	94.38
356.626	89.38
356.853	95.38
357.08	95.38
357.307	88.38
357.534	88.38
357.761	95.38
357.988	85.38
358.215	113.38
358.441	91.38
358.668	91.38
358.895	99.38
359.122	99.38
359.349	94.38
359.576	93.38
359.802	117.38
360.029	136.38
360.256	137.38
360.483	113.38
360.709	96.38
360.936	91.38
361.163	106.38
361.39	97.38
361.616	121.38
361.843	96.38
362.07	98.38
362.296	93.38
362.523	88.38
362.749	96.38
362.976	96.38
363.203	105.38
363.429	97.38
363.656	96.38
363.882	89.38
364.109	90.38
364.335	97.38
364.562	84.38
364.788	104.38
365.015	103.38
365.241	101.38
365.468	109.38
365.694	118.38
365.92	109.38
366.147	84.38
366.373	84.38
366.599	88.38
366.826	98.38
367.052	94.38
367.278	95.38
367.505	96.38
367.731	100.38
367.957	97.38
368.184	80.38
368.41	114.38
368.636	126.38
368.862	132.38
369.089	117.38
369.315	101.38
369.541	101.38
369.767	95.38
369.993	103.38
370.219	99.38
370.445	100.38
370.672	86.38
370.898	89.38
371.124	89.38
371.35	94.38
371.576	105.38
371.802	90.38
372.028	95.38
372.254	94.38
372.48	75.38
372.706	80.38
372.932	106.38
373.158	102.38
373.384	74.38
373.61	86.38
373.835	92.38
374.061	95.38
374.287	86.38
374.513	102.38
374.739	80.38
374.965	93.38
375.191	90.38
375.416	100.38
375.642	104.38
375.868	81.38
376.094	94.38
376.319	91.38
376.545	96.38
376.771	88.38
376.997	96.38
377.222	85.38
377.448	95.38
377.674	85.38
377.899	82.38
378.125	87.38
378.35	84.38
378.576	89.38
378.802	89.38
379.027	90.38
379.253	89.38
379.478	87.38
379.704	94.38
379.929	102.38
380.155	89.38
380.38	80.38
380.606	90.38
380.831	96.38
381.057	100.38
381.282	99.38
381.507	103.38
381.733	94.38
381.958	108.38
382.184	94.38
382.409	94.38
382.634	86.38
382.86	98.38
383.085	103.38
383.31	94.38
383.535	89.38
383.761	100.38
383.986	90.38
384.211	95.38
384.436	97.38
384.662	91.38
384.887	111.38
385.112	92.38
385.337	112.38
385.562	97.38
385.787	90.38
386.013	101.38
386.238	123.38
386.463	114.38
386.688	108.38
386.913	101.38
387.138	109.38
387.363	107.38
387.588	115.38
387.813	99.38
388.038	100.38
388.263	101.38
388.488	88.38
388.713	93.38
388.938	92.38
389.163	86.38
389.387	77.38
389.612	95.38
389.837	82.38
390.062	97.38
390.287	84.38
390.512	92.38
390.736	84.38
390.961	100.38
391.186	86.38
391.411	92.38
391.636	98.38
391.86	89.38
392.085	78.38
392.31	78.38
392.534	73.38
392.759	80.38
392.984	94.38
393.208	95.38
393.433	94.38
393.658	94.38
393.882	84.38
394.107	89.38
394.331	84.38
394.556	81.38
394.78	93.38
395.005	88.38
395.229	88.38
395.454	89.38
395.678	80.38
395.903	86.38
396.127	103.38
396.352	102.38
396.576	91.38
396.801	82.38
397.025	78.38
397.249	77.38
397.474	96.38
397.698	86.38
397.922	101.38
398.147	81.38
398.371	90.38
398.595	88.38
398.82	77.38
399.044	97.38
399.268	69.38
399.492	81.38
399.717	92.38
399.941	96.38
400.165	88.38
400.389	83.38
400.613	79.38
400.837	82.38
401.062	69.38
401.286	89.38
401.51	92.38
401.734	102.38
401.958	115.38
402.182	139.38
402.406	191.38
402.63	140.38
402.854	111.38
403.078	98.38
403.302	80.38
403.526	98.38
403.75	87.38
403.974	90.38
404.198	80.38
404.422	85.38
404.645	103.38
404.869	92.38
405.093	121.38
405.317	151.38
405.541	137.38
405.765	112.38
405.988	134.38
406.212	216.38
406.436	329.38
406.66	202.38
406.883	132.38
407.107	118.38
407.331	93.38
407.555	98.38
407.778	98.38
408.002	93.38
408.226	101.38
408.449	82.38
408.673	84.38
408.896	94.38
409.12	100.38
409.344	101.38
409.567	87.38
409.791	70.38
410.014	100.38
410.238	99.38
410.461	79.38
410.685	92.38
410.908	90.38
411.132	114.38
411.355	102.38
411.578	93.38
411.802	87.38
412.025	104.38
412.249	106.38
412.472	122.38
412.695	136.38
412.919	100.38
413.142	91.38
413.365	99.38
413.589	82.38
413.812	93.38
414.035	108.38
414.258	96.38
414.482	84.38
414.705	87.38
414.928	89.38
415.151	102.38
415.374	98.38
415.597	84.38
415.821	77.38
416.044	97.38
416.267	91.38
416.49	86.38
416.713	78.38
416.936	98.38
417.159	82.38
417.382	96.38
417.605	118.38
417.828	111.38
418.051	100.38
418.274	97.38
418.497	95.38
418.72	89.38
418.943	87.38
419.166	98.38
419.389	78.38
419.611	67.38
419.834	88.38
420.057	86.38
420.28	93.38
420.503	95.38
420.726	82.38
420.948	83.38
421.171	94.38
421.394	87.38
421.617	92.38
421.839	72.38
422.062	90.38
422.285	100.38
422.507	104.38
422.73	103.38
422.953	97.38
423.175	88.38
423.398	90.38
423.621	90.38
423.843	96.38
424.066	98.38
424.288	87.38
424.511	88.38
424.733	96.38
424.956	122.38
425.178	110.38
425.401	92.38
425.623	105.38
425.846	99.38
426.068	110.38
426.291	105.38
426.513	86.38
426.735	93.38
426.958	112.38
427.18	122.38
427.402	186.38
427.625	250.38
427.847	250.38
428.069	198.38
428.292	144.38
428.514	104.38
428.736	93.38
428.958	83.38
429.181	73.38
429.403	91.38
429.625	98.38
429.847	94.38
430.069	109.38
430.292	106.38
430.514	97.38
430.736	87.38
430.958	80.38
431.18	90.38
431.402	78.38
431.624	101.38
431.846	95.38
432.068	104.38
432.29	95.38
432.512	100.38
432.734	92.38
432.956	87.38
433.178	103.38
433.4	103.38
433.622	81.38
433.844	99.38
434.066	78.38
434.287	80.38
434.509	94.38
434.731	107.38
434.953	94.38
435.175	89.38
435.397	92.38
435.618	109.38
435.84	99.38
436.062	137.38
436.284	127.38
436.505	101.38
436.727	108.38
436.949	94.38
437.17	86.38
437.392	78.38
437.614	94.38
437.835	135.38
438.057	158.38
438.278	127.38
438.5	119.38
438.721	135.38
438.943	101.38
439.165	84.38
439.386	88.38
439.608	101.38
439.829	124.38
440.05	135.38
440.272	184.38
440.493	105.38
440.715	87.38
440.936	74.38
441.158	80.38
441.379	100.38
441.6	105.38
441.822	98.38
442.043	92.38
442.264	134.38
442.486	117.38
442.707	104.38
442.928	125.38
443.149	177.38
443.371	165.38
443.592	126.38
443.813	129.38
444.034	115.38
444.255	102.38
444.476	87.38
444.698	88.38
444.919	90.38
445.14	136.38
445.361	133.38
445.582	132.38
445.803	183.38
446.024	152.38
446.245	163.38
446.466	131.38
446.687	93.38
446.908	87.38
447.129	104.38
447.35	80.38
447.571	108.38
447.792	104.38
448.013	114.38
448.234	125.38
448.455	102.38
448.675	120.38
448.896	142.38
449.117	126.38
449.338	115.38
449.559	142.38
449.779	168.38
450	104.38
450.221	86.38
450.442	91.38
450.662	101.38
450.883	124.38
451.104	133.38
451.324	115.38
451.545	101.38
451.766	91.38
451.986	86.38
452.207	95.38
452.428	102.38
452.648	108.38
452.869	130.38
453.089	123.38
453.31	152.38
453.53	105.38
453.751	108.38
453.971	116.38
454.192	137.38
454.412	115.38
454.633	82.38
454.853	88.38
455.073	94.38
455.294	104.38
455.514	103.38
455.734	87.38
455.955	85.38
456.175	106.38
456.395	90.38
456.616	78.38
456.836	79.38
457.056	83.38
457.276	81.38
457.497	93.38
457.717	98.38
457.937	92.38
458.157	91.38
458.377	102.38
458.598	125.38
458.818	201.38
459.038	232.38
459.258	141.38
459.478	100.38
459.698	96.38
459.918	88.38
460.138	90.38
460.358	96.38
460.578	99.38
460.798	92.38
461.018	86.38
461.238	88.38
461.458	86.38
461.678	102.38
461.898	95.38
462.118	81.38
462.338	89.38
462.558	97.38
462.777	84.38
462.997	98.38
463.217	105.38
463.437	104.38
463.657	92.38
463.876	97.38
464.096	92.38
464.316	108.38
464.536	95.38
464.755	92.38
464.975	136.38
465.195	229.38
465.414	234.38
465.634	109.38
465.854	97.38
466.073	84.38
466.293	77.38
466.512	91.38
466.732	88.38
466.951	99.38
467.171	103.38
467.391	93.38
467.61	142.38
467.829	228.38
468.049	555.38
468.268	838.38
468.488	225.38
468.707	118.38
468.927	103.38
469.146	101.38
469.365	112.38
469.585	111.38
469.804	117.38
470.023	101.38
470.243	113.38
470.462	131.38
470.681	141.38
470.901	102.38
471.12	101.38
471.339	103.38
471.558	117.38
471.777	164.38
471.997	308.38
472.216	1095.38
472.435	2523.38
472.654	560.38
472.873	161.38
473.092	106.38
473.311	96.38
473.53	111.38
473.749	85.38
473.968	110.38
474.187	131.38
474.406	125.38
474.625	108.38
474.844	72.38
475.063	87.38
475.282	86.38
475.501	86.38
475.72	92.38
475.939	92.38
476.158	72.38
476.377	98.38
476.596	86.38
476.814	91.38
477.033	118.38
477.252	102.38
477.471	82.38
477.69	103.38
477.908	99.38
478.127	95.38
478.346	107.38
478.564	102.38
478.783	105.38
479.002	106.38
479.22	106.38
479.439	118.38
479.658	134.38
479.876	127.38
480.095	113.38
480.313	133.38
480.532	164.38
480.751	291.38
480.969	1026.38
481.188	4404.38
481.406	2407.38
481.624	361.38
481.843	142.38
482.061	114.38
482.28	114.38
482.498	96.38
482.717	101.38
482.935	101.38
483.153	102.38
483.372	90.38
483.59	87.38
483.808	94.38
484.027	83.38
484.245	106.38
484.463	118.38
484.681	101.38
484.9	94.38
485.118	94.38
485.336	95.38
485.554	104.38
485.772	112.38
485.99	101.38
486.209	106.38
486.427	112.38
486.645	137.38
486.863	134.38
487.081	110.38
487.299	100.38
487.517	97.38
487.735	96.38
487.953	87.38
488.171	107.38
488.389	96.38
488.607	107.38
488.825	88.38
489.043	96.38
489.261	102.38
489.479	96.38
489.696	101.38
489.914	96.38
490.132	85.38
490.35	98.38
490.568	89.38
490.786	85.38
491.003	87.38
491.221	85.38
491.439	110.38
491.657	95.38
491.874	100.38
492.092	100.38
492.31	98.38
492.527	102.38
492.745	104.38
492.963	95.38
493.18	92.38
493.398	89.38
493.615	109.38
493.833	101.38
494.05	92.38
494.268	85.38
494.485	78.38
494.703	77.38
494.92	101.38
495.138	82.38
495.355	86.38
495.573	108.38
495.79	102.38
496.008	97.38
496.225	88.38
496.442	100.38
496.66	89.38
496.877	94.38
497.094	90.38
497.312	91.38
497.529	92.38
497.746	91.38
497.963	80.38
498.181	86.38
498.398	98.38
498.615	117.38
498.832	112.38
499.049	86.38
499.267	93.38
499.484	89.38
499.701	80.38
499.918	85.38
500.135	82.38
500.352	80.38
500.569	101.38
500.786	102.38
501.003	103.38
501.22	90.38
501.437	110.38
501.654	94.38
501.871	113.38
502.088	121.38
502.305	91.38
502.522	99.38
502.739	93.38
502.956	88.38
503.172	95.38
503.389	109.38
503.606	126.38
503.823	103.38
504.04	92.38
504.256	102.38
504.473	95.38
504.69	87.38
504.907	83.38
505.123	84.38
505.34	92.38
505.557	104.38
505.773	89.38
505.99	87.38
506.207	94.38
506.423	85.38
506.64	76.38
506.856	78.38
507.073	83.38
507.289	91.38
507.506	98.38
507.722	131.38
507.939	122.38
508.155	109.38
508.372	86.38
508.588	101.38
508.805	95.38
509.021	101.38
509.238	112.38
509.454	106.38
509.67	113.38
509.887	117.38
510.103	140.38
510.319	254.38
510.536	982.38
510.752	3271.38
510.968	844.38
511.184	188.38
511.401	133.38
511.617	114.38
511.833	104.38
512.049	105.38
512.265	84.38
512.481	80.38
512.698	100.38
512.914	87.38
