Data from Circ_1987_H10_HRD10591_00071.txt Node
Date: Wed Jan 03 12:10:47 EST 2024
User: Yrep
Spectrometer: HR+D1059
Trigger mode: 1
Integration Time (sec): 1.000000E-1
Scans to average: 1
Electric dark correction enabled: true
Nonlinearity correction enabled: false
Boxcar width: 0
XAxis mode: Wavelengths
Number of Pixels in Spectrum: 2048
>>>>>Begin Spectral Data<<<<<
223.165	-15.38
223.4	-15.38
223.635	-15.38
223.869	-21.38
224.104	-13.38
224.338	-13.38
224.573	-10.38
224.808	-22.38
225.042	-1.38
225.277	-8.38
225.511	-1.38
225.746	7.62
225.98	11.62
226.215	11.62
226.449	-3.38
226.683	19.62
226.918	28.62
227.152	31.62
227.387	33.62
227.621	49.62
227.856	55.62
228.09	48.62
228.324	47.62
228.559	57.62
228.793	70.62
229.027	57.62
229.262	73.62
229.496	89.62
229.73	85.62
229.964	82.62
230.199	66.62
230.433	83.62
230.667	89.62
230.901	79.62
231.136	81.62
231.37	87.62
231.604	67.62
231.838	87.62
232.072	87.62
232.306	78.62
232.541	85.62
232.775	82.62
233.009	84.62
233.243	71.62
233.477	78.62
233.711	76.62
233.945	92.62
234.179	84.62
234.413	92.62
234.647	82.62
234.881	75.62
235.115	71.62
235.349	84.62
235.583	91.62
235.817	87.62
236.051	70.62
236.285	98.62
236.519	59.62
236.753	80.62
236.987	99.62
237.221	79.62
237.455	88.62
237.689	85.62
237.922	73.62
238.156	70.62
238.39	82.62
238.624	85.62
238.858	65.62
239.091	86.62
239.325	81.62
239.559	69.62
239.793	83.62
240.027	84.62
240.26	78.62
240.494	87.62
240.728	76.62
240.961	82.62
241.195	72.62
241.429	88.62
241.662	72.62
241.896	79.62
242.13	81.62
242.363	66.62
242.597	65.62
242.83	79.62
243.064	71.62
243.298	71.62
243.531	84.62
243.765	87.62
243.998	79.62
244.232	90.62
244.465	96.62
244.699	91.62
244.932	85.62
245.166	84.62
245.399	68.62
245.633	88.62
245.866	76.62
246.099	83.62
246.333	94.62
246.566	64.62
246.8	89.62
247.033	91.62
247.266	83.62
247.5	82.62
247.733	84.62
247.966	84.62
248.2	70.62
248.433	79.62
248.666	70.62
248.899	99.62
249.133	98.62
249.366	89.62
249.599	97.62
249.832	101.62
250.066	83.62
250.299	89.62
250.532	75.62
250.765	75.62
250.998	77.62
251.231	84.62
251.465	69.62
251.698	81.62
251.931	93.62
252.164	79.62
252.397	90.62
252.63	71.62
252.863	77.62
253.096	104.62
253.329	82.62
253.562	78.62
253.795	78.62
254.028	103.62
254.261	82.62
254.494	84.62
254.727	81.62
254.96	87.62
255.193	81.62
255.426	75.62
255.659	85.62
255.892	94.62
256.124	99.62
256.357	92.62
256.59	92.62
256.823	94.62
257.056	77.62
257.289	96.62
257.521	82.62
257.754	88.62
257.987	84.62
258.22	94.62
258.452	96.62
258.685	82.62
258.918	96.62
259.151	87.62
259.383	71.62
259.616	88.62
259.849	96.62
260.081	89.62
260.314	87.62
260.547	88.62
260.779	91.62
261.012	110.62
261.244	106.62
261.477	106.62
261.71	113.62
261.942	129.62
262.175	129.62
262.407	98.62
262.64	97.62
262.872	94.62
263.105	82.62
263.337	79.62
263.57	84.62
263.802	100.62
264.035	89.62
264.267	81.62
264.499	89.62
264.732	72.62
264.964	68.62
265.197	85.62
265.429	85.62
265.661	99.62
265.894	86.62
266.126	88.62
266.358	78.62
266.591	79.62
266.823	73.62
267.055	81.62
267.287	71.62
267.52	85.62
267.752	97.62
267.984	77.62
268.216	81.62
268.448	104.62
268.681	96.62
268.913	80.62
269.145	75.62
269.377	82.62
269.609	89.62
269.841	82.62
270.073	89.62
270.306	85.62
270.538	70.62
270.77	88.62
271.002	92.62
271.234	81.62
271.466	96.62
271.698	95.62
271.93	83.62
272.162	85.62
272.394	94.62
272.626	87.62
272.858	85.62
273.09	79.62
273.322	70.62
273.553	91.62
273.785	93.62
274.017	93.62
274.249	89.62
274.481	84.62
274.713	94.62
274.945	101.62
275.176	97.62
275.408	100.62
275.64	118.62
275.872	124.62
276.104	105.62
276.335	115.62
276.567	115.62
276.799	129.62
277.031	181.62
277.262	192.62
277.494	136.62
277.726	105.62
277.957	90.62
278.189	84.62
278.421	89.62
278.652	85.62
278.884	99.62
279.115	88.62
279.347	84.62
279.579	93.62
279.81	126.62
280.042	195.62
280.273	251.62
280.505	176.62
280.736	114.62
280.968	99.62
281.199	99.62
281.431	86.62
281.662	79.62
281.894	82.62
282.125	102.62
282.356	143.62
282.588	188.62
282.819	136.62
283.051	93.62
283.282	79.62
283.513	79.62
283.745	75.62
283.976	91.62
284.207	85.62
284.439	84.62
284.67	86.62
284.901	80.62
285.132	84.62
285.364	95.62
285.595	92.62
285.826	97.62
286.057	86.62
286.288	75.62
286.52	64.62
286.751	86.62
286.982	85.62
287.213	83.62
287.444	87.62
287.675	80.62
287.906	84.62
288.138	83.62
288.369	91.62
288.6	101.62
288.831	75.62
289.062	83.62
289.293	82.62
289.524	94.62
289.755	76.62
289.986	90.62
290.217	83.62
290.448	85.62
290.679	83.62
290.91	89.62
291.141	91.62
291.371	87.62
291.602	87.62
291.833	87.62
292.064	83.62
292.295	93.62
292.526	77.62
292.757	83.62
292.987	77.62
293.218	81.62
293.449	77.62
293.68	91.62
293.91	69.62
294.141	95.62
294.372	97.62
294.603	105.62
294.833	88.62
295.064	91.62
295.295	93.62
295.525	85.62
295.756	111.62
295.987	132.62
296.217	173.62
296.448	153.62
296.679	106.62
296.909	96.62
297.14	88.62
297.37	97.62
297.601	81.62
297.831	102.62
298.062	95.62
298.292	95.62
298.523	86.62
298.753	99.62
298.984	85.62
299.214	98.62
299.445	109.62
299.675	97.62
299.905	93.62
300.136	102.62
300.366	88.62
300.597	93.62
300.827	103.62
301.057	108.62
301.288	97.62
301.518	109.62
301.748	95.62
301.979	110.62
302.209	92.62
302.439	102.62
302.669	84.62
302.9	78.62
303.13	101.62
303.36	127.62
303.59	135.62
303.82	165.62
304.051	104.62
304.281	104.62
304.511	98.62
304.741	85.62
304.971	88.62
305.201	84.62
305.431	88.62
305.661	88.62
305.891	86.62
306.121	97.62
306.352	116.62
306.582	123.62
306.812	98.62
307.042	110.62
307.272	159.62
307.502	166.62
307.731	174.62
307.961	128.62
308.191	91.62
308.421	88.62
308.651	88.62
308.881	97.62
309.111	100.62
309.341	99.62
309.571	110.62
309.8	97.62
310.03	98.62
310.26	93.62
310.49	100.62
310.72	116.62
310.949	119.62
311.179	121.62
311.409	102.62
311.639	105.62
311.868	99.62
312.098	115.62
312.328	98.62
312.557	105.62
312.787	128.62
313.017	120.62
313.246	94.62
313.476	87.62
313.706	85.62
313.935	101.62
314.165	101.62
314.394	116.62
314.624	103.62
314.853	119.62
315.083	104.62
315.312	86.62
315.542	102.62
315.771	105.62
316.001	97.62
316.23	98.62
316.46	77.62
316.689	90.62
316.919	93.62
317.148	90.62
317.377	98.62
317.607	93.62
317.836	81.62
318.065	91.62
318.295	99.62
318.524	95.62
318.753	91.62
318.983	109.62
319.212	97.62
319.441	127.62
319.67	124.62
319.9	97.62
320.129	96.62
320.358	94.62
320.587	94.62
320.816	108.62
321.046	111.62
321.275	126.62
321.504	72.62
321.733	92.62
321.962	96.62
322.191	95.62
322.42	112.62
322.649	117.62
322.878	117.62
323.108	126.62
323.337	145.62
323.566	143.62
323.795	170.62
324.024	238.62
324.253	407.62
324.482	819.62
324.71	1633.62
324.939	2146.62
325.168	813.62
325.397	253.62
325.626	158.62
325.855	142.62
326.084	128.62
326.313	136.62
326.542	163.62
326.77	253.62
326.999	425.62
327.228	839.62
327.457	1496.62
327.686	1227.62
327.914	512.62
328.143	501.62
328.372	667.62
328.6	376.62
328.829	198.62
329.058	207.62
329.287	202.62
329.515	176.62
329.744	246.62
329.972	447.62
330.201	946.62
330.43	1424.62
330.658	652.62
330.887	311.62
331.115	207.62
331.344	121.62
331.572	126.62
331.801	122.62
332.03	129.62
332.258	115.62
332.486	101.62
332.715	113.62
332.943	119.62
333.172	120.62
333.4	136.62
333.629	147.62
333.857	217.62
334.085	404.62
334.314	875.62
334.542	1699.62
334.771	1642.62
334.999	433.62
335.227	178.62
335.455	120.62
335.684	120.62
335.912	111.62
336.14	110.62
336.369	101.62
336.597	99.62
336.825	105.62
337.053	102.62
337.281	107.62
337.51	104.62
337.738	105.62
337.966	97.62
338.194	105.62
338.422	103.62
338.65	97.62
338.878	92.62
339.106	94.62
339.334	94.62
339.562	86.62
339.79	101.62
340.018	87.62
340.246	94.62
340.474	106.62
340.702	112.62
340.93	101.62
341.158	97.62
341.386	101.62
341.614	107.62
341.842	89.62
342.07	86.62
342.298	104.62
342.526	98.62
342.754	92.62
342.981	78.62
343.209	93.62
343.437	108.62
343.665	84.62
343.893	99.62
344.12	100.62
344.348	78.62
344.576	92.62
344.804	93.62
345.031	122.62
345.259	116.62
345.487	87.62
345.714	101.62
345.942	88.62
346.17	84.62
346.397	94.62
346.625	102.62
346.853	102.62
347.08	97.62
347.308	107.62
347.535	102.62
347.763	105.62
347.99	94.62
348.218	114.62
348.445	118.62
348.673	97.62
348.9	84.62
349.128	99.62
349.355	93.62
349.583	78.62
349.81	84.62
350.037	88.62
350.265	89.62
350.492	88.62
350.72	111.62
350.947	95.62
351.174	113.62
351.402	127.62
351.629	121.62
351.856	105.62
352.083	107.62
352.311	115.62
352.538	120.62
352.765	113.62
352.992	136.62
353.22	116.62
353.447	118.62
353.674	99.62
353.901	91.62
354.128	92.62
354.355	87.62
354.583	93.62
354.81	100.62
355.037	84.62
355.264	91.62
355.491	79.62
355.718	88.62
355.945	90.62
356.172	92.62
356.399	99.62
356.626	86.62
356.853	96.62
357.08	101.62
357.307	87.62
357.534	85.62
357.761	91.62
357.988	80.62
358.215	79.62
358.441	79.62
358.668	80.62
358.895	84.62
359.122	82.62
359.349	89.62
359.576	106.62
359.802	120.62
360.029	153.62
360.256	143.62
360.483	113.62
360.709	89.62
360.936	118.62
361.163	99.62
361.39	119.62
361.616	99.62
361.843	97.62
362.07	102.62
362.296	98.62
362.523	107.62
362.749	100.62
362.976	101.62
363.203	91.62
363.429	86.62
363.656	101.62
363.882	87.62
364.109	80.62
364.335	104.62
364.562	94.62
364.788	83.62
365.015	94.62
365.241	103.62
365.468	111.62
365.694	124.62
365.92	106.62
366.147	95.62
366.373	88.62
366.599	93.62
366.826	88.62
367.052	97.62
367.278	107.62
367.505	109.62
367.731	96.62
367.957	95.62
368.184	93.62
368.41	109.62
368.636	130.62
368.862	136.62
369.089	121.62
369.315	97.62
369.541	95.62
369.767	110.62
369.993	116.62
370.219	105.62
370.445	90.62
370.672	84.62
370.898	88.62
371.124	87.62
371.35	94.62
371.576	95.62
371.802	85.62
372.028	86.62
372.254	86.62
372.48	84.62
372.706	93.62
372.932	89.62
373.158	93.62
373.384	84.62
373.61	86.62
373.835	94.62
374.061	95.62
374.287	95.62
374.513	90.62
374.739	86.62
374.965	88.62
375.191	92.62
375.416	95.62
375.642	87.62
375.868	93.62
376.094	75.62
376.319	75.62
376.545	96.62
376.771	104.62
376.997	90.62
377.222	101.62
377.448	93.62
377.674	79.62
377.899	101.62
378.125	98.62
378.35	93.62
378.576	84.62
378.802	78.62
379.027	88.62
379.253	103.62
379.478	81.62
379.704	78.62
379.929	99.62
380.155	83.62
380.38	100.62
380.606	96.62
380.831	81.62
381.057	97.62
381.282	91.62
381.507	82.62
381.733	89.62
381.958	95.62
382.184	96.62
382.409	87.62
382.634	102.62
382.86	79.62
383.085	103.62
383.31	96.62
383.535	94.62
383.761	97.62
383.986	99.62
384.211	73.62
384.436	99.62
384.662	84.62
384.887	87.62
385.112	95.62
385.337	84.62
385.562	93.62
385.787	106.62
386.013	108.62
386.238	115.62
386.463	112.62
386.688	94.62
386.913	91.62
387.138	100.62
387.363	91.62
387.588	106.62
387.813	85.62
388.038	88.62
388.263	99.62
388.488	105.62
388.713	102.62
388.938	77.62
389.163	84.62
389.387	93.62
389.612	80.62
389.837	84.62
390.062	84.62
390.287	88.62
390.512	87.62
390.736	81.62
390.961	78.62
391.186	81.62
391.411	93.62
391.636	95.62
391.86	71.62
392.085	97.62
392.31	86.62
392.534	83.62
392.759	97.62
392.984	83.62
393.208	88.62
393.433	91.62
393.658	94.62
393.882	77.62
394.107	83.62
394.331	79.62
394.556	80.62
394.78	103.62
395.005	84.62
395.229	102.62
395.454	92.62
395.678	91.62
395.903	80.62
396.127	93.62
396.352	102.62
396.576	81.62
396.801	94.62
397.025	91.62
397.249	86.62
397.474	97.62
397.698	87.62
397.922	85.62
398.147	76.62
398.371	89.62
398.595	88.62
398.82	86.62
399.044	90.62
399.268	82.62
399.492	95.62
399.717	86.62
399.941	100.62
400.165	90.62
400.389	102.62
400.613	90.62
400.837	87.62
401.062	81.62
401.286	111.62
401.51	95.62
401.734	102.62
401.958	97.62
402.182	147.62
402.406	208.62
402.63	134.62
402.854	109.62
403.078	108.62
403.302	94.62
403.526	102.62
403.75	86.62
403.974	81.62
404.198	79.62
404.422	87.62
404.645	87.62
404.869	99.62
405.093	115.62
405.317	139.62
405.541	143.62
405.765	127.62
405.988	142.62
406.212	218.62
406.436	327.62
406.66	207.62
406.883	139.62
407.107	122.62
407.331	109.62
407.555	124.62
407.778	110.62
408.002	100.62
408.226	92.62
408.449	103.62
408.673	87.62
408.896	95.62
409.12	80.62
409.344	94.62
409.567	96.62
409.791	90.62
410.014	89.62
410.238	88.62
410.461	91.62
410.685	89.62
410.908	93.62
411.132	99.62
411.355	90.62
411.578	87.62
411.802	88.62
412.025	93.62
412.249	103.62
412.472	111.62
412.695	125.62
412.919	95.62
413.142	95.62
413.365	87.62
413.589	77.62
413.812	95.62
414.035	98.62
414.258	88.62
414.482	105.62
414.705	80.62
414.928	91.62
415.151	105.62
415.374	94.62
415.597	79.62
415.821	73.62
416.044	85.62
416.267	81.62
416.49	89.62
416.713	86.62
416.936	105.62
417.159	92.62
417.382	108.62
417.605	105.62
417.828	119.62
418.051	90.62
418.274	83.62
418.497	83.62
418.72	102.62
418.943	86.62
419.166	77.62
419.389	82.62
419.611	61.62
419.834	96.62
420.057	87.62
420.28	103.62
420.503	102.62
420.726	79.62
420.948	96.62
421.171	110.62
421.394	101.62
421.617	104.62
421.839	95.62
422.062	88.62
422.285	96.62
422.507	96.62
422.73	113.62
422.953	100.62
423.175	91.62
423.398	88.62
423.621	72.62
423.843	96.62
424.066	87.62
424.288	94.62
424.511	89.62
424.733	114.62
424.956	127.62
425.178	112.62
425.401	104.62
425.623	117.62
425.846	98.62
426.068	100.62
426.291	92.62
426.513	87.62
426.735	87.62
426.958	96.62
427.18	109.62
427.402	171.62
427.625	254.62
427.847	226.62
428.069	173.62
428.292	112.62
428.514	101.62
428.736	90.62
428.958	82.62
429.181	82.62
429.403	90.62
429.625	85.62
429.847	89.62
430.069	111.62
430.292	104.62
430.514	85.62
430.736	92.62
430.958	89.62
431.18	88.62
431.402	91.62
431.624	89.62
431.846	86.62
432.068	68.62
432.29	97.62
432.512	86.62
432.734	94.62
432.956	85.62
433.178	80.62
433.4	84.62
433.622	83.62
433.844	70.62
434.066	91.62
434.287	101.62
434.509	92.62
434.731	84.62
434.953	88.62
435.175	73.62
435.397	88.62
435.618	104.62
435.84	100.62
436.062	131.62
436.284	117.62
436.505	105.62
436.727	104.62
436.949	98.62
437.17	105.62
437.392	82.62
437.614	90.62
437.835	115.62
438.057	176.62
438.278	127.62
438.5	114.62
438.721	124.62
438.943	102.62
439.165	95.62
439.386	75.62
439.608	104.62
439.829	103.62
440.05	155.62
440.272	182.62
440.493	116.62
440.715	93.62
440.936	93.62
441.158	80.62
441.379	80.62
441.6	111.62
441.822	92.62
442.043	105.62
442.264	139.62
442.486	119.62
442.707	109.62
442.928	123.62
443.149	155.62
443.371	160.62
443.592	153.62
443.813	117.62
444.034	102.62
444.255	83.62
444.476	91.62
444.698	89.62
444.919	100.62
445.14	124.62
445.361	120.62
445.582	120.62
445.803	174.62
446.024	172.62
446.245	151.62
446.466	128.62
446.687	97.62
446.908	95.62
447.129	83.62
447.35	90.62
447.571	103.62
447.792	100.62
448.013	118.62
448.234	132.62
448.455	116.62
448.675	106.62
448.896	146.62
449.117	108.62
449.338	105.62
449.559	141.62
449.779	140.62
450	104.62
450.221	88.62
450.442	85.62
450.662	108.62
450.883	133.62
451.104	138.62
451.324	109.62
451.545	87.62
451.766	86.62
451.986	84.62
452.207	87.62
452.428	102.62
452.648	96.62
452.869	125.62
453.089	145.62
453.31	132.62
453.53	91.62
453.751	91.62
453.971	104.62
454.192	133.62
454.412	96.62
454.633	86.62
454.853	90.62
455.073	82.62
455.294	98.62
455.514	106.62
455.734	104.62
455.955	83.62
456.175	86.62
456.395	94.62
456.616	94.62
456.836	86.62
457.056	82.62
457.276	68.62
457.497	83.62
457.717	88.62
457.937	71.62
458.157	91.62
458.377	85.62
458.598	113.62
458.818	220.62
459.038	231.62
459.258	147.62
459.478	109.62
459.698	78.62
459.918	99.62
460.138	86.62
460.358	69.62
460.578	103.62
460.798	104.62
461.018	100.62
461.238	89.62
461.458	93.62
461.678	82.62
461.898	89.62
462.118	85.62
462.338	92.62
462.558	84.62
462.777	79.62
462.997	95.62
463.217	122.62
463.437	98.62
463.657	92.62
463.876	93.62
464.096	101.62
464.316	82.62
464.536	87.62
464.755	97.62
464.975	123.62
465.195	246.62
465.414	269.62
465.634	123.62
465.854	93.62
466.073	98.62
466.293	109.62
466.512	81.62
466.732	96.62
466.951	97.62
467.171	106.62
467.391	113.62
467.61	143.62
467.829	210.62
468.049	559.62
468.268	840.62
468.488	219.62
468.707	105.62
468.927	95.62
469.146	89.62
469.365	86.62
469.585	95.62
469.804	108.62
470.023	116.62
470.243	97.62
470.462	126.62
470.681	133.62
470.901	109.62
471.12	93.62
471.339	116.62
471.558	120.62
471.777	151.62
471.997	297.62
472.216	1039.62
472.435	2491.62
472.654	564.62
472.873	163.62
473.092	107.62
473.311	105.62
473.53	86.62
473.749	101.62
473.968	101.62
474.187	123.62
474.406	109.62
474.625	79.62
474.844	102.62
475.063	98.62
475.282	97.62
475.501	103.62
475.72	88.62
475.939	86.62
476.158	83.62
476.377	85.62
476.596	98.62
476.814	109.62
477.033	109.62
477.252	95.62
477.471	93.62
477.69	89.62
477.908	99.62
478.127	87.62
478.346	94.62
478.564	102.62
478.783	124.62
479.002	111.62
479.22	100.62
479.439	141.62
479.658	139.62
479.876	131.62
480.095	110.62
480.313	132.62
480.532	165.62
480.751	273.62
480.969	951.62
481.188	4116.62
481.406	2339.62
481.624	343.62
481.843	137.62
482.061	109.62
482.28	104.62
482.498	98.62
482.717	88.62
482.935	79.62
483.153	90.62
483.372	98.62
483.59	96.62
483.808	96.62
484.027	90.62
484.245	78.62
484.463	93.62
484.681	102.62
484.9	104.62
485.118	86.62
485.336	93.62
485.554	93.62
485.772	108.62
485.99	106.62
486.209	106.62
486.427	121.62
486.645	113.62
486.863	128.62
487.081	120.62
487.299	105.62
487.517	104.62
487.735	110.62
487.953	93.62
488.171	87.62
488.389	96.62
488.607	117.62
488.825	104.62
489.043	97.62
489.261	98.62
489.479	87.62
489.696	87.62
489.914	96.62
490.132	101.62
490.35	88.62
490.568	99.62
490.786	81.62
491.003	83.62
491.221	95.62
491.439	90.62
491.657	96.62
491.874	105.62
492.092	88.62
492.31	112.62
492.527	101.62
492.745	109.62
492.963	96.62
493.18	81.62
493.398	97.62
493.615	97.62
493.833	82.62
494.05	81.62
494.268	93.62
494.485	98.62
494.703	81.62
494.92	102.62
495.138	101.62
495.355	106.62
495.573	85.62
495.79	87.62
496.008	94.62
496.225	102.62
496.442	102.62
496.66	91.62
496.877	76.62
497.094	87.62
497.312	87.62
497.529	95.62
497.746	102.62
497.963	96.62
498.181	107.62
498.398	93.62
498.615	106.62
498.832	103.62
499.049	96.62
499.267	78.62
499.484	101.62
499.701	91.62
499.918	96.62
500.135	95.62
500.352	92.62
500.569	96.62
500.786	115.62
501.003	84.62
501.22	112.62
501.437	96.62
501.654	106.62
501.871	126.62
502.088	106.62
502.305	94.62
502.522	83.62
502.739	103.62
502.956	93.62
503.172	93.62
503.389	116.62
503.606	111.62
503.823	98.62
504.04	100.62
504.256	100.62
504.473	99.62
504.69	83.62
504.907	98.62
505.123	88.62
505.34	84.62
505.557	89.62
505.773	111.62
505.99	93.62
506.207	99.62
506.423	87.62
506.64	96.62
506.856	91.62
507.073	106.62
507.289	100.62
507.506	105.62
507.722	139.62
507.939	147.62
508.155	92.62
508.372	99.62
508.588	83.62
508.805	100.62
509.021	88.62
509.238	114.62
509.454	106.62
509.67	104.62
509.887	131.62
510.103	129.62
510.319	260.62
510.536	961.62
510.752	3372.62
510.968	882.62
511.184	188.62
511.401	130.62
511.617	118.62
511.833	125.62
512.049	104.62
512.265	88.62
512.481	96.62
512.698	83.62
512.914	91.62
513.13	78.62
