Data from Circ_1987_H10_HRD10591_00051.txt Node
Date: Wed Jan 03 12:10:43 EST 2024
User: Yrep
Spectrometer: HR+D1059
Trigger mode: 1
Integration Time (sec): 1.000000E-1
Scans to average: 1
Electric dark correction enabled: true
Nonlinearity correction enabled: false
Boxcar width: 0
XAxis mode: Wavelengths
Number of Pixels in Spectrum: 2048
>>>>>Begin Spectral Data<<<<<
223.165	-14.75
223.4	-14.75
223.635	-14.75
223.869	-30.75
224.104	-27.75
224.338	-26.75
224.573	-5.75
224.808	-4.75
225.042	3.25
225.277	4.25
225.511	-2.75
225.746	18.25
225.98	-2.75
226.215	5.25
226.449	20.25
226.683	13.25
226.918	26.25
227.152	25.25
227.387	25.25
227.621	41.25
227.856	40.25
228.09	35.25
228.324	47.25
228.559	54.25
228.793	49.25
229.027	55.25
229.262	82.25
229.496	77.25
229.73	114.25
229.964	91.25
230.199	78.25
230.433	79.25
230.667	90.25
230.901	89.25
231.136	73.25
231.37	67.25
231.604	69.25
231.838	63.25
232.072	79.25
232.306	73.25
232.541	72.25
232.775	75.25
233.009	77.25
233.243	68.25
233.477	75.25
233.711	60.25
233.945	75.25
234.179	60.25
234.413	64.25
234.647	72.25
234.881	70.25
235.115	84.25
235.349	65.25
235.583	57.25
235.817	86.25
236.051	79.25
236.285	75.25
236.519	68.25
236.753	85.25
236.987	82.25
237.221	86.25
237.455	87.25
237.689	67.25
237.922	85.25
238.156	66.25
238.39	55.25
238.624	60.25
238.858	77.25
239.091	80.25
239.325	94.25
239.559	83.25
239.793	88.25
240.027	72.25
240.26	76.25
240.494	95.25
240.728	75.25
240.961	77.25
241.195	64.25
241.429	82.25
241.662	62.25
241.896	47.25
242.13	77.25
242.363	79.25
242.597	82.25
242.83	82.25
243.064	76.25
243.298	74.25
243.531	80.25
243.765	80.25
243.998	76.25
244.232	82.25
244.465	94.25
244.699	98.25
244.932	70.25
245.166	77.25
245.399	65.25
245.633	74.25
245.866	64.25
246.099	65.25
246.333	79.25
246.566	68.25
246.8	57.25
247.033	77.25
247.266	79.25
247.5	73.25
247.733	82.25
247.966	79.25
248.2	71.25
248.433	74.25
248.666	73.25
248.899	79.25
249.133	99.25
249.366	107.25
249.599	104.25
249.832	83.25
250.066	84.25
250.299	78.25
250.532	94.25
250.765	84.25
250.998	69.25
251.231	81.25
251.465	108.25
251.698	79.25
251.931	75.25
252.164	87.25
252.397	81.25
252.63	65.25
252.863	93.25
253.096	66.25
253.329	97.25
253.562	95.25
253.795	92.25
254.028	69.25
254.261	72.25
254.494	60.25
254.727	75.25
254.96	84.25
255.193	92.25
255.426	87.25
255.659	89.25
255.892	90.25
256.124	101.25
256.357	80.25
256.59	87.25
256.823	73.25
257.056	77.25
257.289	83.25
257.521	75.25
257.754	64.25
257.987	75.25
258.22	87.25
258.452	88.25
258.685	76.25
258.918	71.25
259.151	100.25
259.383	63.25
259.616	69.25
259.849	89.25
260.081	75.25
260.314	96.25
260.547	88.25
260.779	88.25
261.012	84.25
261.244	110.25
261.477	95.25
261.71	114.25
261.942	143.25
262.175	155.25
262.407	98.25
262.64	75.25
262.872	85.25
263.105	83.25
263.337	93.25
263.57	89.25
263.802	77.25
264.035	73.25
264.267	87.25
264.499	75.25
264.732	57.25
264.964	85.25
265.197	80.25
265.429	83.25
265.661	80.25
265.894	71.25
266.126	82.25
266.358	79.25
266.591	78.25
266.823	75.25
267.055	73.25
267.287	81.25
267.52	71.25
267.752	88.25
267.984	83.25
268.216	71.25
268.448	83.25
268.681	86.25
268.913	91.25
269.145	71.25
269.377	87.25
269.609	75.25
269.841	87.25
270.073	72.25
270.306	83.25
270.538	89.25
270.77	77.25
271.002	79.25
271.234	102.25
271.466	85.25
271.698	83.25
271.93	83.25
272.162	99.25
272.394	88.25
272.626	83.25
272.858	76.25
273.09	85.25
273.322	82.25
273.553	85.25
273.785	77.25
274.017	66.25
274.249	87.25
274.481	90.25
274.713	82.25
274.945	91.25
275.176	85.25
275.408	105.25
275.64	129.25
275.872	129.25
276.104	117.25
276.335	112.25
276.567	112.25
276.799	159.25
277.031	199.25
277.262	229.25
277.494	158.25
277.726	97.25
277.957	83.25
278.189	93.25
278.421	87.25
278.652	89.25
278.884	76.25
279.115	84.25
279.347	93.25
279.579	99.25
279.81	135.25
280.042	204.25
280.273	307.25
280.505	198.25
280.736	103.25
280.968	97.25
281.199	83.25
281.431	85.25
281.662	95.25
281.894	98.25
282.125	100.25
282.356	154.25
282.588	213.25
282.819	139.25
283.051	96.25
283.282	82.25
283.513	93.25
283.745	92.25
283.976	92.25
284.207	83.25
284.439	88.25
284.67	89.25
284.901	75.25
285.132	83.25
285.364	97.25
285.595	80.25
285.826	80.25
286.057	82.25
286.288	87.25
286.52	91.25
286.751	75.25
286.982	79.25
287.213	73.25
287.444	76.25
287.675	84.25
287.906	89.25
288.138	84.25
288.369	99.25
288.6	95.25
288.831	90.25
289.062	78.25
289.293	68.25
289.524	57.25
289.755	81.25
289.986	69.25
290.217	91.25
290.448	73.25
290.679	88.25
290.91	80.25
291.141	83.25
291.371	78.25
291.602	83.25
291.833	93.25
292.064	82.25
292.295	99.25
292.526	97.25
292.757	89.25
292.987	85.25
293.218	91.25
293.449	76.25
293.68	96.25
293.91	97.25
294.141	79.25
294.372	91.25
294.603	83.25
294.833	81.25
295.064	87.25
295.295	81.25
295.525	92.25
295.756	104.25
295.987	134.25
296.217	165.25
296.448	165.25
296.679	96.25
296.909	92.25
297.14	90.25
297.37	78.25
297.601	81.25
297.831	98.25
298.062	92.25
298.292	89.25
298.523	86.25
298.753	78.25
298.984	60.25
299.214	82.25
299.445	90.25
299.675	95.25
299.905	94.25
300.136	98.25
300.366	73.25
300.597	79.25
300.827	93.25
301.057	107.25
301.288	124.25
301.518	106.25
301.748	99.25
301.979	109.25
302.209	109.25
302.439	99.25
302.669	81.25
302.9	85.25
303.13	89.25
303.36	115.25
303.59	159.25
303.82	161.25
304.051	107.25
304.281	90.25
304.511	97.25
304.741	89.25
304.971	96.25
305.201	89.25
305.431	94.25
305.661	84.25
305.891	93.25
306.121	99.25
306.352	105.25
306.582	118.25
306.812	108.25
307.042	135.25
307.272	193.25
307.502	207.25
307.731	171.25
307.961	134.25
308.191	92.25
308.421	83.25
308.651	84.25
308.881	92.25
309.111	97.25
309.341	95.25
309.571	99.25
309.8	107.25
310.03	109.25
310.26	94.25
310.49	107.25
310.72	112.25
310.949	132.25
311.179	125.25
311.409	111.25
311.639	114.25
311.868	123.25
312.098	98.25
312.328	96.25
312.557	116.25
312.787	135.25
313.017	103.25
313.246	101.25
313.476	101.25
313.706	98.25
313.935	101.25
314.165	121.25
314.394	118.25
314.624	114.25
314.853	98.25
315.083	98.25
315.312	105.25
315.542	75.25
315.771	95.25
316.001	90.25
316.23	92.25
316.46	93.25
316.689	92.25
316.919	91.25
317.148	92.25
317.377	91.25
317.607	93.25
317.836	103.25
318.065	83.25
318.295	81.25
318.524	94.25
318.753	80.25
318.983	97.25
319.212	107.25
319.441	111.25
319.67	123.25
319.9	100.25
320.129	91.25
320.358	101.25
320.587	85.25
320.816	107.25
321.046	115.25
321.275	98.25
321.504	93.25
321.733	101.25
321.962	106.25
322.191	108.25
322.42	116.25
322.649	133.25
322.878	127.25
323.108	153.25
323.337	147.25
323.566	179.25
323.795	207.25
324.024	272.25
324.253	532.25
324.482	1131.25
324.71	2267.25
324.939	3098.25
325.168	1136.25
325.397	322.25
325.626	177.25
325.855	146.25
326.084	117.25
326.313	149.25
326.542	190.25
326.77	281.25
326.999	551.25
327.228	1131.25
327.457	2076.25
327.686	1715.25
327.914	637.25
328.143	654.25
328.372	813.25
328.6	467.25
328.829	225.25
329.058	229.25
329.287	235.25
329.515	227.25
329.744	287.25
329.972	566.25
330.201	1180.25
330.43	1813.25
330.658	828.25
330.887	392.25
331.115	243.25
331.344	135.25
331.572	116.25
331.801	143.25
332.03	159.25
332.258	123.25
332.486	102.25
332.715	105.25
332.943	123.25
333.172	134.25
333.4	121.25
333.629	168.25
333.857	260.25
334.085	511.25
334.314	1126.25
334.542	2301.25
334.771	2099.25
334.999	533.25
335.227	203.25
335.455	144.25
335.684	128.25
335.912	116.25
336.14	112.25
336.369	106.25
336.597	115.25
336.825	116.25
337.053	104.25
337.281	87.25
337.51	102.25
337.738	94.25
337.966	101.25
338.194	91.25
338.422	115.25
338.65	101.25
338.878	101.25
339.106	91.25
339.334	101.25
339.562	87.25
339.79	76.25
340.018	92.25
340.246	106.25
340.474	101.25
340.702	101.25
340.93	88.25
341.158	98.25
341.386	103.25
341.614	97.25
341.842	114.25
342.07	110.25
342.298	103.25
342.526	99.25
342.754	89.25
342.981	89.25
343.209	78.25
343.437	92.25
343.665	79.25
343.893	80.25
344.12	85.25
344.348	98.25
344.576	86.25
344.804	98.25
345.031	121.25
345.259	111.25
345.487	105.25
345.714	104.25
345.942	93.25
346.17	103.25
346.397	104.25
346.625	105.25
346.853	93.25
347.08	80.25
347.308	94.25
347.535	115.25
347.763	126.25
347.99	107.25
348.218	112.25
348.445	140.25
348.673	129.25
348.9	112.25
349.128	109.25
349.355	88.25
349.583	91.25
349.81	80.25
350.037	95.25
350.265	98.25
350.492	90.25
350.72	91.25
350.947	108.25
351.174	112.25
351.402	126.25
351.629	106.25
351.856	109.25
352.083	119.25
352.311	116.25
352.538	142.25
352.765	130.25
352.992	133.25
353.22	119.25
353.447	111.25
353.674	96.25
353.901	105.25
354.128	95.25
354.355	92.25
354.583	111.25
354.81	91.25
355.037	90.25
355.264	89.25
355.491	83.25
355.718	87.25
355.945	84.25
356.172	81.25
356.399	93.25
356.626	72.25
356.853	94.25
357.08	86.25
357.307	73.25
357.534	84.25
357.761	85.25
357.988	93.25
358.215	72.25
358.441	85.25
358.668	77.25
358.895	98.25
359.122	90.25
359.349	86.25
359.576	106.25
359.802	126.25
360.029	173.25
360.256	169.25
360.483	133.25
360.709	96.25
360.936	98.25
361.163	96.25
361.39	108.25
361.616	123.25
361.843	103.25
362.07	110.25
362.296	110.25
362.523	101.25
362.749	100.25
362.976	95.25
363.203	109.25
363.429	87.25
363.656	95.25
363.882	98.25
364.109	90.25
364.335	87.25
364.562	89.25
364.788	96.25
365.015	114.25
365.241	107.25
365.468	137.25
365.694	122.25
365.92	107.25
366.147	96.25
366.373	100.25
366.599	97.25
366.826	81.25
367.052	93.25
367.278	93.25
367.505	90.25
367.731	89.25
367.957	100.25
368.184	96.25
368.41	107.25
368.636	140.25
368.862	132.25
369.089	130.25
369.315	109.25
369.541	108.25
369.767	104.25
369.993	106.25
370.219	115.25
370.445	75.25
370.672	79.25
370.898	87.25
371.124	87.25
371.35	78.25
371.576	77.25
371.802	88.25
372.028	93.25
372.254	87.25
372.48	89.25
372.706	82.25
372.932	82.25
373.158	90.25
373.384	92.25
373.61	94.25
373.835	84.25
374.061	81.25
374.287	92.25
374.513	86.25
374.739	91.25
374.965	91.25
375.191	86.25
375.416	83.25
375.642	76.25
375.868	92.25
376.094	79.25
376.319	73.25
376.545	69.25
376.771	96.25
376.997	85.25
377.222	83.25
377.448	86.25
377.674	81.25
377.899	80.25
378.125	85.25
378.35	89.25
378.576	72.25
378.802	82.25
379.027	87.25
379.253	76.25
379.478	78.25
379.704	71.25
379.929	96.25
380.155	80.25
380.38	92.25
380.606	96.25
380.831	91.25
381.057	98.25
381.282	91.25
381.507	97.25
381.733	82.25
381.958	79.25
382.184	87.25
382.409	85.25
382.634	113.25
382.86	85.25
383.085	93.25
383.31	92.25
383.535	91.25
383.761	71.25
383.986	85.25
384.211	112.25
384.436	97.25
384.662	89.25
384.887	104.25
385.112	96.25
385.337	98.25
385.562	94.25
385.787	100.25
386.013	110.25
386.238	121.25
386.463	115.25
386.688	108.25
386.913	99.25
387.138	91.25
387.363	101.25
387.588	79.25
387.813	91.25
388.038	93.25
388.263	106.25
388.488	97.25
388.713	86.25
388.938	85.25
389.163	100.25
389.387	82.25
389.612	88.25
389.837	90.25
390.062	102.25
390.287	76.25
390.512	76.25
390.736	81.25
390.961	94.25
391.186	89.25
391.411	87.25
391.636	71.25
391.86	84.25
392.085	95.25
392.31	93.25
392.534	88.25
392.759	87.25
392.984	86.25
393.208	75.25
393.433	97.25
393.658	87.25
393.882	79.25
394.107	76.25
394.331	73.25
394.556	91.25
394.78	93.25
395.005	82.25
395.229	72.25
395.454	89.25
395.678	95.25
395.903	100.25
396.127	94.25
396.352	92.25
396.576	82.25
396.801	84.25
397.025	72.25
397.249	97.25
397.474	102.25
397.698	71.25
397.922	83.25
398.147	77.25
398.371	87.25
398.595	76.25
398.82	78.25
399.044	91.25
399.268	77.25
399.492	91.25
399.717	84.25
399.941	98.25
400.165	92.25
400.389	95.25
400.613	104.25
400.837	89.25
401.062	82.25
401.286	100.25
401.51	99.25
401.734	96.25
401.958	117.25
402.182	160.25
402.406	222.25
402.63	163.25
402.854	115.25
403.078	107.25
403.302	101.25
403.526	79.25
403.75	100.25
403.974	90.25
404.198	95.25
404.422	95.25
404.645	89.25
404.869	114.25
405.093	122.25
405.317	148.25
405.541	156.25
405.765	139.25
405.988	165.25
406.212	258.25
406.436	395.25
406.66	244.25
406.883	144.25
407.107	108.25
407.331	104.25
407.555	124.25
407.778	116.25
408.002	93.25
408.226	100.25
408.449	80.25
408.673	85.25
408.896	110.25
409.12	101.25
409.344	94.25
409.567	85.25
409.791	85.25
410.014	91.25
410.238	84.25
410.461	90.25
410.685	89.25
410.908	100.25
411.132	94.25
411.355	97.25
411.578	84.25
411.802	83.25
412.025	81.25
412.249	93.25
412.472	114.25
412.695	148.25
412.919	125.25
413.142	95.25
413.365	83.25
413.589	86.25
413.812	93.25
414.035	92.25
414.258	99.25
414.482	89.25
414.705	79.25
414.928	88.25
415.151	80.25
415.374	88.25
415.597	78.25
415.821	80.25
416.044	82.25
416.267	79.25
416.49	84.25
416.713	73.25
416.936	93.25
417.159	96.25
417.382	97.25
417.605	108.25
417.828	121.25
418.051	107.25
418.274	95.25
418.497	104.25
418.72	90.25
418.943	92.25
419.166	87.25
419.389	86.25
419.611	97.25
419.834	94.25
420.057	93.25
420.28	93.25
420.503	87.25
420.726	81.25
420.948	97.25
421.171	113.25
421.394	106.25
421.617	92.25
421.839	96.25
422.062	93.25
422.285	87.25
422.507	98.25
422.73	113.25
422.953	105.25
423.175	91.25
423.398	93.25
423.621	87.25
423.843	85.25
424.066	71.25
424.288	84.25
424.511	98.25
424.733	99.25
424.956	130.25
425.178	123.25
425.401	127.25
425.623	119.25
425.846	87.25
426.068	108.25
426.291	93.25
426.513	104.25
426.735	93.25
426.958	115.25
427.18	124.25
427.402	212.25
427.625	345.25
427.847	292.25
428.069	229.25
428.292	142.25
428.514	105.25
428.736	79.25
428.958	75.25
429.181	97.25
429.403	75.25
429.625	81.25
429.847	98.25
430.069	105.25
430.292	106.25
430.514	86.25
430.736	84.25
430.958	84.25
431.18	96.25
431.402	82.25
431.624	78.25
431.846	84.25
432.068	85.25
432.29	67.25
432.512	90.25
432.734	85.25
432.956	94.25
433.178	95.25
433.4	91.25
433.622	95.25
433.844	84.25
434.066	102.25
434.287	99.25
434.509	79.25
434.731	84.25
434.953	95.25
435.175	75.25
435.397	107.25
435.618	112.25
435.84	122.25
436.062	146.25
436.284	118.25
436.505	103.25
436.727	111.25
436.949	98.25
437.17	100.25
437.392	80.25
437.614	99.25
437.835	147.25
438.057	180.25
438.278	160.25
438.5	123.25
438.721	149.25
438.943	129.25
439.165	95.25
439.386	94.25
439.608	101.25
439.829	118.25
440.05	180.25
440.272	216.25
440.493	132.25
440.715	74.25
440.936	79.25
441.158	101.25
441.379	105.25
441.6	102.25
441.822	114.25
442.043	106.25
442.264	130.25
442.486	130.25
442.707	106.25
442.928	127.25
443.149	204.25
443.371	196.25
443.592	155.25
443.813	150.25
444.034	127.25
444.255	88.25
444.476	85.25
444.698	94.25
444.919	90.25
445.14	125.25
445.361	128.25
445.582	163.25
445.803	230.25
446.024	201.25
446.245	187.25
446.466	133.25
446.687	89.25
446.908	68.25
447.129	84.25
447.35	104.25
447.571	100.25
447.792	93.25
448.013	116.25
448.234	131.25
448.455	122.25
448.675	148.25
448.896	152.25
449.117	111.25
449.338	121.25
449.559	160.25
449.779	160.25
450	95.25
450.221	86.25
450.442	97.25
450.662	101.25
450.883	153.25
451.104	168.25
451.324	121.25
451.545	85.25
451.766	95.25
451.986	88.25
452.207	92.25
452.428	96.25
452.648	112.25
452.869	156.25
453.089	145.25
453.31	159.25
453.53	100.25
453.751	99.25
453.971	127.25
454.192	144.25
454.412	113.25
454.633	99.25
454.853	81.25
455.073	91.25
455.294	88.25
455.514	121.25
455.734	90.25
455.955	82.25
456.175	87.25
456.395	99.25
456.616	81.25
456.836	81.25
457.056	88.25
457.276	79.25
457.497	78.25
457.717	92.25
457.937	97.25
458.157	97.25
458.377	107.25
458.598	161.25
458.818	259.25
459.038	296.25
459.258	164.25
459.478	106.25
459.698	85.25
459.918	95.25
460.138	85.25
460.358	81.25
460.578	96.25
460.798	109.25
461.018	92.25
461.238	109.25
461.458	92.25
461.678	96.25
461.898	84.25
462.118	86.25
462.338	88.25
462.558	89.25
462.777	84.25
462.997	105.25
463.217	122.25
463.437	111.25
463.657	100.25
463.876	81.25
464.096	102.25
464.316	103.25
464.536	116.25
464.755	105.25
464.975	160.25
465.195	315.25
465.414	287.25
465.634	127.25
465.854	99.25
466.073	91.25
466.293	104.25
466.512	82.25
466.732	102.25
466.951	83.25
467.171	91.25
467.391	108.25
467.61	167.25
467.829	229.25
468.049	669.25
468.268	992.25
468.488	239.25
468.707	120.25
468.927	95.25
469.146	91.25
469.365	89.25
469.585	89.25
469.804	120.25
470.023	130.25
470.243	108.25
470.462	120.25
470.681	175.25
470.901	106.25
471.12	100.25
471.339	117.25
471.558	121.25
471.777	158.25
471.997	322.25
472.216	1272.25
472.435	3005.25
472.654	678.25
472.873	183.25
473.092	108.25
473.311	100.25
473.53	110.25
473.749	98.25
473.968	98.25
474.187	157.25
474.406	125.25
474.625	93.25
474.844	89.25
475.063	64.25
475.282	89.25
475.501	84.25
475.72	76.25
475.939	87.25
476.158	85.25
476.377	90.25
476.596	84.25
476.814	109.25
477.033	109.25
477.252	106.25
477.471	96.25
477.69	92.25
477.908	104.25
478.127	87.25
478.346	98.25
478.564	102.25
478.783	116.25
479.002	106.25
479.22	120.25
479.439	141.25
479.658	151.25
479.876	132.25
480.095	121.25
480.313	143.25
480.532	171.25
480.751	300.25
480.969	1156.25
481.188	5103.25
481.406	2940.25
481.624	418.25
481.843	155.25
482.061	115.25
482.28	108.25
482.498	100.25
482.717	93.25
482.935	97.25
483.153	82.25
483.372	90.25
483.59	86.25
483.808	79.25
484.027	101.25
484.245	89.25
484.463	101.25
484.681	111.25
484.9	94.25
485.118	107.25
485.336	98.25
485.554	87.25
485.772	80.25
485.99	99.25
486.209	105.25
486.427	104.25
486.645	124.25
486.863	135.25
487.081	98.25
487.299	110.25
487.517	95.25
487.735	82.25
487.953	95.25
488.171	96.25
488.389	93.25
488.607	92.25
488.825	99.25
489.043	92.25
489.261	101.25
489.479	100.25
489.696	83.25
489.914	79.25
490.132	82.25
490.35	96.25
490.568	91.25
490.786	84.25
491.003	87.25
491.221	104.25
491.439	89.25
491.657	97.25
491.874	84.25
492.092	97.25
492.31	103.25
492.527	97.25
492.745	115.25
492.963	80.25
493.18	71.25
493.398	87.25
493.615	102.25
493.833	94.25
494.05	89.25
494.268	95.25
494.485	82.25
494.703	99.25
494.92	82.25
495.138	100.25
495.355	96.25
495.573	72.25
495.79	83.25
496.008	94.25
496.225	95.25
496.442	92.25
496.66	99.25
496.877	80.25
497.094	96.25
497.312	77.25
497.529	83.25
497.746	93.25
497.963	93.25
498.181	89.25
498.398	100.25
498.615	124.25
498.832	121.25
499.049	98.25
499.267	85.25
499.484	89.25
499.701	97.25
499.918	75.25
500.135	95.25
500.352	91.25
500.569	99.25
500.786	105.25
501.003	89.25
501.22	85.25
501.437	97.25
501.654	105.25
501.871	144.25
502.088	85.25
502.305	88.25
502.522	86.25
502.739	81.25
502.956	92.25
503.172	89.25
503.389	101.25
503.606	137.25
503.823	113.25
504.04	99.25
504.256	92.25
504.473	94.25
504.69	86.25
504.907	93.25
505.123	89.25
505.34	86.25
505.557	95.25
505.773	88.25
505.99	89.25
506.207	90.25
506.423	91.25
506.64	89.25
506.856	96.25
507.073	104.25
507.289	99.25
507.506	96.25
507.722	155.25
507.939	141.25
508.155	114.25
508.372	95.25
508.588	105.25
508.805	104.25
509.021	101.25
509.238	105.25
509.454	89.25
509.67	103.25
509.887	112.25
510.103	150.25
510.319	274.25
510.536	1107.25
510.752	4016.25
510.968	1014.25
511.184	191.25
511.401	144.25
511.617	110.25
511.833	132.25
512.049	114.25
512.265	95.25
512.481	88.25
512.698	97.25
512.914	68.25
513.13	101.25
