Data from Circ_1987_H10_HRD10591_00019.txt Node
Date: Wed Jan 03 12:10:36 EST 2024
User: Yrep
Spectrometer: HR+D1059
Trigger mode: 1
Integration Time (sec): 1.000000E-1
Scans to average: 1
Electric dark correction enabled: true
Nonlinearity correction enabled: false
Boxcar width: 0
XAxis mode: Wavelengths
Number of Pixels in Spectrum: 2048
>>>>>Begin Spectral Data<<<<<
223.165	-35.5
223.4	-35.5
223.635	-35.5
223.869	-8.5
224.104	-20.5
224.338	-20.5
224.573	-3.5
224.808	-8.5
225.042	-4.5
225.277	-4.5
225.511	4.5
225.746	3.5
225.98	2.5
226.215	12.5
226.449	5.5
226.683	20.5
226.918	17.5
227.152	39.5
227.387	41.5
227.621	32.5
227.856	33.5
228.09	36.5
228.324	52.5
228.559	50.5
228.793	54.5
229.027	55.5
229.262	66.5
229.496	82.5
229.73	82.5
229.964	87.5
230.199	88.5
230.433	91.5
230.667	78.5
230.901	82.5
231.136	82.5
231.37	68.5
231.604	79.5
231.838	68.5
232.072	82.5
232.306	85.5
232.541	74.5
232.775	74.5
233.009	77.5
233.243	64.5
233.477	85.5
233.711	78.5
233.945	80.5
234.179	61.5
234.413	86.5
234.647	88.5
234.881	72.5
235.115	66.5
235.349	70.5
235.583	76.5
235.817	84.5
236.051	85.5
236.285	82.5
236.519	69.5
236.753	83.5
236.987	80.5
237.221	94.5
237.455	85.5
237.689	74.5
237.922	65.5
238.156	68.5
238.39	73.5
238.624	59.5
238.858	77.5
239.091	76.5
239.325	66.5
239.559	82.5
239.793	79.5
240.027	74.5
240.26	79.5
240.494	75.5
240.728	68.5
240.961	78.5
241.195	70.5
241.429	69.5
241.662	74.5
241.896	70.5
242.13	76.5
242.363	97.5
242.597	76.5
242.83	86.5
243.064	80.5
243.298	67.5
243.531	78.5
243.765	74.5
243.998	94.5
244.232	83.5
244.465	92.5
244.699	67.5
244.932	84.5
245.166	82.5
245.399	92.5
245.633	81.5
245.866	82.5
246.099	61.5
246.333	79.5
246.566	77.5
246.8	97.5
247.033	72.5
247.266	72.5
247.5	73.5
247.733	60.5
247.966	72.5
248.2	85.5
248.433	85.5
248.666	80.5
248.899	76.5
249.133	74.5
249.366	103.5
249.599	96.5
249.832	87.5
250.066	81.5
250.299	100.5
250.532	78.5
250.765	69.5
250.998	86.5
251.231	87.5
251.465	85.5
251.698	83.5
251.931	85.5
252.164	95.5
252.397	85.5
252.63	71.5
252.863	81.5
253.096	54.5
253.329	71.5
253.562	70.5
253.795	66.5
254.028	93.5
254.261	87.5
254.494	86.5
254.727	87.5
254.96	84.5
255.193	83.5
255.426	70.5
255.659	68.5
255.892	82.5
256.124	82.5
256.357	90.5
256.59	88.5
256.823	89.5
257.056	86.5
257.289	70.5
257.521	70.5
257.754	72.5
257.987	87.5
258.22	87.5
258.452	97.5
258.685	81.5
258.918	83.5
259.151	88.5
259.383	83.5
259.616	83.5
259.849	78.5
260.081	86.5
260.314	72.5
260.547	82.5
260.779	91.5
261.012	95.5
261.244	103.5
261.477	90.5
261.71	94.5
261.942	104.5
262.175	123.5
262.407	104.5
262.64	67.5
262.872	70.5
263.105	87.5
263.337	90.5
263.57	82.5
263.802	66.5
264.035	69.5
264.267	70.5
264.499	85.5
264.732	88.5
264.964	77.5
265.197	81.5
265.429	81.5
265.661	82.5
265.894	82.5
266.126	89.5
266.358	98.5
266.591	78.5
266.823	79.5
267.055	88.5
267.287	82.5
267.52	84.5
267.752	85.5
267.984	83.5
268.216	77.5
268.448	85.5
268.681	79.5
268.913	82.5
269.145	95.5
269.377	84.5
269.609	77.5
269.841	93.5
270.073	79.5
270.306	80.5
270.538	85.5
270.77	88.5
271.002	89.5
271.234	91.5
271.466	93.5
271.698	75.5
271.93	91.5
272.162	89.5
272.394	94.5
272.626	90.5
272.858	74.5
273.09	66.5
273.322	86.5
273.553	88.5
273.785	91.5
274.017	83.5
274.249	80.5
274.481	87.5
274.713	79.5
274.945	86.5
275.176	80.5
275.408	92.5
275.64	110.5
275.872	90.5
276.104	88.5
276.335	95.5
276.567	119.5
276.799	114.5
277.031	157.5
277.262	144.5
277.494	132.5
277.726	92.5
277.957	92.5
278.189	91.5
278.421	95.5
278.652	87.5
278.884	91.5
279.115	88.5
279.347	86.5
279.579	98.5
279.81	108.5
280.042	138.5
280.273	188.5
280.505	138.5
280.736	100.5
280.968	88.5
281.199	95.5
281.431	97.5
281.662	91.5
281.894	84.5
282.125	91.5
282.356	122.5
282.588	154.5
282.819	118.5
283.051	86.5
283.282	83.5
283.513	92.5
283.745	87.5
283.976	83.5
284.207	74.5
284.439	103.5
284.67	86.5
284.901	96.5
285.132	96.5
285.364	79.5
285.595	71.5
285.826	74.5
286.057	92.5
286.288	90.5
286.52	80.5
286.751	85.5
286.982	92.5
287.213	70.5
287.444	94.5
287.675	69.5
287.906	83.5
288.138	90.5
288.369	85.5
288.6	72.5
288.831	71.5
289.062	87.5
289.293	74.5
289.524	90.5
289.755	79.5
289.986	89.5
290.217	87.5
290.448	84.5
290.679	80.5
290.91	93.5
291.141	70.5
291.371	78.5
291.602	94.5
291.833	67.5
292.064	82.5
292.295	88.5
292.526	98.5
292.757	89.5
292.987	86.5
293.218	86.5
293.449	80.5
293.68	86.5
293.91	81.5
294.141	99.5
294.372	99.5
294.603	81.5
294.833	93.5
295.064	87.5
295.295	77.5
295.525	79.5
295.756	100.5
295.987	123.5
296.217	150.5
296.448	132.5
296.679	92.5
296.909	78.5
297.14	93.5
297.37	84.5
297.601	90.5
297.831	83.5
298.062	83.5
298.292	86.5
298.523	89.5
298.753	87.5
298.984	82.5
299.214	88.5
299.445	91.5
299.675	93.5
299.905	89.5
300.136	85.5
300.366	88.5
300.597	89.5
300.827	118.5
301.057	96.5
301.288	107.5
301.518	94.5
301.748	98.5
301.979	105.5
302.209	94.5
302.439	115.5
302.669	98.5
302.9	78.5
303.13	102.5
303.36	108.5
303.59	104.5
303.82	122.5
304.051	101.5
304.281	93.5
304.511	88.5
304.741	85.5
304.971	87.5
305.201	78.5
305.431	83.5
305.661	94.5
305.891	83.5
306.121	96.5
306.352	107.5
306.582	116.5
306.812	110.5
307.042	109.5
307.272	124.5
307.502	139.5
307.731	119.5
307.961	93.5
308.191	98.5
308.421	81.5
308.651	87.5
308.881	79.5
309.111	107.5
309.341	93.5
309.571	92.5
309.8	94.5
310.03	104.5
310.26	98.5
310.49	93.5
310.72	90.5
310.949	104.5
311.179	91.5
311.409	95.5
311.639	93.5
311.868	106.5
312.098	85.5
312.328	96.5
312.557	80.5
312.787	103.5
313.017	104.5
313.246	92.5
313.476	84.5
313.706	76.5
313.935	84.5
314.165	101.5
314.394	116.5
314.624	102.5
314.853	87.5
315.083	80.5
315.312	83.5
315.542	92.5
315.771	89.5
316.001	88.5
316.23	88.5
316.46	87.5
316.689	89.5
316.919	86.5
317.148	88.5
317.377	84.5
317.607	107.5
317.836	86.5
318.065	86.5
318.295	86.5
318.524	77.5
318.753	98.5
318.983	90.5
319.212	108.5
319.441	108.5
319.67	107.5
319.9	93.5
320.129	87.5
320.358	87.5
320.587	97.5
320.816	110.5
321.046	117.5
321.275	90.5
321.504	95.5
321.733	81.5
321.962	80.5
322.191	85.5
322.42	95.5
322.649	122.5
322.878	108.5
323.108	115.5
323.337	120.5
323.566	125.5
323.795	162.5
324.024	187.5
324.253	366.5
324.482	712.5
324.71	1426.5
324.939	1892.5
325.168	739.5
325.397	236.5
325.626	149.5
325.855	140.5
326.084	105.5
326.313	119.5
326.542	135.5
326.77	203.5
326.999	385.5
327.228	762.5
327.457	1370.5
327.686	1120.5
327.914	391.5
328.143	378.5
328.372	468.5
328.6	280.5
328.829	162.5
329.058	168.5
329.287	159.5
329.515	146.5
329.744	187.5
329.972	306.5
330.201	623.5
330.43	972.5
330.658	433.5
330.887	239.5
331.115	170.5
331.344	122.5
331.572	108.5
331.801	115.5
332.03	113.5
332.258	103.5
332.486	100.5
332.715	100.5
332.943	107.5
333.172	100.5
333.4	110.5
333.629	119.5
333.857	168.5
334.085	300.5
334.314	563.5
334.542	1128.5
334.771	1089.5
334.999	306.5
335.227	144.5
335.455	127.5
335.684	98.5
335.912	93.5
336.14	104.5
336.369	110.5
336.597	106.5
336.825	101.5
337.053	84.5
337.281	95.5
337.51	95.5
337.738	91.5
337.966	98.5
338.194	99.5
338.422	86.5
338.65	98.5
338.878	77.5
339.106	99.5
339.334	81.5
339.562	85.5
339.79	94.5
340.018	95.5
340.246	84.5
340.474	94.5
340.702	91.5
340.93	95.5
341.158	96.5
341.386	95.5
341.614	102.5
341.842	85.5
342.07	92.5
342.298	83.5
342.526	85.5
342.754	84.5
342.981	96.5
343.209	68.5
343.437	97.5
343.665	92.5
343.893	86.5
344.12	87.5
344.348	88.5
344.576	89.5
344.804	94.5
345.031	99.5
345.259	97.5
345.487	107.5
345.714	107.5
345.942	90.5
346.17	96.5
346.397	95.5
346.625	87.5
346.853	92.5
347.08	90.5
347.308	95.5
347.535	93.5
347.763	94.5
347.99	95.5
348.218	92.5
348.445	103.5
348.673	98.5
348.9	93.5
349.128	88.5
349.355	95.5
349.583	90.5
349.81	97.5
350.037	101.5
350.265	104.5
350.492	101.5
350.72	90.5
350.947	94.5
351.174	112.5
351.402	110.5
351.629	105.5
351.856	96.5
352.083	98.5
352.311	115.5
352.538	119.5
352.765	102.5
352.992	110.5
353.22	110.5
353.447	106.5
353.674	100.5
353.901	90.5
354.128	81.5
354.355	93.5
354.583	92.5
354.81	101.5
355.037	101.5
355.264	100.5
355.491	101.5
355.718	99.5
355.945	85.5
356.172	93.5
356.399	82.5
356.626	90.5
356.853	89.5
357.08	94.5
357.307	90.5
357.534	84.5
357.761	81.5
357.988	93.5
358.215	96.5
358.441	101.5
358.668	79.5
358.895	90.5
359.122	82.5
359.349	93.5
359.576	100.5
359.802	110.5
360.029	115.5
360.256	127.5
360.483	108.5
360.709	97.5
360.936	91.5
361.163	106.5
361.39	97.5
361.616	102.5
361.843	97.5
362.07	102.5
362.296	107.5
362.523	92.5
362.749	91.5
362.976	83.5
363.203	97.5
363.429	90.5
363.656	86.5
363.882	113.5
364.109	83.5
364.335	82.5
364.562	85.5
364.788	83.5
365.015	97.5
365.241	91.5
365.468	113.5
365.694	107.5
365.92	96.5
366.147	86.5
366.373	92.5
366.599	89.5
366.826	85.5
367.052	88.5
367.278	71.5
367.505	92.5
367.731	94.5
367.957	96.5
368.184	83.5
368.41	105.5
368.636	108.5
368.862	131.5
369.089	103.5
369.315	89.5
369.541	83.5
369.767	88.5
369.993	85.5
370.219	82.5
370.445	90.5
370.672	86.5
370.898	76.5
371.124	94.5
371.35	93.5
371.576	91.5
371.802	82.5
372.028	84.5
372.254	88.5
372.48	87.5
372.706	81.5
372.932	96.5
373.158	93.5
373.384	94.5
373.61	105.5
373.835	86.5
374.061	88.5
374.287	96.5
374.513	94.5
374.739	106.5
374.965	80.5
375.191	97.5
375.416	75.5
375.642	82.5
375.868	95.5
376.094	85.5
376.319	86.5
376.545	93.5
376.771	93.5
376.997	79.5
377.222	94.5
377.448	101.5
377.674	100.5
377.899	74.5
378.125	93.5
378.35	88.5
378.576	86.5
378.802	66.5
379.027	94.5
379.253	100.5
379.478	92.5
379.704	90.5
379.929	91.5
380.155	92.5
380.38	86.5
380.606	103.5
380.831	93.5
381.057	98.5
381.282	90.5
381.507	113.5
381.733	105.5
381.958	102.5
382.184	108.5
382.409	87.5
382.634	81.5
382.86	99.5
383.085	98.5
383.31	83.5
383.535	110.5
383.761	104.5
383.986	102.5
384.211	100.5
384.436	100.5
384.662	100.5
384.887	98.5
385.112	109.5
385.337	83.5
385.562	91.5
385.787	109.5
386.013	131.5
386.238	131.5
386.463	105.5
386.688	115.5
386.913	103.5
387.138	103.5
387.363	108.5
387.588	82.5
387.813	110.5
388.038	102.5
388.263	124.5
388.488	100.5
388.713	78.5
388.938	96.5
389.163	95.5
389.387	82.5
389.612	98.5
389.837	93.5
390.062	78.5
390.287	85.5
390.512	84.5
390.736	87.5
390.961	80.5
391.186	88.5
391.411	91.5
391.636	83.5
391.86	89.5
392.085	74.5
392.31	70.5
392.534	72.5
392.759	85.5
392.984	88.5
393.208	97.5
393.433	98.5
393.658	91.5
393.882	85.5
394.107	86.5
394.331	99.5
394.556	86.5
394.78	96.5
395.005	82.5
395.229	90.5
395.454	87.5
395.678	86.5
395.903	93.5
396.127	82.5
396.352	82.5
396.576	82.5
396.801	90.5
397.025	81.5
397.249	95.5
397.474	71.5
397.698	102.5
397.922	77.5
398.147	81.5
398.371	74.5
398.595	80.5
398.82	74.5
399.044	83.5
399.268	79.5
399.492	72.5
399.717	85.5
399.941	100.5
400.165	92.5
400.389	87.5
400.613	103.5
400.837	91.5
401.062	84.5
401.286	95.5
401.51	91.5
401.734	79.5
401.958	107.5
402.182	120.5
402.406	190.5
402.63	125.5
402.854	104.5
403.078	80.5
403.302	92.5
403.526	71.5
403.75	93.5
403.974	88.5
404.198	92.5
404.422	88.5
404.645	87.5
404.869	84.5
405.093	99.5
405.317	122.5
405.541	123.5
405.765	86.5
405.988	133.5
406.212	180.5
406.436	259.5
406.66	175.5
406.883	112.5
407.107	106.5
407.331	101.5
407.555	115.5
407.778	92.5
408.002	87.5
408.226	88.5
408.449	82.5
408.673	95.5
408.896	88.5
409.12	93.5
409.344	90.5
409.567	93.5
409.791	89.5
410.014	92.5
410.238	87.5
410.461	75.5
410.685	98.5
410.908	88.5
411.132	97.5
411.355	98.5
411.578	92.5
411.802	75.5
412.025	88.5
412.249	91.5
412.472	102.5
412.695	130.5
412.919	111.5
413.142	92.5
413.365	94.5
413.589	86.5
413.812	89.5
414.035	77.5
414.258	79.5
414.482	84.5
414.705	87.5
414.928	80.5
415.151	84.5
415.374	89.5
415.597	74.5
415.821	78.5
416.044	98.5
416.267	99.5
416.49	86.5
416.713	92.5
416.936	96.5
417.159	85.5
417.382	77.5
417.605	91.5
417.828	101.5
418.051	95.5
418.274	91.5
418.497	80.5
418.72	78.5
418.943	99.5
419.166	92.5
419.389	93.5
419.611	90.5
419.834	92.5
420.057	89.5
420.28	96.5
420.503	96.5
420.726	77.5
420.948	76.5
421.171	94.5
421.394	98.5
421.617	85.5
421.839	96.5
422.062	98.5
422.285	98.5
422.507	98.5
422.73	109.5
422.953	82.5
423.175	81.5
423.398	85.5
423.621	73.5
423.843	91.5
424.066	95.5
424.288	87.5
424.511	94.5
424.733	111.5
424.956	115.5
425.178	99.5
425.401	125.5
425.623	108.5
425.846	87.5
426.068	90.5
426.291	92.5
426.513	99.5
426.735	98.5
426.958	86.5
427.18	92.5
427.402	147.5
427.625	203.5
427.847	169.5
428.069	151.5
428.292	110.5
428.514	87.5
428.736	95.5
428.958	81.5
429.181	91.5
429.403	95.5
429.625	89.5
429.847	87.5
430.069	114.5
430.292	87.5
430.514	94.5
430.736	85.5
430.958	80.5
431.18	91.5
431.402	69.5
431.624	86.5
431.846	79.5
432.068	95.5
432.29	79.5
432.512	87.5
432.734	74.5
432.956	87.5
433.178	114.5
433.4	101.5
433.622	75.5
433.844	90.5
434.066	94.5
434.287	96.5
434.509	97.5
434.731	98.5
434.953	99.5
435.175	96.5
435.397	93.5
435.618	80.5
435.84	106.5
436.062	123.5
436.284	116.5
436.505	93.5
436.727	91.5
436.949	95.5
437.17	85.5
437.392	75.5
437.614	100.5
437.835	110.5
438.057	129.5
438.278	124.5
438.5	109.5
438.721	128.5
438.943	94.5
439.165	98.5
439.386	95.5
439.608	97.5
439.829	107.5
440.05	119.5
440.272	142.5
440.493	111.5
440.715	102.5
440.936	80.5
441.158	92.5
441.379	85.5
441.6	78.5
441.822	88.5
442.043	110.5
442.264	121.5
442.486	115.5
442.707	93.5
442.928	107.5
443.149	144.5
443.371	159.5
443.592	121.5
443.813	101.5
444.034	108.5
444.255	72.5
444.476	85.5
444.698	93.5
444.919	87.5
445.14	127.5
445.361	130.5
445.582	109.5
445.803	144.5
446.024	145.5
446.245	141.5
446.466	110.5
446.687	84.5
446.908	80.5
447.129	102.5
447.35	92.5
447.571	102.5
447.792	92.5
448.013	106.5
448.234	112.5
448.455	104.5
448.675	107.5
448.896	123.5
449.117	91.5
449.338	100.5
449.559	138.5
449.779	130.5
450	92.5
450.221	81.5
450.442	104.5
450.662	100.5
450.883	115.5
451.104	137.5
451.324	113.5
451.545	95.5
451.766	98.5
451.986	85.5
452.207	100.5
452.428	98.5
452.648	102.5
452.869	103.5
453.089	117.5
453.31	140.5
453.53	100.5
453.751	96.5
453.971	107.5
454.192	104.5
454.412	88.5
454.633	91.5
454.853	83.5
455.073	95.5
455.294	89.5
455.514	95.5
455.734	98.5
455.955	89.5
456.175	92.5
456.395	90.5
456.616	86.5
456.836	86.5
457.056	92.5
457.276	84.5
457.497	101.5
457.717	84.5
457.937	94.5
458.157	95.5
458.377	92.5
458.598	127.5
458.818	188.5
459.038	202.5
459.258	130.5
459.478	100.5
459.698	80.5
459.918	90.5
460.138	84.5
460.358	78.5
460.578	62.5
460.798	100.5
461.018	76.5
461.238	90.5
461.458	78.5
461.678	82.5
461.898	79.5
462.118	84.5
462.338	93.5
462.558	92.5
462.777	93.5
462.997	92.5
463.217	91.5
463.437	91.5
463.657	74.5
463.876	80.5
464.096	113.5
464.316	102.5
464.536	75.5
464.755	92.5
464.975	119.5
465.195	204.5
465.414	206.5
465.634	103.5
465.854	92.5
466.073	98.5
466.293	78.5
466.512	80.5
466.732	77.5
466.951	84.5
467.171	90.5
467.391	108.5
467.61	128.5
467.829	158.5
468.049	354.5
468.268	545.5
468.488	186.5
468.707	104.5
468.927	96.5
469.146	85.5
469.365	68.5
469.585	93.5
469.804	111.5
470.023	107.5
470.243	99.5
470.462	121.5
470.681	139.5
470.901	93.5
471.12	116.5
471.339	99.5
471.558	112.5
471.777	113.5
471.997	206.5
472.216	687.5
472.435	1596.5
472.654	390.5
472.873	133.5
473.092	104.5
473.311	95.5
473.53	103.5
473.749	73.5
473.968	104.5
474.187	126.5
474.406	108.5
474.625	91.5
474.844	88.5
475.063	84.5
475.282	85.5
475.501	84.5
475.72	103.5
475.939	80.5
476.158	80.5
476.377	78.5
476.596	86.5
476.814	112.5
477.033	96.5
477.252	104.5
477.471	90.5
477.69	91.5
477.908	96.5
478.127	95.5
478.346	90.5
478.564	91.5
478.783	103.5
479.002	101.5
479.22	108.5
479.439	107.5
479.658	118.5
479.876	119.5
480.095	113.5
480.313	121.5
480.532	155.5
480.751	198.5
480.969	630.5
481.188	2711.5
481.406	1627.5
481.624	252.5
481.843	113.5
482.061	99.5
482.28	91.5
482.498	96.5
482.717	86.5
482.935	86.5
483.153	87.5
483.372	94.5
483.59	84.5
483.808	77.5
484.027	78.5
484.245	75.5
484.463	83.5
484.681	92.5
484.9	113.5
485.118	95.5
485.336	106.5
485.554	89.5
485.772	101.5
485.99	98.5
486.209	120.5
486.427	100.5
486.645	104.5
486.863	133.5
487.081	99.5
487.299	97.5
487.517	98.5
487.735	94.5
487.953	98.5
488.171	108.5
488.389	92.5
488.607	106.5
488.825	102.5
489.043	94.5
489.261	88.5
489.479	99.5
489.696	83.5
489.914	83.5
490.132	92.5
490.35	99.5
490.568	94.5
490.786	87.5
491.003	84.5
491.221	104.5
491.439	98.5
491.657	95.5
491.874	89.5
492.092	81.5
492.31	93.5
492.527	100.5
492.745	104.5
492.963	90.5
493.18	86.5
493.398	81.5
493.615	85.5
493.833	86.5
494.05	91.5
494.268	78.5
494.485	98.5
494.703	91.5
494.92	99.5
495.138	94.5
495.355	89.5
495.573	90.5
495.79	84.5
496.008	89.5
496.225	81.5
496.442	84.5
496.66	86.5
496.877	82.5
497.094	95.5
497.312	104.5
497.529	91.5
497.746	90.5
497.963	80.5
498.181	92.5
498.398	100.5
498.615	115.5
498.832	93.5
499.049	90.5
499.267	80.5
499.484	83.5
499.701	98.5
499.918	95.5
500.135	100.5
500.352	97.5
500.569	90.5
500.786	81.5
501.003	91.5
501.22	80.5
501.437	77.5
501.654	100.5
501.871	110.5
502.088	101.5
502.305	104.5
502.522	101.5
502.739	95.5
502.956	85.5
503.172	98.5
503.389	103.5
503.606	115.5
503.823	97.5
504.04	96.5
504.256	86.5
504.473	88.5
504.69	72.5
504.907	85.5
505.123	87.5
505.34	95.5
505.557	99.5
505.773	82.5
505.99	83.5
506.207	100.5
506.423	97.5
506.64	103.5
506.856	85.5
507.073	98.5
507.289	96.5
507.506	100.5
507.722	128.5
507.939	118.5
508.155	96.5
508.372	86.5
508.588	86.5
508.805	99.5
509.021	90.5
509.238	102.5
509.454	98.5
509.67	113.5
509.887	109.5
510.103	126.5
510.319	225.5
510.536	784.5
510.752	2663.5
510.968	731.5
511.184	154.5
511.401	110.5
511.617	103.5
511.833	101.5
512.049	91.5
512.265	86.5
512.481	108.5
512.698	105.5
512.914	84.5
513.13	92.5
513.346	92.5
513.562	94.5
513.778	96.5
513.994	81.5
514.21	102.5
514.426	137.5
514.642	152.5
514.858	141.5
515.074	178.5
515.29	555.5
515.506	2012.5
515.721	718.5
515.937	192.5
516.153	108.5
516.369	110.5
516.585	104.5
516.801	85.5
517.016	110.5
517.232	98.5
517.448	101.5
517.664	103.5
517.879	85.5
518.095	85.5
518.311	109.5
518.527	88.5
518.742	93.5
518.958	101.5
519.173	100.5
519.389	108.5
519.605	99.5
519.82	98.5
520.036	112.5
520.251	120.5
520.467	116.5
520.682	131.5
520.898	101.5
521.113	120.5
521.329	149.5
521.544	242.5
521.76	716.5
521.975	3371.5
522.19	2010.5
522.406	434.5
522.621	150.5
522.836	105.5
523.052	91.5
523.267	99.5
523.482	90.5
523.698	98.5
523.913	126.5
524.128	124.5
524.343	92.5
524.559	104.5
524.774	106.5
524.989	91.5
525.204	110.5
525.419	91.5
525.634	90.5
525.849	74.5
526.064	89.5
526.28	76.5
526.495	88.5
526.71	90.5
526.925	86.5
527.14	93.5
527.355	92.5
527.57	99.5
527.785	87.5
527.999	102.5
528.214	84.5
528.429	88.5
528.644	102.5
528.859	92.5
529.074	100.5
529.289	144.5
529.503	216.5
529.718	108.5
529.933	98.5
530.148	83.5
530.363	94.5
530.577	101.5
530.792	96.5
531.007	81.5
531.221	93.5
531.436	90.5
531.651	82.5
531.865	94.5
532.08	90.5
532.295	99.5
532.509	89.5
532.724	85.5
532.938	98.5
533.153	94.5
533.367	83.5
533.582	80.5
533.796	95.5
534.011	87.5
