Data from Circ_1987_H10_HRD10591_00063.txt Node
Date: Wed Jan 03 12:10:45 EST 2024
User: Yrep
Spectrometer: HR+D1059
Trigger mode: 1
Integration Time (sec): 1.000000E-1
Scans to average: 1
Electric dark correction enabled: true
Nonlinearity correction enabled: false
Boxcar width: 0
XAxis mode: Wavelengths
Number of Pixels in Spectrum: 2048
>>>>>Begin Spectral Data<<<<<
223.165	-20.44
223.4	-20.44
223.635	-20.44
223.869	-23.44
224.104	-25.44
224.338	-22.44
224.573	-18.44
224.808	-26.44
225.042	4.56
225.277	-10.44
225.511	0.56
225.746	6.56
225.98	11.56
226.215	12.56
226.449	15.56
226.683	33.56
226.918	40.56
227.152	21.56
227.387	37.56
227.621	40.56
227.856	40.56
228.09	48.56
228.324	52.56
228.559	54.56
228.793	56.56
229.027	44.56
229.262	67.56
229.496	72.56
229.73	112.56
229.964	111.56
230.199	82.56
230.433	82.56
230.667	88.56
230.901	72.56
231.136	92.56
231.37	91.56
231.604	88.56
231.838	81.56
232.072	74.56
232.306	85.56
232.541	102.56
232.775	84.56
233.009	81.56
233.243	81.56
233.477	83.56
233.711	81.56
233.945	73.56
234.179	77.56
234.413	63.56
234.647	83.56
234.881	81.56
235.115	73.56
235.349	79.56
235.583	71.56
235.817	71.56
236.051	78.56
236.285	81.56
236.519	81.56
236.753	83.56
236.987	83.56
237.221	89.56
237.455	104.56
237.689	71.56
237.922	78.56
238.156	73.56
238.39	59.56
238.624	70.56
238.858	69.56
239.091	82.56
239.325	85.56
239.559	84.56
239.793	98.56
240.027	72.56
240.26	84.56
240.494	72.56
240.728	71.56
240.961	84.56
241.195	87.56
241.429	93.56
241.662	75.56
241.896	79.56
242.13	77.56
242.363	84.56
242.597	82.56
242.83	85.56
243.064	66.56
243.298	83.56
243.531	80.56
243.765	75.56
243.998	74.56
244.232	95.56
244.465	78.56
244.699	85.56
244.932	93.56
245.166	59.56
245.399	82.56
245.633	66.56
245.866	82.56
246.099	90.56
246.333	93.56
246.566	87.56
246.8	88.56
247.033	85.56
247.266	78.56
247.5	69.56
247.733	84.56
247.966	82.56
248.2	90.56
248.433	82.56
248.666	89.56
248.899	94.56
249.133	107.56
249.366	98.56
249.599	125.56
249.832	75.56
250.066	90.56
250.299	89.56
250.532	91.56
250.765	83.56
250.998	81.56
251.231	87.56
251.465	90.56
251.698	84.56
251.931	94.56
252.164	89.56
252.397	90.56
252.63	78.56
252.863	70.56
253.096	89.56
253.329	82.56
253.562	81.56
253.795	70.56
254.028	89.56
254.261	79.56
254.494	86.56
254.727	92.56
254.96	90.56
255.193	86.56
255.426	100.56
255.659	97.56
255.892	109.56
256.124	119.56
256.357	99.56
256.59	83.56
256.823	75.56
257.056	81.56
257.289	86.56
257.521	104.56
257.754	86.56
257.987	84.56
258.22	86.56
258.452	98.56
258.685	106.56
258.918	70.56
259.151	84.56
259.383	90.56
259.616	75.56
259.849	86.56
260.081	82.56
260.314	84.56
260.547	105.56
260.779	94.56
261.012	118.56
261.244	102.56
261.477	92.56
261.71	92.56
261.942	130.56
262.175	164.56
262.407	104.56
262.64	75.56
262.872	91.56
263.105	92.56
263.337	74.56
263.57	85.56
263.802	83.56
264.035	87.56
264.267	82.56
264.499	69.56
264.732	87.56
264.964	84.56
265.197	87.56
265.429	91.56
265.661	81.56
265.894	78.56
266.126	81.56
266.358	69.56
266.591	86.56
266.823	77.56
267.055	106.56
267.287	94.56
267.52	81.56
267.752	89.56
267.984	80.56
268.216	93.56
268.448	87.56
268.681	101.56
268.913	89.56
269.145	91.56
269.377	90.56
269.609	88.56
269.841	87.56
270.073	98.56
270.306	85.56
270.538	82.56
270.77	98.56
271.002	92.56
271.234	104.56
271.466	99.56
271.698	100.56
271.93	106.56
272.162	97.56
272.394	80.56
272.626	89.56
272.858	94.56
273.09	94.56
273.322	90.56
273.553	79.56
273.785	95.56
274.017	103.56
274.249	86.56
274.481	87.56
274.713	101.56
274.945	96.56
275.176	92.56
275.408	95.56
275.64	127.56
275.872	136.56
276.104	119.56
276.335	110.56
276.567	130.56
276.799	181.56
277.031	197.56
277.262	210.56
277.494	157.56
277.726	125.56
277.957	90.56
278.189	105.56
278.421	89.56
278.652	97.56
278.884	95.56
279.115	96.56
279.347	102.56
279.579	92.56
279.81	137.56
280.042	237.56
280.273	296.56
280.505	196.56
280.736	124.56
280.968	101.56
281.199	93.56
281.431	95.56
281.662	99.56
281.894	97.56
282.125	102.56
282.356	151.56
282.588	181.56
282.819	141.56
283.051	102.56
283.282	83.56
283.513	83.56
283.745	84.56
283.976	87.56
284.207	89.56
284.439	104.56
284.67	89.56
284.901	89.56
285.132	82.56
285.364	88.56
285.595	90.56
285.826	93.56
286.057	93.56
286.288	81.56
286.52	85.56
286.751	88.56
286.982	103.56
287.213	88.56
287.444	101.56
287.675	98.56
287.906	101.56
288.138	93.56
288.369	92.56
288.6	103.56
288.831	100.56
289.062	101.56
289.293	97.56
289.524	90.56
289.755	96.56
289.986	84.56
290.217	79.56
290.448	81.56
290.679	85.56
290.91	84.56
291.141	87.56
291.371	75.56
291.602	106.56
291.833	101.56
292.064	84.56
292.295	93.56
292.526	77.56
292.757	93.56
292.987	97.56
293.218	81.56
293.449	89.56
293.68	92.56
293.91	93.56
294.141	96.56
294.372	90.56
294.603	86.56
294.833	87.56
295.064	87.56
295.295	107.56
295.525	113.56
295.756	106.56
295.987	145.56
296.217	178.56
296.448	169.56
296.679	94.56
296.909	90.56
297.14	73.56
297.37	81.56
297.601	90.56
297.831	107.56
298.062	106.56
298.292	93.56
298.523	92.56
298.753	90.56
298.984	77.56
299.214	96.56
299.445	99.56
299.675	100.56
299.905	113.56
300.136	96.56
300.366	86.56
300.597	89.56
300.827	95.56
301.057	117.56
301.288	120.56
301.518	103.56
301.748	97.56
301.979	119.56
302.209	94.56
302.439	106.56
302.669	97.56
302.9	99.56
303.13	109.56
303.36	112.56
303.59	145.56
303.82	168.56
304.051	126.56
304.281	91.56
304.511	97.56
304.741	98.56
304.971	105.56
305.201	100.56
305.431	94.56
305.661	98.56
305.891	93.56
306.121	98.56
306.352	127.56
306.582	115.56
306.812	128.56
307.042	125.56
307.272	186.56
307.502	200.56
307.731	178.56
307.961	145.56
308.191	94.56
308.421	87.56
308.651	110.56
308.881	89.56
309.111	109.56
309.341	113.56
309.571	118.56
309.8	109.56
310.03	120.56
310.26	119.56
310.49	118.56
310.72	128.56
310.949	141.56
311.179	149.56
311.409	98.56
311.639	99.56
311.868	118.56
312.098	97.56
312.328	114.56
312.557	126.56
312.787	130.56
313.017	127.56
313.246	101.56
313.476	95.56
313.706	90.56
313.935	117.56
314.165	122.56
314.394	134.56
314.624	109.56
314.853	109.56
315.083	104.56
315.312	101.56
315.542	104.56
315.771	88.56
316.001	99.56
316.23	94.56
316.46	89.56
316.689	89.56
316.919	89.56
317.148	107.56
317.377	102.56
317.607	98.56
317.836	108.56
318.065	109.56
318.295	82.56
318.524	91.56
318.753	90.56
318.983	98.56
319.212	118.56
319.441	148.56
319.67	134.56
319.9	93.56
320.129	96.56
320.358	110.56
320.587	102.56
320.816	103.56
321.046	101.56
321.275	108.56
321.504	92.56
321.733	104.56
321.962	112.56
322.191	131.56
322.42	133.56
322.649	129.56
322.878	115.56
323.108	150.56
323.337	141.56
323.566	150.56
323.795	185.56
324.024	230.56
324.253	465.56
324.482	955.56
324.71	1973.56
324.939	2577.56
325.168	959.56
325.397	295.56
325.626	178.56
325.855	149.56
326.084	134.56
326.313	141.56
326.542	188.56
326.77	255.56
326.999	476.56
327.228	1014.56
327.457	1810.56
327.686	1457.56
327.914	570.56
328.143	638.56
328.372	796.56
328.6	445.56
328.829	233.56
329.058	223.56
329.287	233.56
329.515	203.56
329.744	291.56
329.972	571.56
330.201	1178.56
330.43	1716.56
330.658	757.56
330.887	352.56
331.115	241.56
331.344	143.56
331.572	134.56
331.801	136.56
332.03	138.56
332.258	130.56
332.486	123.56
332.715	109.56
332.943	119.56
333.172	132.56
333.4	138.56
333.629	190.56
333.857	268.56
334.085	489.56
334.314	1031.56
334.542	2141.56
334.771	1969.56
334.999	505.56
335.227	206.56
335.455	155.56
335.684	123.56
335.912	113.56
336.14	130.56
336.369	125.56
336.597	120.56
336.825	113.56
337.053	106.56
337.281	103.56
337.51	111.56
337.738	102.56
337.966	99.56
338.194	124.56
338.422	116.56
338.65	104.56
338.878	94.56
339.106	102.56
339.334	95.56
339.562	99.56
339.79	102.56
340.018	109.56
340.246	105.56
340.474	120.56
340.702	94.56
340.93	98.56
341.158	107.56
341.386	105.56
341.614	110.56
341.842	111.56
342.07	100.56
342.298	117.56
342.526	94.56
342.754	89.56
342.981	83.56
343.209	90.56
343.437	97.56
343.665	86.56
343.893	93.56
344.12	79.56
344.348	77.56
344.576	98.56
344.804	101.56
345.031	114.56
345.259	130.56
345.487	97.56
345.714	110.56
345.942	110.56
346.17	112.56
346.397	91.56
346.625	105.56
346.853	85.56
347.08	97.56
347.308	106.56
347.535	106.56
347.763	114.56
347.99	101.56
348.218	110.56
348.445	136.56
348.673	121.56
348.9	106.56
349.128	95.56
349.355	89.56
349.583	96.56
349.81	97.56
350.037	92.56
350.265	86.56
350.492	90.56
350.72	96.56
350.947	111.56
351.174	120.56
351.402	133.56
351.629	110.56
351.856	113.56
352.083	136.56
352.311	128.56
352.538	136.56
352.765	135.56
352.992	129.56
353.22	139.56
353.447	111.56
353.674	98.56
353.901	109.56
354.128	91.56
354.355	97.56
354.583	97.56
354.81	96.56
355.037	97.56
355.264	93.56
355.491	85.56
355.718	101.56
355.945	99.56
356.172	94.56
356.399	107.56
356.626	96.56
356.853	95.56
357.08	88.56
357.307	82.56
357.534	96.56
357.761	99.56
357.988	104.56
358.215	94.56
358.441	99.56
358.668	95.56
358.895	87.56
359.122	86.56
359.349	98.56
359.576	118.56
359.802	122.56
360.029	165.56
360.256	143.56
360.483	131.56
360.709	95.56
360.936	116.56
361.163	111.56
361.39	109.56
361.616	117.56
361.843	101.56
362.07	99.56
362.296	107.56
362.523	110.56
362.749	111.56
362.976	95.56
363.203	107.56
363.429	101.56
363.656	91.56
363.882	99.56
364.109	78.56
364.335	97.56
364.562	85.56
364.788	102.56
365.015	107.56
365.241	105.56
365.468	125.56
365.694	130.56
365.92	111.56
366.147	111.56
366.373	107.56
366.599	100.56
366.826	96.56
367.052	86.56
367.278	108.56
367.505	94.56
367.731	99.56
367.957	104.56
368.184	103.56
368.41	114.56
368.636	139.56
368.862	161.56
369.089	120.56
369.315	101.56
369.541	109.56
369.767	105.56
369.993	104.56
370.219	92.56
370.445	88.56
370.672	85.56
370.898	94.56
371.124	99.56
371.35	97.56
371.576	96.56
371.802	83.56
372.028	80.56
372.254	95.56
372.48	87.56
372.706	101.56
372.932	79.56
373.158	91.56
373.384	97.56
373.61	112.56
373.835	86.56
374.061	98.56
374.287	98.56
374.513	100.56
374.739	80.56
374.965	99.56
375.191	84.56
375.416	93.56
375.642	90.56
375.868	93.56
376.094	82.56
376.319	84.56
376.545	92.56
376.771	92.56
376.997	95.56
377.222	83.56
377.448	90.56
377.674	105.56
377.899	85.56
378.125	85.56
378.35	93.56
378.576	89.56
378.802	88.56
379.027	99.56
379.253	97.56
379.478	99.56
379.704	85.56
379.929	105.56
380.155	94.56
380.38	104.56
380.606	88.56
380.831	103.56
381.057	91.56
381.282	88.56
381.507	104.56
381.733	111.56
381.958	95.56
382.184	86.56
382.409	106.56
382.634	96.56
382.86	98.56
383.085	111.56
383.31	106.56
383.535	101.56
383.761	101.56
383.986	106.56
384.211	102.56
384.436	95.56
384.662	83.56
384.887	82.56
385.112	94.56
385.337	111.56
385.562	119.56
385.787	105.56
386.013	128.56
386.238	108.56
386.463	119.56
386.688	108.56
386.913	101.56
387.138	95.56
387.363	118.56
387.588	100.56
387.813	103.56
388.038	106.56
388.263	110.56
388.488	97.56
388.713	104.56
388.938	78.56
389.163	99.56
389.387	94.56
389.612	91.56
389.837	101.56
390.062	97.56
390.287	82.56
390.512	96.56
390.736	95.56
390.961	91.56
391.186	99.56
391.411	85.56
391.636	93.56
391.86	90.56
392.085	92.56
392.31	87.56
392.534	86.56
392.759	98.56
392.984	90.56
393.208	88.56
393.433	100.56
393.658	97.56
393.882	81.56
394.107	93.56
394.331	89.56
394.556	76.56
394.78	101.56
395.005	92.56
395.229	91.56
395.454	86.56
395.678	85.56
395.903	90.56
396.127	103.56
396.352	94.56
396.576	80.56
396.801	89.56
397.025	71.56
397.249	98.56
397.474	89.56
397.698	95.56
397.922	85.56
398.147	101.56
398.371	86.56
398.595	98.56
398.82	86.56
399.044	89.56
399.268	95.56
399.492	91.56
399.717	90.56
399.941	91.56
400.165	94.56
400.389	87.56
400.613	99.56
400.837	106.56
401.062	81.56
401.286	97.56
401.51	93.56
401.734	101.56
401.958	114.56
402.182	180.56
402.406	227.56
402.63	163.56
402.854	110.56
403.078	93.56
403.302	95.56
403.526	101.56
403.75	101.56
403.974	85.56
404.198	86.56
404.422	93.56
404.645	93.56
404.869	102.56
405.093	127.56
405.317	138.56
405.541	139.56
405.765	123.56
405.988	147.56
406.212	254.56
406.436	367.56
406.66	227.56
406.883	123.56
407.107	116.56
407.331	100.56
407.555	123.56
407.778	129.56
408.002	100.56
408.226	91.56
408.449	101.56
408.673	96.56
408.896	105.56
409.12	90.56
409.344	93.56
409.567	93.56
409.791	104.56
410.014	99.56
410.238	102.56
410.461	102.56
410.685	106.56
410.908	99.56
411.132	106.56
411.355	106.56
411.578	93.56
411.802	97.56
412.025	73.56
412.249	114.56
412.472	120.56
412.695	151.56
412.919	132.56
413.142	103.56
413.365	92.56
413.589	83.56
413.812	99.56
414.035	104.56
414.258	98.56
414.482	93.56
414.705	81.56
414.928	94.56
415.151	95.56
415.374	90.56
415.597	85.56
415.821	81.56
416.044	95.56
416.267	120.56
416.49	95.56
416.713	90.56
416.936	95.56
417.159	99.56
417.382	114.56
417.605	105.56
417.828	119.56
418.051	101.56
418.274	110.56
418.497	87.56
418.72	91.56
418.943	92.56
419.166	91.56
419.389	93.56
419.611	103.56
419.834	88.56
420.057	91.56
420.28	105.56
420.503	98.56
420.726	101.56
420.948	111.56
421.171	117.56
421.394	113.56
421.617	91.56
421.839	93.56
422.062	96.56
422.285	80.56
422.507	118.56
422.73	114.56
422.953	98.56
423.175	99.56
423.398	87.56
423.621	96.56
423.843	97.56
424.066	92.56
424.288	95.56
424.511	99.56
424.733	120.56
424.956	141.56
425.178	117.56
425.401	120.56
425.623	106.56
425.846	105.56
426.068	114.56
426.291	90.56
426.513	78.56
426.735	92.56
426.958	117.56
427.18	132.56
427.402	208.56
427.625	280.56
427.847	253.56
428.069	232.56
428.292	122.56
428.514	103.56
428.736	79.56
428.958	97.56
429.181	88.56
429.403	91.56
429.625	97.56
429.847	115.56
430.069	117.56
430.292	107.56
430.514	84.56
430.736	79.56
430.958	78.56
431.18	87.56
431.402	100.56
431.624	99.56
431.846	86.56
432.068	101.56
432.29	89.56
432.512	91.56
432.734	83.56
432.956	93.56
433.178	109.56
433.4	107.56
433.622	110.56
433.844	92.56
434.066	96.56
434.287	98.56
434.509	94.56
434.731	104.56
434.953	86.56
435.175	95.56
435.397	98.56
435.618	106.56
435.84	116.56
436.062	159.56
436.284	128.56
436.505	118.56
436.727	114.56
436.949	92.56
437.17	98.56
437.392	99.56
437.614	97.56
437.835	138.56
438.057	171.56
438.278	148.56
438.5	125.56
438.721	149.56
438.943	113.56
439.165	99.56
439.386	100.56
439.608	100.56
439.829	111.56
440.05	156.56
440.272	171.56
440.493	112.56
440.715	96.56
440.936	97.56
441.158	81.56
441.379	97.56
441.6	111.56
441.822	126.56
442.043	96.56
442.264	137.56
442.486	126.56
442.707	111.56
442.928	131.56
443.149	197.56
443.371	191.56
443.592	142.56
443.813	136.56
444.034	127.56
444.255	95.56
444.476	91.56
444.698	116.56
444.919	83.56
445.14	148.56
445.361	133.56
445.582	154.56
445.803	194.56
446.024	189.56
446.245	190.56
446.466	128.56
446.687	96.56
446.908	92.56
447.129	107.56
447.35	98.56
447.571	114.56
447.792	113.56
448.013	118.56
448.234	136.56
448.455	120.56
448.675	137.56
448.896	149.56
449.117	111.56
449.338	121.56
449.559	170.56
449.779	167.56
450	107.56
450.221	94.56
450.442	98.56
450.662	109.56
450.883	142.56
451.104	181.56
451.324	119.56
451.545	100.56
451.766	90.56
451.986	102.56
452.207	94.56
452.428	101.56
452.648	120.56
452.869	140.56
453.089	154.56
453.31	166.56
453.53	108.56
453.751	93.56
453.971	131.56
454.192	164.56
454.412	115.56
454.633	89.56
454.853	87.56
455.073	82.56
455.294	99.56
455.514	132.56
455.734	104.56
455.955	93.56
456.175	85.56
456.395	87.56
456.616	85.56
456.836	89.56
457.056	86.56
457.276	86.56
457.497	85.56
457.717	89.56
457.937	87.56
458.157	98.56
458.377	104.56
458.598	121.56
458.818	241.56
459.038	274.56
459.258	165.56
459.478	103.56
459.698	102.56
459.918	93.56
460.138	87.56
460.358	94.56
460.578	77.56
460.798	93.56
461.018	103.56
461.238	107.56
461.458	91.56
461.678	99.56
461.898	90.56
462.118	93.56
462.338	105.56
462.558	85.56
462.777	90.56
462.997	110.56
463.217	111.56
463.437	104.56
463.657	94.56
463.876	82.56
464.096	88.56
464.316	108.56
464.536	119.56
464.755	119.56
464.975	146.56
465.195	275.56
465.414	292.56
465.634	126.56
465.854	95.56
466.073	99.56
466.293	100.56
466.512	81.56
466.732	85.56
466.951	91.56
467.171	96.56
467.391	132.56
467.61	170.56
467.829	230.56
468.049	654.56
468.268	973.56
468.488	243.56
468.707	116.56
468.927	102.56
469.146	93.56
469.365	99.56
469.585	82.56
469.804	112.56
470.023	118.56
470.243	120.56
470.462	126.56
470.681	163.56
470.901	108.56
471.12	102.56
471.339	112.56
471.558	127.56
471.777	170.56
471.997	315.56
472.216	1251.56
472.435	2940.56
472.654	677.56
472.873	187.56
473.092	122.56
473.311	102.56
473.53	93.56
473.749	101.56
473.968	105.56
474.187	131.56
474.406	125.56
474.625	77.56
474.844	80.56
475.063	99.56
475.282	95.56
475.501	108.56
475.72	95.56
475.939	87.56
476.158	83.56
476.377	96.56
476.596	84.56
476.814	103.56
477.033	100.56
477.252	91.56
477.471	102.56
477.69	96.56
477.908	83.56
478.127	98.56
478.346	106.56
478.564	104.56
478.783	122.56
479.002	111.56
479.22	112.56
479.439	151.56
479.658	138.56
479.876	131.56
480.095	146.56
480.313	131.56
480.532	183.56
480.751	316.56
480.969	1103.56
481.188	4929.56
481.406	2825.56
481.624	415.56
481.843	151.56
482.061	113.56
482.28	111.56
482.498	102.56
482.717	94.56
482.935	85.56
483.153	100.56
483.372	97.56
483.59	105.56
483.808	96.56
484.027	103.56
484.245	93.56
484.463	89.56
484.681	99.56
484.9	101.56
485.118	112.56
485.336	102.56
485.554	99.56
485.772	92.56
485.99	102.56
486.209	123.56
486.427	122.56
486.645	144.56
486.863	136.56
487.081	114.56
487.299	106.56
487.517	120.56
487.735	88.56
487.953	87.56
488.171	94.56
488.389	99.56
488.607	114.56
488.825	99.56
489.043	89.56
489.261	102.56
489.479	96.56
489.696	91.56
489.914	97.56
490.132	92.56
490.35	102.56
490.568	93.56
490.786	100.56
491.003	98.56
491.221	77.56
491.439	106.56
491.657	105.56
491.874	101.56
492.092	87.56
492.31	91.56
492.527	104.56
492.745	104.56
492.963	82.56
493.18	96.56
493.398	98.56
493.615	95.56
493.833	100.56
494.05	88.56
494.268	97.56
494.485	93.56
494.703	88.56
494.92	98.56
495.138	77.56
495.355	95.56
495.573	110.56
495.79	86.56
496.008	102.56
496.225	88.56
496.442	94.56
496.66	79.56
496.877	88.56
497.094	89.56
497.312	90.56
497.529	91.56
497.746	100.56
497.963	89.56
498.181	99.56
498.398	102.56
498.615	110.56
498.832	107.56
499.049	105.56
499.267	105.56
499.484	92.56
499.701	105.56
499.918	102.56
500.135	92.56
500.352	97.56
500.569	109.56
500.786	100.56
501.003	95.56
501.22	97.56
501.437	90.56
501.654	104.56
501.871	113.56
502.088	87.56
502.305	104.56
502.522	102.56
502.739	94.56
502.956	95.56
503.172	89.56
503.389	100.56
503.606	125.56
503.823	117.56
504.04	95.56
504.256	91.56
504.473	97.56
504.69	102.56
504.907	106.56
505.123	97.56
505.34	97.56
505.557	89.56
505.773	95.56
505.99	83.56
506.207	96.56
506.423	104.56
506.64	102.56
506.856	81.56
507.073	94.56
507.289	102.56
507.506	114.56
507.722	149.56
507.939	143.56
508.155	115.56
508.372	100.56
508.588	93.56
508.805	110.56
509.021	97.56
509.238	103.56
509.454	96.56
509.67	104.56
509.887	124.56
510.103	149.56
510.319	267.56
510.536	1045.56
510.752	3814.56
510.968	989.56
511.184	193.56
511.401	135.56
