Data from Circ_1987_H10_HRD10591_00023.txt Node
Date: Wed Jan 03 12:10:37 EST 2024
User: Yrep
Spectrometer: HR+D1059
Trigger mode: 1
Integration Time (sec): 1.000000E-1
Scans to average: 1
Electric dark correction enabled: true
Nonlinearity correction enabled: false
Boxcar width: 0
XAxis mode: Wavelengths
Number of Pixels in Spectrum: 2048
>>>>>Begin Spectral Data<<<<<
223.165	-15.81
223.4	-15.81
223.635	-15.81
223.869	-15.81
224.104	-13.81
224.338	-9.81
224.573	-17.81
224.808	-9.81
225.042	-1.81
225.277	-19.81
225.511	-3.81
225.746	8.19
225.98	-5.81
226.215	14.19
226.449	13.19
226.683	11.19
226.918	28.19
227.152	39.19
227.387	35.19
227.621	42.19
227.856	46.19
228.09	37.19
228.324	53.19
228.559	46.19
228.793	53.19
229.027	60.19
229.262	70.19
229.496	58.19
229.73	95.19
229.964	96.19
230.199	70.19
230.433	68.19
230.667	79.19
230.901	68.19
231.136	76.19
231.37	79.19
231.604	83.19
231.838	82.19
232.072	66.19
232.306	60.19
232.541	64.19
232.775	63.19
233.009	78.19
233.243	87.19
233.477	84.19
233.711	76.19
233.945	87.19
234.179	79.19
234.413	87.19
234.647	69.19
234.881	89.19
235.115	76.19
235.349	81.19
235.583	74.19
235.817	84.19
236.051	70.19
236.285	82.19
236.519	74.19
236.753	59.19
236.987	83.19
237.221	88.19
237.455	79.19
237.689	96.19
237.922	78.19
238.156	87.19
238.39	64.19
238.624	76.19
238.858	73.19
239.091	76.19
239.325	72.19
239.559	75.19
239.793	74.19
240.027	82.19
240.26	74.19
240.494	79.19
240.728	70.19
240.961	72.19
241.195	80.19
241.429	83.19
241.662	85.19
241.896	79.19
242.13	67.19
242.363	61.19
242.597	76.19
242.83	78.19
243.064	74.19
243.298	75.19
243.531	75.19
243.765	75.19
243.998	76.19
244.232	90.19
244.465	85.19
244.699	83.19
244.932	65.19
245.166	71.19
245.399	86.19
245.633	66.19
245.866	86.19
246.099	88.19
246.333	78.19
246.566	81.19
246.8	89.19
247.033	71.19
247.266	91.19
247.5	80.19
247.733	78.19
247.966	79.19
248.2	70.19
248.433	84.19
248.666	77.19
248.899	87.19
249.133	88.19
249.366	100.19
249.599	85.19
249.832	83.19
250.066	80.19
250.299	80.19
250.532	68.19
250.765	76.19
250.998	74.19
251.231	64.19
251.465	70.19
251.698	76.19
251.931	90.19
252.164	72.19
252.397	72.19
252.63	71.19
252.863	80.19
253.096	80.19
253.329	74.19
253.562	87.19
253.795	75.19
254.028	76.19
254.261	70.19
254.494	84.19
254.727	86.19
254.96	72.19
255.193	85.19
255.426	92.19
255.659	66.19
255.892	91.19
256.124	85.19
256.357	84.19
256.59	86.19
256.823	78.19
257.056	74.19
257.289	82.19
257.521	82.19
257.754	72.19
257.987	85.19
258.22	96.19
258.452	100.19
258.685	100.19
258.918	92.19
259.151	71.19
259.383	88.19
259.616	78.19
259.849	87.19
260.081	87.19
260.314	71.19
260.547	90.19
260.779	91.19
261.012	100.19
261.244	85.19
261.477	90.19
261.71	95.19
261.942	126.19
262.175	119.19
262.407	100.19
262.64	69.19
262.872	93.19
263.105	80.19
263.337	85.19
263.57	86.19
263.802	69.19
264.035	76.19
264.267	79.19
264.499	88.19
264.732	85.19
264.964	80.19
265.197	77.19
265.429	87.19
265.661	79.19
265.894	72.19
266.126	69.19
266.358	82.19
266.591	94.19
266.823	81.19
267.055	92.19
267.287	87.19
267.52	76.19
267.752	76.19
267.984	82.19
268.216	75.19
268.448	79.19
268.681	89.19
268.913	90.19
269.145	79.19
269.377	84.19
269.609	78.19
269.841	81.19
270.073	91.19
270.306	80.19
270.538	87.19
270.77	93.19
271.002	74.19
271.234	81.19
271.466	101.19
271.698	82.19
271.93	88.19
272.162	86.19
272.394	93.19
272.626	86.19
272.858	87.19
273.09	78.19
273.322	94.19
273.553	80.19
273.785	91.19
274.017	71.19
274.249	78.19
274.481	85.19
274.713	88.19
274.945	97.19
275.176	77.19
275.408	100.19
275.64	98.19
275.872	110.19
276.104	97.19
276.335	100.19
276.567	119.19
276.799	131.19
277.031	139.19
277.262	171.19
277.494	144.19
277.726	99.19
277.957	84.19
278.189	98.19
278.421	84.19
278.652	77.19
278.884	77.19
279.115	90.19
279.347	89.19
279.579	90.19
279.81	88.19
280.042	142.19
280.273	188.19
280.505	134.19
280.736	116.19
280.968	88.19
281.199	95.19
281.431	87.19
281.662	73.19
281.894	93.19
282.125	109.19
282.356	110.19
282.588	137.19
282.819	132.19
283.051	82.19
283.282	85.19
283.513	92.19
283.745	82.19
283.976	78.19
284.207	98.19
284.439	84.19
284.67	86.19
284.901	109.19
285.132	96.19
285.364	75.19
285.595	84.19
285.826	74.19
286.057	81.19
286.288	80.19
286.52	77.19
286.751	86.19
286.982	85.19
287.213	78.19
287.444	94.19
287.675	88.19
287.906	86.19
288.138	94.19
288.369	102.19
288.6	95.19
288.831	78.19
289.062	91.19
289.293	98.19
289.524	100.19
289.755	101.19
289.986	87.19
290.217	94.19
290.448	93.19
290.679	92.19
290.91	104.19
291.141	102.19
291.371	89.19
291.602	81.19
291.833	92.19
292.064	83.19
292.295	91.19
292.526	93.19
292.757	88.19
292.987	97.19
293.218	91.19
293.449	90.19
293.68	94.19
293.91	87.19
294.141	88.19
294.372	82.19
294.603	80.19
294.833	95.19
295.064	84.19
295.295	82.19
295.525	86.19
295.756	98.19
295.987	124.19
296.217	134.19
296.448	124.19
296.679	90.19
296.909	92.19
297.14	99.19
297.37	93.19
297.601	85.19
297.831	92.19
298.062	92.19
298.292	91.19
298.523	92.19
298.753	88.19
298.984	88.19
299.214	94.19
299.445	98.19
299.675	99.19
299.905	103.19
300.136	93.19
300.366	93.19
300.597	96.19
300.827	95.19
301.057	99.19
301.288	116.19
301.518	98.19
301.748	88.19
301.979	104.19
302.209	90.19
302.439	88.19
302.669	89.19
302.9	92.19
303.13	98.19
303.36	109.19
303.59	115.19
303.82	122.19
304.051	79.19
304.281	102.19
304.511	87.19
304.741	88.19
304.971	85.19
305.201	91.19
305.431	98.19
305.661	79.19
305.891	80.19
306.121	100.19
306.352	97.19
306.582	113.19
306.812	99.19
307.042	103.19
307.272	127.19
307.502	156.19
307.731	146.19
307.961	116.19
308.191	80.19
308.421	94.19
308.651	88.19
308.881	100.19
309.111	94.19
309.341	97.19
309.571	99.19
309.8	101.19
310.03	110.19
310.26	99.19
310.49	94.19
310.72	100.19
310.949	119.19
311.179	102.19
311.409	103.19
311.639	105.19
311.868	115.19
312.098	100.19
312.328	105.19
312.557	104.19
312.787	103.19
313.017	111.19
313.246	102.19
313.476	87.19
313.706	85.19
313.935	102.19
314.165	105.19
314.394	118.19
314.624	114.19
314.853	107.19
315.083	91.19
315.312	97.19
315.542	99.19
315.771	98.19
316.001	93.19
316.23	92.19
316.46	87.19
316.689	96.19
316.919	90.19
317.148	97.19
317.377	90.19
317.607	95.19
317.836	82.19
318.065	98.19
318.295	85.19
318.524	92.19
318.753	86.19
318.983	103.19
319.212	97.19
319.441	124.19
319.67	113.19
319.9	99.19
320.129	105.19
320.358	99.19
320.587	103.19
320.816	107.19
321.046	116.19
321.275	104.19
321.504	97.19
321.733	104.19
321.962	109.19
322.191	99.19
322.42	108.19
322.649	111.19
322.878	123.19
323.108	126.19
323.337	138.19
323.566	135.19
323.795	158.19
324.024	215.19
324.253	415.19
324.482	898.19
324.71	1879.19
324.939	2548.19
325.168	948.19
325.397	289.19
325.626	168.19
325.855	142.19
326.084	128.19
326.313	124.19
326.542	160.19
326.77	241.19
326.999	483.19
327.228	960.19
327.457	1783.19
327.686	1459.19
327.914	487.19
328.143	404.19
328.372	515.19
328.6	300.19
328.829	164.19
329.058	158.19
329.287	177.19
329.515	155.19
329.744	206.19
329.972	332.19
330.201	687.19
330.43	1032.19
330.658	470.19
330.887	266.19
331.115	157.19
331.344	110.19
331.572	120.19
331.801	123.19
332.03	123.19
332.258	96.19
332.486	104.19
332.715	107.19
332.943	106.19
333.172	118.19
333.4	111.19
333.629	156.19
333.857	184.19
334.085	329.19
334.314	642.19
334.542	1245.19
334.771	1218.19
334.999	330.19
335.227	153.19
335.455	127.19
335.684	126.19
335.912	114.19
336.14	112.19
336.369	97.19
336.597	104.19
336.825	98.19
337.053	90.19
337.281	81.19
337.51	93.19
337.738	118.19
337.966	83.19
338.194	103.19
338.422	101.19
338.65	108.19
338.878	94.19
339.106	99.19
339.334	97.19
339.562	78.19
339.79	93.19
340.018	70.19
340.246	106.19
340.474	101.19
340.702	94.19
340.93	79.19
341.158	96.19
341.386	100.19
341.614	103.19
341.842	107.19
342.07	88.19
342.298	98.19
342.526	85.19
342.754	93.19
342.981	94.19
343.209	79.19
343.437	108.19
343.665	91.19
343.893	82.19
344.12	88.19
344.348	96.19
344.576	79.19
344.804	99.19
345.031	110.19
345.259	119.19
345.487	106.19
345.714	96.19
345.942	95.19
346.17	92.19
346.397	81.19
346.625	87.19
346.853	87.19
347.08	86.19
347.308	95.19
347.535	101.19
347.763	112.19
347.99	105.19
348.218	105.19
348.445	109.19
348.673	102.19
348.9	99.19
349.128	107.19
349.355	83.19
349.583	88.19
349.81	94.19
350.037	82.19
350.265	98.19
350.492	99.19
350.72	100.19
350.947	86.19
351.174	108.19
351.402	104.19
351.629	117.19
351.856	103.19
352.083	98.19
352.311	117.19
352.538	121.19
352.765	121.19
352.992	128.19
353.22	110.19
353.447	109.19
353.674	88.19
353.901	86.19
354.128	93.19
354.355	100.19
354.583	93.19
354.81	93.19
355.037	96.19
355.264	92.19
355.491	92.19
355.718	85.19
355.945	82.19
356.172	90.19
356.399	92.19
356.626	91.19
356.853	81.19
357.08	96.19
357.307	91.19
357.534	87.19
357.761	96.19
357.988	96.19
358.215	93.19
358.441	99.19
358.668	101.19
358.895	94.19
359.122	90.19
359.349	93.19
359.576	99.19
359.802	96.19
360.029	127.19
360.256	138.19
360.483	104.19
360.709	92.19
360.936	94.19
361.163	90.19
361.39	108.19
361.616	92.19
361.843	97.19
362.07	102.19
362.296	92.19
362.523	99.19
362.749	103.19
362.976	98.19
363.203	90.19
363.429	87.19
363.656	82.19
363.882	76.19
364.109	97.19
364.335	77.19
364.562	95.19
364.788	87.19
365.015	90.19
365.241	90.19
365.468	108.19
365.694	117.19
365.92	106.19
366.147	88.19
366.373	89.19
366.599	86.19
366.826	90.19
367.052	82.19
367.278	111.19
367.505	96.19
367.731	92.19
367.957	83.19
368.184	109.19
368.41	94.19
368.636	103.19
368.862	118.19
369.089	115.19
369.315	96.19
369.541	99.19
369.767	93.19
369.993	95.19
370.219	90.19
370.445	96.19
370.672	77.19
370.898	87.19
371.124	90.19
371.35	80.19
371.576	96.19
371.802	77.19
372.028	82.19
372.254	97.19
372.48	84.19
372.706	95.19
372.932	94.19
373.158	85.19
373.384	76.19
373.61	90.19
373.835	98.19
374.061	96.19
374.287	85.19
374.513	98.19
374.739	83.19
374.965	86.19
375.191	93.19
375.416	85.19
375.642	86.19
375.868	101.19
376.094	107.19
376.319	93.19
376.545	85.19
376.771	84.19
376.997	92.19
377.222	92.19
377.448	106.19
377.674	87.19
377.899	91.19
378.125	98.19
378.35	82.19
378.576	80.19
378.802	97.19
379.027	91.19
379.253	93.19
379.478	90.19
379.704	84.19
379.929	104.19
380.155	99.19
380.38	91.19
380.606	99.19
380.831	93.19
381.057	88.19
381.282	86.19
381.507	108.19
381.733	105.19
381.958	98.19
382.184	101.19
382.409	87.19
382.634	114.19
382.86	98.19
383.085	109.19
383.31	98.19
383.535	104.19
383.761	107.19
383.986	94.19
384.211	94.19
384.436	102.19
384.662	105.19
384.887	112.19
385.112	109.19
385.337	114.19
385.562	103.19
385.787	96.19
386.013	118.19
386.238	99.19
386.463	115.19
386.688	115.19
386.913	101.19
387.138	109.19
387.363	95.19
387.588	98.19
387.813	96.19
388.038	101.19
388.263	93.19
388.488	117.19
388.713	104.19
388.938	92.19
389.163	104.19
389.387	97.19
389.612	75.19
389.837	91.19
390.062	77.19
390.287	87.19
390.512	90.19
390.736	91.19
390.961	90.19
391.186	105.19
391.411	87.19
391.636	90.19
391.86	84.19
392.085	90.19
392.31	76.19
392.534	83.19
392.759	82.19
392.984	87.19
393.208	86.19
393.433	87.19
393.658	95.19
393.882	82.19
394.107	88.19
394.331	91.19
394.556	83.19
394.78	86.19
395.005	86.19
395.229	82.19
395.454	75.19
395.678	82.19
395.903	91.19
396.127	100.19
396.352	94.19
396.576	84.19
396.801	87.19
397.025	82.19
397.249	75.19
397.474	96.19
397.698	90.19
397.922	74.19
398.147	72.19
398.371	80.19
398.595	87.19
398.82	93.19
399.044	82.19
399.268	78.19
399.492	84.19
399.717	95.19
399.941	81.19
400.165	87.19
400.389	84.19
400.613	88.19
400.837	90.19
401.062	99.19
401.286	93.19
401.51	88.19
401.734	94.19
401.958	86.19
402.182	130.19
402.406	194.19
402.63	153.19
402.854	98.19
403.078	93.19
403.302	90.19
403.526	86.19
403.75	79.19
403.974	65.19
404.198	78.19
404.422	90.19
404.645	99.19
404.869	96.19
405.093	111.19
405.317	139.19
405.541	117.19
405.765	114.19
405.988	133.19
406.212	209.19
406.436	291.19
406.66	190.19
406.883	120.19
407.107	117.19
407.331	103.19
407.555	103.19
407.778	97.19
408.002	77.19
408.226	96.19
408.449	90.19
408.673	91.19
408.896	86.19
409.12	99.19
409.344	82.19
409.567	99.19
409.791	85.19
410.014	86.19
410.238	79.19
410.461	94.19
410.685	88.19
410.908	87.19
411.132	102.19
411.355	99.19
411.578	90.19
411.802	85.19
412.025	97.19
412.249	86.19
412.472	115.19
412.695	136.19
412.919	109.19
413.142	86.19
413.365	71.19
413.589	90.19
413.812	94.19
414.035	86.19
414.258	94.19
414.482	92.19
414.705	79.19
414.928	91.19
415.151	95.19
415.374	91.19
415.597	94.19
415.821	86.19
416.044	95.19
416.267	86.19
416.49	85.19
416.713	87.19
416.936	89.19
417.159	83.19
417.382	88.19
417.605	98.19
417.828	99.19
418.051	80.19
418.274	101.19
418.497	84.19
418.72	100.19
418.943	85.19
419.166	86.19
419.389	96.19
419.611	91.19
419.834	95.19
420.057	90.19
420.28	88.19
420.503	94.19
420.726	88.19
420.948	83.19
421.171	91.19
421.394	107.19
421.617	87.19
421.839	81.19
422.062	84.19
422.285	103.19
422.507	102.19
422.73	113.19
422.953	92.19
423.175	85.19
423.398	76.19
423.621	87.19
423.843	87.19
424.066	95.19
424.288	98.19
424.511	100.19
424.733	102.19
424.956	121.19
425.178	111.19
425.401	110.19
425.623	82.19
425.846	80.19
426.068	100.19
426.291	87.19
426.513	107.19
426.735	97.19
426.958	101.19
427.18	108.19
427.402	159.19
427.625	218.19
427.847	228.19
428.069	196.19
428.292	119.19
428.514	106.19
428.736	82.19
428.958	84.19
429.181	80.19
429.403	90.19
429.625	72.19
429.847	80.19
430.069	108.19
430.292	96.19
430.514	82.19
430.736	71.19
430.958	84.19
431.18	79.19
431.402	74.19
431.624	86.19
431.846	93.19
432.068	91.19
432.29	84.19
432.512	86.19
432.734	95.19
432.956	90.19
433.178	98.19
433.4	91.19
433.622	98.19
433.844	97.19
434.066	83.19
434.287	94.19
434.509	94.19
434.731	107.19
434.953	94.19
435.175	84.19
435.397	77.19
435.618	95.19
435.84	93.19
436.062	132.19
436.284	115.19
436.505	83.19
436.727	85.19
436.949	89.19
437.17	67.19
437.392	81.19
437.614	98.19
437.835	126.19
438.057	138.19
438.278	116.19
438.5	88.19
438.721	132.19
438.943	114.19
439.165	76.19
439.386	91.19
439.608	88.19
439.829	87.19
440.05	149.19
440.272	168.19
440.493	109.19
440.715	94.19
440.936	85.19
441.158	88.19
441.379	96.19
441.6	82.19
441.822	93.19
442.043	94.19
442.264	107.19
442.486	100.19
442.707	102.19
442.928	104.19
443.149	145.19
443.371	173.19
443.592	118.19
443.813	111.19
444.034	103.19
444.255	96.19
444.476	88.19
444.698	79.19
444.919	104.19
445.14	118.19
445.361	145.19
445.582	127.19
445.803	188.19
446.024	165.19
446.245	157.19
446.466	120.19
446.687	74.19
446.908	82.19
447.129	80.19
447.35	81.19
447.571	105.19
447.792	88.19
448.013	96.19
448.234	115.19
448.455	109.19
448.675	139.19
448.896	132.19
449.117	103.19
449.338	103.19
449.559	134.19
449.779	132.19
450	98.19
450.221	87.19
450.442	97.19
450.662	101.19
450.883	118.19
451.104	119.19
451.324	104.19
451.545	92.19
451.766	86.19
451.986	80.19
452.207	99.19
452.428	85.19
452.648	98.19
452.869	112.19
453.089	128.19
453.31	124.19
453.53	103.19
453.751	97.19
453.971	108.19
454.192	126.19
454.412	93.19
454.633	87.19
454.853	84.19
455.073	82.19
455.294	89.19
455.514	111.19
455.734	86.19
455.955	90.19
456.175	87.19
456.395	90.19
456.616	80.19
456.836	80.19
457.056	99.19
457.276	83.19
457.497	95.19
457.717	85.19
457.937	82.19
458.157	88.19
458.377	83.19
458.598	90.19
458.818	189.19
459.038	215.19
459.258	140.19
459.478	100.19
459.698	74.19
459.918	86.19
460.138	76.19
460.358	90.19
460.578	81.19
460.798	86.19
461.018	88.19
461.238	98.19
461.458	95.19
461.678	86.19
461.898	82.19
462.118	87.19
462.338	87.19
462.558	98.19
462.777	90.19
462.997	86.19
463.217	103.19
463.437	94.19
463.657	91.19
463.876	91.19
464.096	85.19
464.316	88.19
464.536	93.19
464.755	99.19
464.975	111.19
465.195	226.19
465.414	227.19
465.634	114.19
465.854	88.19
466.073	82.19
466.293	76.19
466.512	70.19
466.732	91.19
466.951	88.19
467.171	86.19
467.391	103.19
467.61	132.19
467.829	174.19
468.049	414.19
468.268	605.19
468.488	188.19
468.707	96.19
468.927	92.19
469.146	81.19
469.365	85.19
469.585	95.19
469.804	107.19
470.023	112.19
470.243	96.19
470.462	106.19
470.681	119.19
470.901	100.19
471.12	88.19
471.339	85.19
471.558	111.19
471.777	106.19
471.997	224.19
472.216	750.19
472.435	1758.19
472.654	440.19
472.873	146.19
473.092	102.19
473.311	93.19
473.53	79.19
473.749	87.19
473.968	93.19
474.187	120.19
474.406	100.19
474.625	100.19
474.844	81.19
475.063	87.19
475.282	78.19
475.501	81.19
475.72	86.19
475.939	83.19
476.158	85.19
476.377	85.19
476.596	93.19
476.814	103.19
477.033	104.19
477.252	75.19
477.471	94.19
477.69	80.19
477.908	91.19
478.127	100.19
478.346	94.19
478.564	86.19
478.783	80.19
479.002	101.19
479.22	97.19
479.439	112.19
479.658	126.19
479.876	110.19
480.095	114.19
480.313	107.19
480.532	132.19
480.751	202.19
480.969	692.19
481.188	3058.19
481.406	1785.19
481.624	272.19
481.843	122.19
482.061	90.19
482.28	108.19
482.498	98.19
482.717	96.19
482.935	88.19
483.153	93.19
483.372	85.19
483.59	91.19
483.808	67.19
484.027	82.19
484.245	97.19
484.463	94.19
484.681	86.19
484.9	84.19
485.118	92.19
485.336	86.19
485.554	97.19
485.772	106.19
485.99	117.19
486.209	103.19
486.427	120.19
486.645	128.19
486.863	122.19
487.081	99.19
487.299	97.19
487.517	99.19
487.735	95.19
487.953	85.19
488.171	92.19
488.389	91.19
488.607	106.19
488.825	94.19
489.043	94.19
489.261	82.19
489.479	82.19
489.696	87.19
489.914	91.19
490.132	78.19
490.35	87.19
490.568	82.19
490.786	91.19
491.003	96.19
491.221	84.19
491.439	84.19
491.657	92.19
491.874	96.19
492.092	102.19
492.31	88.19
492.527	104.19
492.745	107.19
492.963	99.19
493.18	62.19
493.398	99.19
493.615	93.19
493.833	85.19
494.05	96.19
494.268	93.19
494.485	82.19
494.703	86.19
494.92	96.19
495.138	99.19
495.355	75.19
495.573	86.19
495.79	92.19
496.008	98.19
496.225	86.19
496.442	90.19
496.66	106.19
496.877	79.19
497.094	83.19
497.312	95.19
497.529	88.19
497.746	80.19
497.963	74.19
498.181	84.19
498.398	97.19
498.615	119.19
498.832	113.19
499.049	103.19
499.267	91.19
499.484	94.19
499.701	89.19
499.918	91.19
500.135	86.19
500.352	100.19
500.569	89.19
500.786	91.19
501.003	74.19
501.22	77.19
501.437	91.19
501.654	104.19
501.871	120.19
502.088	95.19
502.305	82.19
502.522	96.19
502.739	104.19
502.956	89.19
503.172	86.19
503.389	103.19
503.606	106.19
503.823	99.19
504.04	96.19
504.256	83.19
504.473	84.19
504.69	73.19
504.907	90.19
505.123	85.19
505.34	85.19
505.557	90.19
505.773	88.19
505.99	93.19
506.207	81.19
506.423	94.19
506.64	79.19
506.856	94.19
507.073	91.19
507.289	96.19
507.506	117.19
507.722	118.19
507.939	134.19
508.155	88.19
508.372	94.19
508.588	89.19
508.805	92.19
509.021	95.19
509.238	99.19
509.454	107.19
509.67	95.19
509.887	110.19
510.103	143.19
510.319	244.19
510.536	835.19
510.752	2925.19
510.968	773.19
511.184	165.19
511.401	120.19
511.617	118.19
511.833	105.19
512.049	99.19
512.265	100.19
512.481	89.19
512.698	83.19
512.914	83.19
513.13	91.19
513.346	99.19
513.562	103.19
513.778	98.19
513.994	111.19
514.21	100.19
514.426	133.19
