Data from Circ_1987_H10_HRD10591_00072.txt Node
Date: Wed Jan 03 12:10:47 EST 2024
User: Yrep
Spectrometer: HR+D1059
Trigger mode: 1
Integration Time (sec): 1.000000E-1
Scans to average: 1
Electric dark correction enabled: true
Nonlinearity correction enabled: false
Boxcar width: 0
XAxis mode: Wavelengths
Number of Pixels in Spectrum: 2048
>>>>>Begin Spectral Data<<<<<
223.165	-27.25
223.4	-27.25
223.635	-27.25
223.869	-7.25
224.104	-16.25
224.338	-16.25
224.573	-18.25
224.808	-13.25
225.042	7.75
225.277	-19.25
225.511	-5.25
225.746	-0.25
225.98	9.75
226.215	-0.25
226.449	21.75
226.683	26.75
226.918	20.75
227.152	36.75
227.387	44.75
227.621	32.75
227.856	25.75
228.09	45.75
228.324	62.75
228.559	55.75
228.793	62.75
229.027	61.75
229.262	65.75
229.496	85.75
229.73	117.75
229.964	97.75
230.199	79.75
230.433	82.75
230.667	91.75
230.901	72.75
231.136	76.75
231.37	76.75
231.604	76.75
231.838	88.75
232.072	75.75
232.306	76.75
232.541	81.75
232.775	83.75
233.009	76.75
233.243	82.75
233.477	88.75
233.711	67.75
233.945	67.75
234.179	88.75
234.413	84.75
234.647	92.75
234.881	83.75
235.115	72.75
235.349	82.75
235.583	76.75
235.817	83.75
236.051	83.75
236.285	80.75
236.519	69.75
236.753	69.75
236.987	81.75
237.221	91.75
237.455	95.75
237.689	69.75
237.922	82.75
238.156	70.75
238.39	77.75
238.624	81.75
238.858	74.75
239.091	66.75
239.325	81.75
239.559	80.75
239.793	83.75
240.027	77.75
240.26	84.75
240.494	76.75
240.728	88.75
240.961	85.75
241.195	76.75
241.429	70.75
241.662	66.75
241.896	80.75
242.13	78.75
242.363	83.75
242.597	85.75
242.83	78.75
243.064	61.75
243.298	76.75
243.531	100.75
243.765	70.75
243.998	60.75
244.232	64.75
244.465	80.75
244.699	87.75
244.932	87.75
245.166	94.75
245.399	72.75
245.633	61.75
245.866	78.75
246.099	78.75
246.333	82.75
246.566	69.75
246.8	78.75
247.033	86.75
247.266	82.75
247.5	101.75
247.733	96.75
247.966	92.75
248.2	82.75
248.433	85.75
248.666	74.75
248.899	96.75
249.133	80.75
249.366	112.75
249.599	117.75
249.832	80.75
250.066	79.75
250.299	93.75
250.532	81.75
250.765	65.75
250.998	88.75
251.231	85.75
251.465	87.75
251.698	84.75
251.931	80.75
252.164	81.75
252.397	106.75
252.63	56.75
252.863	86.75
253.096	92.75
253.329	80.75
253.562	87.75
253.795	81.75
254.028	72.75
254.261	78.75
254.494	86.75
254.727	83.75
254.96	65.75
255.193	87.75
255.426	95.75
255.659	68.75
255.892	103.75
256.124	106.75
256.357	83.75
256.59	70.75
256.823	90.75
257.056	94.75
257.289	104.75
257.521	74.75
257.754	88.75
257.987	85.75
258.22	90.75
258.452	108.75
258.685	98.75
258.918	84.75
259.151	87.75
259.383	90.75
259.616	85.75
259.849	81.75
260.081	92.75
260.314	76.75
260.547	80.75
260.779	102.75
261.012	104.75
261.244	110.75
261.477	99.75
261.71	110.75
261.942	127.75
262.175	161.75
262.407	107.75
262.64	92.75
262.872	85.75
263.105	92.75
263.337	82.75
263.57	87.75
263.802	94.75
264.035	75.75
264.267	101.75
264.499	84.75
264.732	84.75
264.964	89.75
265.197	74.75
265.429	78.75
265.661	84.75
265.894	85.75
266.126	83.75
266.358	82.75
266.591	79.75
266.823	78.75
267.055	78.75
267.287	85.75
267.52	88.75
267.752	96.75
267.984	90.75
268.216	90.75
268.448	93.75
268.681	81.75
268.913	101.75
269.145	106.75
269.377	91.75
269.609	77.75
269.841	82.75
270.073	83.75
270.306	75.75
270.538	90.75
270.77	81.75
271.002	72.75
271.234	89.75
271.466	91.75
271.698	96.75
271.93	101.75
272.162	98.75
272.394	81.75
272.626	101.75
272.858	92.75
273.09	79.75
273.322	78.75
273.553	86.75
273.785	86.75
274.017	82.75
274.249	100.75
274.481	104.75
274.713	85.75
274.945	88.75
275.176	89.75
275.408	106.75
275.64	106.75
275.872	110.75
276.104	98.75
276.335	121.75
276.567	115.75
276.799	134.75
277.031	189.75
277.262	216.75
277.494	168.75
277.726	114.75
277.957	100.75
278.189	84.75
278.421	97.75
278.652	104.75
278.884	97.75
279.115	92.75
279.347	96.75
279.579	106.75
279.81	134.75
280.042	192.75
280.273	284.75
280.505	206.75
280.736	110.75
280.968	90.75
281.199	90.75
281.431	115.75
281.662	84.75
281.894	108.75
282.125	106.75
282.356	156.75
282.588	178.75
282.819	141.75
283.051	93.75
283.282	86.75
283.513	85.75
283.745	86.75
283.976	81.75
284.207	92.75
284.439	94.75
284.67	95.75
284.901	86.75
285.132	94.75
285.364	83.75
285.595	98.75
285.826	95.75
286.057	91.75
286.288	100.75
286.52	83.75
286.751	77.75
286.982	74.75
287.213	88.75
287.444	94.75
287.675	86.75
287.906	83.75
288.138	96.75
288.369	102.75
288.6	97.75
288.831	101.75
289.062	80.75
289.293	80.75
289.524	93.75
289.755	93.75
289.986	97.75
290.217	101.75
290.448	92.75
290.679	85.75
290.91	92.75
291.141	105.75
291.371	91.75
291.602	78.75
291.833	89.75
292.064	92.75
292.295	101.75
292.526	104.75
292.757	97.75
292.987	89.75
293.218	94.75
293.449	89.75
293.68	112.75
293.91	86.75
294.141	99.75
294.372	94.75
294.603	80.75
294.833	102.75
295.064	85.75
295.295	98.75
295.525	91.75
295.756	106.75
295.987	137.75
296.217	174.75
296.448	164.75
296.679	100.75
296.909	89.75
297.14	92.75
297.37	97.75
297.601	76.75
297.831	90.75
298.062	96.75
298.292	101.75
298.523	100.75
298.753	74.75
298.984	99.75
299.214	106.75
299.445	122.75
299.675	98.75
299.905	103.75
300.136	96.75
300.366	94.75
300.597	88.75
300.827	98.75
301.057	102.75
301.288	117.75
301.518	97.75
301.748	94.75
301.979	110.75
302.209	117.75
302.439	100.75
302.669	88.75
302.9	101.75
303.13	93.75
303.36	102.75
303.59	160.75
303.82	162.75
304.051	100.75
304.281	108.75
304.511	96.75
304.741	98.75
304.971	83.75
305.201	95.75
305.431	108.75
305.661	91.75
305.891	88.75
306.121	116.75
306.352	128.75
306.582	123.75
306.812	103.75
307.042	122.75
307.272	157.75
307.502	186.75
307.731	172.75
307.961	128.75
308.191	102.75
308.421	101.75
308.651	109.75
308.881	99.75
309.111	89.75
309.341	92.75
309.571	105.75
309.8	94.75
310.03	112.75
310.26	111.75
310.49	120.75
310.72	116.75
310.949	147.75
311.179	123.75
311.409	111.75
311.639	100.75
311.868	123.75
312.098	105.75
312.328	106.75
312.557	101.75
312.787	145.75
313.017	113.75
313.246	95.75
313.476	86.75
313.706	96.75
313.935	100.75
314.165	115.75
314.394	118.75
314.624	96.75
314.853	112.75
315.083	104.75
315.312	98.75
315.542	109.75
315.771	96.75
316.001	97.75
316.23	92.75
316.46	82.75
316.689	96.75
316.919	109.75
317.148	105.75
317.377	109.75
317.607	110.75
317.836	94.75
318.065	94.75
318.295	90.75
318.524	100.75
318.753	100.75
318.983	98.75
319.212	106.75
319.441	121.75
319.67	121.75
319.9	104.75
320.129	95.75
320.358	96.75
320.587	105.75
320.816	111.75
321.046	126.75
321.275	99.75
321.504	102.75
321.733	103.75
321.962	95.75
322.191	106.75
322.42	112.75
322.649	119.75
322.878	142.75
323.108	141.75
323.337	149.75
323.566	161.75
323.795	186.75
324.024	280.75
324.253	526.75
324.482	1180.75
324.71	2425.75
324.939	3269.75
325.168	1170.75
325.397	326.75
325.626	173.75
325.855	144.75
326.084	144.75
326.313	142.75
326.542	178.75
326.77	308.75
326.999	589.75
327.228	1273.75
327.457	2383.75
327.686	1882.75
327.914	638.75
328.143	626.75
328.372	775.75
328.6	441.75
328.829	206.75
329.058	213.75
329.287	212.75
329.515	198.75
329.744	300.75
329.972	548.75
330.201	1201.75
330.43	1734.75
330.658	767.75
330.887	351.75
331.115	218.75
331.344	127.75
331.572	148.75
331.801	130.75
332.03	132.75
332.258	118.75
332.486	119.75
332.715	122.75
332.943	107.75
333.172	136.75
333.4	134.75
333.629	189.75
333.857	241.75
334.085	506.75
334.314	1120.75
334.542	2155.75
334.771	2057.75
334.999	527.75
335.227	200.75
335.455	144.75
335.684	123.75
335.912	123.75
336.14	116.75
336.369	117.75
336.597	129.75
336.825	113.75
337.053	102.75
337.281	105.75
337.51	87.75
337.738	88.75
337.966	95.75
338.194	95.75
338.422	117.75
338.65	115.75
338.878	105.75
339.106	105.75
339.334	93.75
339.562	98.75
339.79	91.75
340.018	85.75
340.246	89.75
340.474	97.75
340.702	91.75
340.93	93.75
341.158	102.75
341.386	112.75
341.614	109.75
341.842	103.75
342.07	95.75
342.298	95.75
342.526	92.75
342.754	88.75
342.981	99.75
343.209	81.75
343.437	90.75
343.665	95.75
343.893	92.75
344.12	95.75
344.348	98.75
344.576	100.75
344.804	86.75
345.031	92.75
345.259	117.75
345.487	110.75
345.714	101.75
345.942	97.75
346.17	106.75
346.397	86.75
346.625	85.75
346.853	102.75
347.08	104.75
347.308	104.75
347.535	98.75
347.763	108.75
347.99	108.75
348.218	119.75
348.445	121.75
348.673	122.75
348.9	107.75
349.128	89.75
349.355	91.75
349.583	90.75
349.81	97.75
350.037	111.75
350.265	93.75
350.492	98.75
350.72	99.75
350.947	135.75
351.174	137.75
351.402	121.75
351.629	105.75
351.856	118.75
352.083	105.75
352.311	112.75
352.538	144.75
352.765	116.75
352.992	131.75
353.22	110.75
353.447	117.75
353.674	124.75
353.901	104.75
354.128	104.75
354.355	94.75
354.583	98.75
354.81	104.75
355.037	109.75
355.264	104.75
355.491	81.75
355.718	88.75
355.945	93.75
356.172	90.75
356.399	94.75
356.626	83.75
356.853	99.75
357.08	117.75
357.307	86.75
357.534	84.75
357.761	97.75
357.988	89.75
358.215	101.75
358.441	90.75
358.668	99.75
358.895	84.75
359.122	96.75
359.349	90.75
359.576	95.75
359.802	121.75
360.029	151.75
360.256	147.75
360.483	119.75
360.709	97.75
360.936	112.75
361.163	106.75
361.39	105.75
361.616	122.75
361.843	89.75
362.07	114.75
362.296	116.75
362.523	99.75
362.749	89.75
362.976	111.75
363.203	97.75
363.429	100.75
363.656	99.75
363.882	95.75
364.109	101.75
364.335	94.75
364.562	102.75
364.788	79.75
365.015	101.75
365.241	107.75
365.468	114.75
365.694	114.75
365.92	111.75
366.147	89.75
366.373	102.75
366.599	88.75
366.826	96.75
367.052	84.75
367.278	104.75
367.505	90.75
367.731	92.75
367.957	97.75
368.184	97.75
368.41	93.75
368.636	139.75
368.862	132.75
369.089	126.75
369.315	115.75
369.541	106.75
369.767	89.75
369.993	94.75
370.219	90.75
370.445	89.75
370.672	99.75
370.898	73.75
371.124	100.75
371.35	95.75
371.576	101.75
371.802	73.75
372.028	89.75
372.254	87.75
372.48	90.75
372.706	99.75
372.932	87.75
373.158	94.75
373.384	100.75
373.61	88.75
373.835	95.75
374.061	92.75
374.287	96.75
374.513	84.75
374.739	78.75
374.965	79.75
375.191	89.75
375.416	75.75
375.642	98.75
375.868	92.75
376.094	77.75
376.319	92.75
376.545	82.75
376.771	93.75
376.997	98.75
377.222	97.75
377.448	89.75
377.674	78.75
377.899	95.75
378.125	78.75
378.35	93.75
378.576	88.75
378.802	83.75
379.027	86.75
379.253	88.75
379.478	80.75
379.704	82.75
379.929	81.75
380.155	98.75
380.38	107.75
380.606	100.75
380.831	94.75
381.057	104.75
381.282	111.75
381.507	100.75
381.733	87.75
381.958	96.75
382.184	82.75
382.409	89.75
382.634	97.75
382.86	93.75
383.085	94.75
383.31	100.75
383.535	88.75
383.761	102.75
383.986	87.75
384.211	90.75
384.436	111.75
384.662	112.75
384.887	95.75
385.112	95.75
385.337	100.75
385.562	101.75
385.787	99.75
386.013	108.75
386.238	124.75
386.463	110.75
386.688	116.75
386.913	106.75
387.138	107.75
387.363	99.75
387.588	83.75
387.813	104.75
388.038	104.75
388.263	107.75
388.488	105.75
388.713	93.75
388.938	97.75
389.163	87.75
389.387	97.75
389.612	73.75
389.837	71.75
390.062	98.75
390.287	84.75
390.512	94.75
390.736	92.75
390.961	84.75
391.186	87.75
391.411	66.75
391.636	84.75
391.86	88.75
392.085	84.75
392.31	82.75
392.534	85.75
392.759	90.75
392.984	86.75
393.208	90.75
393.433	89.75
393.658	88.75
393.882	94.75
394.107	92.75
394.331	91.75
394.556	73.75
394.78	76.75
395.005	87.75
395.229	94.75
395.454	82.75
395.678	77.75
395.903	92.75
396.127	84.75
396.352	80.75
396.576	81.75
396.801	87.75
397.025	109.75
397.249	85.75
397.474	84.75
397.698	103.75
397.922	84.75
398.147	78.75
398.371	95.75
398.595	92.75
398.82	92.75
399.044	93.75
399.268	95.75
399.492	92.75
399.717	112.75
399.941	86.75
400.165	110.75
400.389	104.75
400.613	104.75
400.837	87.75
401.062	89.75
401.286	105.75
401.51	90.75
401.734	88.75
401.958	108.75
402.182	134.75
402.406	194.75
402.63	164.75
402.854	113.75
403.078	95.75
403.302	90.75
403.526	103.75
403.75	89.75
403.974	96.75
404.198	89.75
404.422	103.75
404.645	87.75
404.869	100.75
405.093	126.75
405.317	163.75
405.541	146.75
405.765	123.75
405.988	132.75
406.212	236.75
406.436	340.75
406.66	218.75
406.883	133.75
407.107	118.75
407.331	107.75
407.555	114.75
407.778	108.75
408.002	88.75
408.226	88.75
408.449	87.75
408.673	84.75
408.896	96.75
409.12	111.75
409.344	90.75
409.567	98.75
409.791	90.75
410.014	90.75
410.238	92.75
410.461	98.75
410.685	80.75
410.908	110.75
411.132	100.75
411.355	112.75
411.578	81.75
411.802	101.75
412.025	90.75
412.249	108.75
412.472	142.75
412.695	166.75
412.919	107.75
413.142	113.75
413.365	86.75
413.589	87.75
413.812	89.75
414.035	86.75
414.258	87.75
414.482	96.75
414.705	94.75
414.928	98.75
415.151	95.75
415.374	90.75
415.597	92.75
415.821	84.75
416.044	106.75
416.267	92.75
416.49	100.75
416.713	89.75
416.936	91.75
417.159	90.75
417.382	96.75
417.605	118.75
417.828	123.75
418.051	118.75
418.274	108.75
418.497	84.75
418.72	102.75
418.943	100.75
419.166	89.75
419.389	91.75
419.611	88.75
419.834	108.75
420.057	97.75
420.28	103.75
420.503	93.75
420.726	80.75
420.948	111.75
421.171	112.75
421.394	105.75
421.617	70.75
421.839	98.75
422.062	105.75
422.285	90.75
422.507	106.75
422.73	100.75
422.953	95.75
423.175	93.75
423.398	92.75
423.621	88.75
423.843	88.75
424.066	92.75
424.288	81.75
424.511	101.75
424.733	112.75
424.956	129.75
425.178	102.75
425.401	124.75
425.623	110.75
425.846	100.75
426.068	110.75
426.291	95.75
426.513	109.75
426.735	101.75
426.958	101.75
427.18	136.75
427.402	190.75
427.625	286.75
427.847	283.75
428.069	254.75
428.292	132.75
428.514	109.75
428.736	96.75
428.958	91.75
429.181	82.75
429.403	100.75
429.625	93.75
429.847	101.75
430.069	117.75
430.292	106.75
430.514	99.75
430.736	78.75
430.958	78.75
431.18	92.75
431.402	85.75
431.624	80.75
431.846	88.75
432.068	95.75
432.29	90.75
432.512	80.75
432.734	84.75
432.956	82.75
433.178	108.75
433.4	119.75
433.622	100.75
433.844	105.75
434.066	100.75
434.287	100.75
434.509	80.75
434.731	85.75
434.953	85.75
435.175	83.75
435.397	94.75
435.618	99.75
435.84	129.75
436.062	165.75
436.284	136.75
436.505	106.75
436.727	119.75
436.949	98.75
437.17	82.75
437.392	102.75
437.614	102.75
437.835	132.75
438.057	166.75
438.278	141.75
438.5	115.75
438.721	144.75
438.943	116.75
439.165	101.75
439.386	100.75
439.608	91.75
439.829	121.75
440.05	160.75
440.272	221.75
440.493	124.75
440.715	100.75
440.936	77.75
441.158	96.75
441.379	89.75
441.6	111.75
441.822	117.75
442.043	110.75
442.264	140.75
442.486	125.75
442.707	108.75
442.928	126.75
443.149	194.75
443.371	193.75
443.592	148.75
443.813	135.75
444.034	133.75
444.255	98.75
444.476	101.75
444.698	95.75
444.919	84.75
445.14	137.75
445.361	132.75
445.582	156.75
445.803	218.75
446.024	208.75
446.245	195.75
446.466	154.75
446.687	98.75
446.908	98.75
447.129	73.75
447.35	93.75
447.571	95.75
447.792	101.75
448.013	89.75
448.234	124.75
448.455	92.75
448.675	126.75
448.896	135.75
449.117	114.75
449.338	128.75
449.559	165.75
449.779	172.75
450	110.75
450.221	97.75
450.442	87.75
450.662	106.75
450.883	141.75
451.104	166.75
451.324	121.75
451.545	95.75
451.766	79.75
451.986	82.75
452.207	90.75
452.428	100.75
452.648	100.75
452.869	121.75
453.089	136.75
453.31	146.75
453.53	114.75
453.751	97.75
453.971	127.75
454.192	158.75
454.412	103.75
454.633	79.75
454.853	89.75
455.073	87.75
455.294	93.75
455.514	124.75
455.734	103.75
455.955	80.75
456.175	95.75
456.395	96.75
456.616	87.75
456.836	77.75
457.056	93.75
457.276	94.75
457.497	86.75
457.717	89.75
457.937	89.75
458.157	89.75
458.377	108.75
458.598	131.75
458.818	226.75
459.038	246.75
459.258	164.75
459.478	104.75
459.698	100.75
459.918	86.75
460.138	95.75
460.358	100.75
460.578	83.75
460.798	98.75
461.018	97.75
461.238	87.75
461.458	96.75
461.678	82.75
461.898	97.75
462.118	91.75
462.338	96.75
462.558	84.75
462.777	83.75
462.997	87.75
463.217	115.75
463.437	113.75
463.657	94.75
463.876	94.75
464.096	101.75
464.316	93.75
464.536	99.75
464.755	105.75
464.975	143.75
465.195	277.75
465.414	272.75
465.634	103.75
465.854	80.75
466.073	92.75
466.293	99.75
466.512	112.75
466.732	88.75
466.951	95.75
467.171	104.75
467.391	119.75
467.61	153.75
467.829	234.75
468.049	606.75
468.268	940.75
468.488	238.75
468.707	117.75
468.927	106.75
469.146	95.75
469.365	71.75
469.585	97.75
469.804	110.75
470.023	117.75
470.243	91.75
470.462	111.75
470.681	152.75
470.901	119.75
471.12	93.75
471.339	114.75
471.558	126.75
471.777	165.75
471.997	336.75
472.216	1238.75
472.435	2889.75
472.654	654.75
472.873	179.75
473.092	104.75
473.311	108.75
473.53	105.75
473.749	98.75
473.968	129.75
474.187	132.75
474.406	126.75
474.625	95.75
474.844	88.75
475.063	93.75
475.282	88.75
475.501	90.75
475.72	92.75
475.939	75.75
476.158	94.75
476.377	89.75
476.596	89.75
476.814	116.75
477.033	106.75
477.252	100.75
477.471	92.75
477.69	85.75
477.908	96.75
478.127	80.75
478.346	92.75
478.564	84.75
478.783	118.75
479.002	124.75
479.22	105.75
479.439	124.75
479.658	131.75
479.876	143.75
480.095	107.75
480.313	134.75
480.532	176.75
480.751	306.75
480.969	1120.75
481.188	4984.75
481.406	2858.75
481.624	401.75
481.843	147.75
482.061	106.75
482.28	99.75
482.498	104.75
482.717	81.75
482.935	101.75
483.153	94.75
483.372	85.75
483.59	90.75
483.808	89.75
484.027	100.75
484.245	97.75
484.463	104.75
484.681	101.75
484.9	104.75
485.118	95.75
485.336	103.75
485.554	94.75
485.772	100.75
485.99	106.75
486.209	113.75
486.427	106.75
486.645	115.75
486.863	121.75
487.081	100.75
487.299	98.75
487.517	94.75
487.735	89.75
487.953	96.75
488.171	110.75
488.389	102.75
488.607	102.75
488.825	89.75
489.043	85.75
489.261	87.75
489.479	87.75
489.696	92.75
489.914	101.75
490.132	77.75
490.35	93.75
490.568	102.75
490.786	80.75
491.003	84.75
491.221	104.75
491.439	102.75
491.657	80.75
491.874	92.75
492.092	97.75
492.31	102.75
492.527	106.75
492.745	104.75
492.963	96.75
493.18	93.75
493.398	87.75
493.615	88.75
493.833	109.75
494.05	84.75
494.268	97.75
494.485	90.75
494.703	88.75
494.92	97.75
495.138	96.75
495.355	87.75
495.573	86.75
495.79	73.75
496.008	101.75
496.225	94.75
496.442	88.75
496.66	82.75
496.877	89.75
497.094	91.75
497.312	86.75
497.529	89.75
497.746	78.75
497.963	90.75
498.181	88.75
498.398	91.75
498.615	112.75
498.832	114.75
499.049	90.75
499.267	96.75
499.484	90.75
499.701	99.75
499.918	94.75
500.135	97.75
500.352	79.75
500.569	101.75
500.786	106.75
501.003	95.75
501.22	94.75
501.437	97.75
501.654	101.75
501.871	130.75
502.088	102.75
502.305	89.75
502.522	84.75
502.739	82.75
502.956	104.75
503.172	101.75
503.389	99.75
503.606	132.75
503.823	114.75
504.04	96.75
504.256	88.75
504.473	93.75
504.69	83.75
504.907	83.75
505.123	97.75
505.34	84.75
505.557	83.75
505.773	101.75
505.99	110.75
506.207	93.75
506.423	89.75
506.64	98.75
506.856	95.75
507.073	104.75
507.289	114.75
507.506	102.75
507.722	139.75
507.939	151.75
508.155	117.75
508.372	94.75
508.588	101.75
508.805	86.75
509.021	112.75
509.238	110.75
509.454	109.75
509.67	108.75
509.887	116.75
510.103	142.75
510.319	271.75
510.536	1014.75
510.752	3496.75
510.968	916.75
511.184	201.75
511.401	134.75
511.617	124.75
511.833	114.75
