Data from Circ_1987_H10_HRD10591_00092.txt Node
Date: Wed Jan 03 12:10:51 EST 2024
User: Yrep
Spectrometer: HR+D1059
Trigger mode: 1
Integration Time (sec): 1.000000E-1
Scans to average: 1
Electric dark correction enabled: true
Nonlinearity correction enabled: false
Boxcar width: 0
XAxis mode: Wavelengths
Number of Pixels in Spectrum: 2048
>>>>>Begin Spectral Data<<<<<
223.165	-18.31
223.4	-18.31
223.635	-18.31
223.869	-14.31
224.104	-15.31
224.338	-18.31
224.573	-15.31
224.808	-11.31
225.042	1.69
225.277	-4.31
225.511	-9.31
225.746	7.69
225.98	15.69
226.215	19.69
226.449	10.69
226.683	1.69
226.918	26.69
227.152	22.69
227.387	23.69
227.621	48.69
227.856	41.69
228.09	43.69
228.324	46.69
228.559	59.69
228.793	48.69
229.027	71.69
229.262	60.69
229.496	83.69
229.73	93.69
229.964	84.69
230.199	69.69
230.433	76.69
230.667	72.69
230.901	74.69
231.136	80.69
231.37	78.69
231.604	82.69
231.838	68.69
232.072	72.69
232.306	74.69
232.541	76.69
232.775	83.69
233.009	70.69
233.243	68.69
233.477	78.69
233.711	94.69
233.945	87.69
234.179	84.69
234.413	75.69
234.647	76.69
234.881	75.69
235.115	70.69
235.349	74.69
235.583	74.69
235.817	85.69
236.051	70.69
236.285	70.69
236.519	74.69
236.753	64.69
236.987	86.69
237.221	93.69
237.455	82.69
237.689	75.69
237.922	87.69
238.156	76.69
238.39	62.69
238.624	76.69
238.858	80.69
239.091	79.69
239.325	61.69
239.559	81.69
239.793	89.69
240.027	79.69
240.26	86.69
240.494	80.69
240.728	67.69
240.961	75.69
241.195	85.69
241.429	88.69
241.662	81.69
241.896	76.69
242.13	76.69
242.363	62.69
242.597	67.69
242.83	78.69
243.064	78.69
243.298	67.69
243.531	74.69
243.765	79.69
243.998	82.69
244.232	84.69
244.465	81.69
244.699	70.69
244.932	79.69
245.166	66.69
245.399	67.69
245.633	85.69
245.866	74.69
246.099	88.69
246.333	66.69
246.566	81.69
246.8	74.69
247.033	71.69
247.266	71.69
247.5	75.69
247.733	74.69
247.966	79.69
248.2	82.69
248.433	78.69
248.666	90.69
248.899	72.69
249.133	84.69
249.366	93.69
249.599	100.69
249.832	81.69
250.066	71.69
250.299	95.69
250.532	76.69
250.765	83.69
250.998	86.69
251.231	73.69
251.465	78.69
251.698	82.69
251.931	79.69
252.164	86.69
252.397	65.69
252.63	84.69
252.863	76.69
253.096	76.69
253.329	91.69
253.562	82.69
253.795	70.69
254.028	95.69
254.261	99.69
254.494	78.69
254.727	85.69
254.96	83.69
255.193	79.69
255.426	75.69
255.659	74.69
255.892	90.69
256.124	91.69
256.357	94.69
256.59	97.69
256.823	82.69
257.056	83.69
257.289	76.69
257.521	89.69
257.754	78.69
257.987	98.69
258.22	100.69
258.452	101.69
258.685	87.69
258.918	86.69
259.151	78.69
259.383	71.69
259.616	84.69
259.849	74.69
260.081	90.69
260.314	91.69
260.547	83.69
260.779	88.69
261.012	100.69
261.244	101.69
261.477	95.69
261.71	91.69
261.942	106.69
262.175	136.69
262.407	92.69
262.64	70.69
262.872	70.69
263.105	99.69
263.337	94.69
263.57	91.69
263.802	80.69
264.035	64.69
264.267	81.69
264.499	94.69
264.732	90.69
264.964	90.69
265.197	86.69
265.429	81.69
265.661	84.69
265.894	82.69
266.126	71.69
266.358	92.69
266.591	91.69
266.823	83.69
267.055	63.69
267.287	82.69
267.52	81.69
267.752	100.69
267.984	85.69
268.216	83.69
268.448	75.69
268.681	86.69
268.913	98.69
269.145	85.69
269.377	76.69
269.609	78.69
269.841	71.69
270.073	94.69
270.306	94.69
270.538	76.69
270.77	82.69
271.002	101.69
271.234	92.69
271.466	86.69
271.698	79.69
271.93	93.69
272.162	80.69
272.394	87.69
272.626	92.69
272.858	80.69
273.09	100.69
273.322	76.69
273.553	82.69
273.785	79.69
274.017	89.69
274.249	76.69
274.481	88.69
274.713	90.69
274.945	98.69
275.176	86.69
275.408	104.69
275.64	105.69
275.872	124.69
276.104	105.69
276.335	114.69
276.567	101.69
276.799	135.69
277.031	176.69
277.262	210.69
277.494	146.69
277.726	103.69
277.957	74.69
278.189	93.69
278.421	82.69
278.652	75.69
278.884	82.69
279.115	87.69
279.347	84.69
279.579	94.69
279.81	118.69
280.042	183.69
280.273	257.69
280.505	178.69
280.736	98.69
280.968	92.69
281.199	95.69
281.431	96.69
281.662	70.69
281.894	92.69
282.125	82.69
282.356	124.69
282.588	159.69
282.819	119.69
283.051	81.69
283.282	71.69
283.513	81.69
283.745	86.69
283.976	79.69
284.207	96.69
284.439	86.69
284.67	80.69
284.901	91.69
285.132	85.69
285.364	81.69
285.595	70.69
285.826	78.69
286.057	79.69
286.288	87.69
286.52	83.69
286.751	88.69
286.982	80.69
287.213	91.69
287.444	93.69
287.675	88.69
287.906	91.69
288.138	86.69
288.369	98.69
288.6	86.69
288.831	88.69
289.062	80.69
289.293	82.69
289.524	95.69
289.755	76.69
289.986	81.69
290.217	81.69
290.448	83.69
290.679	88.69
290.91	92.69
291.141	76.69
291.371	92.69
291.602	85.69
291.833	92.69
292.064	82.69
292.295	90.69
292.526	105.69
292.757	84.69
292.987	94.69
293.218	73.69
293.449	72.69
293.68	84.69
293.91	81.69
294.141	85.69
294.372	91.69
294.603	94.69
294.833	90.69
295.064	71.69
295.295	80.69
295.525	80.69
295.756	92.69
295.987	110.69
296.217	163.69
296.448	132.69
296.679	94.69
296.909	93.69
297.14	86.69
297.37	79.69
297.601	83.69
297.831	82.69
298.062	89.69
298.292	101.69
298.523	95.69
298.753	110.69
298.984	80.69
299.214	92.69
299.445	97.69
299.675	94.69
299.905	100.69
300.136	90.69
300.366	109.69
300.597	80.69
300.827	90.69
301.057	112.69
301.288	102.69
301.518	98.69
301.748	94.69
301.979	108.69
302.209	87.69
302.439	89.69
302.669	90.69
302.9	82.69
303.13	103.69
303.36	97.69
303.59	133.69
303.82	135.69
304.051	103.69
304.281	96.69
304.511	70.69
304.741	91.69
304.971	82.69
305.201	94.69
305.431	101.69
305.661	86.69
305.891	103.69
306.121	101.69
306.352	88.69
306.582	119.69
306.812	103.69
307.042	111.69
307.272	155.69
307.502	162.69
307.731	161.69
307.961	122.69
308.191	104.69
308.421	76.69
308.651	86.69
308.881	98.69
309.111	93.69
309.341	97.69
309.571	103.69
309.8	96.69
310.03	95.69
310.26	94.69
310.49	80.69
310.72	99.69
310.949	112.69
311.179	119.69
311.409	100.69
311.639	106.69
311.868	101.69
312.098	96.69
312.328	110.69
312.557	94.69
312.787	108.69
313.017	104.69
313.246	93.69
313.476	98.69
313.706	94.69
313.935	99.69
314.165	104.69
314.394	103.69
314.624	103.69
314.853	87.69
315.083	92.69
315.312	83.69
315.542	90.69
315.771	87.69
316.001	89.69
316.23	87.69
316.46	83.69
316.689	99.69
316.919	101.69
317.148	92.69
317.377	88.69
317.607	98.69
317.836	98.69
318.065	79.69
318.295	91.69
318.524	100.69
318.753	96.69
318.983	94.69
319.212	117.69
319.441	124.69
319.67	121.69
319.9	93.69
320.129	103.69
320.358	88.69
320.587	78.69
320.816	94.69
321.046	100.69
321.275	96.69
321.504	97.69
321.733	99.69
321.962	104.69
322.191	107.69
322.42	109.69
322.649	87.69
322.878	119.69
323.108	119.69
323.337	124.69
323.566	145.69
323.795	177.69
324.024	228.69
324.253	414.69
324.482	881.69
324.71	1814.69
324.939	2461.69
325.168	924.69
325.397	260.69
325.626	166.69
325.855	129.69
326.084	125.69
326.313	134.69
326.542	166.69
326.77	227.69
326.999	433.69
327.228	922.69
327.457	1722.69
327.686	1413.69
327.914	504.69
328.143	505.69
328.372	666.69
328.6	370.69
328.829	198.69
329.058	176.69
329.287	196.69
329.515	179.69
329.744	244.69
329.972	453.69
330.201	950.69
330.43	1409.69
330.658	656.69
330.887	288.69
331.115	194.69
331.344	126.69
331.572	115.69
331.801	122.69
332.03	124.69
332.258	100.69
332.486	95.69
332.715	104.69
332.943	110.69
333.172	123.69
333.4	119.69
333.629	139.69
333.857	229.69
334.085	380.69
334.314	838.69
334.542	1694.69
334.771	1714.69
334.999	454.69
335.227	184.69
335.455	129.69
335.684	96.69
335.912	107.69
336.14	100.69
336.369	104.69
336.597	115.69
336.825	119.69
337.053	87.69
337.281	98.69
337.51	80.69
337.738	110.69
337.966	103.69
338.194	113.69
338.422	103.69
338.65	92.69
338.878	77.69
339.106	89.69
339.334	102.69
339.562	97.69
339.79	103.69
340.018	100.69
340.246	88.69
340.474	102.69
340.702	101.69
340.93	97.69
341.158	89.69
341.386	106.69
341.614	96.69
341.842	92.69
342.07	91.69
342.298	97.69
342.526	82.69
342.754	77.69
342.981	83.69
343.209	86.69
343.437	101.69
343.665	86.69
343.893	100.69
344.12	86.69
344.348	87.69
344.576	100.69
344.804	95.69
345.031	101.69
345.259	112.69
345.487	99.69
345.714	110.69
345.942	90.69
346.17	96.69
346.397	93.69
346.625	82.69
346.853	96.69
347.08	104.69
347.308	109.69
347.535	117.69
347.763	112.69
347.99	99.69
348.218	110.69
348.445	110.69
348.673	102.69
348.9	92.69
349.128	94.69
349.355	83.69
349.583	81.69
349.81	104.69
350.037	90.69
350.265	91.69
350.492	84.69
350.72	93.69
350.947	86.69
351.174	112.69
351.402	112.69
351.629	111.69
351.856	104.69
352.083	95.69
352.311	108.69
352.538	105.69
352.765	103.69
352.992	113.69
353.22	112.69
353.447	118.69
353.674	113.69
353.901	110.69
354.128	82.69
354.355	75.69
354.583	98.69
354.81	93.69
355.037	100.69
355.264	80.69
355.491	101.69
355.718	91.69
355.945	87.69
356.172	83.69
356.399	86.69
356.626	89.69
356.853	64.69
357.08	88.69
357.307	85.69
357.534	100.69
357.761	86.69
357.988	91.69
358.215	86.69
358.441	80.69
358.668	98.69
358.895	79.69
359.122	85.69
359.349	82.69
359.576	91.69
359.802	110.69
360.029	140.69
360.256	133.69
360.483	110.69
360.709	110.69
360.936	89.69
361.163	109.69
361.39	110.69
361.616	103.69
361.843	94.69
362.07	86.69
362.296	112.69
362.523	87.69
362.749	101.69
362.976	87.69
363.203	100.69
363.429	100.69
363.656	98.69
363.882	92.69
364.109	91.69
364.335	95.69
364.562	87.69
364.788	98.69
365.015	98.69
365.241	94.69
365.468	120.69
365.694	118.69
365.92	85.69
366.147	100.69
366.373	91.69
366.599	88.69
366.826	96.69
367.052	96.69
367.278	96.69
367.505	91.69
367.731	102.69
367.957	108.69
368.184	97.69
368.41	108.69
368.636	108.69
368.862	117.69
369.089	112.69
369.315	99.69
369.541	82.69
369.767	80.69
369.993	91.69
370.219	91.69
370.445	91.69
370.672	84.69
370.898	83.69
371.124	100.69
371.35	86.69
371.576	93.69
371.802	80.69
372.028	100.69
372.254	85.69
372.48	84.69
372.706	77.69
372.932	79.69
373.158	82.69
373.384	107.69
373.61	84.69
373.835	104.69
374.061	93.69
374.287	85.69
374.513	92.69
374.739	80.69
374.965	88.69
375.191	85.69
375.416	109.69
375.642	85.69
375.868	95.69
376.094	88.69
376.319	89.69
376.545	91.69
376.771	80.69
376.997	83.69
377.222	91.69
377.448	95.69
377.674	84.69
377.899	77.69
378.125	94.69
378.35	89.69
378.576	92.69
378.802	81.69
379.027	83.69
379.253	62.69
379.478	87.69
379.704	98.69
379.929	92.69
380.155	93.69
380.38	84.69
380.606	95.69
380.831	90.69
381.057	96.69
381.282	91.69
381.507	82.69
381.733	106.69
381.958	76.69
382.184	77.69
382.409	88.69
382.634	83.69
382.86	99.69
383.085	91.69
383.31	95.69
383.535	96.69
383.761	87.69
383.986	91.69
384.211	97.69
384.436	100.69
384.662	94.69
384.887	102.69
385.112	95.69
385.337	110.69
385.562	95.69
385.787	86.69
386.013	102.69
386.238	110.69
386.463	101.69
386.688	113.69
386.913	98.69
387.138	94.69
387.363	98.69
387.588	95.69
387.813	88.69
388.038	98.69
388.263	111.69
388.488	95.69
388.713	74.69
388.938	93.69
389.163	97.69
389.387	93.69
389.612	94.69
389.837	82.69
390.062	74.69
390.287	91.69
390.512	88.69
390.736	104.69
390.961	85.69
391.186	87.69
391.411	92.69
391.636	102.69
391.86	84.69
392.085	86.69
392.31	72.69
392.534	84.69
392.759	87.69
392.984	87.69
393.208	77.69
393.433	87.69
393.658	90.69
393.882	72.69
394.107	87.69
394.331	86.69
394.556	71.69
394.78	77.69
395.005	100.69
395.229	82.69
395.454	95.69
395.678	84.69
395.903	90.69
396.127	92.69
396.352	87.69
396.576	84.69
396.801	88.69
397.025	68.69
397.249	97.69
397.474	90.69
397.698	92.69
397.922	92.69
398.147	95.69
398.371	94.69
398.595	87.69
398.82	76.69
399.044	94.69
399.268	95.69
399.492	77.69
399.717	87.69
399.941	83.69
400.165	91.69
400.389	82.69
400.613	96.69
400.837	73.69
401.062	92.69
401.286	89.69
401.51	88.69
401.734	83.69
401.958	92.69
402.182	142.69
402.406	198.69
402.63	138.69
402.854	91.69
403.078	98.69
403.302	78.69
403.526	102.69
403.75	95.69
403.974	93.69
404.198	55.69
404.422	80.69
404.645	85.69
404.869	99.69
405.093	113.69
405.317	127.69
405.541	123.69
405.765	110.69
405.988	132.69
406.212	209.69
406.436	306.69
406.66	199.69
406.883	122.69
407.107	92.69
407.331	104.69
407.555	92.69
407.778	98.69
408.002	84.69
408.226	97.69
408.449	97.69
408.673	92.69
408.896	104.69
409.12	90.69
409.344	75.69
409.567	74.69
409.791	93.69
410.014	82.69
410.238	74.69
410.461	100.69
410.685	97.69
410.908	91.69
411.132	101.69
411.355	110.69
411.578	90.69
411.802	83.69
412.025	83.69
412.249	98.69
412.472	114.69
412.695	155.69
412.919	116.69
413.142	100.69
413.365	87.69
413.589	86.69
413.812	96.69
414.035	92.69
414.258	87.69
414.482	77.69
414.705	83.69
414.928	84.69
415.151	91.69
415.374	97.69
415.597	87.69
415.821	77.69
416.044	87.69
416.267	88.69
416.49	91.69
416.713	90.69
416.936	86.69
417.159	87.69
417.382	110.69
417.605	116.69
417.828	107.69
418.051	103.69
418.274	85.69
418.497	98.69
418.72	81.69
418.943	77.69
419.166	92.69
419.389	93.69
419.611	105.69
419.834	84.69
420.057	84.69
420.28	101.69
420.503	80.69
420.726	78.69
420.948	100.69
421.171	102.69
421.394	106.69
421.617	83.69
421.839	95.69
422.062	86.69
422.285	96.69
422.507	99.69
422.73	98.69
422.953	106.69
423.175	85.69
423.398	95.69
423.621	83.69
423.843	88.69
424.066	87.69
424.288	84.69
424.511	80.69
424.733	109.69
424.956	114.69
425.178	112.69
425.401	111.69
425.623	105.69
425.846	76.69
426.068	97.69
426.291	97.69
426.513	88.69
426.735	100.69
426.958	101.69
427.18	106.69
427.402	164.69
427.625	272.69
427.847	221.69
428.069	206.69
428.292	118.69
428.514	91.69
428.736	89.69
428.958	108.69
429.181	82.69
429.403	89.69
429.625	90.69
429.847	92.69
430.069	105.69
430.292	100.69
430.514	85.69
430.736	83.69
430.958	106.69
431.18	75.69
431.402	86.69
431.624	79.69
431.846	65.69
432.068	84.69
432.29	91.69
432.512	75.69
432.734	80.69
432.956	90.69
433.178	114.69
433.4	103.69
433.622	95.69
433.844	104.69
434.066	86.69
434.287	92.69
434.509	90.69
434.731	101.69
434.953	96.69
435.175	91.69
435.397	84.69
435.618	83.69
435.84	117.69
436.062	132.69
436.284	128.69
436.505	97.69
436.727	94.69
436.949	90.69
437.17	92.69
437.392	80.69
437.614	91.69
437.835	108.69
438.057	143.69
438.278	112.69
438.5	123.69
438.721	137.69
438.943	109.69
439.165	88.69
439.386	85.69
439.608	87.69
439.829	100.69
440.05	145.69
440.272	167.69
440.493	118.69
440.715	86.69
440.936	87.69
441.158	84.69
441.379	87.69
441.6	104.69
441.822	105.69
442.043	98.69
442.264	103.69
442.486	110.69
442.707	107.69
442.928	125.69
443.149	155.69
443.371	159.69
443.592	118.69
443.813	119.69
444.034	115.69
444.255	91.69
444.476	88.69
444.698	74.69
444.919	87.69
445.14	125.69
445.361	107.69
445.582	140.69
445.803	177.69
446.024	162.69
446.245	157.69
446.466	112.69
446.687	86.69
446.908	85.69
447.129	78.69
447.35	91.69
447.571	86.69
447.792	93.69
448.013	92.69
448.234	118.69
448.455	93.69
448.675	127.69
448.896	129.69
449.117	103.69
449.338	93.69
449.559	131.69
449.779	144.69
450	106.69
450.221	92.69
450.442	102.69
450.662	103.69
450.883	109.69
451.104	120.69
451.324	91.69
451.545	95.69
451.766	92.69
451.986	91.69
452.207	87.69
452.428	88.69
452.648	108.69
452.869	124.69
453.089	123.69
453.31	120.69
453.53	106.69
453.751	99.69
453.971	119.69
454.192	132.69
454.412	95.69
454.633	84.69
454.853	85.69
455.073	90.69
455.294	94.69
455.514	99.69
455.734	104.69
455.955	75.69
456.175	90.69
456.395	80.69
456.616	78.69
456.836	83.69
457.056	94.69
457.276	84.69
457.497	91.69
457.717	92.69
457.937	83.69
458.157	75.69
458.377	98.69
458.598	119.69
458.818	172.69
459.038	211.69
459.258	141.69
459.478	97.69
459.698	103.69
459.918	81.69
460.138	86.69
460.358	88.69
460.578	86.69
460.798	92.69
461.018	91.69
461.238	96.69
461.458	91.69
461.678	96.69
461.898	85.69
462.118	78.69
462.338	76.69
462.558	93.69
462.777	80.69
462.997	91.69
463.217	103.69
463.437	97.69
463.657	102.69
463.876	85.69
464.096	96.69
464.316	89.69
464.536	95.69
464.755	88.69
464.975	120.69
465.195	221.69
465.414	228.69
465.634	123.69
465.854	100.69
466.073	82.69
466.293	95.69
466.512	96.69
466.732	96.69
466.951	82.69
467.171	99.69
467.391	102.69
467.61	126.69
467.829	200.69
468.049	526.69
468.268	860.69
468.488	221.69
468.707	98.69
468.927	96.69
469.146	97.69
469.365	91.69
469.585	95.69
469.804	118.69
470.023	107.69
470.243	108.69
470.462	111.69
470.681	119.69
470.901	102.69
471.12	68.69
471.339	97.69
471.558	108.69
471.777	140.69
471.997	257.69
472.216	1050.69
472.435	2469.69
472.654	588.69
472.873	156.69
473.092	100.69
473.311	92.69
473.53	82.69
473.749	103.69
473.968	96.69
474.187	112.69
474.406	116.69
474.625	84.69
474.844	88.69
475.063	88.69
475.282	94.69
475.501	103.69
475.72	85.69
475.939	84.69
476.158	65.69
476.377	100.69
476.596	85.69
476.814	94.69
477.033	92.69
477.252	109.69
477.471	99.69
477.69	97.69
477.908	109.69
478.127	94.69
478.346	83.69
478.564	95.69
478.783	100.69
479.002	114.69
479.22	102.69
479.439	104.69
479.658	134.69
479.876	132.69
480.095	111.69
480.313	140.69
480.532	164.69
480.751	250.69
480.969	907.69
481.188	4081.69
481.406	2439.69
481.624	352.69
481.843	129.69
482.061	92.69
482.28	99.69
482.498	87.69
482.717	82.69
482.935	105.69
483.153	104.69
483.372	91.69
483.59	99.69
483.808	92.69
484.027	94.69
484.245	94.69
484.463	95.69
484.681	101.69
484.9	97.69
485.118	92.69
485.336	108.69
485.554	116.69
485.772	104.69
485.99	96.69
486.209	107.69
486.427	122.69
486.645	112.69
486.863	122.69
487.081	129.69
487.299	110.69
487.517	115.69
487.735	84.69
487.953	83.69
488.171	79.69
488.389	90.69
488.607	96.69
488.825	101.69
489.043	92.69
489.261	101.69
489.479	96.69
489.696	95.69
489.914	100.69
490.132	89.69
490.35	93.69
490.568	80.69
490.786	99.69
491.003	103.69
491.221	85.69
491.439	87.69
491.657	91.69
491.874	85.69
492.092	79.69
492.31	100.69
492.527	110.69
492.745	91.69
492.963	102.69
493.18	98.69
493.398	91.69
493.615	99.69
493.833	100.69
494.05	97.69
494.268	86.69
494.485	99.69
494.703	83.69
494.92	87.69
495.138	72.69
495.355	82.69
495.573	98.69
495.79	80.69
496.008	101.69
496.225	97.69
496.442	92.69
496.66	101.69
496.877	96.69
497.094	78.69
497.312	92.69
497.529	94.69
497.746	97.69
497.963	108.69
498.181	95.69
498.398	93.69
498.615	115.69
498.832	115.69
499.049	98.69
499.267	74.69
499.484	93.69
499.701	84.69
499.918	108.69
500.135	94.69
500.352	90.69
500.569	104.69
500.786	94.69
501.003	97.69
501.22	79.69
501.437	91.69
501.654	100.69
501.871	119.69
502.088	90.69
502.305	94.69
502.522	99.69
502.739	88.69
502.956	90.69
503.172	92.69
503.389	102.69
503.606	118.69
503.823	99.69
504.04	102.69
504.256	95.69
504.473	76.69
504.69	75.69
504.907	89.69
505.123	89.69
505.34	105.69
505.557	83.69
505.773	87.69
505.99	87.69
506.207	65.69
506.423	76.69
506.64	94.69
506.856	94.69
507.073	81.69
507.289	97.69
507.506	95.69
507.722	129.69
507.939	125.69
508.155	104.69
508.372	96.69
508.588	90.69
508.805	100.69
509.021	96.69
509.238	108.69
509.454	99.69
509.67	103.69
509.887	118.69
510.103	134.69
510.319	235.69
510.536	850.69
510.752	2983.69
510.968	780.69
511.184	175.69
511.401	116.69
511.617	127.69
511.833	124.69
512.049	104.69
512.265	78.69
512.481	79.69
512.698	84.69
512.914	98.69
513.13	105.69
513.346	104.69
513.562	88.69
513.778	113.69
513.994	99.69
