Data from Circ_1987_H10_HRD10591_00080.txt Node
Date: Wed Jan 03 12:10:48 EST 2024
User: Yrep
Spectrometer: HR+D1059
Trigger mode: 1
Integration Time (sec): 1.000000E-1
Scans to average: 1
Electric dark correction enabled: true
Nonlinearity correction enabled: false
Boxcar width: 0
XAxis mode: Wavelengths
Number of Pixels in Spectrum: 2048
>>>>>Begin Spectral Data<<<<<
223.165	-16.56
223.4	-16.56
223.635	-16.56
223.869	-7.56
224.104	-32.56
224.338	-19.56
224.573	-10.56
224.808	-14.56
225.042	-12.56
225.277	-1.56
225.511	-0.56
225.746	-12.56
225.98	2.44
226.215	20.44
226.449	11.44
226.683	30.44
226.918	22.44
227.152	41.44
227.387	33.44
227.621	60.44
227.856	50.44
228.09	54.44
228.324	51.44
228.559	47.44
228.793	49.44
229.027	69.44
229.262	71.44
229.496	88.44
229.73	93.44
229.964	99.44
230.199	79.44
230.433	74.44
230.667	72.44
230.901	87.44
231.136	76.44
231.37	87.44
231.604	81.44
231.838	81.44
232.072	93.44
232.306	93.44
232.541	73.44
232.775	79.44
233.009	87.44
233.243	78.44
233.477	83.44
233.711	89.44
233.945	70.44
234.179	73.44
234.413	78.44
234.647	93.44
234.881	86.44
235.115	85.44
235.349	82.44
235.583	79.44
235.817	81.44
236.051	83.44
236.285	78.44
236.519	85.44
236.753	94.44
236.987	96.44
237.221	107.44
237.455	82.44
237.689	71.44
237.922	74.44
238.156	77.44
238.39	65.44
238.624	85.44
238.858	69.44
239.091	80.44
239.325	81.44
239.559	82.44
239.793	68.44
240.027	86.44
240.26	95.44
240.494	89.44
240.728	98.44
240.961	83.44
241.195	77.44
241.429	63.44
241.662	94.44
241.896	80.44
242.13	84.44
242.363	89.44
242.597	79.44
242.83	90.44
243.064	81.44
243.298	78.44
243.531	85.44
243.765	68.44
243.998	73.44
244.232	84.44
244.465	96.44
244.699	77.44
244.932	73.44
245.166	69.44
245.399	82.44
245.633	62.44
245.866	82.44
246.099	91.44
246.333	80.44
246.566	94.44
246.8	69.44
247.033	59.44
247.266	100.44
247.5	88.44
247.733	74.44
247.966	75.44
248.2	74.44
248.433	82.44
248.666	74.44
248.899	89.44
249.133	97.44
249.366	103.44
249.599	105.44
249.832	100.44
250.066	88.44
250.299	90.44
250.532	86.44
250.765	90.44
250.998	86.44
251.231	89.44
251.465	89.44
251.698	92.44
251.931	70.44
252.164	93.44
252.397	74.44
252.63	79.44
252.863	66.44
253.096	86.44
253.329	78.44
253.562	77.44
253.795	80.44
254.028	84.44
254.261	87.44
254.494	100.44
254.727	74.44
254.96	91.44
255.193	94.44
255.426	79.44
255.659	80.44
255.892	92.44
256.124	98.44
256.357	107.44
256.59	90.44
256.823	82.44
257.056	99.44
257.289	91.44
257.521	94.44
257.754	74.44
257.987	79.44
258.22	92.44
258.452	101.44
258.685	89.44
258.918	95.44
259.151	85.44
259.383	93.44
259.616	89.44
259.849	83.44
260.081	73.44
260.314	88.44
260.547	86.44
260.779	91.44
261.012	107.44
261.244	111.44
261.477	117.44
261.71	105.44
261.942	152.44
262.175	141.44
262.407	95.44
262.64	90.44
262.872	87.44
263.105	86.44
263.337	96.44
263.57	91.44
263.802	91.44
264.035	77.44
264.267	91.44
264.499	94.44
264.732	88.44
264.964	85.44
265.197	74.44
265.429	75.44
265.661	79.44
265.894	81.44
266.126	81.44
266.358	85.44
266.591	89.44
266.823	78.44
267.055	75.44
267.287	89.44
267.52	88.44
267.752	91.44
267.984	84.44
268.216	96.44
268.448	88.44
268.681	87.44
268.913	91.44
269.145	89.44
269.377	80.44
269.609	85.44
269.841	106.44
270.073	88.44
270.306	104.44
270.538	74.44
270.77	90.44
271.002	97.44
271.234	94.44
271.466	104.44
271.698	107.44
271.93	108.44
272.162	83.44
272.394	91.44
272.626	94.44
272.858	84.44
273.09	94.44
273.322	85.44
273.553	92.44
273.785	78.44
274.017	85.44
274.249	102.44
274.481	90.44
274.713	100.44
274.945	86.44
275.176	84.44
275.408	104.44
275.64	122.44
275.872	150.44
276.104	121.44
276.335	108.44
276.567	115.44
276.799	161.44
277.031	210.44
277.262	222.44
277.494	176.44
277.726	104.44
277.957	93.44
278.189	107.44
278.421	96.44
278.652	93.44
278.884	83.44
279.115	89.44
279.347	97.44
279.579	105.44
279.81	135.44
280.042	225.44
280.273	307.44
280.505	193.44
280.736	109.44
280.968	95.44
281.199	93.44
281.431	98.44
281.662	99.44
281.894	93.44
282.125	116.44
282.356	151.44
282.588	197.44
282.819	129.44
283.051	87.44
283.282	101.44
283.513	64.44
283.745	80.44
283.976	89.44
284.207	89.44
284.439	88.44
284.67	80.44
284.901	96.44
285.132	94.44
285.364	95.44
285.595	95.44
285.826	95.44
286.057	107.44
286.288	93.44
286.52	86.44
286.751	89.44
286.982	92.44
287.213	89.44
287.444	97.44
287.675	85.44
287.906	86.44
288.138	91.44
288.369	100.44
288.6	95.44
288.831	94.44
289.062	96.44
289.293	98.44
289.524	103.44
289.755	75.44
289.986	84.44
290.217	86.44
290.448	103.44
290.679	84.44
290.91	90.44
291.141	96.44
291.371	91.44
291.602	78.44
291.833	95.44
292.064	81.44
292.295	85.44
292.526	102.44
292.757	91.44
292.987	99.44
293.218	102.44
293.449	85.44
293.68	81.44
293.91	94.44
294.141	103.44
294.372	116.44
294.603	82.44
294.833	87.44
295.064	93.44
295.295	93.44
295.525	97.44
295.756	105.44
295.987	129.44
296.217	185.44
296.448	174.44
296.679	97.44
296.909	98.44
297.14	86.44
297.37	88.44
297.601	93.44
297.831	83.44
298.062	98.44
298.292	123.44
298.523	123.44
298.753	103.44
298.984	70.44
299.214	93.44
299.445	93.44
299.675	96.44
299.905	87.44
300.136	104.44
300.366	102.44
300.597	98.44
300.827	87.44
301.057	106.44
301.288	143.44
301.518	119.44
301.748	103.44
301.979	116.44
302.209	98.44
302.439	100.44
302.669	86.44
302.9	110.44
303.13	99.44
303.36	130.44
303.59	138.44
303.82	153.44
304.051	120.44
304.281	100.44
304.511	95.44
304.741	94.44
304.971	83.44
305.201	91.44
305.431	83.44
305.661	100.44
305.891	82.44
306.121	99.44
306.352	129.44
306.582	122.44
306.812	114.44
307.042	126.44
307.272	170.44
307.502	197.44
307.731	192.44
307.961	131.44
308.191	107.44
308.421	102.44
308.651	87.44
308.881	88.44
309.111	84.44
309.341	93.44
309.571	120.44
309.8	117.44
310.03	105.44
310.26	119.44
310.49	109.44
310.72	106.44
310.949	142.44
311.179	118.44
311.409	105.44
311.639	107.44
311.868	112.44
312.098	113.44
312.328	104.44
312.557	119.44
312.787	135.44
313.017	117.44
313.246	102.44
313.476	93.44
313.706	95.44
313.935	117.44
314.165	113.44
314.394	134.44
314.624	100.44
314.853	107.44
315.083	91.44
315.312	114.44
315.542	99.44
315.771	90.44
316.001	94.44
316.23	99.44
316.46	94.44
316.689	97.44
316.919	113.44
317.148	104.44
317.377	95.44
317.607	113.44
317.836	100.44
318.065	80.44
318.295	98.44
318.524	100.44
318.753	108.44
318.983	102.44
319.212	111.44
319.441	116.44
319.67	112.44
319.9	91.44
320.129	101.44
320.358	98.44
320.587	91.44
320.816	105.44
321.046	112.44
321.275	96.44
321.504	107.44
321.733	110.44
321.962	99.44
322.191	111.44
322.42	123.44
322.649	144.44
322.878	130.44
323.108	130.44
323.337	162.44
323.566	151.44
323.795	209.44
324.024	243.44
324.253	462.44
324.482	990.44
324.71	2046.44
324.939	2735.44
325.168	979.44
325.397	303.44
325.626	194.44
325.855	153.44
326.084	145.44
326.313	154.44
326.542	172.44
326.77	242.44
326.999	485.44
327.228	1027.44
327.457	1863.44
327.686	1536.44
327.914	570.44
328.143	615.44
328.372	802.44
328.6	442.44
328.829	212.44
329.058	227.44
329.287	239.44
329.515	222.44
329.744	299.44
329.972	547.44
330.201	1193.44
330.43	1762.44
330.658	766.44
330.887	366.44
331.115	235.44
331.344	137.44
331.572	123.44
331.801	128.44
332.03	140.44
332.258	128.44
332.486	102.44
332.715	118.44
332.943	111.44
333.172	132.44
333.4	147.44
333.629	167.44
333.857	274.44
334.085	491.44
334.314	1046.44
334.542	2117.44
334.771	2024.44
334.999	513.44
335.227	199.44
335.455	149.44
335.684	113.44
335.912	104.44
336.14	115.44
336.369	109.44
336.597	110.44
336.825	120.44
337.053	106.44
337.281	97.44
337.51	90.44
337.738	95.44
337.966	111.44
338.194	115.44
338.422	115.44
338.65	90.44
338.878	113.44
339.106	90.44
339.334	111.44
339.562	94.44
339.79	101.44
340.018	102.44
340.246	118.44
340.474	118.44
340.702	106.44
340.93	103.44
341.158	104.44
341.386	101.44
341.614	102.44
341.842	106.44
342.07	88.44
342.298	100.44
342.526	98.44
342.754	83.44
342.981	89.44
343.209	94.44
343.437	98.44
343.665	94.44
343.893	81.44
344.12	95.44
344.348	86.44
344.576	91.44
344.804	88.44
345.031	111.44
345.259	130.44
345.487	108.44
345.714	101.44
345.942	120.44
346.17	89.44
346.397	92.44
346.625	101.44
346.853	107.44
347.08	102.44
347.308	108.44
347.535	123.44
347.763	112.44
347.99	112.44
348.218	102.44
348.445	126.44
348.673	115.44
348.9	99.44
349.128	102.44
349.355	105.44
349.583	104.44
349.81	100.44
350.037	111.44
350.265	88.44
350.492	83.44
350.72	98.44
350.947	111.44
351.174	153.44
351.402	138.44
351.629	113.44
351.856	121.44
352.083	118.44
352.311	129.44
352.538	147.44
352.765	129.44
352.992	124.44
353.22	136.44
353.447	127.44
353.674	119.44
353.901	104.44
354.128	93.44
354.355	104.44
354.583	94.44
354.81	112.44
355.037	90.44
355.264	102.44
355.491	88.44
355.718	93.44
355.945	98.44
356.172	101.44
356.399	98.44
356.626	102.44
356.853	89.44
357.08	106.44
357.307	87.44
357.534	89.44
357.761	89.44
357.988	95.44
358.215	98.44
358.441	105.44
358.668	94.44
358.895	102.44
359.122	93.44
359.349	103.44
359.576	113.44
359.802	117.44
360.029	144.44
360.256	158.44
360.483	122.44
360.709	97.44
360.936	107.44
361.163	111.44
361.39	110.44
361.616	116.44
361.843	98.44
362.07	105.44
362.296	110.44
362.523	105.44
362.749	112.44
362.976	102.44
363.203	101.44
363.429	89.44
363.656	100.44
363.882	98.44
364.109	91.44
364.335	108.44
364.562	109.44
364.788	107.44
365.015	96.44
365.241	110.44
365.468	120.44
365.694	124.44
365.92	111.44
366.147	89.44
366.373	114.44
366.599	83.44
366.826	113.44
367.052	99.44
367.278	96.44
367.505	101.44
367.731	100.44
367.957	101.44
368.184	103.44
368.41	111.44
368.636	128.44
368.862	131.44
369.089	117.44
369.315	107.44
369.541	101.44
369.767	99.44
369.993	103.44
370.219	111.44
370.445	91.44
370.672	84.44
370.898	111.44
371.124	100.44
371.35	99.44
371.576	89.44
371.802	91.44
372.028	82.44
372.254	93.44
372.48	87.44
372.706	82.44
372.932	100.44
373.158	103.44
373.384	99.44
373.61	83.44
373.835	87.44
374.061	95.44
374.287	104.44
374.513	93.44
374.739	96.44
374.965	96.44
375.191	85.44
375.416	97.44
375.642	85.44
375.868	93.44
376.094	91.44
376.319	93.44
376.545	98.44
376.771	88.44
376.997	94.44
377.222	89.44
377.448	114.44
377.674	86.44
377.899	66.44
378.125	103.44
378.35	84.44
378.576	85.44
378.802	91.44
379.027	97.44
379.253	87.44
379.478	99.44
379.704	93.44
379.929	105.44
380.155	95.44
380.38	95.44
380.606	104.44
380.831	89.44
381.057	103.44
381.282	101.44
381.507	105.44
381.733	102.44
381.958	97.44
382.184	103.44
382.409	98.44
382.634	101.44
382.86	91.44
383.085	85.44
383.31	102.44
383.535	104.44
383.761	96.44
383.986	97.44
384.211	99.44
384.436	82.44
384.662	100.44
384.887	95.44
385.112	90.44
385.337	93.44
385.562	112.44
385.787	103.44
386.013	87.44
386.238	122.44
386.463	111.44
386.688	120.44
386.913	103.44
387.138	110.44
387.363	77.44
387.588	105.44
387.813	105.44
388.038	91.44
388.263	88.44
388.488	104.44
388.713	90.44
388.938	88.44
389.163	91.44
389.387	88.44
389.612	85.44
389.837	88.44
390.062	86.44
390.287	97.44
390.512	70.44
390.736	97.44
390.961	93.44
391.186	81.44
391.411	106.44
391.636	85.44
391.86	100.44
392.085	89.44
392.31	88.44
392.534	88.44
392.759	98.44
392.984	99.44
393.208	93.44
393.433	90.44
393.658	92.44
393.882	81.44
394.107	91.44
394.331	106.44
394.556	73.44
394.78	101.44
395.005	93.44
395.229	93.44
395.454	89.44
395.678	85.44
395.903	86.44
396.127	89.44
396.352	86.44
396.576	92.44
396.801	86.44
397.025	85.44
397.249	95.44
397.474	104.44
397.698	85.44
397.922	82.44
398.147	92.44
398.371	84.44
398.595	99.44
398.82	104.44
399.044	89.44
399.268	88.44
399.492	79.44
399.717	90.44
399.941	83.44
400.165	93.44
400.389	110.44
400.613	81.44
400.837	100.44
401.062	89.44
401.286	97.44
401.51	97.44
401.734	101.44
401.958	116.44
402.182	163.44
402.406	225.44
402.63	156.44
402.854	118.44
403.078	93.44
403.302	98.44
403.526	112.44
403.75	95.44
403.974	100.44
404.198	81.44
404.422	112.44
404.645	104.44
404.869	108.44
405.093	131.44
405.317	166.44
405.541	149.44
405.765	136.44
405.988	159.44
406.212	263.44
406.436	364.44
406.66	223.44
406.883	126.44
407.107	122.44
407.331	101.44
407.555	114.44
407.778	118.44
408.002	106.44
408.226	102.44
408.449	88.44
408.673	104.44
408.896	101.44
409.12	98.44
409.344	88.44
409.567	85.44
409.791	95.44
410.014	99.44
410.238	94.44
410.461	81.44
410.685	87.44
410.908	96.44
411.132	110.44
411.355	105.44
411.578	93.44
411.802	97.44
412.025	92.44
412.249	95.44
412.472	116.44
412.695	161.44
412.919	134.44
413.142	102.44
413.365	85.44
413.589	89.44
413.812	77.44
414.035	95.44
414.258	95.44
414.482	88.44
414.705	66.44
414.928	77.44
415.151	89.44
415.374	78.44
415.597	88.44
415.821	79.44
416.044	88.44
416.267	111.44
416.49	94.44
416.713	97.44
416.936	102.44
417.159	101.44
417.382	97.44
417.605	117.44
417.828	117.44
418.051	105.44
418.274	103.44
418.497	98.44
418.72	83.44
418.943	103.44
419.166	91.44
419.389	99.44
419.611	97.44
419.834	105.44
420.057	103.44
420.28	107.44
420.503	100.44
420.726	94.44
420.948	90.44
421.171	117.44
421.394	89.44
421.617	93.44
421.839	91.44
422.062	93.44
422.285	96.44
422.507	101.44
422.73	98.44
422.953	109.44
423.175	96.44
423.398	99.44
423.621	100.44
423.843	90.44
424.066	82.44
424.288	97.44
424.511	89.44
424.733	100.44
424.956	127.44
425.178	117.44
425.401	109.44
425.623	117.44
425.846	111.44
426.068	110.44
426.291	99.44
426.513	104.44
426.735	93.44
426.958	88.44
427.18	133.44
427.402	200.44
427.625	292.44
427.847	263.44
428.069	221.44
428.292	126.44
428.514	98.44
428.736	97.44
428.958	94.44
429.181	85.44
429.403	97.44
429.625	75.44
429.847	94.44
430.069	121.44
430.292	111.44
430.514	104.44
430.736	87.44
430.958	87.44
431.18	97.44
431.402	97.44
431.624	101.44
431.846	90.44
432.068	85.44
432.29	91.44
432.512	97.44
432.734	94.44
432.956	80.44
433.178	93.44
433.4	93.44
433.622	85.44
433.844	81.44
434.066	109.44
434.287	90.44
434.509	99.44
434.731	98.44
434.953	80.44
435.175	90.44
435.397	95.44
435.618	98.44
435.84	114.44
436.062	138.44
436.284	130.44
436.505	103.44
436.727	114.44
436.949	100.44
437.17	97.44
437.392	101.44
437.614	116.44
437.835	137.44
438.057	171.44
438.278	135.44
438.5	126.44
438.721	157.44
438.943	110.44
439.165	102.44
439.386	94.44
439.608	118.44
439.829	122.44
440.05	150.44
440.272	182.44
440.493	114.44
440.715	97.44
440.936	106.44
441.158	103.44
441.379	92.44
441.6	116.44
441.822	109.44
442.043	100.44
442.264	126.44
442.486	119.44
442.707	125.44
442.928	119.44
443.149	168.44
443.371	186.44
443.592	150.44
443.813	150.44
444.034	120.44
444.255	90.44
444.476	95.44
444.698	90.44
444.919	100.44
445.14	136.44
445.361	144.44
445.582	130.44
445.803	201.44
446.024	197.44
446.245	180.44
446.466	128.44
446.687	93.44
446.908	90.44
447.129	104.44
447.35	94.44
447.571	90.44
447.792	99.44
448.013	112.44
448.234	118.44
448.455	110.44
448.675	127.44
448.896	128.44
449.117	116.44
449.338	116.44
449.559	162.44
449.779	145.44
450	100.44
450.221	99.44
450.442	88.44
450.662	119.44
450.883	121.44
451.104	152.44
451.324	111.44
451.545	95.44
451.766	98.44
451.986	91.44
452.207	101.44
452.428	90.44
452.648	101.44
452.869	139.44
453.089	150.44
453.31	172.44
453.53	101.44
453.751	111.44
453.971	132.44
454.192	163.44
454.412	109.44
454.633	86.44
454.853	86.44
455.073	84.44
455.294	103.44
455.514	129.44
455.734	93.44
455.955	75.44
456.175	100.44
456.395	77.44
456.616	89.44
456.836	86.44
457.056	80.44
457.276	71.44
457.497	86.44
457.717	99.44
457.937	98.44
458.157	94.44
458.377	101.44
458.598	137.44
458.818	248.44
459.038	259.44
459.258	178.44
459.478	101.44
459.698	99.44
459.918	84.44
460.138	95.44
460.358	80.44
460.578	86.44
460.798	91.44
461.018	95.44
461.238	88.44
461.458	87.44
461.678	78.44
461.898	83.44
462.118	85.44
462.338	72.44
462.558	85.44
462.777	88.44
462.997	105.44
463.217	123.44
463.437	117.44
463.657	105.44
463.876	89.44
464.096	100.44
464.316	85.44
464.536	116.44
464.755	108.44
464.975	126.44
465.195	275.44
465.414	286.44
465.634	121.44
465.854	97.44
466.073	98.44
466.293	95.44
466.512	99.44
466.732	96.44
466.951	107.44
467.171	103.44
467.391	119.44
467.61	156.44
467.829	233.44
468.049	657.44
468.268	1026.44
468.488	239.44
468.707	113.44
468.927	92.44
469.146	100.44
469.365	95.44
469.585	80.44
469.804	106.44
470.023	123.44
470.243	102.44
470.462	148.44
470.681	152.44
470.901	110.44
471.12	116.44
471.339	117.44
471.558	133.44
471.777	164.44
471.997	341.44
472.216	1262.44
472.435	3003.44
472.654	693.44
472.873	183.44
473.092	113.44
473.311	107.44
473.53	101.44
473.749	101.44
473.968	118.44
474.187	130.44
474.406	122.44
474.625	96.44
474.844	99.44
475.063	98.44
475.282	95.44
475.501	85.44
475.72	83.44
475.939	86.44
476.158	93.44
476.377	83.44
476.596	90.44
476.814	104.44
477.033	99.44
477.252	96.44
477.471	87.44
477.69	94.44
477.908	102.44
478.127	104.44
478.346	93.44
478.564	111.44
478.783	109.44
479.002	115.44
479.22	118.44
479.439	119.44
479.658	139.44
479.876	126.44
480.095	132.44
480.313	146.44
480.532	184.44
480.751	317.44
480.969	1111.44
481.188	4979.44
481.406	2863.44
481.624	411.44
481.843	145.44
482.061	120.44
482.28	122.44
482.498	102.44
482.717	109.44
482.935	115.44
483.153	103.44
483.372	103.44
483.59	106.44
483.808	98.44
484.027	104.44
484.245	103.44
484.463	90.44
484.681	103.44
484.9	105.44
485.118	95.44
485.336	105.44
485.554	103.44
485.772	115.44
485.99	117.44
486.209	112.44
486.427	114.44
486.645	130.44
486.863	138.44
487.081	114.44
487.299	112.44
487.517	96.44
487.735	86.44
487.953	106.44
488.171	115.44
488.389	99.44
488.607	103.44
488.825	83.44
489.043	98.44
489.261	89.44
489.479	94.44
489.696	89.44
489.914	100.44
490.132	93.44
490.35	86.44
490.568	93.44
490.786	81.44
491.003	89.44
491.221	98.44
491.439	106.44
491.657	101.44
491.874	100.44
492.092	105.44
492.31	102.44
492.527	116.44
492.745	106.44
492.963	104.44
493.18	111.44
493.398	86.44
493.615	108.44
493.833	106.44
494.05	89.44
494.268	91.44
494.485	91.44
494.703	95.44
494.92	88.44
495.138	98.44
495.355	88.44
495.573	85.44
495.79	86.44
496.008	89.44
496.225	98.44
496.442	94.44
496.66	92.44
496.877	101.44
497.094	104.44
497.312	94.44
497.529	84.44
497.746	91.44
497.963	97.44
498.181	93.44
498.398	106.44
498.615	117.44
498.832	113.44
499.049	80.44
499.267	83.44
499.484	105.44
499.701	99.44
499.918	95.44
500.135	89.44
500.352	93.44
500.569	99.44
500.786	110.44
501.003	89.44
501.22	89.44
501.437	102.44
501.654	103.44
501.871	146.44
502.088	93.44
502.305	99.44
502.522	86.44
502.739	91.44
502.956	101.44
503.172	107.44
503.389	127.44
503.606	125.44
503.823	126.44
504.04	97.44
504.256	94.44
504.473	103.44
504.69	91.44
504.907	91.44
505.123	89.44
505.34	88.44
505.557	78.44
505.773	116.44
505.99	95.44
506.207	91.44
506.423	96.44
506.64	88.44
506.856	91.44
507.073	83.44
507.289	102.44
507.506	113.44
507.722	133.44
507.939	151.44
508.155	97.44
508.372	94.44
508.588	103.44
508.805	104.44
509.021	95.44
509.238	118.44
509.454	115.44
509.67	112.44
509.887	109.44
510.103	154.44
510.319	278.44
510.536	1049.44
510.752	3681.44
510.968	978.44
511.184	213.44
