Data from Circ_1987_H10_HRD10591_00025.txt Node
Date: Wed Jan 03 12:10:37 EST 2024
User: Yrep
Spectrometer: HR+D1059
Trigger mode: 1
Integration Time (sec): 1.000000E-1
Scans to average: 1
Electric dark correction enabled: true
Nonlinearity correction enabled: false
Boxcar width: 0
XAxis mode: Wavelengths
Number of Pixels in Spectrum: 2048
>>>>>Begin Spectral Data<<<<<
223.165	-19.88
223.4	-19.88
223.635	-19.88
223.869	-3.88
224.104	-15.88
224.338	-20.88
224.573	-20.88
224.808	-20.88
225.042	-10.88
225.277	2.12
225.511	-1.88
225.746	3.12
225.98	20.12
226.215	11.12
226.449	15.12
226.683	19.12
226.918	25.12
227.152	19.12
227.387	36.12
227.621	44.12
227.856	39.12
228.09	53.12
228.324	42.12
228.559	49.12
228.793	55.12
229.027	61.12
229.262	77.12
229.496	73.12
229.73	88.12
229.964	81.12
230.199	79.12
230.433	63.12
230.667	79.12
230.901	75.12
231.136	89.12
231.37	79.12
231.604	71.12
231.838	81.12
232.072	83.12
232.306	81.12
232.541	72.12
232.775	79.12
233.009	87.12
233.243	71.12
233.477	81.12
233.711	71.12
233.945	69.12
234.179	80.12
234.413	85.12
234.647	72.12
234.881	64.12
235.115	80.12
235.349	94.12
235.583	86.12
235.817	76.12
236.051	75.12
236.285	81.12
236.519	66.12
236.753	77.12
236.987	86.12
237.221	82.12
237.455	104.12
237.689	94.12
237.922	71.12
238.156	85.12
238.39	70.12
238.624	83.12
238.858	93.12
239.091	72.12
239.325	83.12
239.559	88.12
239.793	75.12
240.027	78.12
240.26	76.12
240.494	81.12
240.728	65.12
240.961	71.12
241.195	92.12
241.429	79.12
241.662	64.12
241.896	84.12
242.13	81.12
242.363	66.12
242.597	71.12
242.83	91.12
243.064	69.12
243.298	69.12
243.531	64.12
243.765	79.12
243.998	80.12
244.232	71.12
244.465	86.12
244.699	102.12
244.932	80.12
245.166	83.12
245.399	68.12
245.633	87.12
245.866	75.12
246.099	87.12
246.333	89.12
246.566	84.12
246.8	86.12
247.033	67.12
247.266	64.12
247.5	80.12
247.733	80.12
247.966	94.12
248.2	69.12
248.433	77.12
248.666	81.12
248.899	83.12
249.133	91.12
249.366	101.12
249.599	117.12
249.832	96.12
250.066	69.12
250.299	87.12
250.532	89.12
250.765	68.12
250.998	79.12
251.231	80.12
251.465	82.12
251.698	81.12
251.931	83.12
252.164	81.12
252.397	79.12
252.63	84.12
252.863	71.12
253.096	79.12
253.329	82.12
253.562	76.12
253.795	63.12
254.028	81.12
254.261	86.12
254.494	70.12
254.727	84.12
254.96	73.12
255.193	78.12
255.426	70.12
255.659	94.12
255.892	90.12
256.124	99.12
256.357	72.12
256.59	81.12
256.823	81.12
257.056	83.12
257.289	86.12
257.521	98.12
257.754	78.12
257.987	65.12
258.22	90.12
258.452	88.12
258.685	88.12
258.918	89.12
259.151	78.12
259.383	79.12
259.616	92.12
259.849	77.12
260.081	83.12
260.314	82.12
260.547	99.12
260.779	96.12
261.012	99.12
261.244	93.12
261.477	92.12
261.71	94.12
261.942	121.12
262.175	148.12
262.407	95.12
262.64	83.12
262.872	70.12
263.105	88.12
263.337	90.12
263.57	90.12
263.802	87.12
264.035	81.12
264.267	77.12
264.499	89.12
264.732	82.12
264.964	85.12
265.197	82.12
265.429	87.12
265.661	82.12
265.894	66.12
266.126	87.12
266.358	99.12
266.591	79.12
266.823	87.12
267.055	72.12
267.287	73.12
267.52	80.12
267.752	91.12
267.984	86.12
268.216	78.12
268.448	79.12
268.681	80.12
268.913	91.12
269.145	79.12
269.377	85.12
269.609	87.12
269.841	72.12
270.073	90.12
270.306	81.12
270.538	76.12
270.77	77.12
271.002	94.12
271.234	93.12
271.466	86.12
271.698	75.12
271.93	84.12
272.162	100.12
272.394	83.12
272.626	72.12
272.858	72.12
273.09	83.12
273.322	87.12
273.553	89.12
273.785	78.12
274.017	88.12
274.249	79.12
274.481	95.12
274.713	75.12
274.945	80.12
275.176	92.12
275.408	89.12
275.64	93.12
275.872	117.12
276.104	117.12
276.335	93.12
276.567	107.12
276.799	148.12
277.031	129.12
277.262	146.12
277.494	124.12
277.726	104.12
277.957	95.12
278.189	86.12
278.421	93.12
278.652	100.12
278.884	88.12
279.115	92.12
279.347	89.12
279.579	90.12
279.81	103.12
280.042	160.12
280.273	219.12
280.505	133.12
280.736	85.12
280.968	86.12
281.199	84.12
281.431	83.12
281.662	96.12
281.894	93.12
282.125	93.12
282.356	128.12
282.588	162.12
282.819	132.12
283.051	104.12
283.282	86.12
283.513	93.12
283.745	83.12
283.976	76.12
284.207	79.12
284.439	83.12
284.67	79.12
284.901	82.12
285.132	86.12
285.364	86.12
285.595	79.12
285.826	75.12
286.057	106.12
286.288	93.12
286.52	85.12
286.751	97.12
286.982	103.12
287.213	86.12
287.444	85.12
287.675	85.12
287.906	97.12
288.138	68.12
288.369	87.12
288.6	98.12
288.831	100.12
289.062	82.12
289.293	95.12
289.524	93.12
289.755	84.12
289.986	75.12
290.217	61.12
290.448	99.12
290.679	81.12
290.91	93.12
291.141	91.12
291.371	87.12
291.602	87.12
291.833	102.12
292.064	86.12
292.295	77.12
292.526	97.12
292.757	88.12
292.987	89.12
293.218	73.12
293.449	91.12
293.68	77.12
293.91	105.12
294.141	95.12
294.372	79.12
294.603	89.12
294.833	87.12
295.064	83.12
295.295	92.12
295.525	92.12
295.756	103.12
295.987	123.12
296.217	160.12
296.448	142.12
296.679	87.12
296.909	85.12
297.14	111.12
297.37	86.12
297.601	95.12
297.831	83.12
298.062	81.12
298.292	85.12
298.523	85.12
298.753	82.12
298.984	97.12
299.214	97.12
299.445	100.12
299.675	93.12
299.905	98.12
300.136	87.12
300.366	95.12
300.597	86.12
300.827	87.12
301.057	106.12
301.288	102.12
301.518	102.12
301.748	87.12
301.979	100.12
302.209	106.12
302.439	101.12
302.669	83.12
302.9	96.12
303.13	100.12
303.36	99.12
303.59	121.12
303.82	142.12
304.051	116.12
304.281	87.12
304.511	83.12
304.741	84.12
304.971	84.12
305.201	96.12
305.431	98.12
305.661	97.12
305.891	94.12
306.121	99.12
306.352	105.12
306.582	121.12
306.812	97.12
307.042	110.12
307.272	133.12
307.502	162.12
307.731	144.12
307.961	103.12
308.191	99.12
308.421	90.12
308.651	96.12
308.881	93.12
309.111	104.12
309.341	99.12
309.571	111.12
309.8	92.12
310.03	111.12
310.26	109.12
310.49	99.12
310.72	101.12
310.949	111.12
311.179	105.12
311.409	99.12
311.639	105.12
311.868	102.12
312.098	93.12
312.328	102.12
312.557	108.12
312.787	123.12
313.017	121.12
313.246	91.12
313.476	91.12
313.706	100.12
313.935	113.12
314.165	111.12
314.394	115.12
314.624	93.12
314.853	96.12
315.083	101.12
315.312	99.12
315.542	89.12
315.771	106.12
316.001	86.12
316.23	90.12
316.46	96.12
316.689	100.12
316.919	99.12
317.148	113.12
317.377	105.12
317.607	94.12
317.836	96.12
318.065	90.12
318.295	96.12
318.524	94.12
318.753	89.12
318.983	103.12
319.212	95.12
319.441	99.12
319.67	100.12
319.9	91.12
320.129	101.12
320.358	92.12
320.587	110.12
320.816	93.12
321.046	116.12
321.275	97.12
321.504	98.12
321.733	93.12
321.962	106.12
322.191	114.12
322.42	96.12
322.649	116.12
322.878	128.12
323.108	113.12
323.337	135.12
323.566	163.12
323.795	177.12
324.024	235.12
324.253	415.12
324.482	886.12
324.71	1839.12
324.939	2418.12
325.168	903.12
325.397	260.12
325.626	159.12
325.855	132.12
326.084	126.12
326.313	127.12
326.542	148.12
326.77	239.12
326.999	456.12
327.228	938.12
327.457	1683.12
327.686	1384.12
327.914	489.12
328.143	417.12
328.372	544.12
328.6	290.12
328.829	193.12
329.058	180.12
329.287	182.12
329.515	173.12
329.744	214.12
329.972	380.12
330.201	769.12
330.43	1149.12
330.658	535.12
330.887	267.12
331.115	170.12
331.344	125.12
331.572	127.12
331.801	128.12
332.03	115.12
332.258	113.12
332.486	96.12
332.715	100.12
332.943	112.12
333.172	116.12
333.4	114.12
333.629	145.12
333.857	198.12
334.085	339.12
334.314	727.12
334.542	1445.12
334.771	1315.12
334.999	361.12
335.227	174.12
335.455	124.12
335.684	123.12
335.912	91.12
336.14	86.12
336.369	102.12
336.597	113.12
336.825	115.12
337.053	95.12
337.281	88.12
337.51	99.12
337.738	112.12
337.966	93.12
338.194	113.12
338.422	100.12
338.65	105.12
338.878	95.12
339.106	90.12
339.334	96.12
339.562	106.12
339.79	115.12
340.018	88.12
340.246	94.12
340.474	104.12
340.702	101.12
340.93	93.12
341.158	108.12
341.386	104.12
341.614	126.12
341.842	102.12
342.07	96.12
342.298	98.12
342.526	96.12
342.754	99.12
342.981	89.12
343.209	101.12
343.437	106.12
343.665	92.12
343.893	91.12
344.12	96.12
344.348	102.12
344.576	86.12
344.804	95.12
345.031	111.12
345.259	104.12
345.487	109.12
345.714	95.12
345.942	91.12
346.17	87.12
346.397	82.12
346.625	107.12
346.853	93.12
347.08	84.12
347.308	88.12
347.535	115.12
347.763	107.12
347.99	89.12
348.218	116.12
348.445	117.12
348.673	99.12
348.9	92.12
349.128	87.12
349.355	101.12
349.583	101.12
349.81	99.12
350.037	92.12
350.265	86.12
350.492	92.12
350.72	77.12
350.947	93.12
351.174	118.12
351.402	134.12
351.629	116.12
351.856	106.12
352.083	97.12
352.311	105.12
352.538	113.12
352.765	111.12
352.992	129.12
353.22	123.12
353.447	115.12
353.674	97.12
353.901	105.12
354.128	96.12
354.355	96.12
354.583	100.12
354.81	108.12
355.037	91.12
355.264	102.12
355.491	93.12
355.718	101.12
355.945	89.12
356.172	91.12
356.399	109.12
356.626	93.12
356.853	97.12
357.08	96.12
357.307	92.12
357.534	96.12
357.761	109.12
357.988	91.12
358.215	97.12
358.441	98.12
358.668	99.12
358.895	90.12
359.122	87.12
359.349	97.12
359.576	104.12
359.802	114.12
360.029	133.12
360.256	124.12
360.483	111.12
360.709	91.12
360.936	94.12
361.163	96.12
361.39	100.12
361.616	100.12
361.843	104.12
362.07	109.12
362.296	105.12
362.523	103.12
362.749	111.12
362.976	93.12
363.203	87.12
363.429	93.12
363.656	90.12
363.882	85.12
364.109	89.12
364.335	86.12
364.562	87.12
364.788	95.12
365.015	91.12
365.241	92.12
365.468	105.12
365.694	108.12
365.92	103.12
366.147	103.12
366.373	94.12
366.599	103.12
366.826	100.12
367.052	92.12
367.278	102.12
367.505	86.12
367.731	102.12
367.957	99.12
368.184	111.12
368.41	101.12
368.636	107.12
368.862	123.12
369.089	110.12
369.315	96.12
369.541	97.12
369.767	108.12
369.993	99.12
370.219	89.12
370.445	87.12
370.672	86.12
370.898	89.12
371.124	93.12
371.35	74.12
371.576	93.12
371.802	98.12
372.028	85.12
372.254	81.12
372.48	87.12
372.706	82.12
372.932	84.12
373.158	81.12
373.384	102.12
373.61	92.12
373.835	102.12
374.061	90.12
374.287	96.12
374.513	91.12
374.739	79.12
374.965	79.12
375.191	98.12
375.416	88.12
375.642	84.12
375.868	97.12
376.094	99.12
376.319	88.12
376.545	84.12
376.771	75.12
376.997	87.12
377.222	83.12
377.448	89.12
377.674	100.12
377.899	102.12
378.125	81.12
378.35	76.12
378.576	83.12
378.802	86.12
379.027	87.12
379.253	89.12
379.478	91.12
379.704	89.12
379.929	90.12
380.155	95.12
380.38	81.12
380.606	96.12
380.831	88.12
381.057	93.12
381.282	107.12
381.507	105.12
381.733	98.12
381.958	91.12
382.184	93.12
382.409	83.12
382.634	103.12
382.86	87.12
383.085	97.12
383.31	108.12
383.535	116.12
383.761	111.12
383.986	88.12
384.211	94.12
384.436	105.12
384.662	102.12
384.887	101.12
385.112	100.12
385.337	129.12
385.562	113.12
385.787	97.12
386.013	110.12
386.238	112.12
386.463	110.12
386.688	105.12
386.913	84.12
387.138	76.12
387.363	105.12
387.588	99.12
387.813	92.12
388.038	110.12
388.263	109.12
388.488	116.12
388.713	88.12
388.938	95.12
389.163	94.12
389.387	98.12
389.612	85.12
389.837	99.12
390.062	92.12
390.287	96.12
390.512	87.12
390.736	73.12
390.961	98.12
391.186	94.12
391.411	93.12
391.636	81.12
391.86	85.12
392.085	94.12
392.31	87.12
392.534	68.12
392.759	92.12
392.984	91.12
393.208	86.12
393.433	86.12
393.658	93.12
393.882	80.12
394.107	86.12
394.331	101.12
394.556	100.12
394.78	88.12
395.005	94.12
395.229	87.12
395.454	93.12
395.678	91.12
395.903	90.12
396.127	85.12
396.352	92.12
396.576	81.12
396.801	96.12
397.025	106.12
397.249	98.12
397.474	106.12
397.698	89.12
397.922	91.12
398.147	95.12
398.371	94.12
398.595	97.12
398.82	86.12
399.044	86.12
399.268	81.12
399.492	92.12
399.717	85.12
399.941	100.12
400.165	100.12
400.389	88.12
400.613	93.12
400.837	80.12
401.062	90.12
401.286	99.12
401.51	104.12
401.734	98.12
401.958	101.12
402.182	138.12
402.406	180.12
402.63	125.12
402.854	90.12
403.078	100.12
403.302	82.12
403.526	99.12
403.75	95.12
403.974	92.12
404.198	86.12
404.422	86.12
404.645	97.12
404.869	110.12
405.093	123.12
405.317	135.12
405.541	131.12
405.765	111.12
405.988	115.12
406.212	207.12
406.436	291.12
406.66	193.12
406.883	124.12
407.107	100.12
407.331	92.12
407.555	108.12
407.778	103.12
408.002	106.12
408.226	79.12
408.449	81.12
408.673	96.12
408.896	96.12
409.12	86.12
409.344	87.12
409.567	91.12
409.791	91.12
410.014	99.12
410.238	105.12
410.461	101.12
410.685	99.12
410.908	88.12
411.132	103.12
411.355	100.12
411.578	97.12
411.802	92.12
412.025	99.12
412.249	102.12
412.472	106.12
412.695	137.12
412.919	107.12
413.142	94.12
413.365	99.12
413.589	84.12
413.812	84.12
414.035	88.12
414.258	86.12
414.482	84.12
414.705	82.12
414.928	89.12
415.151	81.12
415.374	92.12
415.597	93.12
415.821	84.12
416.044	85.12
416.267	88.12
416.49	98.12
416.713	74.12
416.936	87.12
417.159	100.12
417.382	99.12
417.605	104.12
417.828	112.12
418.051	88.12
418.274	80.12
418.497	99.12
418.72	86.12
418.943	90.12
419.166	96.12
419.389	97.12
419.611	73.12
419.834	100.12
420.057	83.12
420.28	93.12
420.503	103.12
420.726	92.12
420.948	101.12
421.171	102.12
421.394	100.12
421.617	88.12
421.839	94.12
422.062	92.12
422.285	82.12
422.507	98.12
422.73	109.12
422.953	89.12
423.175	95.12
423.398	88.12
423.621	81.12
423.843	94.12
424.066	96.12
424.288	97.12
424.511	90.12
424.733	118.12
424.956	120.12
425.178	112.12
425.401	110.12
425.623	116.12
425.846	86.12
426.068	94.12
426.291	97.12
426.513	104.12
426.735	89.12
426.958	103.12
427.18	115.12
427.402	169.12
427.625	237.12
427.847	221.12
428.069	204.12
428.292	112.12
428.514	91.12
428.736	102.12
428.958	87.12
429.181	87.12
429.403	89.12
429.625	76.12
429.847	91.12
430.069	115.12
430.292	83.12
430.514	76.12
430.736	93.12
430.958	76.12
431.18	86.12
431.402	76.12
431.624	92.12
431.846	71.12
432.068	82.12
432.29	90.12
432.512	94.12
432.734	81.12
432.956	107.12
433.178	92.12
433.4	81.12
433.622	86.12
433.844	96.12
434.066	103.12
434.287	96.12
434.509	92.12
434.731	102.12
434.953	80.12
435.175	89.12
435.397	107.12
435.618	98.12
435.84	103.12
436.062	120.12
436.284	116.12
436.505	104.12
436.727	97.12
436.949	95.12
437.17	97.12
437.392	73.12
437.614	86.12
437.835	109.12
438.057	153.12
438.278	129.12
438.5	115.12
438.721	129.12
438.943	121.12
439.165	95.12
439.386	87.12
439.608	101.12
439.829	100.12
440.05	139.12
440.272	187.12
440.493	115.12
440.715	98.12
440.936	90.12
441.158	101.12
441.379	92.12
441.6	87.12
441.822	101.12
442.043	109.12
442.264	136.12
442.486	115.12
442.707	117.12
442.928	131.12
443.149	160.12
443.371	155.12
443.592	127.12
443.813	137.12
444.034	117.12
444.255	94.12
444.476	94.12
444.698	97.12
444.919	91.12
445.14	127.12
445.361	129.12
445.582	117.12
445.803	188.12
446.024	168.12
446.245	155.12
446.466	118.12
446.687	93.12
446.908	91.12
447.129	81.12
447.35	80.12
447.571	99.12
447.792	107.12
448.013	104.12
448.234	119.12
448.455	101.12
448.675	126.12
448.896	145.12
449.117	104.12
449.338	107.12
449.559	141.12
449.779	155.12
450	89.12
450.221	87.12
450.442	85.12
450.662	91.12
450.883	124.12
451.104	132.12
451.324	99.12
451.545	89.12
451.766	96.12
451.986	99.12
452.207	89.12
452.428	94.12
452.648	97.12
452.869	118.12
453.089	105.12
453.31	135.12
453.53	99.12
453.751	92.12
453.971	111.12
454.192	128.12
454.412	103.12
454.633	77.12
454.853	79.12
455.073	100.12
455.294	103.12
455.514	102.12
455.734	98.12
455.955	90.12
456.175	87.12
456.395	85.12
456.616	83.12
456.836	83.12
457.056	77.12
457.276	84.12
457.497	80.12
457.717	93.12
457.937	80.12
458.157	83.12
458.377	95.12
458.598	125.12
458.818	198.12
459.038	217.12
459.258	133.12
459.478	83.12
459.698	91.12
459.918	88.12
460.138	88.12
460.358	70.12
460.578	83.12
460.798	94.12
461.018	81.12
461.238	87.12
461.458	91.12
461.678	79.12
461.898	89.12
462.118	100.12
462.338	85.12
462.558	89.12
462.777	83.12
462.997	95.12
463.217	109.12
463.437	101.12
463.657	97.12
463.876	87.12
464.096	93.12
464.316	96.12
464.536	89.12
464.755	102.12
464.975	127.12
465.195	221.12
465.414	241.12
465.634	119.12
465.854	85.12
466.073	86.12
466.293	93.12
466.512	88.12
466.732	87.12
466.951	91.12
467.171	83.12
467.391	102.12
467.61	145.12
467.829	176.12
468.049	428.12
468.268	617.12
468.488	180.12
468.707	99.12
468.927	93.12
469.146	99.12
469.365	103.12
469.585	104.12
469.804	101.12
470.023	108.12
470.243	87.12
470.462	118.12
470.681	136.12
470.901	111.12
471.12	94.12
471.339	99.12
471.558	112.12
471.777	132.12
471.997	234.12
472.216	815.12
472.435	1912.12
472.654	460.12
472.873	136.12
473.092	109.12
473.311	93.12
473.53	93.12
473.749	87.12
473.968	108.12
474.187	119.12
474.406	97.12
474.625	84.12
474.844	80.12
475.063	89.12
475.282	84.12
475.501	91.12
475.72	92.12
475.939	105.12
476.158	83.12
476.377	88.12
476.596	76.12
476.814	91.12
477.033	107.12
477.252	95.12
477.471	100.12
477.69	95.12
477.908	99.12
478.127	91.12
478.346	92.12
478.564	87.12
478.783	96.12
479.002	107.12
479.22	85.12
479.439	117.12
479.658	124.12
479.876	117.12
480.095	105.12
480.313	124.12
480.532	143.12
480.751	228.12
480.969	755.12
481.188	3251.12
481.406	1886.12
481.624	307.12
481.843	119.12
482.061	91.12
482.28	94.12
482.498	90.12
482.717	92.12
482.935	103.12
483.153	86.12
483.372	93.12
483.59	73.12
483.808	97.12
484.027	91.12
484.245	97.12
484.463	97.12
484.681	104.12
484.9	93.12
485.118	104.12
485.336	102.12
485.554	109.12
485.772	99.12
485.99	98.12
486.209	115.12
486.427	104.12
486.645	109.12
486.863	117.12
487.081	105.12
487.299	95.12
487.517	91.12
487.735	91.12
487.953	94.12
488.171	87.12
488.389	101.12
488.607	94.12
488.825	99.12
489.043	96.12
489.261	96.12
489.479	84.12
489.696	95.12
489.914	72.12
490.132	96.12
490.35	77.12
490.568	85.12
490.786	81.12
491.003	92.12
491.221	96.12
491.439	110.12
491.657	95.12
491.874	95.12
492.092	93.12
492.31	102.12
492.527	105.12
492.745	80.12
492.963	112.12
493.18	101.12
493.398	84.12
493.615	99.12
493.833	106.12
494.05	94.12
494.268	103.12
494.485	91.12
494.703	88.12
494.92	80.12
495.138	87.12
495.355	81.12
495.573	97.12
495.79	95.12
496.008	98.12
496.225	92.12
496.442	83.12
496.66	92.12
496.877	87.12
497.094	111.12
497.312	92.12
497.529	83.12
497.746	98.12
497.963	87.12
498.181	93.12
498.398	104.12
498.615	120.12
498.832	110.12
499.049	96.12
499.267	87.12
499.484	81.12
499.701	78.12
499.918	97.12
500.135	87.12
500.352	85.12
500.569	96.12
500.786	95.12
501.003	87.12
501.22	99.12
501.437	84.12
501.654	98.12
501.871	128.12
502.088	103.12
502.305	97.12
502.522	99.12
502.739	85.12
502.956	93.12
503.172	106.12
503.389	101.12
503.606	105.12
503.823	101.12
504.04	97.12
504.256	104.12
504.473	101.12
504.69	96.12
504.907	92.12
505.123	92.12
505.34	87.12
505.557	92.12
505.773	82.12
505.99	83.12
506.207	85.12
506.423	99.12
506.64	86.12
506.856	85.12
507.073	70.12
507.289	116.12
507.506	102.12
507.722	140.12
507.939	125.12
508.155	102.12
508.372	102.12
508.588	98.12
508.805	99.12
509.021	104.12
509.238	106.12
509.454	84.12
509.67	110.12
509.887	120.12
510.103	131.12
510.319	235.12
510.536	851.12
510.752	2904.12
510.968	766.12
511.184	166.12
511.401	126.12
511.617	110.12
511.833	102.12
512.049	110.12
512.265	92.12
512.481	88.12
512.698	95.12
512.914	102.12
513.13	99.12
513.346	94.12
513.562	97.12
