Data from Circ_1987_H10_HRD10591_00044.txt Node
Date: Wed Jan 03 12:10:41 EST 2024
User: Yrep
Spectrometer: HR+D1059
Trigger mode: 1
Integration Time (sec): 1.000000E-1
Scans to average: 1
Electric dark correction enabled: true
Nonlinearity correction enabled: false
Boxcar width: 0
XAxis mode: Wavelengths
Number of Pixels in Spectrum: 2048
>>>>>Begin Spectral Data<<<<<
223.165	-11.12
223.4	-11.12
223.635	-11.12
223.869	-13.12
224.104	-19.12
224.338	-25.12
224.573	-13.12
224.808	-9.12
225.042	-9.12
225.277	-6.12
225.511	1.88
225.746	9.88
225.98	7.88
226.215	9.88
226.449	12.88
226.683	17.88
226.918	16.88
227.152	28.88
227.387	43.88
227.621	44.88
227.856	44.88
228.09	49.88
228.324	48.88
228.559	62.88
228.793	55.88
229.027	55.88
229.262	77.88
229.496	89.88
229.73	111.88
229.964	90.88
230.199	101.88
230.433	75.88
230.667	96.88
230.901	93.88
231.136	74.88
231.37	73.88
231.604	88.88
231.838	96.88
232.072	89.88
232.306	92.88
232.541	73.88
232.775	76.88
233.009	83.88
233.243	80.88
233.477	84.88
233.711	84.88
233.945	87.88
234.179	85.88
234.413	84.88
234.647	84.88
234.881	73.88
235.115	91.88
235.349	88.88
235.583	81.88
235.817	85.88
236.051	95.88
236.285	75.88
236.519	73.88
236.753	84.88
236.987	83.88
237.221	99.88
237.455	89.88
237.689	92.88
237.922	88.88
238.156	75.88
238.39	74.88
238.624	80.88
238.858	79.88
239.091	71.88
239.325	80.88
239.559	85.88
239.793	95.88
240.027	83.88
240.26	84.88
240.494	101.88
240.728	89.88
240.961	78.88
241.195	74.88
241.429	81.88
241.662	83.88
241.896	84.88
242.13	80.88
242.363	71.88
242.597	83.88
242.83	85.88
243.064	91.88
243.298	81.88
243.531	76.88
243.765	79.88
243.998	95.88
244.232	88.88
244.465	96.88
244.699	84.88
244.932	76.88
245.166	87.88
245.399	74.88
245.633	91.88
245.866	77.88
246.099	82.88
246.333	83.88
246.566	91.88
246.8	82.88
247.033	74.88
247.266	87.88
247.5	77.88
247.733	88.88
247.966	83.88
248.2	73.88
248.433	77.88
248.666	84.88
248.899	87.88
249.133	94.88
249.366	106.88
249.599	101.88
249.832	89.88
250.066	82.88
250.299	84.88
250.532	84.88
250.765	100.88
250.998	75.88
251.231	87.88
251.465	83.88
251.698	82.88
251.931	90.88
252.164	90.88
252.397	84.88
252.63	77.88
252.863	76.88
253.096	72.88
253.329	76.88
253.562	91.88
253.795	70.88
254.028	92.88
254.261	91.88
254.494	81.88
254.727	79.88
254.96	89.88
255.193	92.88
255.426	97.88
255.659	85.88
255.892	99.88
256.124	102.88
256.357	95.88
256.59	93.88
256.823	76.88
257.056	104.88
257.289	83.88
257.521	86.88
257.754	98.88
257.987	88.88
258.22	92.88
258.452	90.88
258.685	103.88
258.918	95.88
259.151	78.88
259.383	98.88
259.616	73.88
259.849	92.88
260.081	88.88
260.314	85.88
260.547	103.88
260.779	100.88
261.012	99.88
261.244	107.88
261.477	113.88
261.71	101.88
261.942	128.88
262.175	139.88
262.407	108.88
262.64	85.88
262.872	93.88
263.105	98.88
263.337	89.88
263.57	78.88
263.802	86.88
264.035	96.88
264.267	99.88
264.499	83.88
264.732	89.88
264.964	88.88
265.197	93.88
265.429	97.88
265.661	83.88
265.894	92.88
266.126	95.88
266.358	104.88
266.591	96.88
266.823	92.88
267.055	88.88
267.287	84.88
267.52	98.88
267.752	88.88
267.984	97.88
268.216	91.88
268.448	91.88
268.681	84.88
268.913	104.88
269.145	97.88
269.377	81.88
269.609	93.88
269.841	91.88
270.073	80.88
270.306	88.88
270.538	88.88
270.77	88.88
271.002	103.88
271.234	104.88
271.466	101.88
271.698	103.88
271.93	88.88
272.162	83.88
272.394	92.88
272.626	91.88
272.858	91.88
273.09	85.88
273.322	98.88
273.553	101.88
273.785	87.88
274.017	83.88
274.249	95.88
274.481	104.88
274.713	89.88
274.945	92.88
275.176	95.88
275.408	100.88
275.64	98.88
275.872	121.88
276.104	120.88
276.335	100.88
276.567	123.88
276.799	161.88
277.031	179.88
277.262	212.88
277.494	171.88
277.726	111.88
277.957	76.88
278.189	98.88
278.421	85.88
278.652	92.88
278.884	107.88
279.115	98.88
279.347	99.88
279.579	110.88
279.81	131.88
280.042	199.88
280.273	269.88
280.505	193.88
280.736	107.88
280.968	105.88
281.199	99.88
281.431	97.88
281.662	98.88
281.894	99.88
282.125	113.88
282.356	139.88
282.588	175.88
282.819	143.88
283.051	97.88
283.282	91.88
283.513	87.88
283.745	96.88
283.976	101.88
284.207	100.88
284.439	98.88
284.67	98.88
284.901	107.88
285.132	96.88
285.364	97.88
285.595	80.88
285.826	96.88
286.057	97.88
286.288	82.88
286.52	95.88
286.751	91.88
286.982	96.88
287.213	97.88
287.444	91.88
287.675	107.88
287.906	92.88
288.138	97.88
288.369	89.88
288.6	107.88
288.831	81.88
289.062	93.88
289.293	94.88
289.524	93.88
289.755	76.88
289.986	80.88
290.217	83.88
290.448	99.88
290.679	95.88
290.91	89.88
291.141	95.88
291.371	92.88
291.602	88.88
291.833	86.88
292.064	91.88
292.295	90.88
292.526	100.88
292.757	93.88
292.987	93.88
293.218	102.88
293.449	100.88
293.68	84.88
293.91	96.88
294.141	69.88
294.372	105.88
294.603	83.88
294.833	84.88
295.064	100.88
295.295	91.88
295.525	86.88
295.756	102.88
295.987	133.88
296.217	187.88
296.448	160.88
296.679	85.88
296.909	98.88
297.14	94.88
297.37	105.88
297.601	97.88
297.831	99.88
298.062	73.88
298.292	90.88
298.523	95.88
298.753	89.88
298.984	91.88
299.214	104.88
299.445	98.88
299.675	87.88
299.905	100.88
300.136	102.88
300.366	84.88
300.597	90.88
300.827	103.88
301.057	109.88
301.288	118.88
301.518	104.88
301.748	96.88
301.979	120.88
302.209	89.88
302.439	104.88
302.669	76.88
302.9	88.88
303.13	99.88
303.36	115.88
303.59	141.88
303.82	148.88
304.051	112.88
304.281	89.88
304.511	81.88
304.741	94.88
304.971	97.88
305.201	83.88
305.431	101.88
305.661	98.88
305.891	92.88
306.121	109.88
306.352	111.88
306.582	132.88
306.812	116.88
307.042	128.88
307.272	151.88
307.502	189.88
307.731	171.88
307.961	139.88
308.191	100.88
308.421	91.88
308.651	100.88
308.881	110.88
309.111	98.88
309.341	106.88
309.571	124.88
309.8	116.88
310.03	113.88
310.26	119.88
310.49	102.88
310.72	123.88
310.949	124.88
311.179	108.88
311.409	108.88
311.639	109.88
311.868	99.88
312.098	118.88
312.328	109.88
312.557	118.88
312.787	123.88
313.017	122.88
313.246	109.88
313.476	98.88
313.706	98.88
313.935	106.88
314.165	116.88
314.394	117.88
314.624	104.88
314.853	90.88
315.083	108.88
315.312	86.88
315.542	100.88
315.771	94.88
316.001	93.88
316.23	92.88
316.46	98.88
316.689	87.88
316.919	82.88
317.148	95.88
317.377	112.88
317.607	104.88
317.836	107.88
318.065	103.88
318.295	90.88
318.524	92.88
318.753	108.88
318.983	101.88
319.212	111.88
319.441	127.88
319.67	119.88
319.9	111.88
320.129	102.88
320.358	91.88
320.587	106.88
320.816	113.88
321.046	127.88
321.275	114.88
321.504	90.88
321.733	100.88
321.962	95.88
322.191	106.88
322.42	114.88
322.649	125.88
322.878	141.88
323.108	129.88
323.337	152.88
323.566	159.88
323.795	199.88
324.024	254.88
324.253	503.88
324.482	1078.88
324.71	2207.88
324.939	2845.88
325.168	1049.88
325.397	303.88
325.626	188.88
325.855	140.88
326.084	135.88
326.313	155.88
326.542	197.88
326.77	287.88
326.999	551.88
327.228	1108.88
327.457	2072.88
327.686	1676.88
327.914	579.88
328.143	577.88
328.372	731.88
328.6	405.88
328.829	224.88
329.058	216.88
329.287	229.88
329.515	203.88
329.744	286.88
329.972	534.88
330.201	1105.88
330.43	1618.88
330.658	705.88
330.887	343.88
331.115	220.88
331.344	125.88
331.572	119.88
331.801	131.88
332.03	155.88
332.258	125.88
332.486	116.88
332.715	110.88
332.943	113.88
333.172	130.88
333.4	131.88
333.629	173.88
333.857	267.88
334.085	478.88
334.314	1049.88
334.542	2074.88
334.771	1859.88
334.999	503.88
335.227	189.88
335.455	135.88
335.684	115.88
335.912	111.88
336.14	115.88
336.369	111.88
336.597	123.88
336.825	105.88
337.053	100.88
337.281	102.88
337.51	102.88
337.738	114.88
337.966	101.88
338.194	108.88
338.422	119.88
338.65	120.88
338.878	88.88
339.106	106.88
339.334	95.88
339.562	98.88
339.79	104.88
340.018	105.88
340.246	109.88
340.474	104.88
340.702	89.88
340.93	114.88
341.158	101.88
341.386	101.88
341.614	123.88
341.842	117.88
342.07	94.88
342.298	95.88
342.526	92.88
342.754	89.88
342.981	84.88
343.209	97.88
343.437	88.88
343.665	91.88
343.893	106.88
344.12	96.88
344.348	95.88
344.576	106.88
344.804	98.88
345.031	119.88
345.259	109.88
345.487	103.88
345.714	103.88
345.942	105.88
346.17	99.88
346.397	95.88
346.625	112.88
346.853	99.88
347.08	99.88
347.308	102.88
347.535	111.88
347.763	112.88
347.99	121.88
348.218	101.88
348.445	128.88
348.673	117.88
348.9	118.88
349.128	113.88
349.355	87.88
349.583	75.88
349.81	87.88
350.037	104.88
350.265	112.88
350.492	86.88
350.72	111.88
350.947	112.88
351.174	128.88
351.402	142.88
351.629	125.88
351.856	113.88
352.083	112.88
352.311	123.88
352.538	118.88
352.765	143.88
352.992	124.88
353.22	116.88
353.447	115.88
353.674	121.88
353.901	99.88
354.128	102.88
354.355	117.88
354.583	91.88
354.81	105.88
355.037	97.88
355.264	80.88
355.491	92.88
355.718	88.88
355.945	94.88
356.172	95.88
356.399	87.88
356.626	95.88
356.853	99.88
357.08	103.88
357.307	96.88
357.534	95.88
357.761	97.88
357.988	101.88
358.215	103.88
358.441	85.88
358.668	80.88
358.895	87.88
359.122	99.88
359.349	97.88
359.576	116.88
359.802	124.88
360.029	147.88
360.256	157.88
360.483	127.88
360.709	89.88
360.936	97.88
361.163	91.88
361.39	118.88
361.616	115.88
361.843	109.88
362.07	112.88
362.296	109.88
362.523	119.88
362.749	115.88
362.976	108.88
363.203	105.88
363.429	104.88
363.656	99.88
363.882	107.88
364.109	89.88
364.335	105.88
364.562	107.88
364.788	81.88
365.015	108.88
365.241	115.88
365.468	131.88
365.694	116.88
365.92	104.88
366.147	119.88
366.373	96.88
366.599	102.88
366.826	83.88
367.052	107.88
367.278	93.88
367.505	96.88
367.731	99.88
367.957	96.88
368.184	110.88
368.41	100.88
368.636	128.88
368.862	151.88
369.089	128.88
369.315	111.88
369.541	108.88
369.767	107.88
369.993	88.88
370.219	98.88
370.445	101.88
370.672	89.88
370.898	85.88
371.124	106.88
371.35	91.88
371.576	108.88
371.802	100.88
372.028	97.88
372.254	86.88
372.48	93.88
372.706	94.88
372.932	85.88
373.158	97.88
373.384	105.88
373.61	92.88
373.835	93.88
374.061	103.88
374.287	95.88
374.513	87.88
374.739	91.88
374.965	95.88
375.191	96.88
375.416	95.88
375.642	85.88
375.868	100.88
376.094	91.88
376.319	92.88
376.545	68.88
376.771	90.88
376.997	92.88
377.222	89.88
377.448	98.88
377.674	91.88
377.899	98.88
378.125	114.88
378.35	94.88
378.576	87.88
378.802	97.88
379.027	84.88
379.253	87.88
379.478	99.88
379.704	90.88
379.929	97.88
380.155	91.88
380.38	93.88
380.606	96.88
380.831	100.88
381.057	90.88
381.282	104.88
381.507	97.88
381.733	93.88
381.958	88.88
382.184	97.88
382.409	111.88
382.634	112.88
382.86	95.88
383.085	87.88
383.31	104.88
383.535	91.88
383.761	100.88
383.986	99.88
384.211	100.88
384.436	103.88
384.662	108.88
384.887	96.88
385.112	112.88
385.337	100.88
385.562	108.88
385.787	104.88
386.013	120.88
386.238	145.88
386.463	109.88
386.688	109.88
386.913	114.88
387.138	101.88
387.363	107.88
387.588	100.88
387.813	95.88
388.038	106.88
388.263	130.88
388.488	116.88
388.713	103.88
388.938	83.88
389.163	82.88
389.387	98.88
389.612	97.88
389.837	108.88
390.062	105.88
390.287	85.88
390.512	93.88
390.736	89.88
390.961	101.88
391.186	89.88
391.411	89.88
391.636	106.88
391.86	77.88
392.085	93.88
392.31	90.88
392.534	87.88
392.759	90.88
392.984	85.88
393.208	95.88
393.433	101.88
393.658	106.88
393.882	94.88
394.107	87.88
394.331	93.88
394.556	84.88
394.78	99.88
395.005	101.88
395.229	86.88
395.454	90.88
395.678	100.88
395.903	98.88
396.127	104.88
396.352	79.88
396.576	79.88
396.801	94.88
397.025	106.88
397.249	93.88
397.474	101.88
397.698	100.88
397.922	90.88
398.147	100.88
398.371	79.88
398.595	95.88
398.82	90.88
399.044	89.88
399.268	87.88
399.492	100.88
399.717	101.88
399.941	95.88
400.165	92.88
400.389	105.88
400.613	89.88
400.837	108.88
401.062	94.88
401.286	94.88
401.51	106.88
401.734	111.88
401.958	107.88
402.182	164.88
402.406	217.88
402.63	144.88
402.854	126.88
403.078	106.88
403.302	83.88
403.526	86.88
403.75	90.88
403.974	81.88
404.198	99.88
404.422	93.88
404.645	104.88
404.869	89.88
405.093	125.88
405.317	159.88
405.541	158.88
405.765	126.88
405.988	161.88
406.212	239.88
406.436	353.88
406.66	224.88
406.883	122.88
407.107	114.88
407.331	132.88
407.555	121.88
407.778	113.88
408.002	100.88
408.226	103.88
408.449	91.88
408.673	96.88
408.896	111.88
409.12	120.88
409.344	93.88
409.567	98.88
409.791	89.88
410.014	95.88
410.238	107.88
410.461	109.88
410.685	83.88
410.908	99.88
411.132	108.88
411.355	115.88
411.578	103.88
411.802	85.88
412.025	87.88
412.249	112.88
412.472	127.88
412.695	147.88
412.919	109.88
413.142	99.88
413.365	89.88
413.589	97.88
413.812	93.88
414.035	84.88
414.258	100.88
414.482	100.88
414.705	93.88
414.928	87.88
415.151	94.88
415.374	98.88
415.597	86.88
415.821	89.88
416.044	87.88
416.267	90.88
416.49	81.88
416.713	104.88
416.936	76.88
417.159	97.88
417.382	95.88
417.605	112.88
417.828	114.88
418.051	106.88
418.274	84.88
418.497	84.88
418.72	93.88
418.943	95.88
419.166	95.88
419.389	89.88
419.611	103.88
419.834	93.88
420.057	97.88
420.28	107.88
420.503	107.88
420.726	76.88
420.948	94.88
421.171	136.88
421.394	122.88
421.617	81.88
421.839	85.88
422.062	90.88
422.285	102.88
422.507	92.88
422.73	128.88
422.953	110.88
423.175	95.88
423.398	104.88
423.621	86.88
423.843	94.88
424.066	82.88
424.288	108.88
424.511	108.88
424.733	116.88
424.956	134.88
425.178	129.88
425.401	108.88
425.623	112.88
425.846	90.88
426.068	96.88
426.291	103.88
426.513	109.88
426.735	99.88
426.958	110.88
427.18	147.88
427.402	204.88
427.625	297.88
427.847	264.88
428.069	231.88
428.292	134.88
428.514	100.88
428.736	94.88
428.958	90.88
429.181	109.88
429.403	91.88
429.625	91.88
429.847	100.88
430.069	119.88
430.292	113.88
430.514	87.88
430.736	96.88
430.958	104.88
431.18	96.88
431.402	84.88
431.624	81.88
431.846	87.88
432.068	101.88
432.29	91.88
432.512	102.88
432.734	116.88
432.956	113.88
433.178	127.88
433.4	124.88
433.622	114.88
433.844	107.88
434.066	93.88
434.287	102.88
434.509	98.88
434.731	108.88
434.953	92.88
435.175	95.88
435.397	102.88
435.618	103.88
435.84	126.88
436.062	147.88
436.284	154.88
436.505	108.88
436.727	112.88
436.949	97.88
437.17	100.88
437.392	93.88
437.614	108.88
437.835	135.88
438.057	161.88
438.278	151.88
438.5	117.88
438.721	169.88
438.943	131.88
439.165	96.88
439.386	104.88
439.608	93.88
439.829	125.88
440.05	185.88
440.272	213.88
440.493	122.88
440.715	108.88
440.936	91.88
441.158	97.88
441.379	104.88
441.6	100.88
441.822	104.88
442.043	119.88
442.264	128.88
442.486	128.88
442.707	115.88
442.928	134.88
443.149	193.88
443.371	211.88
443.592	150.88
443.813	149.88
444.034	147.88
444.255	113.88
444.476	92.88
444.698	91.88
444.919	106.88
445.14	141.88
445.361	143.88
445.582	168.88
445.803	224.88
446.024	215.88
446.245	174.88
446.466	138.88
446.687	114.88
446.908	99.88
447.129	82.88
447.35	102.88
447.571	104.88
447.792	113.88
448.013	123.88
448.234	129.88
448.455	125.88
448.675	168.88
448.896	163.88
449.117	124.88
449.338	114.88
449.559	160.88
449.779	168.88
450	111.88
450.221	88.88
450.442	101.88
450.662	111.88
450.883	146.88
451.104	159.88
451.324	120.88
451.545	90.88
451.766	86.88
451.986	100.88
452.207	87.88
452.428	89.88
452.648	120.88
452.869	136.88
453.089	151.88
453.31	156.88
453.53	114.88
453.751	100.88
453.971	132.88
454.192	154.88
454.412	121.88
454.633	104.88
454.853	93.88
455.073	88.88
455.294	88.88
455.514	120.88
455.734	98.88
455.955	90.88
456.175	95.88
456.395	90.88
456.616	95.88
456.836	89.88
457.056	86.88
457.276	85.88
457.497	87.88
457.717	101.88
457.937	97.88
458.157	98.88
458.377	104.88
458.598	135.88
458.818	236.88
459.038	253.88
459.258	161.88
459.478	112.88
459.698	99.88
459.918	93.88
460.138	103.88
460.358	97.88
460.578	95.88
460.798	100.88
461.018	122.88
461.238	101.88
461.458	92.88
461.678	105.88
461.898	85.88
462.118	102.88
462.338	104.88
462.558	92.88
462.777	98.88
462.997	103.88
463.217	116.88
463.437	116.88
463.657	108.88
463.876	100.88
464.096	109.88
464.316	97.88
464.536	110.88
464.755	109.88
464.975	144.88
465.195	271.88
465.414	280.88
465.634	124.88
465.854	106.88
466.073	96.88
466.293	103.88
466.512	95.88
466.732	88.88
466.951	109.88
467.171	118.88
467.391	133.88
467.61	155.88
467.829	215.88
468.049	572.88
468.268	849.88
468.488	218.88
468.707	96.88
468.927	97.88
469.146	93.88
469.365	95.88
469.585	102.88
469.804	115.88
470.023	114.88
470.243	99.88
470.462	130.88
470.681	159.88
470.901	118.88
471.12	92.88
471.339	111.88
471.558	117.88
471.777	167.88
471.997	340.88
472.216	1148.88
472.435	2639.88
472.654	606.88
472.873	165.88
473.092	121.88
473.311	103.88
473.53	124.88
473.749	104.88
473.968	120.88
474.187	140.88
474.406	122.88
474.625	101.88
474.844	91.88
475.063	95.88
475.282	87.88
475.501	97.88
475.72	99.88
475.939	96.88
476.158	97.88
476.377	97.88
476.596	104.88
476.814	96.88
477.033	100.88
477.252	110.88
477.471	100.88
477.69	93.88
477.908	103.88
478.127	113.88
478.346	102.88
478.564	101.88
478.783	103.88
479.002	118.88
479.22	130.88
479.439	147.88
479.658	135.88
479.876	133.88
480.095	143.88
480.313	136.88
480.532	183.88
480.751	306.88
480.969	1045.88
481.188	4623.88
481.406	2589.88
481.624	374.88
481.843	134.88
482.061	117.88
482.28	108.88
482.498	98.88
482.717	91.88
482.935	100.88
483.153	105.88
483.372	105.88
483.59	101.88
483.808	98.88
484.027	108.88
484.245	87.88
484.463	97.88
484.681	93.88
484.9	83.88
485.118	94.88
485.336	94.88
485.554	110.88
485.772	131.88
485.99	108.88
486.209	116.88
486.427	118.88
486.645	123.88
486.863	146.88
487.081	117.88
487.299	104.88
487.517	106.88
487.735	94.88
487.953	95.88
488.171	108.88
488.389	102.88
488.607	107.88
488.825	112.88
489.043	91.88
489.261	93.88
489.479	100.88
489.696	81.88
489.914	89.88
490.132	82.88
490.35	84.88
490.568	99.88
490.786	97.88
491.003	84.88
491.221	101.88
491.439	100.88
491.657	111.88
491.874	101.88
492.092	95.88
492.31	109.88
492.527	104.88
492.745	117.88
492.963	109.88
493.18	113.88
493.398	88.88
493.615	106.88
493.833	106.88
494.05	84.88
494.268	91.88
494.485	105.88
494.703	99.88
494.92	108.88
495.138	107.88
495.355	100.88
495.573	104.88
495.79	87.88
496.008	97.88
496.225	95.88
496.442	99.88
496.66	95.88
496.877	99.88
497.094	97.88
497.312	98.88
497.529	100.88
497.746	91.88
497.963	107.88
498.181	104.88
498.398	104.88
498.615	135.88
498.832	113.88
499.049	87.88
499.267	84.88
499.484	91.88
499.701	91.88
499.918	86.88
500.135	97.88
500.352	88.88
500.569	115.88
500.786	105.88
501.003	85.88
501.22	95.88
501.437	95.88
501.654	115.88
501.871	148.88
502.088	100.88
502.305	96.88
502.522	92.88
502.739	100.88
502.956	89.88
503.172	105.88
503.389	98.88
503.606	128.88
503.823	124.88
504.04	113.88
504.256	112.88
504.473	103.88
504.69	96.88
504.907	100.88
505.123	91.88
505.34	81.88
505.557	88.88
505.773	109.88
505.99	100.88
506.207	109.88
506.423	100.88
506.64	96.88
506.856	90.88
507.073	92.88
507.289	115.88
507.506	125.88
507.722	152.88
507.939	139.88
508.155	95.88
508.372	90.88
508.588	94.88
508.805	111.88
509.021	104.88
509.238	101.88
509.454	95.88
509.67	110.88
509.887	124.88
510.103	147.88
510.319	264.88
510.536	1030.88
510.752	3447.88
