Data from Circ_1987_H10_HRD10591_00095.txt Node
Date: Wed Jan 03 12:10:51 EST 2024
User: Yrep
Spectrometer: HR+D1059
Trigger mode: 1
Integration Time (sec): 1.000000E-1
Scans to average: 1
Electric dark correction enabled: true
Nonlinearity correction enabled: false
Boxcar width: 0
XAxis mode: Wavelengths
Number of Pixels in Spectrum: 2048
>>>>>Begin Spectral Data<<<<<
223.165	-9.12
223.4	-9.12
223.635	-9.12
223.869	-27.12
224.104	-27.12
224.338	-11.12
224.573	-16.12
224.808	-13.12
225.042	-17.12
225.277	-1.12
225.511	-1.12
225.746	7.88
225.98	5.88
226.215	20.88
226.449	8.88
226.683	21.88
226.918	27.88
227.152	29.88
227.387	35.88
227.621	46.88
227.856	43.88
228.09	46.88
228.324	47.88
228.559	52.88
228.793	62.88
229.027	59.88
229.262	72.88
229.496	86.88
229.73	95.88
229.964	99.88
230.199	77.88
230.433	77.88
230.667	87.88
230.901	78.88
231.136	79.88
231.37	83.88
231.604	67.88
231.838	79.88
232.072	77.88
232.306	69.88
232.541	76.88
232.775	88.88
233.009	78.88
233.243	79.88
233.477	89.88
233.711	89.88
233.945	73.88
234.179	78.88
234.413	72.88
234.647	84.88
234.881	80.88
235.115	69.88
235.349	72.88
235.583	73.88
235.817	77.88
236.051	74.88
236.285	93.88
236.519	79.88
236.753	66.88
236.987	72.88
237.221	94.88
237.455	79.88
237.689	98.88
237.922	79.88
238.156	64.88
238.39	72.88
238.624	80.88
238.858	78.88
239.091	69.88
239.325	56.88
239.559	79.88
239.793	79.88
240.027	76.88
240.26	83.88
240.494	77.88
240.728	91.88
240.961	75.88
241.195	76.88
241.429	72.88
241.662	75.88
241.896	83.88
242.13	82.88
242.363	82.88
242.597	60.88
242.83	75.88
243.064	80.88
243.298	77.88
243.531	77.88
243.765	83.88
243.998	86.88
244.232	89.88
244.465	84.88
244.699	69.88
244.932	75.88
245.166	75.88
245.399	72.88
245.633	74.88
245.866	64.88
246.099	86.88
246.333	64.88
246.566	75.88
246.8	70.88
247.033	77.88
247.266	77.88
247.5	86.88
247.733	90.88
247.966	82.88
248.2	79.88
248.433	86.88
248.666	92.88
248.899	92.88
249.133	88.88
249.366	86.88
249.599	96.88
249.832	85.88
250.066	89.88
250.299	88.88
250.532	83.88
250.765	80.88
250.998	66.88
251.231	72.88
251.465	60.88
251.698	83.88
251.931	87.88
252.164	75.88
252.397	88.88
252.63	82.88
252.863	72.88
253.096	95.88
253.329	83.88
253.562	72.88
253.795	89.88
254.028	86.88
254.261	73.88
254.494	69.88
254.727	81.88
254.96	83.88
255.193	79.88
255.426	74.88
255.659	82.88
255.892	94.88
256.124	77.88
256.357	101.88
256.59	88.88
256.823	85.88
257.056	83.88
257.289	77.88
257.521	81.88
257.754	86.88
257.987	89.88
258.22	97.88
258.452	94.88
258.685	85.88
258.918	89.88
259.151	94.88
259.383	88.88
259.616	89.88
259.849	87.88
260.081	93.88
260.314	81.88
260.547	93.88
260.779	85.88
261.012	113.88
261.244	97.88
261.477	93.88
261.71	104.88
261.942	113.88
262.175	143.88
262.407	108.88
262.64	87.88
262.872	82.88
263.105	81.88
263.337	84.88
263.57	79.88
263.802	92.88
264.035	92.88
264.267	96.88
264.499	82.88
264.732	101.88
264.964	71.88
265.197	89.88
265.429	89.88
265.661	89.88
265.894	68.88
266.126	83.88
266.358	94.88
266.591	82.88
266.823	88.88
267.055	89.88
267.287	82.88
267.52	73.88
267.752	85.88
267.984	86.88
268.216	84.88
268.448	96.88
268.681	93.88
268.913	75.88
269.145	83.88
269.377	86.88
269.609	86.88
269.841	84.88
270.073	79.88
270.306	85.88
270.538	91.88
270.77	70.88
271.002	81.88
271.234	86.88
271.466	96.88
271.698	86.88
271.93	77.88
272.162	82.88
272.394	89.88
272.626	100.88
272.858	87.88
273.09	94.88
273.322	88.88
273.553	85.88
273.785	73.88
274.017	78.88
274.249	83.88
274.481	83.88
274.713	70.88
274.945	86.88
275.176	98.88
275.408	83.88
275.64	118.88
275.872	119.88
276.104	115.88
276.335	99.88
276.567	103.88
276.799	134.88
277.031	158.88
277.262	191.88
277.494	139.88
277.726	97.88
277.957	83.88
278.189	91.88
278.421	80.88
278.652	89.88
278.884	83.88
279.115	93.88
279.347	85.88
279.579	101.88
279.81	117.88
280.042	184.88
280.273	264.88
280.505	167.88
280.736	115.88
280.968	84.88
281.199	91.88
281.431	75.88
281.662	87.88
281.894	81.88
282.125	100.88
282.356	123.88
282.588	175.88
282.819	135.88
283.051	94.88
283.282	97.88
283.513	78.88
283.745	85.88
283.976	81.88
284.207	96.88
284.439	94.88
284.67	79.88
284.901	96.88
285.132	83.88
285.364	97.88
285.595	83.88
285.826	95.88
286.057	96.88
286.288	83.88
286.52	81.88
286.751	71.88
286.982	81.88
287.213	89.88
287.444	101.88
287.675	93.88
287.906	87.88
288.138	86.88
288.369	100.88
288.6	107.88
288.831	87.88
289.062	100.88
289.293	93.88
289.524	89.88
289.755	84.88
289.986	81.88
290.217	101.88
290.448	73.88
290.679	97.88
290.91	87.88
291.141	82.88
291.371	88.88
291.602	86.88
291.833	103.88
292.064	81.88
292.295	84.88
292.526	75.88
292.757	101.88
292.987	83.88
293.218	82.88
293.449	86.88
293.68	96.88
293.91	80.88
294.141	83.88
294.372	95.88
294.603	97.88
294.833	94.88
295.064	82.88
295.295	82.88
295.525	85.88
295.756	117.88
295.987	126.88
296.217	157.88
296.448	155.88
296.679	97.88
296.909	95.88
297.14	87.88
297.37	92.88
297.601	77.88
297.831	95.88
298.062	95.88
298.292	98.88
298.523	90.88
298.753	88.88
298.984	88.88
299.214	93.88
299.445	90.88
299.675	92.88
299.905	104.88
300.136	97.88
300.366	87.88
300.597	94.88
300.827	115.88
301.057	102.88
301.288	114.88
301.518	106.88
301.748	100.88
301.979	119.88
302.209	99.88
302.439	78.88
302.669	92.88
302.9	81.88
303.13	105.88
303.36	99.88
303.59	123.88
303.82	141.88
304.051	95.88
304.281	103.88
304.511	82.88
304.741	98.88
304.971	91.88
305.201	90.88
305.431	104.88
305.661	90.88
305.891	82.88
306.121	104.88
306.352	125.88
306.582	131.88
306.812	96.88
307.042	137.88
307.272	156.88
307.502	185.88
307.731	159.88
307.961	132.88
308.191	91.88
308.421	95.88
308.651	89.88
308.881	102.88
309.111	111.88
309.341	100.88
309.571	98.88
309.8	100.88
310.03	112.88
310.26	100.88
310.49	98.88
310.72	99.88
310.949	106.88
311.179	103.88
311.409	93.88
311.639	102.88
311.868	103.88
312.098	97.88
312.328	114.88
312.557	123.88
312.787	116.88
313.017	114.88
313.246	101.88
313.476	103.88
313.706	89.88
313.935	95.88
314.165	114.88
314.394	113.88
314.624	94.88
314.853	112.88
315.083	100.88
315.312	95.88
315.542	78.88
315.771	95.88
316.001	91.88
316.23	92.88
316.46	85.88
316.689	95.88
316.919	91.88
317.148	104.88
317.377	99.88
317.607	96.88
317.836	99.88
318.065	85.88
318.295	90.88
318.524	112.88
318.753	87.88
318.983	89.88
319.212	119.88
319.441	116.88
319.67	109.88
319.9	88.88
320.129	84.88
320.358	91.88
320.587	109.88
320.816	101.88
321.046	108.88
321.275	111.88
321.504	112.88
321.733	92.88
321.962	104.88
322.191	101.88
322.42	114.88
322.649	114.88
322.878	113.88
323.108	126.88
323.337	153.88
323.566	139.88
323.795	161.88
324.024	214.88
324.253	396.88
324.482	800.88
324.71	1598.88
324.939	2049.88
325.168	791.88
325.397	237.88
325.626	159.88
325.855	125.88
326.084	121.88
326.313	123.88
326.542	153.88
326.77	219.88
326.999	408.88
327.228	811.88
327.457	1451.88
327.686	1171.88
327.914	483.88
328.143	498.88
328.372	650.88
328.6	367.88
328.829	190.88
329.058	212.88
329.287	204.88
329.515	169.88
329.744	249.88
329.972	462.88
330.201	945.88
330.43	1426.88
330.658	643.88
330.887	286.88
331.115	197.88
331.344	134.88
331.572	119.88
331.801	124.88
332.03	120.88
332.258	109.88
332.486	112.88
332.715	100.88
332.943	112.88
333.172	104.88
333.4	121.88
333.629	175.88
333.857	226.88
334.085	415.88
334.314	879.88
334.542	1742.88
334.771	1618.88
334.999	432.88
335.227	171.88
335.455	121.88
335.684	116.88
335.912	111.88
336.14	104.88
336.369	95.88
336.597	118.88
336.825	101.88
337.053	101.88
337.281	89.88
337.51	76.88
337.738	92.88
337.966	90.88
338.194	100.88
338.422	115.88
338.65	111.88
338.878	87.88
339.106	86.88
339.334	106.88
339.562	92.88
339.79	94.88
340.018	91.88
340.246	103.88
340.474	103.88
340.702	90.88
340.93	96.88
341.158	92.88
341.386	101.88
341.614	104.88
341.842	97.88
342.07	96.88
342.298	100.88
342.526	105.88
342.754	91.88
342.981	83.88
343.209	91.88
343.437	100.88
343.665	84.88
343.893	93.88
344.12	103.88
344.348	85.88
344.576	92.88
344.804	89.88
345.031	107.88
345.259	102.88
345.487	98.88
345.714	88.88
345.942	81.88
346.17	81.88
346.397	100.88
346.625	100.88
346.853	93.88
347.08	95.88
347.308	96.88
347.535	112.88
347.763	97.88
347.99	117.88
348.218	115.88
348.445	92.88
348.673	105.88
348.9	94.88
349.128	99.88
349.355	91.88
349.583	93.88
349.81	92.88
350.037	94.88
350.265	98.88
350.492	100.88
350.72	101.88
350.947	108.88
351.174	110.88
351.402	119.88
351.629	105.88
351.856	92.88
352.083	107.88
352.311	119.88
352.538	108.88
352.765	120.88
352.992	115.88
353.22	117.88
353.447	104.88
353.674	113.88
353.901	105.88
354.128	91.88
354.355	79.88
354.583	92.88
354.81	96.88
355.037	83.88
355.264	81.88
355.491	87.88
355.718	85.88
355.945	99.88
356.172	103.88
356.399	91.88
356.626	96.88
356.853	94.88
357.08	105.88
357.307	105.88
357.534	86.88
357.761	96.88
357.988	102.88
358.215	88.88
358.441	89.88
358.668	102.88
358.895	91.88
359.122	106.88
359.349	104.88
359.576	99.88
359.802	106.88
360.029	134.88
360.256	130.88
360.483	124.88
360.709	94.88
360.936	88.88
361.163	108.88
361.39	108.88
361.616	100.88
361.843	85.88
362.07	90.88
362.296	89.88
362.523	96.88
362.749	107.88
362.976	92.88
363.203	107.88
363.429	88.88
363.656	93.88
363.882	94.88
364.109	109.88
364.335	89.88
364.562	91.88
364.788	96.88
365.015	92.88
365.241	99.88
365.468	112.88
365.694	120.88
365.92	101.88
366.147	102.88
366.373	96.88
366.599	101.88
366.826	104.88
367.052	91.88
367.278	103.88
367.505	102.88
367.731	104.88
367.957	101.88
368.184	103.88
368.41	107.88
368.636	127.88
368.862	126.88
369.089	120.88
369.315	94.88
369.541	96.88
369.767	101.88
369.993	98.88
370.219	97.88
370.445	101.88
370.672	85.88
370.898	82.88
371.124	77.88
371.35	79.88
371.576	71.88
371.802	87.88
372.028	79.88
372.254	97.88
372.48	89.88
372.706	94.88
372.932	115.88
373.158	91.88
373.384	78.88
373.61	86.88
373.835	88.88
374.061	91.88
374.287	99.88
374.513	81.88
374.739	75.88
374.965	96.88
375.191	106.88
375.416	87.88
375.642	86.88
375.868	82.88
376.094	102.88
376.319	95.88
376.545	97.88
376.771	77.88
376.997	80.88
377.222	91.88
377.448	95.88
377.674	90.88
377.899	91.88
378.125	86.88
378.35	94.88
378.576	99.88
378.802	78.88
379.027	93.88
379.253	91.88
379.478	84.88
379.704	88.88
379.929	87.88
380.155	85.88
380.38	84.88
380.606	94.88
380.831	97.88
381.057	99.88
381.282	91.88
381.507	102.88
381.733	85.88
381.958	85.88
382.184	100.88
382.409	100.88
382.634	97.88
382.86	92.88
383.085	96.88
383.31	92.88
383.535	96.88
383.761	91.88
383.986	105.88
384.211	89.88
384.436	94.88
384.662	81.88
384.887	93.88
385.112	97.88
385.337	90.88
385.562	96.88
385.787	108.88
386.013	114.88
386.238	108.88
386.463	102.88
386.688	101.88
386.913	98.88
387.138	108.88
387.363	98.88
387.588	105.88
387.813	105.88
388.038	112.88
388.263	97.88
388.488	112.88
388.713	105.88
388.938	92.88
389.163	99.88
389.387	91.88
389.612	86.88
389.837	93.88
390.062	102.88
390.287	83.88
390.512	87.88
390.736	93.88
390.961	94.88
391.186	90.88
391.411	105.88
391.636	91.88
391.86	91.88
392.085	81.88
392.31	86.88
392.534	83.88
392.759	82.88
392.984	78.88
393.208	81.88
393.433	84.88
393.658	90.88
393.882	92.88
394.107	76.88
394.331	81.88
394.556	79.88
394.78	91.88
395.005	87.88
395.229	78.88
395.454	81.88
395.678	94.88
395.903	87.88
396.127	86.88
396.352	85.88
396.576	81.88
396.801	85.88
397.025	89.88
397.249	79.88
397.474	84.88
397.698	88.88
397.922	98.88
398.147	100.88
398.371	73.88
398.595	98.88
398.82	87.88
399.044	94.88
399.268	79.88
399.492	87.88
399.717	101.88
399.941	96.88
400.165	102.88
400.389	87.88
400.613	75.88
400.837	103.88
401.062	95.88
401.286	84.88
401.51	87.88
401.734	96.88
401.958	102.88
402.182	153.88
402.406	195.88
402.63	151.88
402.854	117.88
403.078	81.88
403.302	82.88
403.526	90.88
403.75	85.88
403.974	86.88
404.198	85.88
404.422	84.88
404.645	93.88
404.869	87.88
405.093	125.88
405.317	159.88
405.541	132.88
405.765	120.88
405.988	137.88
406.212	213.88
406.436	324.88
406.66	187.88
406.883	102.88
407.107	107.88
407.331	101.88
407.555	108.88
407.778	79.88
408.002	93.88
408.226	100.88
408.449	97.88
408.673	105.88
408.896	92.88
409.12	109.88
409.344	81.88
409.567	89.88
409.791	101.88
410.014	89.88
410.238	84.88
410.461	83.88
410.685	99.88
410.908	100.88
411.132	96.88
411.355	104.88
411.578	93.88
411.802	93.88
412.025	98.88
412.249	95.88
412.472	117.88
412.695	143.88
412.919	114.88
413.142	97.88
413.365	93.88
413.589	100.88
413.812	95.88
414.035	101.88
414.258	83.88
414.482	91.88
414.705	80.88
414.928	93.88
415.151	93.88
415.374	92.88
415.597	92.88
415.821	97.88
416.044	89.88
416.267	78.88
416.49	97.88
416.713	101.88
416.936	88.88
417.159	105.88
417.382	119.88
417.605	102.88
417.828	102.88
418.051	108.88
418.274	97.88
418.497	93.88
418.72	71.88
418.943	98.88
419.166	103.88
419.389	83.88
419.611	88.88
419.834	89.88
420.057	98.88
420.28	106.88
420.503	102.88
420.726	87.88
420.948	100.88
421.171	113.88
421.394	93.88
421.617	68.88
421.839	101.88
422.062	85.88
422.285	97.88
422.507	105.88
422.73	118.88
422.953	105.88
423.175	101.88
423.398	84.88
423.621	80.88
423.843	87.88
424.066	87.88
424.288	81.88
424.511	108.88
424.733	104.88
424.956	119.88
425.178	105.88
425.401	111.88
425.623	121.88
425.846	93.88
426.068	101.88
426.291	103.88
426.513	91.88
426.735	103.88
426.958	99.88
427.18	113.88
427.402	174.88
427.625	260.88
427.847	212.88
428.069	196.88
428.292	129.88
428.514	93.88
428.736	92.88
428.958	75.88
429.181	80.88
429.403	101.88
429.625	91.88
429.847	95.88
430.069	122.88
430.292	95.88
430.514	88.88
430.736	94.88
430.958	89.88
431.18	85.88
431.402	77.88
431.624	79.88
431.846	87.88
432.068	85.88
432.29	92.88
432.512	83.88
432.734	104.88
432.956	87.88
433.178	86.88
433.4	86.88
433.622	105.88
433.844	92.88
434.066	93.88
434.287	87.88
434.509	90.88
434.731	105.88
434.953	77.88
435.175	95.88
435.397	91.88
435.618	81.88
435.84	112.88
436.062	128.88
436.284	127.88
436.505	101.88
436.727	93.88
436.949	84.88
437.17	91.88
437.392	100.88
437.614	100.88
437.835	120.88
438.057	137.88
438.278	119.88
438.5	105.88
438.721	140.88
438.943	121.88
439.165	91.88
439.386	96.88
439.608	106.88
439.829	113.88
440.05	132.88
440.272	173.88
440.493	105.88
440.715	102.88
440.936	96.88
441.158	95.88
441.379	99.88
441.6	97.88
441.822	112.88
442.043	99.88
442.264	116.88
442.486	103.88
442.707	99.88
442.928	120.88
443.149	163.88
443.371	169.88
443.592	137.88
443.813	149.88
444.034	139.88
444.255	98.88
444.476	76.88
444.698	92.88
444.919	92.88
445.14	125.88
445.361	123.88
445.582	124.88
445.803	172.88
446.024	150.88
446.245	148.88
446.466	103.88
446.687	97.88
446.908	94.88
447.129	83.88
447.35	105.88
447.571	101.88
447.792	101.88
448.013	105.88
448.234	144.88
448.455	101.88
448.675	130.88
448.896	121.88
449.117	108.88
449.338	112.88
449.559	127.88
449.779	156.88
450	95.88
450.221	94.88
450.442	90.88
450.662	101.88
450.883	116.88
451.104	142.88
451.324	105.88
451.545	96.88
451.766	82.88
451.986	69.88
452.207	103.88
452.428	106.88
452.648	92.88
452.869	118.88
453.089	146.88
453.31	164.88
453.53	97.88
453.751	95.88
453.971	106.88
454.192	120.88
454.412	100.88
454.633	86.88
454.853	92.88
455.073	75.88
455.294	91.88
455.514	122.88
455.734	91.88
455.955	78.88
456.175	76.88
456.395	87.88
456.616	77.88
456.836	85.88
457.056	79.88
457.276	77.88
457.497	81.88
457.717	72.88
457.937	110.88
458.157	84.88
458.377	112.88
458.598	115.88
458.818	200.88
459.038	214.88
459.258	146.88
459.478	104.88
459.698	94.88
459.918	99.88
460.138	95.88
460.358	84.88
460.578	73.88
460.798	93.88
461.018	87.88
461.238	85.88
461.458	98.88
461.678	94.88
461.898	96.88
462.118	91.88
462.338	93.88
462.558	91.88
462.777	88.88
462.997	94.88
463.217	118.88
463.437	91.88
463.657	83.88
463.876	85.88
464.096	86.88
464.316	107.88
464.536	108.88
464.755	98.88
464.975	122.88
465.195	243.88
465.414	238.88
465.634	109.88
465.854	100.88
466.073	94.88
466.293	91.88
466.512	70.88
466.732	105.88
466.951	101.88
467.171	96.88
467.391	112.88
467.61	145.88
467.829	213.88
468.049	586.88
468.268	847.88
468.488	227.88
468.707	115.88
468.927	88.88
469.146	105.88
469.365	95.88
469.585	104.88
469.804	102.88
470.023	111.88
470.243	111.88
470.462	117.88
470.681	140.88
470.901	119.88
471.12	99.88
471.339	116.88
471.558	105.88
471.777	142.88
471.997	287.88
472.216	1093.88
472.435	2520.88
472.654	583.88
472.873	175.88
473.092	118.88
473.311	105.88
473.53	91.88
473.749	89.88
473.968	120.88
474.187	124.88
474.406	120.88
474.625	87.88
474.844	92.88
475.063	99.88
475.282	80.88
475.501	91.88
475.72	95.88
475.939	102.88
476.158	90.88
476.377	94.88
476.596	88.88
476.814	97.88
477.033	104.88
477.252	96.88
477.471	100.88
477.69	97.88
477.908	95.88
478.127	89.88
478.346	88.88
478.564	106.88
478.783	102.88
479.002	97.88
479.22	120.88
479.439	135.88
479.658	131.88
479.876	119.88
480.095	119.88
480.313	131.88
480.532	163.88
480.751	272.88
480.969	977.88
481.188	4279.88
481.406	2425.88
481.624	371.88
481.843	141.88
482.061	128.88
482.28	100.88
482.498	114.88
482.717	101.88
482.935	110.88
483.153	97.88
483.372	99.88
483.59	93.88
483.808	96.88
484.027	105.88
484.245	98.88
484.463	100.88
484.681	106.88
484.9	94.88
485.118	92.88
485.336	86.88
485.554	109.88
485.772	109.88
485.99	107.88
486.209	105.88
486.427	104.88
486.645	109.88
486.863	120.88
487.081	113.88
487.299	94.88
487.517	93.88
487.735	93.88
487.953	92.88
488.171	90.88
488.389	88.88
488.607	106.88
488.825	100.88
489.043	92.88
489.261	70.88
489.479	98.88
489.696	83.88
489.914	99.88
490.132	96.88
490.35	77.88
490.568	85.88
490.786	84.88
491.003	83.88
491.221	102.88
491.439	98.88
491.657	94.88
491.874	92.88
492.092	90.88
492.31	90.88
492.527	97.88
492.745	96.88
492.963	86.88
493.18	95.88
493.398	94.88
493.615	96.88
493.833	89.88
494.05	96.88
494.268	87.88
494.485	87.88
494.703	96.88
494.92	95.88
495.138	92.88
495.355	91.88
495.573	101.88
495.79	105.88
496.008	88.88
496.225	97.88
496.442	91.88
496.66	88.88
496.877	98.88
497.094	92.88
497.312	93.88
497.529	83.88
497.746	85.88
497.963	89.88
498.181	99.88
498.398	105.88
498.615	101.88
498.832	103.88
499.049	91.88
499.267	93.88
499.484	87.88
499.701	81.88
499.918	98.88
500.135	69.88
500.352	102.88
500.569	98.88
500.786	114.88
501.003	96.88
501.22	89.88
501.437	101.88
501.654	99.88
501.871	127.88
502.088	94.88
502.305	82.88
502.522	90.88
502.739	82.88
502.956	79.88
503.172	99.88
503.389	103.88
503.606	116.88
503.823	105.88
504.04	107.88
504.256	94.88
504.473	87.88
504.69	92.88
504.907	77.88
505.123	84.88
505.34	95.88
505.557	99.88
505.773	93.88
505.99	98.88
506.207	81.88
506.423	95.88
506.64	95.88
506.856	84.88
507.073	85.88
507.289	100.88
507.506	94.88
507.722	137.88
507.939	128.88
508.155	94.88
508.372	90.88
508.588	109.88
508.805	94.88
509.021	95.88
509.238	100.88
509.454	102.88
509.67	115.88
509.887	109.88
510.103	130.88
510.319	252.88
510.536	933.88
510.752	3248.88
510.968	853.88
511.184	183.88
511.401	133.88
511.617	117.88
511.833	100.88
512.049	119.88
512.265	101.88
512.481	93.88
512.698	102.88
512.914	102.88
513.13	96.88
