Data from Circ_1987_H10_HRD10591_00088.txt Node
Date: Wed Jan 03 12:10:50 EST 2024
User: Yrep
Spectrometer: HR+D1059
Trigger mode: 1
Integration Time (sec): 1.000000E-1
Scans to average: 1
Electric dark correction enabled: true
Nonlinearity correction enabled: false
Boxcar width: 0
XAxis mode: Wavelengths
Number of Pixels in Spectrum: 2048
>>>>>Begin Spectral Data<<<<<
223.165	-8.38
223.4	-8.38
223.635	-8.38
223.869	-14.38
224.104	-21.38
224.338	-10.38
224.573	-18.38
224.808	-7.38
225.042	-7.38
225.277	0.62
225.511	-11.38
225.746	10.62
225.98	-0.38
226.215	10.62
226.449	13.62
226.683	6.62
226.918	28.62
227.152	28.62
227.387	33.62
227.621	43.62
227.856	42.62
228.09	38.62
228.324	56.62
228.559	57.62
228.793	53.62
229.027	60.62
229.262	70.62
229.496	87.62
229.73	94.62
229.964	81.62
230.199	82.62
230.433	73.62
230.667	81.62
230.901	73.62
231.136	84.62
231.37	79.62
231.604	83.62
231.838	78.62
232.072	82.62
232.306	88.62
232.541	81.62
232.775	78.62
233.009	69.62
233.243	83.62
233.477	83.62
233.711	72.62
233.945	66.62
234.179	69.62
234.413	80.62
234.647	86.62
234.881	80.62
235.115	80.62
235.349	80.62
235.583	90.62
235.817	60.62
236.051	73.62
236.285	76.62
236.519	80.62
236.753	86.62
236.987	77.62
237.221	90.62
237.455	105.62
237.689	86.62
237.922	85.62
238.156	78.62
238.39	63.62
238.624	72.62
238.858	77.62
239.091	84.62
239.325	82.62
239.559	91.62
239.793	84.62
240.027	80.62
240.26	78.62
240.494	70.62
240.728	80.62
240.961	80.62
241.195	71.62
241.429	94.62
241.662	72.62
241.896	76.62
242.13	78.62
242.363	69.62
242.597	86.62
242.83	75.62
243.064	66.62
243.298	88.62
243.531	82.62
243.765	94.62
243.998	69.62
244.232	92.62
244.465	78.62
244.699	78.62
244.932	83.62
245.166	76.62
245.399	88.62
245.633	72.62
245.866	79.62
246.099	76.62
246.333	66.62
246.566	78.62
246.8	68.62
247.033	70.62
247.266	77.62
247.5	82.62
247.733	88.62
247.966	83.62
248.2	81.62
248.433	76.62
248.666	82.62
248.899	80.62
249.133	93.62
249.366	95.62
249.599	92.62
249.832	105.62
250.066	81.62
250.299	78.62
250.532	98.62
250.765	78.62
250.998	87.62
251.231	81.62
251.465	84.62
251.698	71.62
251.931	82.62
252.164	89.62
252.397	76.62
252.63	88.62
252.863	82.62
253.096	90.62
253.329	91.62
253.562	72.62
253.795	73.62
254.028	77.62
254.261	61.62
254.494	78.62
254.727	92.62
254.96	77.62
255.193	83.62
255.426	88.62
255.659	95.62
255.892	95.62
256.124	107.62
256.357	88.62
256.59	85.62
256.823	78.62
257.056	90.62
257.289	92.62
257.521	79.62
257.754	84.62
257.987	90.62
258.22	105.62
258.452	104.62
258.685	100.62
258.918	79.62
259.151	89.62
259.383	98.62
259.616	74.62
259.849	95.62
260.081	82.62
260.314	84.62
260.547	111.62
260.779	94.62
261.012	101.62
261.244	97.62
261.477	98.62
261.71	108.62
261.942	145.62
262.175	141.62
262.407	96.62
262.64	78.62
262.872	92.62
263.105	90.62
263.337	86.62
263.57	90.62
263.802	88.62
264.035	73.62
264.267	69.62
264.499	86.62
264.732	84.62
264.964	76.62
265.197	74.62
265.429	85.62
265.661	73.62
265.894	68.62
266.126	94.62
266.358	92.62
266.591	79.62
266.823	93.62
267.055	81.62
267.287	73.62
267.52	84.62
267.752	90.62
267.984	80.62
268.216	105.62
268.448	100.62
268.681	101.62
268.913	96.62
269.145	89.62
269.377	92.62
269.609	89.62
269.841	87.62
270.073	92.62
270.306	101.62
270.538	98.62
270.77	89.62
271.002	89.62
271.234	84.62
271.466	79.62
271.698	86.62
271.93	84.62
272.162	73.62
272.394	94.62
272.626	96.62
272.858	97.62
273.09	90.62
273.322	89.62
273.553	93.62
273.785	84.62
274.017	82.62
274.249	74.62
274.481	86.62
274.713	84.62
274.945	89.62
275.176	72.62
275.408	96.62
275.64	117.62
275.872	124.62
276.104	100.62
276.335	99.62
276.567	127.62
276.799	164.62
277.031	177.62
277.262	200.62
277.494	162.62
277.726	98.62
277.957	73.62
278.189	90.62
278.421	91.62
278.652	99.62
278.884	93.62
279.115	91.62
279.347	98.62
279.579	96.62
279.81	140.62
280.042	204.62
280.273	270.62
280.505	191.62
280.736	98.62
280.968	86.62
281.199	88.62
281.431	92.62
281.662	94.62
281.894	98.62
282.125	101.62
282.356	130.62
282.588	180.62
282.819	119.62
283.051	97.62
283.282	81.62
283.513	84.62
283.745	95.62
283.976	83.62
284.207	98.62
284.439	90.62
284.67	93.62
284.901	81.62
285.132	83.62
285.364	85.62
285.595	78.62
285.826	90.62
286.057	96.62
286.288	87.62
286.52	95.62
286.751	84.62
286.982	84.62
287.213	81.62
287.444	86.62
287.675	80.62
287.906	89.62
288.138	72.62
288.369	84.62
288.6	97.62
288.831	91.62
289.062	84.62
289.293	94.62
289.524	81.62
289.755	86.62
289.986	85.62
290.217	77.62
290.448	91.62
290.679	77.62
290.91	89.62
291.141	91.62
291.371	102.62
291.602	85.62
291.833	83.62
292.064	83.62
292.295	103.62
292.526	92.62
292.757	87.62
292.987	85.62
293.218	102.62
293.449	94.62
293.68	94.62
293.91	78.62
294.141	100.62
294.372	76.62
294.603	89.62
294.833	90.62
295.064	98.62
295.295	95.62
295.525	100.62
295.756	103.62
295.987	116.62
296.217	174.62
296.448	137.62
296.679	97.62
296.909	104.62
297.14	91.62
297.37	90.62
297.601	92.62
297.831	93.62
298.062	86.62
298.292	90.62
298.523	96.62
298.753	86.62
298.984	90.62
299.214	101.62
299.445	77.62
299.675	111.62
299.905	102.62
300.136	100.62
300.366	101.62
300.597	95.62
300.827	93.62
301.057	96.62
301.288	112.62
301.518	93.62
301.748	101.62
301.979	112.62
302.209	110.62
302.439	96.62
302.669	109.62
302.9	81.62
303.13	103.62
303.36	90.62
303.59	134.62
303.82	145.62
304.051	108.62
304.281	112.62
304.511	101.62
304.741	84.62
304.971	90.62
305.201	88.62
305.431	92.62
305.661	97.62
305.891	92.62
306.121	102.62
306.352	121.62
306.582	103.62
306.812	105.62
307.042	126.62
307.272	160.62
307.502	175.62
307.731	157.62
307.961	123.62
308.191	84.62
308.421	101.62
308.651	109.62
308.881	97.62
309.111	97.62
309.341	97.62
309.571	108.62
309.8	112.62
310.03	102.62
310.26	118.62
310.49	100.62
310.72	113.62
310.949	128.62
311.179	129.62
311.409	96.62
311.639	110.62
311.868	110.62
312.098	111.62
312.328	105.62
312.557	121.62
312.787	125.62
313.017	110.62
313.246	95.62
313.476	90.62
313.706	94.62
313.935	100.62
314.165	104.62
314.394	113.62
314.624	113.62
314.853	112.62
315.083	91.62
315.312	96.62
315.542	85.62
315.771	103.62
316.001	88.62
316.23	96.62
316.46	92.62
316.689	95.62
316.919	93.62
317.148	88.62
317.377	89.62
317.607	112.62
317.836	105.62
318.065	82.62
318.295	98.62
318.524	90.62
318.753	100.62
318.983	90.62
319.212	100.62
319.441	116.62
319.67	109.62
319.9	93.62
320.129	103.62
320.358	87.62
320.587	91.62
320.816	109.62
321.046	116.62
321.275	99.62
321.504	102.62
321.733	102.62
321.962	95.62
322.191	102.62
322.42	119.62
322.649	108.62
322.878	130.62
323.108	130.62
323.337	145.62
323.566	150.62
323.795	168.62
324.024	224.62
324.253	448.62
324.482	995.62
324.71	1980.62
324.939	2559.62
325.168	961.62
325.397	282.62
325.626	171.62
325.855	135.62
326.084	121.62
326.313	142.62
326.542	188.62
326.77	268.62
326.999	492.62
327.228	1028.62
327.457	1884.62
327.686	1496.62
327.914	558.62
328.143	548.62
328.372	704.62
328.6	378.62
328.829	211.62
329.058	207.62
329.287	208.62
329.515	185.62
329.744	258.62
329.972	508.62
330.201	1029.62
330.43	1563.62
330.658	676.62
330.887	329.62
331.115	200.62
331.344	132.62
331.572	117.62
331.801	130.62
332.03	119.62
332.258	126.62
332.486	114.62
332.715	106.62
332.943	122.62
333.172	106.62
333.4	143.62
333.629	160.62
333.857	231.62
334.085	460.62
334.314	969.62
334.542	1956.62
334.771	1812.62
334.999	448.62
335.227	191.62
335.455	119.62
335.684	110.62
335.912	101.62
336.14	116.62
336.369	115.62
336.597	114.62
336.825	124.62
337.053	118.62
337.281	95.62
337.51	112.62
337.738	113.62
337.966	108.62
338.194	117.62
338.422	104.62
338.65	112.62
338.878	106.62
339.106	106.62
339.334	81.62
339.562	102.62
339.79	85.62
340.018	97.62
340.246	100.62
340.474	97.62
340.702	100.62
340.93	100.62
341.158	102.62
341.386	113.62
341.614	110.62
341.842	104.62
342.07	82.62
342.298	96.62
342.526	98.62
342.754	92.62
342.981	85.62
343.209	100.62
343.437	111.62
343.665	108.62
343.893	99.62
344.12	95.62
344.348	88.62
344.576	106.62
344.804	105.62
345.031	111.62
345.259	110.62
345.487	111.62
345.714	112.62
345.942	102.62
346.17	93.62
346.397	85.62
346.625	88.62
346.853	109.62
347.08	94.62
347.308	99.62
347.535	99.62
347.763	111.62
347.99	121.62
348.218	117.62
348.445	117.62
348.673	85.62
348.9	97.62
349.128	92.62
349.355	100.62
349.583	98.62
349.81	87.62
350.037	104.62
350.265	100.62
350.492	102.62
350.72	90.62
350.947	97.62
351.174	121.62
351.402	108.62
351.629	107.62
351.856	101.62
352.083	115.62
352.311	109.62
352.538	128.62
352.765	133.62
352.992	140.62
353.22	112.62
353.447	118.62
353.674	101.62
353.901	89.62
354.128	91.62
354.355	92.62
354.583	100.62
354.81	92.62
355.037	93.62
355.264	104.62
355.491	86.62
355.718	92.62
355.945	86.62
356.172	101.62
356.399	89.62
356.626	98.62
356.853	98.62
357.08	89.62
357.307	82.62
357.534	98.62
357.761	85.62
357.988	86.62
358.215	84.62
358.441	94.62
358.668	109.62
358.895	91.62
359.122	95.62
359.349	94.62
359.576	82.62
359.802	122.62
360.029	141.62
360.256	132.62
360.483	115.62
360.709	96.62
360.936	94.62
361.163	105.62
361.39	109.62
361.616	100.62
361.843	96.62
362.07	89.62
362.296	103.62
362.523	106.62
362.749	100.62
362.976	92.62
363.203	99.62
363.429	86.62
363.656	93.62
363.882	106.62
364.109	96.62
364.335	102.62
364.562	93.62
364.788	98.62
365.015	85.62
365.241	96.62
365.468	104.62
365.694	115.62
365.92	102.62
366.147	104.62
366.373	94.62
366.599	93.62
366.826	99.62
367.052	101.62
367.278	87.62
367.505	96.62
367.731	89.62
367.957	82.62
368.184	93.62
368.41	103.62
368.636	124.62
368.862	135.62
369.089	116.62
369.315	100.62
369.541	102.62
369.767	100.62
369.993	86.62
370.219	84.62
370.445	89.62
370.672	88.62
370.898	90.62
371.124	101.62
371.35	96.62
371.576	95.62
371.802	84.62
372.028	83.62
372.254	80.62
372.48	95.62
372.706	101.62
372.932	94.62
373.158	89.62
373.384	94.62
373.61	88.62
373.835	90.62
374.061	92.62
374.287	78.62
374.513	89.62
374.739	82.62
374.965	81.62
375.191	70.62
375.416	84.62
375.642	85.62
375.868	96.62
376.094	86.62
376.319	86.62
376.545	85.62
376.771	79.62
376.997	106.62
377.222	93.62
377.448	94.62
377.674	95.62
377.899	92.62
378.125	80.62
378.35	74.62
378.576	69.62
378.802	85.62
379.027	98.62
379.253	94.62
379.478	87.62
379.704	84.62
379.929	82.62
380.155	83.62
380.38	91.62
380.606	85.62
380.831	93.62
381.057	90.62
381.282	95.62
381.507	82.62
381.733	101.62
381.958	82.62
382.184	88.62
382.409	93.62
382.634	109.62
382.86	82.62
383.085	101.62
383.31	88.62
383.535	92.62
383.761	97.62
383.986	102.62
384.211	94.62
384.436	98.62
384.662	88.62
384.887	87.62
385.112	100.62
385.337	103.62
385.562	95.62
385.787	88.62
386.013	90.62
386.238	105.62
386.463	111.62
386.688	107.62
386.913	99.62
387.138	90.62
387.363	101.62
387.588	100.62
387.813	105.62
388.038	108.62
388.263	109.62
388.488	110.62
388.713	94.62
388.938	96.62
389.163	104.62
389.387	91.62
389.612	77.62
389.837	86.62
390.062	90.62
390.287	83.62
390.512	98.62
390.736	87.62
390.961	92.62
391.186	93.62
391.411	108.62
391.636	83.62
391.86	93.62
392.085	74.62
392.31	80.62
392.534	96.62
392.759	72.62
392.984	92.62
393.208	82.62
393.433	89.62
393.658	99.62
393.882	92.62
394.107	68.62
394.331	76.62
394.556	84.62
394.78	83.62
395.005	71.62
395.229	96.62
395.454	84.62
395.678	96.62
395.903	86.62
396.127	79.62
396.352	89.62
396.576	92.62
396.801	93.62
397.025	81.62
397.249	88.62
397.474	95.62
397.698	87.62
397.922	86.62
398.147	88.62
398.371	87.62
398.595	86.62
398.82	78.62
399.044	103.62
399.268	95.62
399.492	93.62
399.717	84.62
399.941	83.62
400.165	93.62
400.389	105.62
400.613	92.62
400.837	87.62
401.062	82.62
401.286	90.62
401.51	88.62
401.734	110.62
401.958	102.62
402.182	141.62
402.406	196.62
402.63	156.62
402.854	97.62
403.078	80.62
403.302	97.62
403.526	81.62
403.75	83.62
403.974	83.62
404.198	88.62
404.422	98.62
404.645	89.62
404.869	95.62
405.093	125.62
405.317	141.62
405.541	148.62
405.765	128.62
405.988	142.62
406.212	221.62
406.436	313.62
406.66	216.62
406.883	124.62
407.107	102.62
407.331	93.62
407.555	106.62
407.778	108.62
408.002	99.62
408.226	91.62
408.449	88.62
408.673	106.62
408.896	99.62
409.12	104.62
409.344	91.62
409.567	63.62
409.791	92.62
410.014	89.62
410.238	89.62
410.461	81.62
410.685	92.62
410.908	90.62
411.132	109.62
411.355	96.62
411.578	87.62
411.802	69.62
412.025	95.62
412.249	103.62
412.472	121.62
412.695	137.62
412.919	120.62
413.142	86.62
413.365	106.62
413.589	85.62
413.812	81.62
414.035	94.62
414.258	92.62
414.482	92.62
414.705	90.62
414.928	95.62
415.151	79.62
415.374	99.62
415.597	90.62
415.821	81.62
416.044	94.62
416.267	95.62
416.49	103.62
416.713	95.62
416.936	96.62
417.159	94.62
417.382	97.62
417.605	112.62
417.828	101.62
418.051	87.62
418.274	81.62
418.497	105.62
418.72	85.62
418.943	103.62
419.166	87.62
419.389	82.62
419.611	90.62
419.834	108.62
420.057	99.62
420.28	102.62
420.503	93.62
420.726	81.62
420.948	89.62
421.171	102.62
421.394	96.62
421.617	102.62
421.839	94.62
422.062	79.62
422.285	99.62
422.507	109.62
422.73	115.62
422.953	112.62
423.175	79.62
423.398	87.62
423.621	106.62
423.843	102.62
424.066	83.62
424.288	88.62
424.511	98.62
424.733	111.62
424.956	122.62
425.178	118.62
425.401	112.62
425.623	112.62
425.846	82.62
426.068	107.62
426.291	97.62
426.513	98.62
426.735	96.62
426.958	101.62
427.18	124.62
427.402	171.62
427.625	264.62
427.847	246.62
428.069	218.62
428.292	108.62
428.514	96.62
428.736	81.62
428.958	79.62
429.181	98.62
429.403	76.62
429.625	86.62
429.847	107.62
430.069	107.62
430.292	90.62
430.514	89.62
430.736	84.62
430.958	91.62
431.18	83.62
431.402	86.62
431.624	84.62
431.846	89.62
432.068	79.62
432.29	93.62
432.512	94.62
432.734	98.62
432.956	86.62
433.178	87.62
433.4	94.62
433.622	88.62
433.844	80.62
434.066	90.62
434.287	81.62
434.509	86.62
434.731	92.62
434.953	98.62
435.175	87.62
435.397	93.62
435.618	96.62
435.84	107.62
436.062	150.62
436.284	120.62
436.505	111.62
436.727	113.62
436.949	91.62
437.17	80.62
437.392	79.62
437.614	94.62
437.835	142.62
438.057	136.62
438.278	140.62
438.5	129.62
438.721	134.62
438.943	112.62
439.165	76.62
439.386	102.62
439.608	97.62
439.829	116.62
440.05	156.62
440.272	189.62
440.493	110.62
440.715	94.62
440.936	84.62
441.158	93.62
441.379	96.62
441.6	95.62
441.822	96.62
442.043	90.62
442.264	128.62
442.486	112.62
442.707	104.62
442.928	116.62
443.149	176.62
443.371	175.62
443.592	125.62
443.813	142.62
444.034	117.62
444.255	92.62
444.476	98.62
444.698	93.62
444.919	103.62
445.14	118.62
445.361	136.62
445.582	152.62
445.803	179.62
446.024	182.62
446.245	167.62
446.466	132.62
446.687	91.62
446.908	80.62
447.129	94.62
447.35	86.62
447.571	94.62
447.792	91.62
448.013	113.62
448.234	124.62
448.455	114.62
448.675	154.62
448.896	121.62
449.117	108.62
449.338	116.62
449.559	140.62
449.779	159.62
450	110.62
450.221	80.62
450.442	91.62
450.662	94.62
450.883	125.62
451.104	147.62
451.324	118.62
451.545	90.62
451.766	93.62
451.986	80.62
452.207	76.62
452.428	98.62
452.648	109.62
452.869	118.62
453.089	128.62
453.31	132.62
453.53	100.62
453.751	90.62
453.971	115.62
454.192	135.62
454.412	114.62
454.633	88.62
454.853	86.62
455.073	99.62
455.294	98.62
455.514	112.62
455.734	95.62
455.955	66.62
456.175	87.62
456.395	98.62
456.616	84.62
456.836	98.62
457.056	86.62
457.276	78.62
457.497	86.62
457.717	85.62
457.937	81.62
458.157	100.62
458.377	94.62
458.598	129.62
458.818	217.62
459.038	230.62
459.258	152.62
459.478	90.62
459.698	80.62
459.918	94.62
460.138	89.62
460.358	78.62
460.578	91.62
460.798	93.62
461.018	90.62
461.238	90.62
461.458	89.62
461.678	85.62
461.898	88.62
462.118	77.62
462.338	90.62
462.558	85.62
462.777	94.62
462.997	104.62
463.217	124.62
463.437	95.62
463.657	89.62
463.876	95.62
464.096	82.62
464.316	97.62
464.536	87.62
464.755	101.62
464.975	141.62
465.195	237.62
465.414	241.62
465.634	120.62
465.854	98.62
466.073	84.62
466.293	84.62
466.512	86.62
466.732	100.62
466.951	90.62
467.171	98.62
467.391	119.62
467.61	154.62
467.829	221.62
468.049	576.62
468.268	874.62
468.488	228.62
468.707	109.62
468.927	85.62
469.146	96.62
469.365	98.62
469.585	98.62
469.804	105.62
470.023	100.62
470.243	95.62
470.462	110.62
470.681	166.62
470.901	104.62
471.12	102.62
471.339	111.62
471.558	112.62
471.777	150.62
471.997	306.62
472.216	1139.62
472.435	2616.62
472.654	618.62
472.873	165.62
473.092	105.62
473.311	92.62
473.53	94.62
473.749	95.62
473.968	116.62
474.187	117.62
474.406	114.62
474.625	96.62
474.844	89.62
475.063	81.62
475.282	88.62
475.501	99.62
475.72	98.62
475.939	88.62
476.158	95.62
476.377	99.62
476.596	89.62
476.814	108.62
477.033	101.62
477.252	94.62
477.471	96.62
477.69	100.62
477.908	91.62
478.127	85.62
478.346	92.62
478.564	102.62
478.783	98.62
479.002	104.62
479.22	109.62
479.439	123.62
479.658	128.62
479.876	117.62
480.095	115.62
480.313	131.62
480.532	169.62
480.751	276.62
480.969	1018.62
481.188	4448.62
481.406	2522.62
481.624	388.62
481.843	134.62
482.061	98.62
482.28	106.62
482.498	107.62
482.717	93.62
482.935	90.62
483.153	97.62
483.372	89.62
483.59	88.62
483.808	106.62
484.027	97.62
484.245	101.62
484.463	101.62
484.681	114.62
484.9	110.62
485.118	97.62
485.336	110.62
485.554	88.62
485.772	111.62
485.99	97.62
486.209	110.62
486.427	126.62
486.645	124.62
486.863	135.62
487.081	126.62
487.299	96.62
487.517	116.62
487.735	98.62
487.953	98.62
488.171	91.62
488.389	93.62
488.607	103.62
488.825	88.62
489.043	101.62
489.261	97.62
489.479	78.62
489.696	72.62
489.914	82.62
490.132	94.62
490.35	100.62
490.568	89.62
490.786	99.62
491.003	99.62
491.221	94.62
491.439	102.62
491.657	109.62
491.874	107.62
492.092	92.62
492.31	91.62
492.527	103.62
492.745	105.62
492.963	103.62
493.18	105.62
493.398	97.62
493.615	98.62
493.833	81.62
494.05	101.62
494.268	93.62
494.485	93.62
494.703	80.62
494.92	100.62
495.138	85.62
495.355	88.62
495.573	100.62
495.79	87.62
496.008	88.62
496.225	87.62
496.442	96.62
496.66	96.62
496.877	93.62
497.094	103.62
497.312	97.62
497.529	76.62
497.746	99.62
497.963	98.62
498.181	95.62
498.398	107.62
498.615	114.62
498.832	108.62
499.049	109.62
499.267	99.62
499.484	88.62
499.701	92.62
499.918	91.62
500.135	81.62
500.352	85.62
500.569	99.62
500.786	110.62
501.003	110.62
501.22	100.62
501.437	93.62
501.654	108.62
501.871	113.62
502.088	87.62
502.305	95.62
502.522	94.62
502.739	88.62
502.956	87.62
503.172	97.62
503.389	90.62
503.606	117.62
503.823	102.62
504.04	99.62
504.256	87.62
504.473	94.62
504.69	99.62
504.907	91.62
505.123	90.62
505.34	85.62
505.557	96.62
505.773	88.62
505.99	87.62
506.207	86.62
506.423	92.62
506.64	78.62
506.856	92.62
507.073	98.62
507.289	92.62
507.506	110.62
507.722	141.62
507.939	130.62
508.155	102.62
508.372	83.62
508.588	87.62
508.805	103.62
509.021	93.62
509.238	102.62
509.454	108.62
509.67	106.62
509.887	111.62
510.103	142.62
510.319	232.62
510.536	904.62
510.752	3126.62
510.968	812.62
511.184	174.62
511.401	125.62
511.617	117.62
511.833	114.62
512.049	95.62
512.265	95.62
512.481	94.62
512.698	102.62
512.914	93.62
