Data from Circ_1987_H10_HRD10591_00039.txt Node
Date: Wed Jan 03 12:10:40 EST 2024
User: Yrep
Spectrometer: HR+D1059
Trigger mode: 1
Integration Time (sec): 1.000000E-1
Scans to average: 1
Electric dark correction enabled: true
Nonlinearity correction enabled: false
Boxcar width: 0
XAxis mode: Wavelengths
Number of Pixels in Spectrum: 2048
>>>>>Begin Spectral Data<<<<<
223.165	-28.19
223.4	-28.19
223.635	-28.19
223.869	-13.19
224.104	-27.19
224.338	-5.19
224.573	-21.19
224.808	-7.19
225.042	-11.19
225.277	-13.19
225.511	-7.19
225.746	5.81
225.98	3.81
226.215	17.81
226.449	19.81
226.683	20.81
226.918	31.81
227.152	33.81
227.387	36.81
227.621	47.81
227.856	38.81
228.09	54.81
228.324	49.81
228.559	65.81
228.793	65.81
229.027	64.81
229.262	66.81
229.496	74.81
229.73	98.81
229.964	103.81
230.199	70.81
230.433	75.81
230.667	96.81
230.901	78.81
231.136	82.81
231.37	81.81
231.604	85.81
231.838	80.81
232.072	84.81
232.306	86.81
232.541	62.81
232.775	75.81
233.009	80.81
233.243	87.81
233.477	83.81
233.711	86.81
233.945	85.81
234.179	82.81
234.413	78.81
234.647	72.81
234.881	85.81
235.115	95.81
235.349	91.81
235.583	84.81
235.817	74.81
236.051	66.81
236.285	81.81
236.519	83.81
236.753	80.81
236.987	102.81
237.221	85.81
237.455	114.81
237.689	77.81
237.922	86.81
238.156	72.81
238.39	71.81
238.624	78.81
238.858	73.81
239.091	73.81
239.325	85.81
239.559	75.81
239.793	87.81
240.027	82.81
240.26	84.81
240.494	84.81
240.728	74.81
240.961	68.81
241.195	78.81
241.429	80.81
241.662	81.81
241.896	96.81
242.13	74.81
242.363	76.81
242.597	65.81
242.83	82.81
243.064	71.81
243.298	73.81
243.531	92.81
243.765	82.81
243.998	84.81
244.232	82.81
244.465	77.81
244.699	83.81
244.932	78.81
245.166	87.81
245.399	82.81
245.633	73.81
245.866	87.81
246.099	68.81
246.333	89.81
246.566	79.81
246.8	80.81
247.033	79.81
247.266	67.81
247.5	65.81
247.733	87.81
247.966	88.81
248.2	79.81
248.433	85.81
248.666	89.81
248.899	92.81
249.133	99.81
249.366	104.81
249.599	110.81
249.832	88.81
250.066	79.81
250.299	92.81
250.532	85.81
250.765	95.81
250.998	97.81
251.231	82.81
251.465	90.81
251.698	80.81
251.931	92.81
252.164	86.81
252.397	93.81
252.63	90.81
252.863	78.81
253.096	65.81
253.329	86.81
253.562	83.81
253.795	71.81
254.028	79.81
254.261	87.81
254.494	84.81
254.727	95.81
254.96	75.81
255.193	72.81
255.426	90.81
255.659	95.81
255.892	104.81
256.124	105.81
256.357	84.81
256.59	84.81
256.823	82.81
257.056	85.81
257.289	83.81
257.521	88.81
257.754	96.81
257.987	95.81
258.22	98.81
258.452	103.81
258.685	95.81
258.918	85.81
259.151	76.81
259.383	80.81
259.616	88.81
259.849	98.81
260.081	92.81
260.314	91.81
260.547	83.81
260.779	75.81
261.012	102.81
261.244	103.81
261.477	108.81
261.71	101.81
261.942	124.81
262.175	137.81
262.407	97.81
262.64	81.81
262.872	89.81
263.105	85.81
263.337	81.81
263.57	84.81
263.802	87.81
264.035	91.81
264.267	83.81
264.499	89.81
264.732	80.81
264.964	83.81
265.197	85.81
265.429	89.81
265.661	82.81
265.894	86.81
266.126	81.81
266.358	86.81
266.591	80.81
266.823	84.81
267.055	106.81
267.287	88.81
267.52	91.81
267.752	92.81
267.984	93.81
268.216	101.81
268.448	86.81
268.681	95.81
268.913	90.81
269.145	93.81
269.377	92.81
269.609	94.81
269.841	89.81
270.073	100.81
270.306	80.81
270.538	98.81
270.77	80.81
271.002	76.81
271.234	95.81
271.466	90.81
271.698	88.81
271.93	90.81
272.162	78.81
272.394	94.81
272.626	86.81
272.858	93.81
273.09	84.81
273.322	79.81
273.553	96.81
273.785	93.81
274.017	76.81
274.249	90.81
274.481	88.81
274.713	108.81
274.945	101.81
275.176	100.81
275.408	100.81
275.64	111.81
275.872	120.81
276.104	110.81
276.335	109.81
276.567	122.81
276.799	147.81
277.031	181.81
277.262	191.81
277.494	146.81
277.726	86.81
277.957	90.81
278.189	102.81
278.421	96.81
278.652	100.81
278.884	95.81
279.115	96.81
279.347	86.81
279.579	110.81
279.81	132.81
280.042	184.81
280.273	234.81
280.505	173.81
280.736	103.81
280.968	98.81
281.199	94.81
281.431	92.81
281.662	90.81
281.894	98.81
282.125	122.81
282.356	144.81
282.588	176.81
282.819	142.81
283.051	96.81
283.282	90.81
283.513	86.81
283.745	99.81
283.976	84.81
284.207	100.81
284.439	97.81
284.67	89.81
284.901	91.81
285.132	85.81
285.364	86.81
285.595	94.81
285.826	99.81
286.057	98.81
286.288	92.81
286.52	90.81
286.751	94.81
286.982	91.81
287.213	75.81
287.444	91.81
287.675	83.81
287.906	100.81
288.138	99.81
288.369	101.81
288.6	90.81
288.831	88.81
289.062	104.81
289.293	92.81
289.524	108.81
289.755	76.81
289.986	92.81
290.217	99.81
290.448	84.81
290.679	94.81
290.91	95.81
291.141	99.81
291.371	92.81
291.602	81.81
291.833	89.81
292.064	86.81
292.295	86.81
292.526	98.81
292.757	86.81
292.987	95.81
293.218	84.81
293.449	94.81
293.68	92.81
293.91	73.81
294.141	104.81
294.372	92.81
294.603	105.81
294.833	84.81
295.064	90.81
295.295	85.81
295.525	89.81
295.756	114.81
295.987	116.81
296.217	166.81
296.448	147.81
296.679	97.81
296.909	89.81
297.14	94.81
297.37	82.81
297.601	89.81
297.831	87.81
298.062	94.81
298.292	91.81
298.523	110.81
298.753	97.81
298.984	90.81
299.214	105.81
299.445	98.81
299.675	94.81
299.905	111.81
300.136	89.81
300.366	101.81
300.597	94.81
300.827	103.81
301.057	120.81
301.288	129.81
301.518	94.81
301.748	104.81
301.979	108.81
302.209	109.81
302.439	93.81
302.669	98.81
302.9	98.81
303.13	98.81
303.36	115.81
303.59	121.81
303.82	130.81
304.051	97.81
304.281	91.81
304.511	82.81
304.741	86.81
304.971	80.81
305.201	80.81
305.431	75.81
305.661	106.81
305.891	91.81
306.121	99.81
306.352	108.81
306.582	134.81
306.812	105.81
307.042	115.81
307.272	143.81
307.502	157.81
307.731	144.81
307.961	137.81
308.191	101.81
308.421	91.81
308.651	90.81
308.881	92.81
309.111	101.81
309.341	89.81
309.571	90.81
309.8	108.81
310.03	95.81
310.26	99.81
310.49	95.81
310.72	116.81
310.949	132.81
311.179	112.81
311.409	90.81
311.639	97.81
311.868	118.81
312.098	120.81
312.328	114.81
312.557	106.81
312.787	126.81
313.017	114.81
313.246	97.81
313.476	82.81
313.706	98.81
313.935	104.81
314.165	114.81
314.394	118.81
314.624	96.81
314.853	110.81
315.083	86.81
315.312	111.81
315.542	80.81
315.771	87.81
316.001	96.81
316.23	94.81
316.46	87.81
316.689	89.81
316.919	112.81
317.148	103.81
317.377	98.81
317.607	104.81
317.836	98.81
318.065	90.81
318.295	95.81
318.524	103.81
318.753	96.81
318.983	111.81
319.212	112.81
319.441	120.81
319.67	115.81
319.9	94.81
320.129	90.81
320.358	90.81
320.587	101.81
320.816	102.81
321.046	106.81
321.275	92.81
321.504	99.81
321.733	89.81
321.962	100.81
322.191	100.81
322.42	116.81
322.649	120.81
322.878	126.81
323.108	135.81
323.337	150.81
323.566	170.81
323.795	190.81
324.024	214.81
324.253	434.81
324.482	870.81
324.71	1826.81
324.939	2385.81
325.168	908.81
325.397	290.81
325.626	161.81
325.855	141.81
326.084	150.81
326.313	143.81
326.542	160.81
326.77	249.81
326.999	464.81
327.228	959.81
327.457	1716.81
327.686	1409.81
327.914	490.81
328.143	476.81
328.372	623.81
328.6	342.81
328.829	191.81
329.058	208.81
329.287	199.81
329.515	179.81
329.744	243.81
329.972	443.81
330.201	876.81
330.43	1334.81
330.658	617.81
330.887	292.81
331.115	200.81
331.344	130.81
331.572	108.81
331.801	136.81
332.03	130.81
332.258	109.81
332.486	97.81
332.715	107.81
332.943	105.81
333.172	118.81
333.4	130.81
333.629	161.81
333.857	237.81
334.085	388.81
334.314	817.81
334.542	1666.81
334.771	1534.81
334.999	427.81
335.227	181.81
335.455	107.81
335.684	121.81
335.912	112.81
336.14	107.81
336.369	108.81
336.597	120.81
336.825	112.81
337.053	99.81
337.281	113.81
337.51	102.81
337.738	109.81
337.966	100.81
338.194	113.81
338.422	105.81
338.65	104.81
338.878	97.81
339.106	87.81
339.334	94.81
339.562	105.81
339.79	101.81
340.018	90.81
340.246	96.81
340.474	107.81
340.702	94.81
340.93	100.81
341.158	96.81
341.386	106.81
341.614	116.81
341.842	103.81
342.07	87.81
342.298	106.81
342.526	94.81
342.754	95.81
342.981	100.81
343.209	103.81
343.437	103.81
343.665	94.81
343.893	97.81
344.12	98.81
344.348	97.81
344.576	95.81
344.804	101.81
345.031	121.81
345.259	113.81
345.487	87.81
345.714	99.81
345.942	90.81
346.17	98.81
346.397	96.81
346.625	103.81
346.853	98.81
347.08	98.81
347.308	103.81
347.535	103.81
347.763	119.81
347.99	110.81
348.218	109.81
348.445	118.81
348.673	105.81
348.9	101.81
349.128	100.81
349.355	100.81
349.583	101.81
349.81	92.81
350.037	94.81
350.265	104.81
350.492	95.81
350.72	96.81
350.947	117.81
351.174	112.81
351.402	115.81
351.629	124.81
351.856	112.81
352.083	105.81
352.311	114.81
352.538	115.81
352.765	137.81
352.992	115.81
353.22	116.81
353.447	120.81
353.674	109.81
353.901	94.81
354.128	102.81
354.355	97.81
354.583	108.81
354.81	104.81
355.037	107.81
355.264	107.81
355.491	97.81
355.718	92.81
355.945	96.81
356.172	82.81
356.399	83.81
356.626	91.81
356.853	94.81
357.08	93.81
357.307	88.81
357.534	85.81
357.761	113.81
357.988	100.81
358.215	91.81
358.441	100.81
358.668	96.81
358.895	90.81
359.122	93.81
359.349	93.81
359.576	107.81
359.802	124.81
360.029	139.81
360.256	145.81
360.483	112.81
360.709	102.81
360.936	93.81
361.163	95.81
361.39	104.81
361.616	99.81
361.843	100.81
362.07	100.81
362.296	115.81
362.523	93.81
362.749	101.81
362.976	107.81
363.203	91.81
363.429	108.81
363.656	96.81
363.882	91.81
364.109	91.81
364.335	99.81
364.562	89.81
364.788	99.81
365.015	95.81
365.241	105.81
365.468	110.81
365.694	124.81
365.92	116.81
366.147	92.81
366.373	89.81
366.599	107.81
366.826	88.81
367.052	103.81
367.278	83.81
367.505	91.81
367.731	102.81
367.957	95.81
368.184	91.81
368.41	108.81
368.636	134.81
368.862	134.81
369.089	120.81
369.315	89.81
369.541	102.81
369.767	83.81
369.993	107.81
370.219	105.81
370.445	82.81
370.672	99.81
370.898	84.81
371.124	97.81
371.35	83.81
371.576	97.81
371.802	98.81
372.028	83.81
372.254	80.81
372.48	95.81
372.706	84.81
372.932	101.81
373.158	94.81
373.384	90.81
373.61	94.81
373.835	91.81
374.061	98.81
374.287	88.81
374.513	105.81
374.739	95.81
374.965	82.81
375.191	88.81
375.416	103.81
375.642	98.81
375.868	100.81
376.094	100.81
376.319	74.81
376.545	96.81
376.771	81.81
376.997	100.81
377.222	87.81
377.448	94.81
377.674	100.81
377.899	103.81
378.125	79.81
378.35	78.81
378.576	82.81
378.802	110.81
379.027	93.81
379.253	92.81
379.478	82.81
379.704	91.81
379.929	87.81
380.155	88.81
380.38	83.81
380.606	92.81
380.831	103.81
381.057	96.81
381.282	99.81
381.507	105.81
381.733	96.81
381.958	97.81
382.184	91.81
382.409	103.81
382.634	87.81
382.86	97.81
383.085	106.81
383.31	97.81
383.535	103.81
383.761	103.81
383.986	99.81
384.211	96.81
384.436	96.81
384.662	104.81
384.887	113.81
385.112	107.81
385.337	113.81
385.562	107.81
385.787	118.81
386.013	104.81
386.238	129.81
386.463	108.81
386.688	118.81
386.913	116.81
387.138	104.81
387.363	85.81
387.588	104.81
387.813	96.81
388.038	114.81
388.263	102.81
388.488	106.81
388.713	82.81
388.938	101.81
389.163	96.81
389.387	101.81
389.612	79.81
389.837	86.81
390.062	88.81
390.287	89.81
390.512	98.81
390.736	73.81
390.961	98.81
391.186	97.81
391.411	79.81
391.636	97.81
391.86	88.81
392.085	94.81
392.31	108.81
392.534	104.81
392.759	75.81
392.984	102.81
393.208	88.81
393.433	75.81
393.658	96.81
393.882	88.81
394.107	76.81
394.331	80.81
394.556	98.81
394.78	96.81
395.005	86.81
395.229	91.81
395.454	85.81
395.678	92.81
395.903	101.81
396.127	101.81
396.352	93.81
396.576	94.81
396.801	89.81
397.025	82.81
397.249	95.81
397.474	86.81
397.698	96.81
397.922	97.81
398.147	99.81
398.371	75.81
398.595	90.81
398.82	101.81
399.044	92.81
399.268	88.81
399.492	100.81
399.717	88.81
399.941	95.81
400.165	103.81
400.389	98.81
400.613	103.81
400.837	93.81
401.062	77.81
401.286	85.81
401.51	91.81
401.734	98.81
401.958	124.81
402.182	122.81
402.406	180.81
402.63	166.81
402.854	107.81
403.078	108.81
403.302	94.81
403.526	108.81
403.75	90.81
403.974	85.81
404.198	91.81
404.422	90.81
404.645	98.81
404.869	109.81
405.093	121.81
405.317	128.81
405.541	141.81
405.765	120.81
405.988	135.81
406.212	188.81
406.436	304.81
406.66	211.81
406.883	131.81
407.107	116.81
407.331	102.81
407.555	108.81
407.778	103.81
408.002	106.81
408.226	78.81
408.449	103.81
408.673	99.81
408.896	102.81
409.12	104.81
409.344	112.81
409.567	84.81
409.791	86.81
410.014	91.81
410.238	107.81
410.461	104.81
410.685	91.81
410.908	106.81
411.132	120.81
411.355	91.81
411.578	98.81
411.802	82.81
412.025	90.81
412.249	95.81
412.472	130.81
412.695	154.81
412.919	119.81
413.142	84.81
413.365	92.81
413.589	98.81
413.812	98.81
414.035	103.81
414.258	98.81
414.482	99.81
414.705	92.81
414.928	87.81
415.151	97.81
415.374	80.81
415.597	93.81
415.821	89.81
416.044	103.81
416.267	98.81
416.49	90.81
416.713	82.81
416.936	94.81
417.159	99.81
417.382	90.81
417.605	103.81
417.828	111.81
418.051	100.81
418.274	81.81
418.497	92.81
418.72	90.81
418.943	85.81
419.166	92.81
419.389	92.81
419.611	87.81
419.834	91.81
420.057	108.81
420.28	111.81
420.503	100.81
420.726	99.81
420.948	100.81
421.171	103.81
421.394	94.81
421.617	80.81
421.839	95.81
422.062	101.81
422.285	93.81
422.507	99.81
422.73	96.81
422.953	98.81
423.175	92.81
423.398	90.81
423.621	95.81
423.843	91.81
424.066	78.81
424.288	96.81
424.511	97.81
424.733	113.81
424.956	119.81
425.178	107.81
425.401	92.81
425.623	107.81
425.846	83.81
426.068	106.81
426.291	94.81
426.513	97.81
426.735	108.81
426.958	111.81
427.18	125.81
427.402	186.81
427.625	254.81
427.847	219.81
428.069	216.81
428.292	117.81
428.514	89.81
428.736	90.81
428.958	92.81
429.181	83.81
429.403	80.81
429.625	94.81
429.847	105.81
430.069	104.81
430.292	101.81
430.514	105.81
430.736	81.81
430.958	85.81
431.18	103.81
431.402	89.81
431.624	93.81
431.846	95.81
432.068	91.81
432.29	88.81
432.512	94.81
432.734	98.81
432.956	85.81
433.178	100.81
433.4	91.81
433.622	85.81
433.844	92.81
434.066	103.81
434.287	94.81
434.509	82.81
434.731	96.81
434.953	70.81
435.175	97.81
435.397	91.81
435.618	104.81
435.84	109.81
436.062	134.81
436.284	128.81
436.505	99.81
436.727	117.81
436.949	107.81
437.17	86.81
437.392	86.81
437.614	106.81
437.835	129.81
438.057	162.81
438.278	140.81
438.5	126.81
438.721	144.81
438.943	100.81
439.165	86.81
439.386	89.81
439.608	90.81
439.829	109.81
440.05	154.81
440.272	176.81
440.493	122.81
440.715	103.81
440.936	98.81
441.158	81.81
441.379	93.81
441.6	87.81
441.822	120.81
442.043	109.81
442.264	128.81
442.486	110.81
442.707	108.81
442.928	125.81
443.149	177.81
443.371	171.81
443.592	131.81
443.813	147.81
444.034	140.81
444.255	94.81
444.476	93.81
444.698	87.81
444.919	93.81
445.14	136.81
445.361	128.81
445.582	135.81
445.803	215.81
446.024	190.81
446.245	168.81
446.466	121.81
446.687	105.81
446.908	96.81
447.129	96.81
447.35	111.81
447.571	101.81
447.792	98.81
448.013	106.81
448.234	105.81
448.455	116.81
448.675	135.81
448.896	126.81
449.117	107.81
449.338	119.81
449.559	151.81
449.779	167.81
450	108.81
450.221	114.81
450.442	88.81
450.662	107.81
450.883	113.81
451.104	136.81
451.324	104.81
451.545	97.81
451.766	81.81
451.986	87.81
452.207	93.81
452.428	102.81
452.648	105.81
452.869	113.81
453.089	144.81
453.31	134.81
453.53	106.81
453.751	99.81
453.971	114.81
454.192	126.81
454.412	92.81
454.633	90.81
454.853	103.81
455.073	105.81
455.294	107.81
455.514	124.81
455.734	84.81
455.955	89.81
456.175	100.81
456.395	102.81
456.616	71.81
456.836	83.81
457.056	98.81
457.276	98.81
457.497	79.81
457.717	98.81
457.937	102.81
458.157	97.81
458.377	102.81
458.598	131.81
458.818	206.81
459.038	224.81
459.258	142.81
459.478	97.81
459.698	85.81
459.918	97.81
460.138	96.81
460.358	96.81
460.578	98.81
460.798	99.81
461.018	98.81
461.238	82.81
461.458	91.81
461.678	96.81
461.898	94.81
462.118	91.81
462.338	86.81
462.558	82.81
462.777	87.81
462.997	97.81
463.217	120.81
463.437	115.81
463.657	64.81
463.876	92.81
464.096	102.81
464.316	100.81
464.536	94.81
464.755	101.81
464.975	132.81
465.195	222.81
465.414	246.81
465.634	120.81
465.854	108.81
466.073	84.81
466.293	88.81
466.512	97.81
466.732	85.81
466.951	87.81
467.171	127.81
467.391	114.81
467.61	140.81
467.829	185.81
468.049	501.81
468.268	710.81
468.488	206.81
468.707	107.81
468.927	85.81
469.146	98.81
469.365	108.81
469.585	91.81
469.804	120.81
470.023	116.81
470.243	103.81
470.462	119.81
470.681	134.81
470.901	115.81
471.12	97.81
471.339	113.81
471.558	111.81
471.777	159.81
471.997	252.81
472.216	932.81
472.435	2176.81
472.654	516.81
472.873	151.81
473.092	109.81
473.311	98.81
473.53	88.81
473.749	101.81
473.968	109.81
474.187	127.81
474.406	122.81
474.625	90.81
474.844	92.81
475.063	95.81
475.282	94.81
475.501	91.81
475.72	84.81
475.939	92.81
476.158	79.81
476.377	87.81
476.596	95.81
476.814	107.81
477.033	108.81
477.252	95.81
477.471	87.81
477.69	99.81
477.908	98.81
478.127	97.81
478.346	102.81
478.564	94.81
478.783	122.81
479.002	114.81
479.22	125.81
479.439	114.81
479.658	136.81
479.876	108.81
480.095	126.81
480.313	113.81
480.532	154.81
480.751	255.81
480.969	875.81
481.188	3774.81
481.406	2124.81
481.624	328.81
481.843	141.81
482.061	104.81
482.28	107.81
482.498	103.81
482.717	96.81
482.935	89.81
483.153	93.81
483.372	98.81
483.59	91.81
483.808	80.81
484.027	97.81
484.245	101.81
484.463	107.81
484.681	95.81
484.9	99.81
485.118	107.81
485.336	104.81
485.554	114.81
485.772	110.81
485.99	116.81
486.209	114.81
486.427	114.81
486.645	117.81
486.863	137.81
487.081	119.81
487.299	104.81
487.517	100.81
487.735	96.81
487.953	106.81
488.171	93.81
488.389	91.81
488.607	110.81
488.825	98.81
489.043	88.81
489.261	94.81
489.479	76.81
489.696	88.81
489.914	95.81
490.132	91.81
490.35	98.81
490.568	97.81
490.786	91.81
491.003	100.81
491.221	94.81
491.439	98.81
491.657	105.81
491.874	107.81
492.092	95.81
492.31	94.81
492.527	105.81
492.745	106.81
492.963	92.81
493.18	111.81
493.398	92.81
493.615	106.81
493.833	99.81
494.05	114.81
494.268	91.81
494.485	97.81
494.703	91.81
494.92	86.81
495.138	87.81
495.355	82.81
495.573	103.81
495.79	102.81
496.008	84.81
496.225	106.81
496.442	94.81
496.66	104.81
496.877	104.81
497.094	104.81
497.312	101.81
497.529	97.81
497.746	102.81
497.963	101.81
498.181	89.81
498.398	102.81
498.615	103.81
498.832	112.81
499.049	88.81
499.267	106.81
499.484	94.81
499.701	117.81
499.918	101.81
500.135	91.81
500.352	100.81
500.569	99.81
500.786	104.81
501.003	106.81
501.22	98.81
501.437	96.81
501.654	112.81
501.871	132.81
502.088	95.81
502.305	93.81
502.522	88.81
502.739	89.81
502.956	107.81
503.172	99.81
503.389	106.81
503.606	136.81
503.823	112.81
504.04	101.81
504.256	100.81
504.473	99.81
504.69	104.81
504.907	99.81
505.123	94.81
505.34	98.81
505.557	97.81
505.773	100.81
505.99	92.81
506.207	94.81
506.423	102.81
506.64	84.81
506.856	79.81
507.073	97.81
507.289	100.81
507.506	108.81
507.722	138.81
507.939	134.81
508.155	104.81
508.372	92.81
508.588	91.81
508.805	89.81
509.021	107.81
509.238	101.81
509.454	94.81
509.67	108.81
509.887	108.81
510.103	150.81
510.319	251.81
510.536	850.81
510.752	3042.81
510.968	815.81
511.184	182.81
511.401	122.81
511.617	121.81
511.833	105.81
512.049	95.81
