Data from Circ_1987_H10_HRD10591_00032.txt Node
Date: Wed Jan 03 12:10:39 EST 2024
User: Yrep
Spectrometer: HR+D1059
Trigger mode: 1
Integration Time (sec): 1.000000E-1
Scans to average: 1
Electric dark correction enabled: true
Nonlinearity correction enabled: false
Boxcar width: 0
XAxis mode: Wavelengths
Number of Pixels in Spectrum: 2048
>>>>>Begin Spectral Data<<<<<
223.165	-26.56
223.4	-26.56
223.635	-26.56
223.869	-24.56
224.104	-8.56
224.338	-8.56
224.573	-9.56
224.808	-9.56
225.042	-4.56
225.277	-13.56
225.511	-8.56
225.746	-0.56
225.98	2.44
226.215	9.44
226.449	25.44
226.683	19.44
226.918	24.44
227.152	33.44
227.387	38.44
227.621	42.44
227.856	31.44
228.09	39.44
228.324	46.44
228.559	55.44
228.793	56.44
229.027	67.44
229.262	81.44
229.496	77.44
229.73	82.44
229.964	83.44
230.199	67.44
230.433	74.44
230.667	76.44
230.901	74.44
231.136	73.44
231.37	93.44
231.604	85.44
231.838	83.44
232.072	92.44
232.306	90.44
232.541	83.44
232.775	65.44
233.009	67.44
233.243	76.44
233.477	77.44
233.711	93.44
233.945	65.44
234.179	83.44
234.413	83.44
234.647	85.44
234.881	70.44
235.115	99.44
235.349	68.44
235.583	83.44
235.817	77.44
236.051	82.44
236.285	84.44
236.519	88.44
236.753	79.44
236.987	89.44
237.221	74.44
237.455	91.44
237.689	89.44
237.922	77.44
238.156	84.44
238.39	78.44
238.624	69.44
238.858	66.44
239.091	88.44
239.325	77.44
239.559	75.44
239.793	75.44
240.027	85.44
240.26	99.44
240.494	74.44
240.728	88.44
240.961	77.44
241.195	83.44
241.429	75.44
241.662	83.44
241.896	83.44
242.13	72.44
242.363	78.44
242.597	73.44
242.83	77.44
243.064	78.44
243.298	82.44
243.531	82.44
243.765	72.44
243.998	78.44
244.232	92.44
244.465	83.44
244.699	84.44
244.932	87.44
245.166	84.44
245.399	79.44
245.633	83.44
245.866	85.44
246.099	67.44
246.333	81.44
246.566	74.44
246.8	82.44
247.033	90.44
247.266	83.44
247.5	68.44
247.733	77.44
247.966	90.44
248.2	84.44
248.433	84.44
248.666	69.44
248.899	89.44
249.133	88.44
249.366	94.44
249.599	102.44
249.832	93.44
250.066	69.44
250.299	64.44
250.532	85.44
250.765	85.44
250.998	77.44
251.231	71.44
251.465	86.44
251.698	78.44
251.931	79.44
252.164	86.44
252.397	80.44
252.63	73.44
252.863	90.44
253.096	77.44
253.329	102.44
253.562	82.44
253.795	80.44
254.028	86.44
254.261	80.44
254.494	83.44
254.727	88.44
254.96	85.44
255.193	89.44
255.426	78.44
255.659	84.44
255.892	94.44
256.124	96.44
256.357	77.44
256.59	78.44
256.823	71.44
257.056	81.44
257.289	77.44
257.521	96.44
257.754	90.44
257.987	71.44
258.22	91.44
258.452	79.44
258.685	89.44
258.918	85.44
259.151	102.44
259.383	87.44
259.616	86.44
259.849	92.44
260.081	97.44
260.314	79.44
260.547	81.44
260.779	95.44
261.012	96.44
261.244	105.44
261.477	81.44
261.71	113.44
261.942	121.44
262.175	128.44
262.407	79.44
262.64	87.44
262.872	83.44
263.105	95.44
263.337	93.44
263.57	76.44
263.802	90.44
264.035	87.44
264.267	79.44
264.499	71.44
264.732	100.44
264.964	82.44
265.197	92.44
265.429	88.44
265.661	83.44
265.894	89.44
266.126	96.44
266.358	89.44
266.591	82.44
266.823	94.44
267.055	79.44
267.287	79.44
267.52	94.44
267.752	98.44
267.984	68.44
268.216	66.44
268.448	83.44
268.681	94.44
268.913	85.44
269.145	90.44
269.377	88.44
269.609	91.44
269.841	84.44
270.073	93.44
270.306	87.44
270.538	82.44
270.77	87.44
271.002	95.44
271.234	95.44
271.466	92.44
271.698	79.44
271.93	88.44
272.162	87.44
272.394	80.44
272.626	81.44
272.858	75.44
273.09	84.44
273.322	89.44
273.553	102.44
273.785	74.44
274.017	93.44
274.249	86.44
274.481	95.44
274.713	88.44
274.945	86.44
275.176	91.44
275.408	92.44
275.64	109.44
275.872	121.44
276.104	102.44
276.335	93.44
276.567	113.44
276.799	137.44
277.031	143.44
277.262	146.44
277.494	125.44
277.726	99.44
277.957	99.44
278.189	98.44
278.421	90.44
278.652	81.44
278.884	87.44
279.115	88.44
279.347	85.44
279.579	94.44
279.81	103.44
280.042	142.44
280.273	183.44
280.505	127.44
280.736	86.44
280.968	87.44
281.199	88.44
281.431	87.44
281.662	88.44
281.894	93.44
282.125	103.44
282.356	122.44
282.588	147.44
282.819	125.44
283.051	93.44
283.282	102.44
283.513	97.44
283.745	86.44
283.976	88.44
284.207	93.44
284.439	91.44
284.67	99.44
284.901	83.44
285.132	85.44
285.364	97.44
285.595	89.44
285.826	91.44
286.057	110.44
286.288	95.44
286.52	93.44
286.751	94.44
286.982	93.44
287.213	90.44
287.444	82.44
287.675	91.44
287.906	93.44
288.138	84.44
288.369	110.44
288.6	91.44
288.831	87.44
289.062	104.44
289.293	96.44
289.524	90.44
289.755	95.44
289.986	89.44
290.217	76.44
290.448	76.44
290.679	93.44
290.91	73.44
291.141	93.44
291.371	79.44
291.602	82.44
291.833	87.44
292.064	93.44
292.295	97.44
292.526	77.44
292.757	93.44
292.987	93.44
293.218	79.44
293.449	97.44
293.68	86.44
293.91	92.44
294.141	83.44
294.372	101.44
294.603	103.44
294.833	96.44
295.064	100.44
295.295	94.44
295.525	94.44
295.756	98.44
295.987	118.44
296.217	145.44
296.448	139.44
296.679	88.44
296.909	99.44
297.14	86.44
297.37	91.44
297.601	88.44
297.831	80.44
298.062	84.44
298.292	98.44
298.523	103.44
298.753	94.44
298.984	81.44
299.214	103.44
299.445	107.44
299.675	85.44
299.905	96.44
300.136	95.44
300.366	86.44
300.597	100.44
300.827	93.44
301.057	103.44
301.288	105.44
301.518	97.44
301.748	93.44
301.979	104.44
302.209	100.44
302.439	101.44
302.669	81.44
302.9	94.44
303.13	83.44
303.36	97.44
303.59	110.44
303.82	130.44
304.051	99.44
304.281	82.44
304.511	94.44
304.741	94.44
304.971	102.44
305.201	101.44
305.431	94.44
305.661	90.44
305.891	95.44
306.121	99.44
306.352	100.44
306.582	123.44
306.812	118.44
307.042	98.44
307.272	137.44
307.502	146.44
307.731	143.44
307.961	117.44
308.191	91.44
308.421	93.44
308.651	82.44
308.881	98.44
309.111	87.44
309.341	96.44
309.571	101.44
309.8	77.44
310.03	86.44
310.26	99.44
310.49	93.44
310.72	100.44
310.949	123.44
311.179	103.44
311.409	83.44
311.639	105.44
311.868	102.44
312.098	113.44
312.328	92.44
312.557	101.44
312.787	119.44
313.017	120.44
313.246	94.44
313.476	94.44
313.706	92.44
313.935	98.44
314.165	105.44
314.394	114.44
314.624	126.44
314.853	101.44
315.083	102.44
315.312	103.44
315.542	96.44
315.771	85.44
316.001	80.44
316.23	79.44
316.46	83.44
316.689	96.44
316.919	94.44
317.148	99.44
317.377	102.44
317.607	93.44
317.836	91.44
318.065	92.44
318.295	98.44
318.524	89.44
318.753	99.44
318.983	100.44
319.212	100.44
319.441	103.44
319.67	112.44
319.9	100.44
320.129	95.44
320.358	87.44
320.587	116.44
320.816	109.44
321.046	90.44
321.275	93.44
321.504	93.44
321.733	93.44
321.962	105.44
322.191	104.44
322.42	115.44
322.649	121.44
322.878	118.44
323.108	115.44
323.337	141.44
323.566	145.44
323.795	167.44
324.024	217.44
324.253	402.44
324.482	864.44
324.71	1789.44
324.939	2372.44
325.168	869.44
325.397	264.44
325.626	161.44
325.855	127.44
326.084	125.44
326.313	139.44
326.542	150.44
326.77	234.44
326.999	467.44
327.228	940.44
327.457	1738.44
327.686	1437.44
327.914	459.44
328.143	391.44
328.372	482.44
328.6	299.44
328.829	169.44
329.058	193.44
329.287	170.44
329.515	148.44
329.744	207.44
329.972	358.44
330.201	718.44
330.43	1006.44
330.658	492.44
330.887	233.44
331.115	159.44
331.344	110.44
331.572	116.44
331.801	104.44
332.03	96.44
332.258	109.44
332.486	91.44
332.715	121.44
332.943	98.44
333.172	117.44
333.4	108.44
333.629	139.44
333.857	183.44
334.085	332.44
334.314	630.44
334.542	1250.44
334.771	1192.44
334.999	337.44
335.227	144.44
335.455	111.44
335.684	118.44
335.912	107.44
336.14	105.44
336.369	93.44
336.597	103.44
336.825	94.44
337.053	105.44
337.281	89.44
337.51	98.44
337.738	79.44
337.966	82.44
338.194	113.44
338.422	116.44
338.65	89.44
338.878	103.44
339.106	89.44
339.334	89.44
339.562	95.44
339.79	100.44
340.018	91.44
340.246	92.44
340.474	106.44
340.702	98.44
340.93	88.44
341.158	98.44
341.386	99.44
341.614	103.44
341.842	100.44
342.07	97.44
342.298	94.44
342.526	99.44
342.754	91.44
342.981	80.44
343.209	99.44
343.437	103.44
343.665	103.44
343.893	80.44
344.12	93.44
344.348	94.44
344.576	97.44
344.804	96.44
345.031	118.44
345.259	103.44
345.487	88.44
345.714	101.44
345.942	90.44
346.17	90.44
346.397	97.44
346.625	100.44
346.853	99.44
347.08	113.44
347.308	107.44
347.535	98.44
347.763	111.44
347.99	101.44
348.218	113.44
348.445	103.44
348.673	106.44
348.9	87.44
349.128	93.44
349.355	81.44
349.583	101.44
349.81	98.44
350.037	84.44
350.265	102.44
350.492	96.44
350.72	90.44
350.947	106.44
351.174	131.44
351.402	107.44
351.629	103.44
351.856	102.44
352.083	111.44
352.311	106.44
352.538	118.44
352.765	97.44
352.992	115.44
353.22	123.44
353.447	116.44
353.674	94.44
353.901	80.44
354.128	89.44
354.355	102.44
354.583	105.44
354.81	100.44
355.037	97.44
355.264	86.44
355.491	93.44
355.718	87.44
355.945	86.44
356.172	85.44
356.399	91.44
356.626	109.44
356.853	83.44
357.08	89.44
357.307	83.44
357.534	102.44
357.761	83.44
357.988	103.44
358.215	103.44
358.441	86.44
358.668	98.44
358.895	99.44
359.122	95.44
359.349	97.44
359.576	95.44
359.802	87.44
360.029	131.44
360.256	136.44
360.483	88.44
360.709	81.44
360.936	96.44
361.163	114.44
361.39	93.44
361.616	107.44
361.843	78.44
362.07	107.44
362.296	108.44
362.523	109.44
362.749	104.44
362.976	84.44
363.203	97.44
363.429	79.44
363.656	108.44
363.882	79.44
364.109	79.44
364.335	92.44
364.562	90.44
364.788	105.44
365.015	88.44
365.241	101.44
365.468	107.44
365.694	99.44
365.92	107.44
366.147	82.44
366.373	92.44
366.599	95.44
366.826	103.44
367.052	78.44
367.278	102.44
367.505	88.44
367.731	78.44
367.957	86.44
368.184	101.44
368.41	112.44
368.636	106.44
368.862	122.44
369.089	115.44
369.315	89.44
369.541	100.44
369.767	98.44
369.993	100.44
370.219	99.44
370.445	85.44
370.672	89.44
370.898	84.44
371.124	99.44
371.35	97.44
371.576	94.44
371.802	83.44
372.028	83.44
372.254	88.44
372.48	81.44
372.706	86.44
372.932	105.44
373.158	75.44
373.384	95.44
373.61	90.44
373.835	80.44
374.061	106.44
374.287	96.44
374.513	95.44
374.739	109.44
374.965	80.44
375.191	85.44
375.416	89.44
375.642	97.44
375.868	79.44
376.094	91.44
376.319	91.44
376.545	93.44
376.771	89.44
376.997	91.44
377.222	89.44
377.448	104.44
377.674	90.44
377.899	86.44
378.125	86.44
378.35	93.44
378.576	88.44
378.802	100.44
379.027	94.44
379.253	85.44
379.478	84.44
379.704	95.44
379.929	97.44
380.155	104.44
380.38	99.44
380.606	105.44
380.831	100.44
381.057	92.44
381.282	94.44
381.507	80.44
381.733	89.44
381.958	110.44
382.184	95.44
382.409	95.44
382.634	86.44
382.86	94.44
383.085	104.44
383.31	87.44
383.535	83.44
383.761	88.44
383.986	96.44
384.211	100.44
384.436	103.44
384.662	107.44
384.887	103.44
385.112	105.44
385.337	101.44
385.562	119.44
385.787	110.44
386.013	101.44
386.238	115.44
386.463	99.44
386.688	98.44
386.913	93.44
387.138	110.44
387.363	99.44
387.588	113.44
387.813	92.44
388.038	104.44
388.263	114.44
388.488	105.44
388.713	101.44
388.938	97.44
389.163	97.44
389.387	102.44
389.612	71.44
389.837	91.44
390.062	92.44
390.287	96.44
390.512	90.44
390.736	90.44
390.961	78.44
391.186	81.44
391.411	71.44
391.636	90.44
391.86	96.44
392.085	89.44
392.31	99.44
392.534	88.44
392.759	85.44
392.984	85.44
393.208	87.44
393.433	88.44
393.658	94.44
393.882	91.44
394.107	95.44
394.331	78.44
394.556	82.44
394.78	86.44
395.005	90.44
395.229	77.44
395.454	95.44
395.678	89.44
395.903	83.44
396.127	106.44
396.352	88.44
396.576	85.44
396.801	80.44
397.025	81.44
397.249	89.44
397.474	81.44
397.698	90.44
397.922	96.44
398.147	93.44
398.371	75.44
398.595	95.44
398.82	75.44
399.044	99.44
399.268	93.44
399.492	93.44
399.717	105.44
399.941	102.44
400.165	101.44
400.389	97.44
400.613	89.44
400.837	89.44
401.062	94.44
401.286	98.44
401.51	86.44
401.734	93.44
401.958	96.44
402.182	134.44
402.406	184.44
402.63	154.44
402.854	100.44
403.078	83.44
403.302	95.44
403.526	109.44
403.75	103.44
403.974	93.44
404.198	95.44
404.422	106.44
404.645	107.44
404.869	94.44
405.093	79.44
405.317	130.44
405.541	116.44
405.765	108.44
405.988	127.44
406.212	188.44
406.436	281.44
406.66	170.44
406.883	115.44
407.107	108.44
407.331	102.44
407.555	114.44
407.778	106.44
408.002	98.44
408.226	91.44
408.449	89.44
408.673	99.44
408.896	90.44
409.12	97.44
409.344	95.44
409.567	80.44
409.791	93.44
410.014	98.44
410.238	99.44
410.461	117.44
410.685	94.44
410.908	104.44
411.132	103.44
411.355	99.44
411.578	103.44
411.802	100.44
412.025	99.44
412.249	82.44
412.472	115.44
412.695	136.44
412.919	118.44
413.142	95.44
413.365	91.44
413.589	90.44
413.812	85.44
414.035	89.44
414.258	101.44
414.482	81.44
414.705	81.44
414.928	91.44
415.151	79.44
415.374	90.44
415.597	83.44
415.821	83.44
416.044	96.44
416.267	96.44
416.49	80.44
416.713	73.44
416.936	83.44
417.159	97.44
417.382	91.44
417.605	93.44
417.828	102.44
418.051	99.44
418.274	91.44
418.497	89.44
418.72	97.44
418.943	74.44
419.166	75.44
419.389	87.44
419.611	102.44
419.834	90.44
420.057	90.44
420.28	91.44
420.503	94.44
420.726	84.44
420.948	88.44
421.171	91.44
421.394	89.44
421.617	89.44
421.839	88.44
422.062	95.44
422.285	87.44
422.507	98.44
422.73	112.44
422.953	107.44
423.175	101.44
423.398	81.44
423.621	79.44
423.843	85.44
424.066	91.44
424.288	91.44
424.511	86.44
424.733	107.44
424.956	119.44
425.178	104.44
425.401	106.44
425.623	107.44
425.846	103.44
426.068	100.44
426.291	89.44
426.513	84.44
426.735	82.44
426.958	91.44
427.18	118.44
427.402	162.44
427.625	249.44
427.847	210.44
428.069	199.44
428.292	125.44
428.514	105.44
428.736	95.44
428.958	86.44
429.181	93.44
429.403	89.44
429.625	99.44
429.847	95.44
430.069	112.44
430.292	107.44
430.514	95.44
430.736	98.44
430.958	86.44
431.18	84.44
431.402	92.44
431.624	79.44
431.846	88.44
432.068	75.44
432.29	111.44
432.512	87.44
432.734	91.44
432.956	96.44
433.178	98.44
433.4	99.44
433.622	92.44
433.844	110.44
434.066	99.44
434.287	84.44
434.509	84.44
434.731	85.44
434.953	92.44
435.175	89.44
435.397	77.44
435.618	91.44
435.84	114.44
436.062	151.44
436.284	131.44
436.505	118.44
436.727	106.44
436.949	97.44
437.17	85.44
437.392	91.44
437.614	113.44
437.835	118.44
438.057	127.44
438.278	129.44
438.5	135.44
438.721	148.44
438.943	112.44
439.165	95.44
439.386	85.44
439.608	94.44
439.829	105.44
440.05	152.44
440.272	177.44
440.493	111.44
440.715	90.44
440.936	98.44
441.158	92.44
441.379	89.44
441.6	104.44
441.822	113.44
442.043	105.44
442.264	116.44
442.486	104.44
442.707	109.44
442.928	117.44
443.149	164.44
443.371	154.44
443.592	126.44
443.813	130.44
444.034	123.44
444.255	111.44
444.476	90.44
444.698	85.44
444.919	103.44
445.14	146.44
445.361	122.44
445.582	112.44
445.803	179.44
446.024	170.44
446.245	160.44
446.466	128.44
446.687	100.44
446.908	88.44
447.129	101.44
447.35	93.44
447.571	99.44
447.792	103.44
448.013	99.44
448.234	122.44
448.455	105.44
448.675	117.44
448.896	132.44
449.117	114.44
449.338	105.44
449.559	147.44
449.779	153.44
450	93.44
450.221	101.44
450.442	87.44
450.662	104.44
450.883	122.44
451.104	135.44
451.324	101.44
451.545	89.44
451.766	96.44
451.986	89.44
452.207	90.44
452.428	104.44
452.648	89.44
452.869	112.44
453.089	127.44
453.31	132.44
453.53	104.44
453.751	96.44
453.971	105.44
454.192	126.44
454.412	110.44
454.633	98.44
454.853	86.44
455.073	86.44
455.294	101.44
455.514	115.44
455.734	98.44
455.955	105.44
456.175	96.44
456.395	94.44
456.616	66.44
456.836	87.44
457.056	77.44
457.276	79.44
457.497	81.44
457.717	89.44
457.937	86.44
458.157	95.44
458.377	87.44
458.598	126.44
458.818	190.44
459.038	211.44
459.258	141.44
459.478	102.44
459.698	85.44
459.918	81.44
460.138	101.44
460.358	83.44
460.578	90.44
460.798	90.44
461.018	89.44
461.238	97.44
461.458	90.44
461.678	95.44
461.898	78.44
462.118	98.44
462.338	85.44
462.558	75.44
462.777	103.44
462.997	90.44
463.217	104.44
463.437	93.44
463.657	87.44
463.876	98.44
464.096	97.44
464.316	103.44
464.536	107.44
464.755	95.44
464.975	122.44
465.195	238.44
465.414	212.44
465.634	109.44
465.854	87.44
466.073	101.44
466.293	93.44
466.512	93.44
466.732	96.44
466.951	102.44
467.171	107.44
467.391	101.44
467.61	136.44
467.829	176.44
468.049	411.44
468.268	570.44
468.488	178.44
468.707	112.44
468.927	87.44
469.146	91.44
469.365	90.44
469.585	77.44
469.804	104.44
470.023	112.44
470.243	99.44
470.462	107.44
470.681	129.44
470.901	91.44
471.12	91.44
471.339	98.44
471.558	108.44
471.777	127.44
471.997	211.44
472.216	746.44
472.435	1739.44
472.654	433.44
472.873	145.44
473.092	97.44
473.311	101.44
473.53	83.44
473.749	85.44
473.968	103.44
474.187	121.44
474.406	110.44
474.625	95.44
474.844	81.44
475.063	86.44
475.282	85.44
475.501	83.44
475.72	91.44
475.939	90.44
476.158	94.44
476.377	89.44
476.596	83.44
476.814	99.44
477.033	116.44
477.252	100.44
477.471	90.44
477.69	98.44
477.908	83.44
478.127	102.44
478.346	87.44
478.564	103.44
478.783	82.44
479.002	96.44
479.22	94.44
479.439	113.44
479.658	120.44
479.876	109.44
480.095	118.44
480.313	117.44
480.532	126.44
480.751	213.44
480.969	701.44
481.188	2925.44
481.406	1783.44
481.624	277.44
481.843	123.44
482.061	100.44
482.28	89.44
482.498	92.44
482.717	90.44
482.935	91.44
483.153	90.44
483.372	83.44
483.59	100.44
483.808	81.44
484.027	93.44
484.245	97.44
484.463	95.44
484.681	98.44
484.9	98.44
485.118	105.44
485.336	97.44
485.554	106.44
485.772	105.44
485.99	100.44
486.209	123.44
486.427	115.44
486.645	120.44
486.863	112.44
487.081	107.44
487.299	102.44
487.517	96.44
487.735	90.44
487.953	95.44
488.171	96.44
488.389	84.44
488.607	96.44
488.825	84.44
489.043	95.44
489.261	90.44
489.479	105.44
489.696	84.44
489.914	87.44
490.132	100.44
490.35	90.44
490.568	83.44
490.786	92.44
491.003	83.44
491.221	98.44
491.439	93.44
491.657	93.44
491.874	102.44
492.092	95.44
492.31	77.44
492.527	91.44
492.745	94.44
492.963	97.44
493.18	99.44
493.398	87.44
493.615	80.44
493.833	93.44
494.05	93.44
494.268	85.44
494.485	85.44
494.703	92.44
494.92	82.44
495.138	102.44
495.355	102.44
495.573	97.44
495.79	94.44
496.008	99.44
496.225	96.44
496.442	94.44
496.66	91.44
496.877	93.44
497.094	85.44
497.312	108.44
497.529	95.44
497.746	88.44
497.963	95.44
498.181	115.44
498.398	110.44
498.615	116.44
498.832	106.44
499.049	110.44
499.267	98.44
499.484	85.44
499.701	100.44
499.918	93.44
500.135	80.44
500.352	91.44
500.569	83.44
500.786	88.44
501.003	100.44
501.22	97.44
501.437	80.44
501.654	104.44
501.871	120.44
502.088	97.44
502.305	89.44
502.522	103.44
502.739	92.44
502.956	94.44
503.172	110.44
503.389	120.44
503.606	118.44
503.823	102.44
504.04	78.44
504.256	91.44
504.473	81.44
504.69	96.44
504.907	95.44
505.123	97.44
505.34	91.44
505.557	96.44
505.773	99.44
505.99	88.44
506.207	90.44
506.423	91.44
506.64	90.44
506.856	108.44
507.073	96.44
507.289	95.44
507.506	101.44
507.722	108.44
507.939	119.44
508.155	91.44
508.372	95.44
508.588	86.44
508.805	104.44
509.021	97.44
509.238	98.44
509.454	96.44
509.67	82.44
509.887	95.44
510.103	135.44
510.319	227.44
510.536	804.44
510.752	2813.44
510.968	744.44
511.184	165.44
511.401	118.44
511.617	116.44
511.833	112.44
512.049	88.44
512.265	102.44
512.481	97.44
512.698	106.44
512.914	89.44
513.13	88.44
513.346	97.44
513.562	91.44
