Data from Circ_1987_H10_HRD10591_00062.txt Node
Date: Wed Jan 03 12:10:45 EST 2024
User: Yrep
Spectrometer: HR+D1059
Trigger mode: 1
Integration Time (sec): 1.000000E-1
Scans to average: 1
Electric dark correction enabled: true
Nonlinearity correction enabled: false
Boxcar width: 0
XAxis mode: Wavelengths
Number of Pixels in Spectrum: 2048
>>>>>Begin Spectral Data<<<<<
223.165	0.44
223.4	0.44
223.635	0.44
223.869	-18.56
224.104	-32.56
224.338	-6.56
224.573	-12.56
224.808	-22.56
225.042	-6.56
225.277	-0.56
225.511	4.44
225.746	-4.56
225.98	11.44
226.215	-0.56
226.449	19.44
226.683	38.44
226.918	18.44
227.152	12.44
227.387	41.44
227.621	46.44
227.856	51.44
228.09	63.44
228.324	47.44
228.559	68.44
228.793	64.44
229.027	74.44
229.262	69.44
229.496	78.44
229.73	87.44
229.964	91.44
230.199	92.44
230.433	77.44
230.667	70.44
230.901	75.44
231.136	82.44
231.37	74.44
231.604	96.44
231.838	75.44
232.072	81.44
232.306	92.44
232.541	76.44
232.775	81.44
233.009	82.44
233.243	89.44
233.477	87.44
233.711	88.44
233.945	89.44
234.179	73.44
234.413	83.44
234.647	90.44
234.881	93.44
235.115	84.44
235.349	75.44
235.583	90.44
235.817	82.44
236.051	92.44
236.285	78.44
236.519	87.44
236.753	76.44
236.987	70.44
237.221	62.44
237.455	76.44
237.689	84.44
237.922	75.44
238.156	87.44
238.39	77.44
238.624	81.44
238.858	73.44
239.091	73.44
239.325	94.44
239.559	89.44
239.793	79.44
240.027	81.44
240.26	93.44
240.494	76.44
240.728	71.44
240.961	75.44
241.195	68.44
241.429	75.44
241.662	77.44
241.896	90.44
242.13	90.44
242.363	85.44
242.597	75.44
242.83	66.44
243.064	65.44
243.298	93.44
243.531	75.44
243.765	79.44
243.998	85.44
244.232	85.44
244.465	80.44
244.699	91.44
244.932	79.44
245.166	85.44
245.399	81.44
245.633	73.44
245.866	74.44
246.099	86.44
246.333	81.44
246.566	70.44
246.8	87.44
247.033	81.44
247.266	99.44
247.5	82.44
247.733	73.44
247.966	85.44
248.2	95.44
248.433	86.44
248.666	85.44
248.899	77.44
249.133	91.44
249.366	98.44
249.599	94.44
249.832	68.44
250.066	87.44
250.299	83.44
250.532	85.44
250.765	72.44
250.998	77.44
251.231	79.44
251.465	89.44
251.698	83.44
251.931	87.44
252.164	91.44
252.397	90.44
252.63	87.44
252.863	94.44
253.096	92.44
253.329	83.44
253.562	77.44
253.795	87.44
254.028	81.44
254.261	86.44
254.494	90.44
254.727	86.44
254.96	76.44
255.193	82.44
255.426	100.44
255.659	89.44
255.892	109.44
256.124	97.44
256.357	86.44
256.59	83.44
256.823	73.44
257.056	87.44
257.289	92.44
257.521	88.44
257.754	85.44
257.987	96.44
258.22	100.44
258.452	88.44
258.685	79.44
258.918	87.44
259.151	90.44
259.383	85.44
259.616	77.44
259.849	83.44
260.081	85.44
260.314	87.44
260.547	89.44
260.779	95.44
261.012	97.44
261.244	107.44
261.477	97.44
261.71	103.44
261.942	115.44
262.175	125.44
262.407	103.44
262.64	76.44
262.872	87.44
263.105	79.44
263.337	100.44
263.57	89.44
263.802	93.44
264.035	82.44
264.267	95.44
264.499	95.44
264.732	93.44
264.964	79.44
265.197	81.44
265.429	89.44
265.661	77.44
265.894	99.44
266.126	89.44
266.358	94.44
266.591	93.44
266.823	94.44
267.055	77.44
267.287	100.44
267.52	82.44
267.752	85.44
267.984	91.44
268.216	94.44
268.448	98.44
268.681	101.44
268.913	100.44
269.145	85.44
269.377	94.44
269.609	79.44
269.841	91.44
270.073	94.44
270.306	84.44
270.538	92.44
270.77	106.44
271.002	98.44
271.234	107.44
271.466	105.44
271.698	87.44
271.93	91.44
272.162	94.44
272.394	98.44
272.626	80.44
272.858	95.44
273.09	86.44
273.322	95.44
273.553	75.44
273.785	87.44
274.017	104.44
274.249	92.44
274.481	86.44
274.713	78.44
274.945	87.44
275.176	88.44
275.408	77.44
275.64	110.44
275.872	102.44
276.104	99.44
276.335	102.44
276.567	105.44
276.799	134.44
277.031	137.44
277.262	164.44
277.494	130.44
277.726	85.44
277.957	80.44
278.189	97.44
278.421	86.44
278.652	91.44
278.884	91.44
279.115	110.44
279.347	78.44
279.579	111.44
279.81	110.44
280.042	166.44
280.273	196.44
280.505	150.44
280.736	109.44
280.968	98.44
281.199	95.44
281.431	105.44
281.662	103.44
281.894	98.44
282.125	104.44
282.356	120.44
282.588	148.44
282.819	115.44
283.051	102.44
283.282	90.44
283.513	84.44
283.745	97.44
283.976	100.44
284.207	84.44
284.439	88.44
284.67	84.44
284.901	86.44
285.132	93.44
285.364	97.44
285.595	96.44
285.826	91.44
286.057	93.44
286.288	87.44
286.52	86.44
286.751	98.44
286.982	105.44
287.213	84.44
287.444	96.44
287.675	87.44
287.906	87.44
288.138	93.44
288.369	102.44
288.6	98.44
288.831	106.44
289.062	88.44
289.293	74.44
289.524	83.44
289.755	93.44
289.986	85.44
290.217	94.44
290.448	82.44
290.679	84.44
290.91	84.44
291.141	99.44
291.371	87.44
291.602	98.44
291.833	103.44
292.064	112.44
292.295	93.44
292.526	78.44
292.757	103.44
292.987	92.44
293.218	100.44
293.449	104.44
293.68	93.44
293.91	89.44
294.141	103.44
294.372	93.44
294.603	99.44
294.833	95.44
295.064	88.44
295.295	90.44
295.525	100.44
295.756	106.44
295.987	119.44
296.217	143.44
296.448	137.44
296.679	101.44
296.909	94.44
297.14	101.44
297.37	85.44
297.601	92.44
297.831	94.44
298.062	101.44
298.292	98.44
298.523	91.44
298.753	98.44
298.984	82.44
299.214	88.44
299.445	97.44
299.675	89.44
299.905	103.44
300.136	97.44
300.366	89.44
300.597	107.44
300.827	96.44
301.057	106.44
301.288	110.44
301.518	97.44
301.748	102.44
301.979	118.44
302.209	101.44
302.439	87.44
302.669	84.44
302.9	95.44
303.13	109.44
303.36	109.44
303.59	121.44
303.82	130.44
304.051	106.44
304.281	113.44
304.511	101.44
304.741	102.44
304.971	91.44
305.201	105.44
305.431	97.44
305.661	88.44
305.891	92.44
306.121	97.44
306.352	118.44
306.582	107.44
306.812	99.44
307.042	121.44
307.272	135.44
307.502	151.44
307.731	155.44
307.961	126.44
308.191	102.44
308.421	101.44
308.651	91.44
308.881	112.44
309.111	92.44
309.341	98.44
309.571	107.44
309.8	101.44
310.03	114.44
310.26	105.44
310.49	91.44
310.72	121.44
310.949	120.44
311.179	116.44
311.409	107.44
311.639	101.44
311.868	101.44
312.098	116.44
312.328	110.44
312.557	101.44
312.787	98.44
313.017	103.44
313.246	108.44
313.476	101.44
313.706	91.44
313.935	93.44
314.165	102.44
314.394	109.44
314.624	85.44
314.853	105.44
315.083	91.44
315.312	92.44
315.542	101.44
315.771	88.44
316.001	94.44
316.23	108.44
316.46	103.44
316.689	92.44
316.919	85.44
317.148	108.44
317.377	84.44
317.607	98.44
317.836	106.44
318.065	82.44
318.295	101.44
318.524	78.44
318.753	78.44
318.983	95.44
319.212	113.44
319.441	102.44
319.67	126.44
319.9	93.44
320.129	95.44
320.358	85.44
320.587	102.44
320.816	113.44
321.046	94.44
321.275	106.44
321.504	103.44
321.733	112.44
321.962	111.44
322.191	104.44
322.42	103.44
322.649	110.44
322.878	116.44
323.108	114.44
323.337	122.44
323.566	162.44
323.795	149.44
324.024	201.44
324.253	373.44
324.482	785.44
324.71	1521.44
324.939	1985.44
325.168	771.44
325.397	227.44
325.626	153.44
325.855	130.44
326.084	127.44
326.313	140.44
326.542	158.44
326.77	223.44
326.999	418.44
327.228	813.44
327.457	1464.44
327.686	1199.44
327.914	453.44
328.143	389.44
328.372	495.44
328.6	281.44
328.829	165.44
329.058	169.44
329.287	159.44
329.515	161.44
329.744	200.44
329.972	355.44
330.201	693.44
330.43	1003.44
330.658	437.44
330.887	218.44
331.115	148.44
331.344	128.44
331.572	119.44
331.801	125.44
332.03	122.44
332.258	113.44
332.486	116.44
332.715	96.44
332.943	114.44
333.172	128.44
333.4	119.44
333.629	148.44
333.857	194.44
334.085	321.44
334.314	649.44
334.542	1260.44
334.771	1199.44
334.999	335.44
335.227	148.44
335.455	121.44
335.684	110.44
335.912	113.44
336.14	104.44
336.369	121.44
336.597	102.44
336.825	111.44
337.053	90.44
337.281	107.44
337.51	93.44
337.738	99.44
337.966	89.44
338.194	111.44
338.422	100.44
338.65	92.44
338.878	95.44
339.106	97.44
339.334	98.44
339.562	84.44
339.79	100.44
340.018	100.44
340.246	88.44
340.474	99.44
340.702	103.44
340.93	113.44
341.158	94.44
341.386	93.44
341.614	109.44
341.842	106.44
342.07	104.44
342.298	101.44
342.526	89.44
342.754	92.44
342.981	81.44
343.209	90.44
343.437	114.44
343.665	86.44
343.893	102.44
344.12	100.44
344.348	97.44
344.576	109.44
344.804	83.44
345.031	119.44
345.259	109.44
345.487	101.44
345.714	105.44
345.942	105.44
346.17	98.44
346.397	87.44
346.625	98.44
346.853	86.44
347.08	102.44
347.308	104.44
347.535	100.44
347.763	95.44
347.99	101.44
348.218	108.44
348.445	105.44
348.673	106.44
348.9	104.44
349.128	93.44
349.355	110.44
349.583	127.44
349.81	110.44
350.037	103.44
350.265	98.44
350.492	99.44
350.72	114.44
350.947	86.44
351.174	119.44
351.402	117.44
351.629	95.44
351.856	107.44
352.083	107.44
352.311	125.44
352.538	101.44
352.765	120.44
352.992	105.44
353.22	105.44
353.447	113.44
353.674	111.44
353.901	103.44
354.128	109.44
354.355	101.44
354.583	95.44
354.81	98.44
355.037	105.44
355.264	88.44
355.491	81.44
355.718	96.44
355.945	93.44
356.172	108.44
356.399	89.44
356.626	92.44
356.853	87.44
357.08	93.44
357.307	88.44
357.534	107.44
357.761	103.44
357.988	82.44
358.215	94.44
358.441	99.44
358.668	110.44
358.895	111.44
359.122	104.44
359.349	105.44
359.576	102.44
359.802	108.44
360.029	116.44
360.256	130.44
360.483	103.44
360.709	87.44
360.936	81.44
361.163	107.44
361.39	107.44
361.616	92.44
361.843	101.44
362.07	100.44
362.296	88.44
362.523	100.44
362.749	94.44
362.976	101.44
363.203	94.44
363.429	96.44
363.656	100.44
363.882	103.44
364.109	94.44
364.335	99.44
364.562	90.44
364.788	99.44
365.015	84.44
365.241	121.44
365.468	111.44
365.694	121.44
365.92	114.44
366.147	104.44
366.373	120.44
366.599	99.44
366.826	95.44
367.052	104.44
367.278	85.44
367.505	93.44
367.731	97.44
367.957	83.44
368.184	84.44
368.41	94.44
368.636	124.44
368.862	130.44
369.089	130.44
369.315	100.44
369.541	94.44
369.767	91.44
369.993	105.44
370.219	94.44
370.445	92.44
370.672	104.44
370.898	107.44
371.124	102.44
371.35	98.44
371.576	89.44
371.802	105.44
372.028	85.44
372.254	105.44
372.48	78.44
372.706	89.44
372.932	81.44
373.158	85.44
373.384	101.44
373.61	92.44
373.835	85.44
374.061	88.44
374.287	104.44
374.513	97.44
374.739	112.44
374.965	101.44
375.191	74.44
375.416	89.44
375.642	111.44
375.868	99.44
376.094	110.44
376.319	82.44
376.545	77.44
376.771	87.44
376.997	98.44
377.222	98.44
377.448	95.44
377.674	98.44
377.899	101.44
378.125	94.44
378.35	85.44
378.576	104.44
378.802	87.44
379.027	84.44
379.253	96.44
379.478	94.44
379.704	102.44
379.929	97.44
380.155	105.44
380.38	87.44
380.606	101.44
380.831	107.44
381.057	97.44
381.282	92.44
381.507	96.44
381.733	121.44
381.958	102.44
382.184	112.44
382.409	104.44
382.634	110.44
382.86	111.44
383.085	108.44
383.31	106.44
383.535	89.44
383.761	109.44
383.986	75.44
384.211	117.44
384.436	94.44
384.662	120.44
384.887	102.44
385.112	117.44
385.337	98.44
385.562	110.44
385.787	107.44
386.013	118.44
386.238	122.44
386.463	117.44
386.688	122.44
386.913	84.44
387.138	90.44
387.363	104.44
387.588	98.44
387.813	105.44
388.038	101.44
388.263	100.44
388.488	110.44
388.713	109.44
388.938	93.44
389.163	91.44
389.387	106.44
389.612	94.44
389.837	95.44
390.062	99.44
390.287	82.44
390.512	101.44
390.736	97.44
390.961	85.44
391.186	83.44
391.411	84.44
391.636	78.44
391.86	94.44
392.085	98.44
392.31	98.44
392.534	105.44
392.759	102.44
392.984	93.44
393.208	103.44
393.433	92.44
393.658	98.44
393.882	95.44
394.107	75.44
394.331	74.44
394.556	85.44
394.78	103.44
395.005	97.44
395.229	100.44
395.454	80.44
395.678	109.44
395.903	100.44
396.127	93.44
396.352	93.44
396.576	89.44
396.801	101.44
397.025	93.44
397.249	97.44
397.474	93.44
397.698	94.44
397.922	86.44
398.147	101.44
398.371	91.44
398.595	85.44
398.82	93.44
399.044	102.44
399.268	90.44
399.492	99.44
399.717	95.44
399.941	100.44
400.165	91.44
400.389	91.44
400.613	84.44
400.837	95.44
401.062	106.44
401.286	98.44
401.51	101.44
401.734	106.44
401.958	104.44
402.182	121.44
402.406	167.44
402.63	136.44
402.854	105.44
403.078	99.44
403.302	100.44
403.526	92.44
403.75	104.44
403.974	94.44
404.198	89.44
404.422	100.44
404.645	93.44
404.869	97.44
405.093	100.44
405.317	126.44
405.541	127.44
405.765	115.44
405.988	123.44
406.212	182.44
406.436	268.44
406.66	177.44
406.883	110.44
407.107	103.44
407.331	101.44
407.555	111.44
407.778	112.44
408.002	89.44
408.226	87.44
408.449	92.44
408.673	81.44
408.896	108.44
409.12	109.44
409.344	93.44
409.567	91.44
409.791	76.44
410.014	103.44
410.238	94.44
410.461	93.44
410.685	103.44
410.908	102.44
411.132	118.44
411.355	95.44
411.578	94.44
411.802	82.44
412.025	87.44
412.249	99.44
412.472	93.44
412.695	115.44
412.919	104.44
413.142	108.44
413.365	94.44
413.589	99.44
413.812	90.44
414.035	79.44
414.258	89.44
414.482	95.44
414.705	104.44
414.928	100.44
415.151	96.44
415.374	109.44
415.597	104.44
415.821	98.44
416.044	83.44
416.267	93.44
416.49	94.44
416.713	71.44
416.936	97.44
417.159	81.44
417.382	95.44
417.605	101.44
417.828	89.44
418.051	103.44
418.274	96.44
418.497	93.44
418.72	86.44
418.943	94.44
419.166	79.44
419.389	107.44
419.611	97.44
419.834	107.44
420.057	81.44
420.28	101.44
420.503	86.44
420.726	100.44
420.948	103.44
421.171	108.44
421.394	109.44
421.617	100.44
421.839	98.44
422.062	94.44
422.285	85.44
422.507	110.44
422.73	113.44
422.953	90.44
423.175	89.44
423.398	85.44
423.621	105.44
423.843	93.44
424.066	99.44
424.288	92.44
424.511	85.44
424.733	95.44
424.956	111.44
425.178	115.44
425.401	119.44
425.623	99.44
425.846	90.44
426.068	99.44
426.291	115.44
426.513	103.44
426.735	96.44
426.958	100.44
427.18	98.44
427.402	169.44
427.625	224.44
427.847	204.44
428.069	166.44
428.292	109.44
428.514	101.44
428.736	97.44
428.958	95.44
429.181	97.44
429.403	79.44
429.625	94.44
429.847	88.44
430.069	116.44
430.292	105.44
430.514	99.44
430.736	78.44
430.958	100.44
431.18	82.44
431.402	86.44
431.624	87.44
431.846	90.44
432.068	90.44
432.29	94.44
432.512	102.44
432.734	102.44
432.956	100.44
433.178	115.44
433.4	99.44
433.622	95.44
433.844	101.44
434.066	110.44
434.287	103.44
434.509	97.44
434.731	95.44
434.953	74.44
435.175	89.44
435.397	102.44
435.618	88.44
435.84	94.44
436.062	118.44
436.284	113.44
436.505	101.44
436.727	104.44
436.949	100.44
437.17	97.44
437.392	86.44
437.614	96.44
437.835	115.44
438.057	129.44
438.278	112.44
438.5	107.44
438.721	125.44
438.943	106.44
439.165	79.44
439.386	92.44
439.608	93.44
439.829	106.44
440.05	130.44
440.272	164.44
440.493	114.44
440.715	82.44
440.936	94.44
441.158	81.44
441.379	83.44
441.6	104.44
441.822	95.44
442.043	103.44
442.264	115.44
442.486	108.44
442.707	104.44
442.928	126.44
443.149	137.44
443.371	142.44
443.592	106.44
443.813	141.44
444.034	113.44
444.255	98.44
444.476	103.44
444.698	94.44
444.919	98.44
445.14	131.44
445.361	138.44
445.582	125.44
445.803	150.44
446.024	153.44
446.245	163.44
446.466	119.44
446.687	93.44
446.908	95.44
447.129	113.44
447.35	99.44
447.571	84.44
447.792	92.44
448.013	99.44
448.234	119.44
448.455	107.44
448.675	130.44
448.896	120.44
449.117	102.44
449.338	113.44
449.559	134.44
449.779	153.44
450	113.44
450.221	94.44
450.442	87.44
450.662	92.44
450.883	120.44
451.104	127.44
451.324	107.44
451.545	86.44
451.766	84.44
451.986	97.44
452.207	115.44
452.428	96.44
452.648	102.44
452.869	126.44
453.089	110.44
453.31	129.44
453.53	101.44
453.751	89.44
453.971	108.44
454.192	106.44
454.412	97.44
454.633	88.44
454.853	90.44
455.073	86.44
455.294	83.44
455.514	105.44
455.734	94.44
455.955	94.44
456.175	99.44
456.395	76.44
456.616	85.44
456.836	90.44
457.056	85.44
457.276	78.44
457.497	79.44
457.717	93.44
457.937	85.44
458.157	96.44
458.377	92.44
458.598	113.44
458.818	174.44
459.038	183.44
459.258	129.44
459.478	101.44
459.698	85.44
459.918	93.44
460.138	89.44
460.358	99.44
460.578	89.44
460.798	94.44
461.018	78.44
461.238	87.44
461.458	85.44
461.678	90.44
461.898	79.44
462.118	96.44
462.338	104.44
462.558	89.44
462.777	97.44
462.997	98.44
463.217	111.44
463.437	100.44
463.657	86.44
463.876	105.44
464.096	95.44
464.316	98.44
464.536	101.44
464.755	94.44
464.975	113.44
465.195	205.44
465.414	202.44
465.634	101.44
465.854	83.44
466.073	84.44
466.293	105.44
466.512	88.44
466.732	102.44
466.951	91.44
467.171	93.44
467.391	105.44
467.61	134.44
467.829	177.44
468.049	448.44
468.268	610.44
468.488	169.44
468.707	101.44
468.927	95.44
469.146	87.44
469.365	119.44
469.585	97.44
469.804	101.44
470.023	105.44
470.243	102.44
470.462	95.44
470.681	130.44
470.901	109.44
471.12	95.44
471.339	95.44
471.558	105.44
471.777	139.44
471.997	239.44
472.216	796.44
472.435	1791.44
472.654	446.44
472.873	143.44
473.092	103.44
473.311	83.44
473.53	102.44
473.749	95.44
473.968	103.44
474.187	121.44
474.406	101.44
474.625	95.44
474.844	92.44
475.063	87.44
475.282	94.44
475.501	98.44
475.72	84.44
475.939	93.44
476.158	74.44
476.377	83.44
476.596	103.44
476.814	102.44
477.033	117.44
477.252	94.44
477.471	100.44
477.69	109.44
477.908	100.44
478.127	90.44
478.346	85.44
478.564	103.44
478.783	122.44
479.002	109.44
479.22	102.44
479.439	120.44
479.658	120.44
479.876	106.44
480.095	119.44
480.313	121.44
480.532	134.44
480.751	222.44
480.969	737.44
481.188	3115.44
481.406	1835.44
481.624	295.44
481.843	117.44
482.061	113.44
482.28	111.44
482.498	100.44
482.717	91.44
482.935	103.44
483.153	91.44
483.372	91.44
483.59	81.44
483.808	82.44
484.027	103.44
484.245	89.44
484.463	92.44
484.681	106.44
484.9	101.44
485.118	102.44
485.336	96.44
485.554	108.44
485.772	99.44
485.99	112.44
486.209	106.44
486.427	119.44
486.645	119.44
486.863	110.44
487.081	107.44
487.299	93.44
487.517	99.44
487.735	91.44
487.953	106.44
488.171	105.44
488.389	102.44
488.607	89.44
488.825	100.44
489.043	95.44
489.261	99.44
489.479	106.44
489.696	85.44
489.914	84.44
490.132	91.44
490.35	94.44
490.568	100.44
490.786	84.44
491.003	85.44
491.221	96.44
491.439	98.44
491.657	93.44
491.874	94.44
492.092	99.44
492.31	106.44
492.527	105.44
492.745	111.44
492.963	82.44
493.18	91.44
493.398	100.44
493.615	87.44
493.833	93.44
494.05	99.44
494.268	97.44
494.485	103.44
494.703	89.44
494.92	95.44
495.138	92.44
495.355	83.44
495.573	92.44
495.79	95.44
496.008	84.44
496.225	95.44
496.442	97.44
496.66	93.44
496.877	98.44
497.094	87.44
497.312	88.44
497.529	106.44
497.746	102.44
497.963	78.44
498.181	100.44
498.398	89.44
498.615	115.44
498.832	99.44
499.049	91.44
499.267	90.44
499.484	100.44
499.701	94.44
499.918	106.44
500.135	95.44
500.352	85.44
500.569	102.44
500.786	95.44
501.003	77.44
501.22	101.44
501.437	97.44
501.654	120.44
501.871	109.44
502.088	97.44
502.305	93.44
502.522	94.44
502.739	90.44
502.956	95.44
503.172	89.44
503.389	95.44
503.606	116.44
503.823	105.44
504.04	89.44
504.256	106.44
504.473	103.44
504.69	85.44
504.907	98.44
505.123	93.44
505.34	95.44
505.557	98.44
505.773	99.44
505.99	87.44
506.207	105.44
506.423	81.44
506.64	97.44
506.856	88.44
507.073	97.44
507.289	94.44
507.506	98.44
507.722	118.44
507.939	123.44
508.155	100.44
508.372	111.44
508.588	97.44
508.805	95.44
509.021	92.44
509.238	101.44
509.454	99.44
509.67	104.44
509.887	116.44
510.103	126.44
510.319	206.44
510.536	798.44
510.752	2602.44
510.968	731.44
511.184	168.44
511.401	124.44
511.617	101.44
511.833	119.44
512.049	97.44
