Data from Circ_1987_H10_HRD10591_00027.txt Node
Date: Wed Jan 03 12:10:38 EST 2024
User: Yrep
Spectrometer: HR+D1059
Trigger mode: 1
Integration Time (sec): 1.000000E-1
Scans to average: 1
Electric dark correction enabled: true
Nonlinearity correction enabled: false
Boxcar width: 0
XAxis mode: Wavelengths
Number of Pixels in Spectrum: 2048
>>>>>Begin Spectral Data<<<<<
223.165	-25.38
223.4	-25.38
223.635	-25.38
223.869	-21.38
224.104	-24.38
224.338	-8.38
224.573	-1.38
224.808	-24.38
225.042	-20.38
225.277	-3.38
225.511	6.62
225.746	-0.38
225.98	5.62
226.215	6.62
226.449	17.62
226.683	32.62
226.918	21.62
227.152	38.62
227.387	41.62
227.621	40.62
227.856	48.62
228.09	56.62
228.324	59.62
228.559	64.62
228.793	68.62
229.027	67.62
229.262	79.62
229.496	72.62
229.73	90.62
229.964	84.62
230.199	69.62
230.433	78.62
230.667	75.62
230.901	79.62
231.136	83.62
231.37	87.62
231.604	81.62
231.838	77.62
232.072	76.62
232.306	89.62
232.541	69.62
232.775	73.62
233.009	72.62
233.243	84.62
233.477	78.62
233.711	92.62
233.945	70.62
234.179	87.62
234.413	83.62
234.647	91.62
234.881	79.62
235.115	70.62
235.349	83.62
235.583	75.62
235.817	82.62
236.051	91.62
236.285	88.62
236.519	78.62
236.753	74.62
236.987	88.62
237.221	82.62
237.455	95.62
237.689	78.62
237.922	66.62
238.156	82.62
238.39	74.62
238.624	79.62
238.858	79.62
239.091	61.62
239.325	84.62
239.559	74.62
239.793	74.62
240.027	90.62
240.26	92.62
240.494	74.62
240.728	74.62
240.961	71.62
241.195	65.62
241.429	61.62
241.662	77.62
241.896	72.62
242.13	75.62
242.363	90.62
242.597	66.62
242.83	81.62
243.064	91.62
243.298	79.62
243.531	82.62
243.765	93.62
243.998	59.62
244.232	84.62
244.465	86.62
244.699	78.62
244.932	86.62
245.166	83.62
245.399	68.62
245.633	69.62
245.866	71.62
246.099	70.62
246.333	90.62
246.566	78.62
246.8	83.62
247.033	92.62
247.266	72.62
247.5	91.62
247.733	82.62
247.966	84.62
248.2	84.62
248.433	73.62
248.666	82.62
248.899	78.62
249.133	89.62
249.366	88.62
249.599	84.62
249.832	82.62
250.066	90.62
250.299	78.62
250.532	87.62
250.765	74.62
250.998	84.62
251.231	76.62
251.465	78.62
251.698	78.62
251.931	83.62
252.164	74.62
252.397	72.62
252.63	74.62
252.863	79.62
253.096	78.62
253.329	74.62
253.562	69.62
253.795	70.62
254.028	81.62
254.261	96.62
254.494	78.62
254.727	94.62
254.96	97.62
255.193	87.62
255.426	66.62
255.659	63.62
255.892	71.62
256.124	89.62
256.357	86.62
256.59	89.62
256.823	101.62
257.056	69.62
257.289	86.62
257.521	94.62
257.754	73.62
257.987	78.62
258.22	94.62
258.452	90.62
258.685	87.62
258.918	82.62
259.151	88.62
259.383	86.62
259.616	95.62
259.849	72.62
260.081	81.62
260.314	74.62
260.547	85.62
260.779	92.62
261.012	88.62
261.244	110.62
261.477	106.62
261.71	100.62
261.942	118.62
262.175	123.62
262.407	90.62
262.64	89.62
262.872	90.62
263.105	93.62
263.337	90.62
263.57	89.62
263.802	79.62
264.035	94.62
264.267	99.62
264.499	82.62
264.732	87.62
264.964	86.62
265.197	69.62
265.429	74.62
265.661	87.62
265.894	80.62
266.126	83.62
266.358	86.62
266.591	92.62
266.823	74.62
267.055	87.62
267.287	80.62
267.52	90.62
267.752	87.62
267.984	88.62
268.216	93.62
268.448	81.62
268.681	89.62
268.913	86.62
269.145	80.62
269.377	92.62
269.609	82.62
269.841	87.62
270.073	83.62
270.306	87.62
270.538	88.62
270.77	84.62
271.002	99.62
271.234	94.62
271.466	82.62
271.698	79.62
271.93	84.62
272.162	87.62
272.394	71.62
272.626	90.62
272.858	88.62
273.09	89.62
273.322	90.62
273.553	80.62
273.785	91.62
274.017	73.62
274.249	88.62
274.481	91.62
274.713	81.62
274.945	102.62
275.176	90.62
275.408	92.62
275.64	95.62
275.872	103.62
276.104	96.62
276.335	91.62
276.567	113.62
276.799	128.62
277.031	129.62
277.262	154.62
277.494	126.62
277.726	96.62
277.957	88.62
278.189	87.62
278.421	87.62
278.652	85.62
278.884	90.62
279.115	88.62
279.347	87.62
279.579	74.62
279.81	105.62
280.042	131.62
280.273	178.62
280.505	132.62
280.736	90.62
280.968	96.62
281.199	94.62
281.431	75.62
281.662	85.62
281.894	84.62
282.125	100.62
282.356	114.62
282.588	129.62
282.819	120.62
283.051	95.62
283.282	82.62
283.513	81.62
283.745	80.62
283.976	75.62
284.207	75.62
284.439	81.62
284.67	81.62
284.901	90.62
285.132	90.62
285.364	83.62
285.595	91.62
285.826	99.62
286.057	111.62
286.288	80.62
286.52	84.62
286.751	79.62
286.982	72.62
287.213	92.62
287.444	90.62
287.675	83.62
287.906	98.62
288.138	76.62
288.369	98.62
288.6	99.62
288.831	95.62
289.062	91.62
289.293	87.62
289.524	96.62
289.755	91.62
289.986	82.62
290.217	84.62
290.448	100.62
290.679	87.62
290.91	86.62
291.141	94.62
291.371	88.62
291.602	88.62
291.833	89.62
292.064	84.62
292.295	90.62
292.526	102.62
292.757	96.62
292.987	94.62
293.218	68.62
293.449	88.62
293.68	96.62
293.91	85.62
294.141	87.62
294.372	100.62
294.603	98.62
294.833	94.62
295.064	87.62
295.295	83.62
295.525	91.62
295.756	95.62
295.987	119.62
296.217	139.62
296.448	129.62
296.679	95.62
296.909	112.62
297.14	91.62
297.37	84.62
297.601	91.62
297.831	91.62
298.062	91.62
298.292	87.62
298.523	92.62
298.753	98.62
298.984	86.62
299.214	98.62
299.445	106.62
299.675	88.62
299.905	92.62
300.136	97.62
300.366	83.62
300.597	96.62
300.827	98.62
301.057	113.62
301.288	108.62
301.518	107.62
301.748	87.62
301.979	94.62
302.209	96.62
302.439	108.62
302.669	96.62
302.9	103.62
303.13	83.62
303.36	98.62
303.59	124.62
303.82	107.62
304.051	102.62
304.281	94.62
304.511	67.62
304.741	100.62
304.971	83.62
305.201	95.62
305.431	86.62
305.661	82.62
305.891	95.62
306.121	111.62
306.352	102.62
306.582	100.62
306.812	92.62
307.042	107.62
307.272	130.62
307.502	142.62
307.731	141.62
307.961	122.62
308.191	92.62
308.421	106.62
308.651	99.62
308.881	98.62
309.111	95.62
309.341	89.62
309.571	105.62
309.8	108.62
310.03	94.62
310.26	84.62
310.49	107.62
310.72	96.62
310.949	109.62
311.179	105.62
311.409	81.62
311.639	99.62
311.868	98.62
312.098	108.62
312.328	107.62
312.557	115.62
312.787	110.62
313.017	104.62
313.246	89.62
313.476	96.62
313.706	93.62
313.935	113.62
314.165	108.62
314.394	107.62
314.624	90.62
314.853	98.62
315.083	97.62
315.312	98.62
315.542	110.62
315.771	87.62
316.001	69.62
316.23	90.62
316.46	83.62
316.689	96.62
316.919	112.62
317.148	102.62
317.377	98.62
317.607	102.62
317.836	88.62
318.065	91.62
318.295	82.62
318.524	87.62
318.753	94.62
318.983	91.62
319.212	90.62
319.441	115.62
319.67	111.62
319.9	96.62
320.129	90.62
320.358	95.62
320.587	108.62
320.816	94.62
321.046	96.62
321.275	89.62
321.504	90.62
321.733	83.62
321.962	85.62
322.191	102.62
322.42	108.62
322.649	115.62
322.878	107.62
323.108	100.62
323.337	119.62
323.566	136.62
323.795	158.62
324.024	190.62
324.253	372.62
324.482	745.62
324.71	1552.62
324.939	2049.62
325.168	757.62
325.397	220.62
325.626	158.62
325.855	142.62
326.084	130.62
326.313	137.62
326.542	139.62
326.77	206.62
326.999	400.62
327.228	802.62
327.457	1479.62
327.686	1206.62
327.914	419.62
328.143	338.62
328.372	397.62
328.6	259.62
328.829	154.62
329.058	156.62
329.287	165.62
329.515	162.62
329.744	176.62
329.972	290.62
330.201	530.62
330.43	809.62
330.658	405.62
330.887	210.62
331.115	158.62
331.344	133.62
331.572	114.62
331.801	118.62
332.03	116.62
332.258	88.62
332.486	96.62
332.715	108.62
332.943	105.62
333.172	102.62
333.4	98.62
333.629	140.62
333.857	172.62
334.085	277.62
334.314	535.62
334.542	1042.62
334.771	971.62
334.999	294.62
335.227	158.62
335.455	108.62
335.684	113.62
335.912	88.62
336.14	112.62
336.369	89.62
336.597	97.62
336.825	91.62
337.053	75.62
337.281	80.62
337.51	94.62
337.738	98.62
337.966	99.62
338.194	100.62
338.422	110.62
338.65	110.62
338.878	98.62
339.106	91.62
339.334	92.62
339.562	92.62
339.79	112.62
340.018	95.62
340.246	82.62
340.474	93.62
340.702	104.62
340.93	90.62
341.158	96.62
341.386	91.62
341.614	104.62
341.842	100.62
342.07	99.62
342.298	87.62
342.526	90.62
342.754	96.62
342.981	87.62
343.209	88.62
343.437	99.62
343.665	92.62
343.893	82.62
344.12	102.62
344.348	90.62
344.576	96.62
344.804	96.62
345.031	103.62
345.259	114.62
345.487	104.62
345.714	93.62
345.942	82.62
346.17	102.62
346.397	94.62
346.625	93.62
346.853	88.62
347.08	96.62
347.308	94.62
347.535	95.62
347.763	99.62
347.99	90.62
348.218	93.62
348.445	112.62
348.673	104.62
348.9	95.62
349.128	98.62
349.355	95.62
349.583	92.62
349.81	100.62
350.037	109.62
350.265	86.62
350.492	97.62
350.72	95.62
350.947	104.62
351.174	102.62
351.402	121.62
351.629	96.62
351.856	101.62
352.083	102.62
352.311	105.62
352.538	126.62
352.765	113.62
352.992	113.62
353.22	128.62
353.447	99.62
353.674	110.62
353.901	115.62
354.128	102.62
354.355	98.62
354.583	99.62
354.81	109.62
355.037	91.62
355.264	96.62
355.491	105.62
355.718	97.62
355.945	98.62
356.172	96.62
356.399	99.62
356.626	90.62
356.853	94.62
357.08	98.62
357.307	87.62
357.534	100.62
357.761	98.62
357.988	100.62
358.215	98.62
358.441	80.62
358.668	84.62
358.895	102.62
359.122	100.62
359.349	93.62
359.576	103.62
359.802	110.62
360.029	122.62
360.256	114.62
360.483	111.62
360.709	95.62
360.936	84.62
361.163	105.62
361.39	100.62
361.616	114.62
361.843	96.62
362.07	91.62
362.296	106.62
362.523	90.62
362.749	79.62
362.976	87.62
363.203	99.62
363.429	84.62
363.656	101.62
363.882	84.62
364.109	84.62
364.335	97.62
364.562	98.62
364.788	84.62
365.015	94.62
365.241	101.62
365.468	116.62
365.694	110.62
365.92	99.62
366.147	101.62
366.373	92.62
366.599	83.62
366.826	85.62
367.052	76.62
367.278	88.62
367.505	95.62
367.731	90.62
367.957	80.62
368.184	96.62
368.41	95.62
368.636	102.62
368.862	121.62
369.089	124.62
369.315	104.62
369.541	74.62
369.767	82.62
369.993	92.62
370.219	102.62
370.445	71.62
370.672	97.62
370.898	86.62
371.124	82.62
371.35	86.62
371.576	83.62
371.802	89.62
372.028	88.62
372.254	78.62
372.48	86.62
372.706	94.62
372.932	104.62
373.158	81.62
373.384	92.62
373.61	88.62
373.835	98.62
374.061	90.62
374.287	87.62
374.513	87.62
374.739	91.62
374.965	89.62
375.191	98.62
375.416	88.62
375.642	97.62
375.868	88.62
376.094	96.62
376.319	102.62
376.545	87.62
376.771	95.62
376.997	95.62
377.222	83.62
377.448	86.62
377.674	83.62
377.899	102.62
378.125	91.62
378.35	95.62
378.576	98.62
378.802	106.62
379.027	97.62
379.253	97.62
379.478	88.62
379.704	94.62
379.929	88.62
380.155	111.62
380.38	94.62
380.606	88.62
380.831	96.62
381.057	101.62
381.282	94.62
381.507	96.62
381.733	98.62
381.958	98.62
382.184	104.62
382.409	112.62
382.634	105.62
382.86	102.62
383.085	102.62
383.31	98.62
383.535	96.62
383.761	109.62
383.986	113.62
384.211	106.62
384.436	104.62
384.662	80.62
384.887	98.62
385.112	88.62
385.337	95.62
385.562	92.62
385.787	117.62
386.013	118.62
386.238	114.62
386.463	115.62
386.688	113.62
386.913	101.62
387.138	117.62
387.363	97.62
387.588	102.62
387.813	111.62
388.038	83.62
388.263	108.62
388.488	118.62
388.713	88.62
388.938	107.62
389.163	105.62
389.387	98.62
389.612	95.62
389.837	91.62
390.062	90.62
390.287	95.62
390.512	81.62
390.736	88.62
390.961	84.62
391.186	95.62
391.411	90.62
391.636	95.62
391.86	80.62
392.085	95.62
392.31	91.62
392.534	91.62
392.759	100.62
392.984	98.62
393.208	108.62
393.433	116.62
393.658	104.62
393.882	102.62
394.107	96.62
394.331	97.62
394.556	97.62
394.78	91.62
395.005	93.62
395.229	90.62
395.454	93.62
395.678	97.62
395.903	88.62
396.127	102.62
396.352	89.62
396.576	84.62
396.801	91.62
397.025	78.62
397.249	100.62
397.474	88.62
397.698	87.62
397.922	88.62
398.147	99.62
398.371	96.62
398.595	80.62
398.82	81.62
399.044	74.62
399.268	94.62
399.492	94.62
399.717	67.62
399.941	91.62
400.165	87.62
400.389	100.62
400.613	82.62
400.837	93.62
401.062	105.62
401.286	93.62
401.51	98.62
401.734	104.62
401.958	106.62
402.182	130.62
402.406	156.62
402.63	129.62
402.854	102.62
403.078	84.62
403.302	93.62
403.526	84.62
403.75	80.62
403.974	93.62
404.198	94.62
404.422	96.62
404.645	98.62
404.869	115.62
405.093	103.62
405.317	109.62
405.541	122.62
405.765	98.62
405.988	109.62
406.212	181.62
406.436	240.62
406.66	148.62
406.883	102.62
407.107	98.62
407.331	87.62
407.555	109.62
407.778	103.62
408.002	94.62
408.226	91.62
408.449	91.62
408.673	86.62
408.896	92.62
409.12	98.62
409.344	91.62
409.567	112.62
409.791	98.62
410.014	83.62
410.238	98.62
410.461	87.62
410.685	94.62
410.908	108.62
411.132	119.62
411.355	94.62
411.578	106.62
411.802	79.62
412.025	67.62
412.249	101.62
412.472	100.62
412.695	127.62
412.919	104.62
413.142	86.62
413.365	84.62
413.589	91.62
413.812	90.62
414.035	90.62
414.258	86.62
414.482	102.62
414.705	93.62
414.928	89.62
415.151	102.62
415.374	74.62
415.597	79.62
415.821	90.62
416.044	81.62
416.267	94.62
416.49	78.62
416.713	99.62
416.936	86.62
417.159	98.62
417.382	89.62
417.605	104.62
417.828	88.62
418.051	98.62
418.274	84.62
418.497	100.62
418.72	94.62
418.943	113.62
419.166	84.62
419.389	92.62
419.611	75.62
419.834	94.62
420.057	89.62
420.28	92.62
420.503	85.62
420.726	96.62
420.948	89.62
421.171	105.62
421.394	93.62
421.617	93.62
421.839	85.62
422.062	84.62
422.285	98.62
422.507	98.62
422.73	108.62
422.953	97.62
423.175	90.62
423.398	95.62
423.621	86.62
423.843	84.62
424.066	80.62
424.288	92.62
424.511	111.62
424.733	98.62
424.956	111.62
425.178	105.62
425.401	106.62
425.623	115.62
425.846	106.62
426.068	105.62
426.291	93.62
426.513	91.62
426.735	94.62
426.958	97.62
427.18	98.62
427.402	143.62
427.625	197.62
427.847	185.62
428.069	165.62
428.292	118.62
428.514	96.62
428.736	94.62
428.958	87.62
429.181	88.62
429.403	89.62
429.625	87.62
429.847	90.62
430.069	107.62
430.292	99.62
430.514	100.62
430.736	99.62
430.958	96.62
431.18	95.62
431.402	100.62
431.624	100.62
431.846	80.62
432.068	91.62
432.29	96.62
432.512	82.62
432.734	99.62
432.956	97.62
433.178	108.62
433.4	86.62
433.622	91.62
433.844	93.62
434.066	86.62
434.287	103.62
434.509	99.62
434.731	90.62
434.953	91.62
435.175	92.62
435.397	81.62
435.618	107.62
435.84	99.62
436.062	116.62
436.284	132.62
436.505	103.62
436.727	98.62
436.949	97.62
437.17	96.62
437.392	92.62
437.614	89.62
437.835	98.62
438.057	136.62
438.278	114.62
438.5	115.62
438.721	114.62
438.943	86.62
439.165	107.62
439.386	90.62
439.608	82.62
439.829	101.62
440.05	151.62
440.272	168.62
440.493	125.62
440.715	100.62
440.936	88.62
441.158	106.62
441.379	89.62
441.6	89.62
441.822	91.62
442.043	103.62
442.264	117.62
442.486	105.62
442.707	108.62
442.928	113.62
443.149	139.62
443.371	127.62
443.592	125.62
443.813	121.62
444.034	105.62
444.255	90.62
444.476	82.62
444.698	108.62
444.919	91.62
445.14	146.62
445.361	131.62
445.582	114.62
445.803	138.62
446.024	158.62
446.245	146.62
446.466	122.62
446.687	96.62
446.908	86.62
447.129	88.62
447.35	90.62
447.571	98.62
447.792	99.62
448.013	99.62
448.234	108.62
448.455	100.62
448.675	120.62
448.896	122.62
449.117	92.62
449.338	121.62
449.559	115.62
449.779	129.62
450	86.62
450.221	89.62
450.442	86.62
450.662	95.62
450.883	115.62
451.104	135.62
451.324	108.62
451.545	104.62
451.766	83.62
451.986	95.62
452.207	86.62
452.428	87.62
452.648	115.62
452.869	111.62
453.089	129.62
453.31	115.62
453.53	103.62
453.751	100.62
453.971	103.62
454.192	113.62
454.412	99.62
454.633	89.62
454.853	82.62
455.073	80.62
455.294	78.62
455.514	117.62
455.734	93.62
455.955	88.62
456.175	85.62
456.395	91.62
456.616	83.62
456.836	94.62
457.056	97.62
457.276	83.62
457.497	74.62
457.717	84.62
457.937	101.62
458.157	90.62
458.377	89.62
458.598	116.62
458.818	168.62
459.038	185.62
459.258	118.62
459.478	90.62
459.698	87.62
459.918	104.62
460.138	93.62
460.358	85.62
460.578	72.62
460.798	91.62
461.018	80.62
461.238	98.62
461.458	88.62
461.678	67.62
461.898	90.62
462.118	93.62
462.338	102.62
462.558	87.62
462.777	85.62
462.997	99.62
463.217	92.62
463.437	91.62
463.657	94.62
463.876	96.62
464.096	90.62
464.316	90.62
464.536	92.62
464.755	95.62
464.975	117.62
465.195	179.62
465.414	203.62
465.634	100.62
465.854	98.62
466.073	88.62
466.293	88.62
466.512	100.62
466.732	86.62
466.951	90.62
467.171	90.62
467.391	107.62
467.61	134.62
467.829	165.62
468.049	347.62
468.268	491.62
468.488	161.62
468.707	102.62
468.927	79.62
469.146	84.62
469.365	90.62
469.585	106.62
469.804	104.62
470.023	97.62
470.243	107.62
470.462	113.62
470.681	132.62
470.901	100.62
471.12	107.62
471.339	109.62
471.558	113.62
471.777	130.62
471.997	208.62
472.216	646.62
472.435	1424.62
472.654	386.62
472.873	132.62
473.092	99.62
473.311	103.62
473.53	99.62
473.749	104.62
473.968	94.62
474.187	118.62
474.406	99.62
474.625	92.62
474.844	94.62
475.063	88.62
475.282	81.62
475.501	89.62
475.72	95.62
475.939	80.62
476.158	86.62
476.377	71.62
476.596	85.62
476.814	98.62
477.033	113.62
477.252	100.62
477.471	101.62
477.69	90.62
477.908	96.62
478.127	103.62
478.346	91.62
478.564	109.62
478.783	104.62
479.002	106.62
479.22	97.62
479.439	103.62
479.658	123.62
479.876	108.62
480.095	113.62
480.313	106.62
480.532	126.62
480.751	181.62
480.969	600.62
481.188	2478.62
481.406	1444.62
481.624	242.62
481.843	114.62
482.061	86.62
482.28	88.62
482.498	90.62
482.717	90.62
482.935	96.62
483.153	101.62
483.372	104.62
483.59	91.62
483.808	84.62
484.027	96.62
484.245	96.62
484.463	90.62
484.681	91.62
484.9	88.62
485.118	99.62
485.336	105.62
485.554	104.62
485.772	105.62
485.99	110.62
486.209	110.62
486.427	103.62
486.645	132.62
486.863	107.62
487.081	103.62
487.299	94.62
487.517	91.62
487.735	94.62
487.953	109.62
488.171	92.62
488.389	97.62
488.607	103.62
488.825	90.62
489.043	89.62
489.261	92.62
489.479	96.62
489.696	83.62
489.914	98.62
490.132	91.62
490.35	76.62
490.568	88.62
490.786	95.62
491.003	95.62
491.221	97.62
491.439	98.62
491.657	90.62
491.874	88.62
492.092	101.62
492.31	89.62
492.527	99.62
492.745	82.62
492.963	89.62
493.18	98.62
493.398	97.62
493.615	105.62
493.833	82.62
494.05	90.62
494.268	93.62
494.485	90.62
494.703	90.62
494.92	93.62
495.138	99.62
495.355	105.62
495.573	84.62
495.79	111.62
496.008	99.62
496.225	92.62
496.442	85.62
496.66	98.62
496.877	102.62
497.094	95.62
497.312	97.62
497.529	90.62
497.746	113.62
497.963	88.62
498.181	96.62
498.398	95.62
498.615	120.62
498.832	118.62
499.049	98.62
499.267	92.62
499.484	99.62
499.701	89.62
499.918	89.62
500.135	103.62
500.352	98.62
500.569	98.62
500.786	112.62
501.003	90.62
501.22	92.62
501.437	102.62
501.654	92.62
501.871	102.62
502.088	91.62
502.305	89.62
502.522	90.62
502.739	96.62
502.956	95.62
503.172	89.62
503.389	101.62
503.606	118.62
503.823	112.62
504.04	95.62
504.256	95.62
504.473	96.62
504.69	93.62
504.907	96.62
505.123	90.62
505.34	80.62
505.557	93.62
505.773	92.62
505.99	103.62
506.207	101.62
506.423	90.62
506.64	96.62
506.856	106.62
507.073	92.62
507.289	90.62
507.506	108.62
507.722	115.62
507.939	118.62
508.155	105.62
508.372	91.62
508.588	85.62
508.805	96.62
509.021	83.62
509.238	101.62
509.454	83.62
509.67	83.62
509.887	112.62
510.103	142.62
510.319	214.62
510.536	783.62
510.752	2526.62
510.968	694.62
511.184	148.62
511.401	112.62
511.617	108.62
511.833	88.62
512.049	94.62
512.265	99.62
512.481	96.62
512.698	91.62
512.914	103.62
513.13	98.62
513.346	78.62
513.562	92.62
513.778	90.62
513.994	88.62
