Data from Circ_1987_H10_HRD10591_00009.txt Node
Date: Wed Jan 03 12:10:34 EST 2024
User: Yrep
Spectrometer: HR+D1059
Trigger mode: 1
Integration Time (sec): 1.000000E-1
Scans to average: 1
Electric dark correction enabled: true
Nonlinearity correction enabled: false
Boxcar width: 0
XAxis mode: Wavelengths
Number of Pixels in Spectrum: 2048
>>>>>Begin Spectral Data<<<<<
223.165	-15.69
223.4	-15.69
223.635	-15.69
223.869	-7.69
224.104	-13.69
224.338	-17.69
224.573	-10.69
224.808	-6.69
225.042	-20.69
225.277	-5.69
225.511	-8.69
225.746	-9.69
225.98	9.31
226.215	18.31
226.449	12.31
226.683	20.31
226.918	22.31
227.152	34.31
227.387	18.31
227.621	43.31
227.856	38.31
228.09	52.31
228.324	55.31
228.559	74.31
228.793	64.31
229.027	66.31
229.262	62.31
229.496	74.31
229.73	96.31
229.964	100.31
230.199	81.31
230.433	74.31
230.667	98.31
230.901	80.31
231.136	75.31
231.37	88.31
231.604	76.31
231.838	79.31
232.072	76.31
232.306	92.31
232.541	84.31
232.775	94.31
233.009	82.31
233.243	83.31
233.477	94.31
233.711	72.31
233.945	85.31
234.179	63.31
234.413	79.31
234.647	73.31
234.881	84.31
235.115	66.31
235.349	83.31
235.583	93.31
235.817	87.31
236.051	85.31
236.285	73.31
236.519	86.31
236.753	84.31
236.987	77.31
237.221	78.31
237.455	96.31
237.689	78.31
237.922	70.31
238.156	78.31
238.39	91.31
238.624	80.31
238.858	67.31
239.091	80.31
239.325	67.31
239.559	89.31
239.793	84.31
240.027	78.31
240.26	78.31
240.494	67.31
240.728	72.31
240.961	74.31
241.195	79.31
241.429	69.31
241.662	76.31
241.896	92.31
242.13	75.31
242.363	68.31
242.597	68.31
242.83	89.31
243.064	90.31
243.298	82.31
243.531	67.31
243.765	83.31
243.998	75.31
244.232	83.31
244.465	97.31
244.699	99.31
244.932	68.31
245.166	74.31
245.399	62.31
245.633	79.31
245.866	67.31
246.099	75.31
246.333	80.31
246.566	83.31
246.8	68.31
247.033	86.31
247.266	82.31
247.5	88.31
247.733	90.31
247.966	79.31
248.2	89.31
248.433	74.31
248.666	76.31
248.899	83.31
249.133	94.31
249.366	97.31
249.599	102.31
249.832	80.31
250.066	79.31
250.299	83.31
250.532	99.31
250.765	75.31
250.998	77.31
251.231	84.31
251.465	87.31
251.698	93.31
251.931	74.31
252.164	103.31
252.397	86.31
252.63	76.31
252.863	72.31
253.096	78.31
253.329	90.31
253.562	73.31
253.795	85.31
254.028	86.31
254.261	62.31
254.494	80.31
254.727	85.31
254.96	88.31
255.193	97.31
255.426	87.31
255.659	84.31
255.892	95.31
256.124	103.31
256.357	85.31
256.59	89.31
256.823	82.31
257.056	72.31
257.289	92.31
257.521	83.31
257.754	81.31
257.987	88.31
258.22	95.31
258.452	92.31
258.685	88.31
258.918	87.31
259.151	78.31
259.383	89.31
259.616	84.31
259.849	82.31
260.081	94.31
260.314	88.31
260.547	82.31
260.779	77.31
261.012	79.31
261.244	97.31
261.477	89.31
261.71	92.31
261.942	108.31
262.175	103.31
262.407	86.31
262.64	86.31
262.872	95.31
263.105	80.31
263.337	82.31
263.57	76.31
263.802	95.31
264.035	97.31
264.267	90.31
264.499	88.31
264.732	84.31
264.964	86.31
265.197	85.31
265.429	85.31
265.661	94.31
265.894	91.31
266.126	100.31
266.358	90.31
266.591	83.31
266.823	70.31
267.055	84.31
267.287	81.31
267.52	86.31
267.752	72.31
267.984	77.31
268.216	75.31
268.448	93.31
268.681	92.31
268.913	92.31
269.145	78.31
269.377	83.31
269.609	92.31
269.841	86.31
270.073	72.31
270.306	97.31
270.538	78.31
270.77	78.31
271.002	77.31
271.234	82.31
271.466	84.31
271.698	85.31
271.93	88.31
272.162	112.31
272.394	99.31
272.626	91.31
272.858	78.31
273.09	88.31
273.322	76.31
273.553	87.31
273.785	91.31
274.017	98.31
274.249	84.31
274.481	80.31
274.713	83.31
274.945	87.31
275.176	97.31
275.408	96.31
275.64	113.31
275.872	97.31
276.104	94.31
276.335	96.31
276.567	84.31
276.799	107.31
277.031	114.31
277.262	110.31
277.494	97.31
277.726	114.31
277.957	89.31
278.189	97.31
278.421	96.31
278.652	85.31
278.884	88.31
279.115	94.31
279.347	98.31
279.579	100.31
279.81	98.31
280.042	116.31
280.273	133.31
280.505	121.31
280.736	108.31
280.968	84.31
281.199	90.31
281.431	89.31
281.662	89.31
281.894	112.31
282.125	92.31
282.356	115.31
282.588	139.31
282.819	107.31
283.051	78.31
283.282	83.31
283.513	97.31
283.745	94.31
283.976	109.31
284.207	95.31
284.439	71.31
284.67	90.31
284.901	101.31
285.132	94.31
285.364	86.31
285.595	79.31
285.826	88.31
286.057	82.31
286.288	89.31
286.52	88.31
286.751	78.31
286.982	90.31
287.213	80.31
287.444	87.31
287.675	83.31
287.906	87.31
288.138	81.31
288.369	92.31
288.6	103.31
288.831	94.31
289.062	87.31
289.293	96.31
289.524	94.31
289.755	87.31
289.986	86.31
290.217	72.31
290.448	77.31
290.679	98.31
290.91	85.31
291.141	85.31
291.371	89.31
291.602	74.31
291.833	78.31
292.064	98.31
292.295	86.31
292.526	88.31
292.757	88.31
292.987	94.31
293.218	103.31
293.449	91.31
293.68	98.31
293.91	80.31
294.141	89.31
294.372	90.31
294.603	83.31
294.833	88.31
295.064	74.31
295.295	89.31
295.525	91.31
295.756	106.31
295.987	113.31
296.217	136.31
296.448	129.31
296.679	97.31
296.909	85.31
297.14	97.31
297.37	105.31
297.601	92.31
297.831	75.31
298.062	107.31
298.292	86.31
298.523	87.31
298.753	87.31
298.984	85.31
299.214	86.31
299.445	95.31
299.675	99.31
299.905	104.31
300.136	90.31
300.366	100.31
300.597	75.31
300.827	110.31
301.057	96.31
301.288	108.31
301.518	86.31
301.748	96.31
301.979	107.31
302.209	99.31
302.439	85.31
302.669	86.31
302.9	98.31
303.13	98.31
303.36	98.31
303.59	99.31
303.82	119.31
304.051	99.31
304.281	97.31
304.511	94.31
304.741	88.31
304.971	97.31
305.201	108.31
305.431	84.31
305.661	96.31
305.891	89.31
306.121	90.31
306.352	98.31
306.582	98.31
306.812	101.31
307.042	117.31
307.272	121.31
307.502	133.31
307.731	116.31
307.961	110.31
308.191	84.31
308.421	90.31
308.651	101.31
308.881	81.31
309.111	83.31
309.341	92.31
309.571	90.31
309.8	99.31
310.03	115.31
310.26	97.31
310.49	103.31
310.72	93.31
310.949	91.31
311.179	103.31
311.409	99.31
311.639	93.31
311.868	108.31
312.098	97.31
312.328	80.31
312.557	102.31
312.787	110.31
313.017	123.31
313.246	85.31
313.476	90.31
313.706	88.31
313.935	78.31
314.165	100.31
314.394	99.31
314.624	93.31
314.853	96.31
315.083	90.31
315.312	104.31
315.542	94.31
315.771	89.31
316.001	86.31
316.23	93.31
316.46	87.31
316.689	83.31
316.919	84.31
317.148	100.31
317.377	96.31
317.607	93.31
317.836	94.31
318.065	100.31
318.295	105.31
318.524	99.31
318.753	94.31
318.983	80.31
319.212	87.31
319.441	108.31
319.67	105.31
319.9	89.31
320.129	94.31
320.358	101.31
320.587	97.31
320.816	96.31
321.046	109.31
321.275	91.31
321.504	78.31
321.733	101.31
321.962	104.31
322.191	95.31
322.42	95.31
322.649	114.31
322.878	118.31
323.108	114.31
323.337	133.31
323.566	131.31
323.795	127.31
324.024	194.31
324.253	352.31
324.482	748.31
324.71	1591.31
324.939	2158.31
325.168	782.31
325.397	254.31
325.626	147.31
325.855	131.31
326.084	134.31
326.313	121.31
326.542	158.31
326.77	208.31
326.999	436.31
327.228	901.31
327.457	1618.31
327.686	1338.31
327.914	403.31
328.143	290.31
328.372	335.31
328.6	219.31
328.829	137.31
329.058	155.31
329.287	126.31
329.515	125.31
329.744	151.31
329.972	237.31
330.201	449.31
330.43	600.31
330.658	308.31
330.887	195.31
331.115	134.31
331.344	102.31
331.572	86.31
331.801	115.31
332.03	119.31
332.258	99.31
332.486	90.31
332.715	105.31
332.943	123.31
333.172	102.31
333.4	107.31
333.629	127.31
333.857	144.31
334.085	222.31
334.314	427.31
334.542	780.31
334.771	747.31
334.999	233.31
335.227	131.31
335.455	115.31
335.684	108.31
335.912	98.31
336.14	107.31
336.369	111.31
336.597	106.31
336.825	100.31
337.053	110.31
337.281	99.31
337.51	99.31
337.738	88.31
337.966	90.31
338.194	98.31
338.422	94.31
338.65	110.31
338.878	96.31
339.106	102.31
339.334	101.31
339.562	86.31
339.79	100.31
340.018	90.31
340.246	107.31
340.474	80.31
340.702	91.31
340.93	96.31
341.158	102.31
341.386	98.31
341.614	115.31
341.842	95.31
342.07	98.31
342.298	88.31
342.526	101.31
342.754	92.31
342.981	87.31
343.209	90.31
343.437	114.31
343.665	100.31
343.893	100.31
344.12	92.31
344.348	89.31
344.576	94.31
344.804	96.31
345.031	85.31
345.259	100.31
345.487	96.31
345.714	91.31
345.942	100.31
346.17	117.31
346.397	90.31
346.625	90.31
346.853	87.31
347.08	93.31
347.308	98.31
347.535	91.31
347.763	106.31
347.99	102.31
348.218	126.31
348.445	98.31
348.673	108.31
348.9	95.31
349.128	94.31
349.355	92.31
349.583	90.31
349.81	91.31
350.037	78.31
350.265	108.31
350.492	93.31
350.72	95.31
350.947	112.31
351.174	98.31
351.402	104.31
351.629	89.31
351.856	107.31
352.083	111.31
352.311	98.31
352.538	106.31
352.765	105.31
352.992	114.31
353.22	108.31
353.447	95.31
353.674	106.31
353.901	94.31
354.128	94.31
354.355	92.31
354.583	94.31
354.81	109.31
355.037	112.31
355.264	95.31
355.491	90.31
355.718	100.31
355.945	106.31
356.172	94.31
356.399	88.31
356.626	94.31
356.853	94.31
357.08	93.31
357.307	84.31
357.534	92.31
357.761	91.31
357.988	90.31
358.215	85.31
358.441	96.31
358.668	99.31
358.895	93.31
359.122	109.31
359.349	90.31
359.576	82.31
359.802	105.31
360.029	103.31
360.256	109.31
360.483	103.31
360.709	88.31
360.936	96.31
361.163	96.31
361.39	94.31
361.616	86.31
361.843	94.31
362.07	87.31
362.296	82.31
362.523	94.31
362.749	105.31
362.976	91.31
363.203	95.31
363.429	97.31
363.656	97.31
363.882	101.31
364.109	91.31
364.335	85.31
364.562	87.31
364.788	87.31
365.015	92.31
365.241	90.31
365.468	98.31
365.694	112.31
365.92	108.31
366.147	90.31
366.373	96.31
366.599	97.31
366.826	92.31
367.052	77.31
367.278	99.31
367.505	92.31
367.731	83.31
367.957	100.31
368.184	85.31
368.41	101.31
368.636	98.31
368.862	113.31
369.089	111.31
369.315	96.31
369.541	86.31
369.767	100.31
369.993	92.31
370.219	95.31
370.445	97.31
370.672	89.31
370.898	94.31
371.124	91.31
371.35	81.31
371.576	94.31
371.802	78.31
372.028	101.31
372.254	78.31
372.48	90.31
372.706	82.31
372.932	100.31
373.158	76.31
373.384	100.31
373.61	89.31
373.835	84.31
374.061	87.31
374.287	96.31
374.513	86.31
374.739	86.31
374.965	93.31
375.191	90.31
375.416	83.31
375.642	102.31
375.868	93.31
376.094	80.31
376.319	95.31
376.545	86.31
376.771	92.31
376.997	108.31
377.222	95.31
377.448	86.31
377.674	90.31
377.899	92.31
378.125	95.31
378.35	89.31
378.576	97.31
378.802	98.31
379.027	99.31
379.253	90.31
379.478	94.31
379.704	104.31
379.929	98.31
380.155	98.31
380.38	107.31
380.606	99.31
380.831	111.31
381.057	101.31
381.282	92.31
381.507	99.31
381.733	90.31
381.958	101.31
382.184	100.31
382.409	103.31
382.634	117.31
382.86	112.31
383.085	99.31
383.31	108.31
383.535	103.31
383.761	92.31
383.986	102.31
384.211	104.31
384.436	102.31
384.662	118.31
384.887	103.31
385.112	113.31
385.337	107.31
385.562	102.31
385.787	120.31
386.013	115.31
386.238	122.31
386.463	119.31
386.688	105.31
386.913	107.31
387.138	121.31
387.363	108.31
387.588	89.31
387.813	116.31
388.038	102.31
388.263	125.31
388.488	119.31
388.713	102.31
388.938	83.31
389.163	90.31
389.387	94.31
389.612	90.31
389.837	91.31
390.062	94.31
390.287	83.31
390.512	94.31
390.736	98.31
390.961	89.31
391.186	95.31
391.411	82.31
391.636	80.31
391.86	86.31
392.085	87.31
392.31	92.31
392.534	91.31
392.759	86.31
392.984	73.31
393.208	84.31
393.433	89.31
393.658	89.31
393.882	83.31
394.107	82.31
394.331	94.31
394.556	79.31
394.78	85.31
395.005	81.31
395.229	86.31
395.454	84.31
395.678	88.31
395.903	98.31
396.127	92.31
396.352	84.31
396.576	96.31
396.801	97.31
397.025	90.31
397.249	99.31
397.474	90.31
397.698	80.31
397.922	79.31
398.147	90.31
398.371	91.31
398.595	90.31
398.82	89.31
399.044	86.31
399.268	90.31
399.492	100.31
399.717	101.31
399.941	97.31
400.165	87.31
400.389	99.31
400.613	89.31
400.837	82.31
401.062	83.31
401.286	89.31
401.51	100.31
401.734	101.31
401.958	99.31
402.182	115.31
402.406	155.31
402.63	130.31
402.854	103.31
403.078	87.31
403.302	81.31
403.526	94.31
403.75	90.31
403.974	93.31
404.198	85.31
404.422	90.31
404.645	79.31
404.869	96.31
405.093	98.31
405.317	107.31
405.541	122.31
405.765	114.31
405.988	112.31
406.212	140.31
406.436	223.31
406.66	139.31
406.883	97.31
407.107	94.31
407.331	105.31
407.555	108.31
407.778	85.31
408.002	89.31
408.226	94.31
408.449	89.31
408.673	103.31
408.896	91.31
409.12	95.31
409.344	104.31
409.567	86.31
409.791	87.31
410.014	92.31
410.238	99.31
410.461	87.31
410.685	105.31
410.908	92.31
411.132	103.31
411.355	100.31
411.578	97.31
411.802	83.31
412.025	95.31
412.249	102.31
412.472	112.31
412.695	107.31
412.919	100.31
413.142	72.31
413.365	71.31
413.589	88.31
413.812	104.31
414.035	99.31
414.258	87.31
414.482	96.31
414.705	98.31
414.928	90.31
415.151	93.31
415.374	101.31
415.597	102.31
415.821	84.31
416.044	93.31
416.267	90.31
416.49	84.31
416.713	83.31
416.936	102.31
417.159	97.31
417.382	81.31
417.605	107.31
417.828	111.31
418.051	89.31
418.274	85.31
418.497	104.31
418.72	87.31
418.943	87.31
419.166	87.31
419.389	87.31
419.611	88.31
419.834	116.31
420.057	91.31
420.28	90.31
420.503	87.31
420.726	105.31
420.948	86.31
421.171	123.31
421.394	107.31
421.617	85.31
421.839	82.31
422.062	90.31
422.285	81.31
422.507	113.31
422.73	107.31
422.953	94.31
423.175	83.31
423.398	84.31
423.621	88.31
423.843	81.31
424.066	85.31
424.288	76.31
424.511	93.31
424.733	102.31
424.956	105.31
425.178	106.31
425.401	106.31
425.623	94.31
425.846	95.31
426.068	99.31
426.291	77.31
426.513	104.31
426.735	91.31
426.958	100.31
427.18	110.31
427.402	148.31
427.625	185.31
427.847	178.31
428.069	168.31
428.292	113.31
428.514	92.31
428.736	73.31
428.958	84.31
429.181	78.31
429.403	94.31
429.625	81.31
429.847	87.31
430.069	100.31
430.292	86.31
430.514	94.31
430.736	96.31
430.958	98.31
431.18	83.31
431.402	80.31
431.624	95.31
431.846	77.31
432.068	87.31
432.29	99.31
432.512	106.31
432.734	90.31
432.956	90.31
433.178	99.31
433.4	97.31
433.622	87.31
433.844	107.31
434.066	96.31
434.287	91.31
434.509	85.31
434.731	90.31
434.953	79.31
435.175	96.31
435.397	87.31
435.618	95.31
435.84	112.31
436.062	145.31
436.284	122.31
436.505	118.31
436.727	96.31
436.949	105.31
437.17	95.31
437.392	88.31
437.614	79.31
437.835	109.31
438.057	129.31
438.278	113.31
438.5	116.31
438.721	126.31
438.943	90.31
439.165	84.31
439.386	81.31
439.608	99.31
439.829	100.31
440.05	123.31
440.272	149.31
440.493	96.31
440.715	91.31
440.936	90.31
441.158	84.31
441.379	92.31
441.6	100.31
441.822	98.31
442.043	103.31
442.264	115.31
442.486	89.31
442.707	98.31
442.928	125.31
443.149	139.31
443.371	127.31
443.592	112.31
443.813	111.31
444.034	113.31
444.255	93.31
444.476	81.31
444.698	95.31
444.919	101.31
445.14	116.31
445.361	133.31
445.582	123.31
445.803	146.31
446.024	154.31
446.245	153.31
446.466	110.31
446.687	86.31
446.908	93.31
447.129	98.31
447.35	94.31
447.571	90.31
447.792	90.31
448.013	107.31
448.234	104.31
448.455	111.31
448.675	118.31
448.896	122.31
449.117	101.31
449.338	102.31
449.559	140.31
449.779	148.31
450	107.31
450.221	87.31
450.442	87.31
450.662	96.31
450.883	114.31
451.104	121.31
451.324	100.31
451.545	107.31
451.766	92.31
451.986	97.31
452.207	86.31
452.428	84.31
452.648	100.31
452.869	120.31
453.089	121.31
453.31	110.31
453.53	101.31
453.751	94.31
453.971	92.31
454.192	108.31
454.412	107.31
454.633	83.31
454.853	99.31
455.073	94.31
455.294	85.31
455.514	98.31
455.734	84.31
455.955	88.31
456.175	83.31
456.395	76.31
456.616	99.31
456.836	85.31
457.056	84.31
457.276	80.31
457.497	92.31
457.717	98.31
457.937	92.31
458.157	97.31
458.377	80.31
458.598	114.31
458.818	161.31
459.038	176.31
459.258	130.31
459.478	95.31
459.698	100.31
459.918	85.31
460.138	71.31
460.358	87.31
460.578	90.31
460.798	97.31
461.018	83.31
461.238	98.31
461.458	73.31
461.678	102.31
461.898	92.31
462.118	81.31
462.338	86.31
462.558	90.31
462.777	71.31
462.997	82.31
463.217	86.31
463.437	87.31
463.657	90.31
463.876	80.31
464.096	85.31
464.316	90.31
464.536	86.31
464.755	109.31
464.975	98.31
465.195	155.31
465.414	143.31
465.634	99.31
465.854	82.31
466.073	92.31
466.293	82.31
466.512	89.31
466.732	84.31
466.951	92.31
467.171	86.31
467.391	93.31
467.61	124.31
467.829	140.31
468.049	268.31
468.268	386.31
468.488	142.31
468.707	96.31
468.927	90.31
469.146	94.31
469.365	91.31
469.585	90.31
469.804	81.31
470.023	104.31
470.243	97.31
470.462	106.31
470.681	124.31
470.901	101.31
471.12	80.31
471.339	90.31
471.558	105.31
471.777	86.31
471.997	179.31
472.216	498.31
472.435	1038.31
472.654	289.31
472.873	134.31
473.092	110.31
473.311	90.31
473.53	103.31
473.749	94.31
473.968	85.31
474.187	118.31
474.406	108.31
474.625	89.31
474.844	100.31
475.063	91.31
475.282	95.31
475.501	90.31
475.72	87.31
475.939	90.31
476.158	103.31
476.377	98.31
476.596	91.31
476.814	94.31
477.033	98.31
477.252	71.31
477.471	87.31
477.69	91.31
477.908	95.31
478.127	92.31
478.346	75.31
478.564	78.31
478.783	108.31
479.002	107.31
479.22	100.31
479.439	99.31
479.658	116.31
479.876	102.31
480.095	98.31
480.313	99.31
480.532	121.31
480.751	151.31
480.969	457.31
481.188	1837.31
481.406	1091.31
481.624	217.31
481.843	111.31
482.061	110.31
482.28	106.31
482.498	103.31
482.717	75.31
482.935	97.31
483.153	94.31
483.372	88.31
483.59	95.31
483.808	106.31
484.027	94.31
484.245	95.31
484.463	91.31
484.681	97.31
484.9	102.31
485.118	104.31
485.336	99.31
485.554	112.31
485.772	109.31
485.99	114.31
486.209	103.31
486.427	111.31
486.645	118.31
486.863	113.31
487.081	103.31
487.299	107.31
487.517	96.31
487.735	99.31
487.953	99.31
488.171	98.31
488.389	101.31
488.607	88.31
488.825	101.31
489.043	92.31
489.261	91.31
489.479	91.31
489.696	91.31
489.914	99.31
490.132	96.31
490.35	80.31
490.568	71.31
490.786	102.31
491.003	78.31
491.221	94.31
491.439	106.31
491.657	102.31
491.874	78.31
492.092	91.31
492.31	89.31
492.527	99.31
492.745	95.31
492.963	87.31
493.18	83.31
493.398	111.31
493.615	101.31
493.833	96.31
494.05	102.31
494.268	90.31
494.485	91.31
494.703	97.31
494.92	93.31
495.138	95.31
495.355	87.31
495.573	94.31
495.79	81.31
496.008	98.31
496.225	95.31
496.442	91.31
496.66	105.31
496.877	81.31
497.094	97.31
497.312	112.31
497.529	98.31
497.746	95.31
497.963	94.31
498.181	95.31
498.398	100.31
498.615	107.31
498.832	105.31
499.049	116.31
499.267	87.31
499.484	90.31
499.701	97.31
499.918	92.31
500.135	98.31
500.352	88.31
500.569	94.31
500.786	78.31
501.003	112.31
501.22	93.31
501.437	96.31
501.654	104.31
501.871	111.31
502.088	82.31
502.305	81.31
502.522	87.31
502.739	90.31
502.956	100.31
503.172	96.31
503.389	101.31
503.606	104.31
503.823	100.31
504.04	95.31
504.256	83.31
504.473	95.31
504.69	104.31
504.907	91.31
505.123	89.31
505.34	96.31
505.557	96.31
505.773	95.31
505.99	90.31
506.207	89.31
506.423	83.31
506.64	84.31
506.856	85.31
507.073	86.31
507.289	96.31
507.506	89.31
507.722	126.31
507.939	102.31
508.155	93.31
508.372	103.31
508.588	102.31
508.805	111.31
509.021	90.31
509.238	94.31
509.454	88.31
509.67	100.31
509.887	120.31
510.103	130.31
510.319	204.31
510.536	657.31
510.752	2068.31
510.968	592.31
511.184	159.31
511.401	122.31
511.617	91.31
511.833	107.31
512.049	100.31
512.265	82.31
512.481	85.31
512.698	105.31
512.914	94.31
513.13	93.31
513.346	93.31
513.562	98.31
513.778	95.31
513.994	104.31
514.21	107.31
