Data from Circ_1987_H10_HRD10591_00015.txt Node
Date: Wed Jan 03 12:10:35 EST 2024
User: Yrep
Spectrometer: HR+D1059
Trigger mode: 1
Integration Time (sec): 1.000000E-1
Scans to average: 1
Electric dark correction enabled: true
Nonlinearity correction enabled: false
Boxcar width: 0
XAxis mode: Wavelengths
Number of Pixels in Spectrum: 2048
>>>>>Begin Spectral Data<<<<<
223.165	-18.69
223.4	-18.69
223.635	-18.69
223.869	-16.69
224.104	-34.69
224.338	-4.69
224.573	-9.69
224.808	-18.69
225.042	-0.69
225.277	9.31
225.511	-8.69
225.746	5.31
225.98	18.31
226.215	-4.69
226.449	10.31
226.683	26.31
226.918	22.31
227.152	25.31
227.387	39.31
227.621	45.31
227.856	42.31
228.09	43.31
228.324	61.31
228.559	52.31
228.793	56.31
229.027	68.31
229.262	75.31
229.496	79.31
229.73	95.31
229.964	85.31
230.199	99.31
230.433	80.31
230.667	76.31
230.901	75.31
231.136	80.31
231.37	79.31
231.604	82.31
231.838	67.31
232.072	75.31
232.306	96.31
232.541	82.31
232.775	86.31
233.009	86.31
233.243	83.31
233.477	99.31
233.711	85.31
233.945	72.31
234.179	81.31
234.413	88.31
234.647	78.31
234.881	71.31
235.115	87.31
235.349	80.31
235.583	75.31
235.817	75.31
236.051	72.31
236.285	88.31
236.519	70.31
236.753	88.31
236.987	82.31
237.221	80.31
237.455	84.31
237.689	85.31
237.922	95.31
238.156	81.31
238.39	63.31
238.624	89.31
238.858	78.31
239.091	75.31
239.325	81.31
239.559	88.31
239.793	92.31
240.027	90.31
240.26	92.31
240.494	84.31
240.728	91.31
240.961	74.31
241.195	82.31
241.429	84.31
241.662	72.31
241.896	84.31
242.13	82.31
242.363	89.31
242.597	92.31
242.83	81.31
243.064	82.31
243.298	78.31
243.531	71.31
243.765	85.31
243.998	85.31
244.232	83.31
244.465	89.31
244.699	83.31
244.932	76.31
245.166	79.31
245.399	83.31
245.633	89.31
245.866	86.31
246.099	83.31
246.333	71.31
246.566	86.31
246.8	68.31
247.033	75.31
247.266	96.31
247.5	88.31
247.733	75.31
247.966	90.31
248.2	82.31
248.433	79.31
248.666	97.31
248.899	88.31
249.133	89.31
249.366	100.31
249.599	114.31
249.832	101.31
250.066	84.31
250.299	77.31
250.532	89.31
250.765	87.31
250.998	88.31
251.231	83.31
251.465	82.31
251.698	82.31
251.931	83.31
252.164	72.31
252.397	99.31
252.63	80.31
252.863	78.31
253.096	91.31
253.329	72.31
253.562	81.31
253.795	84.31
254.028	86.31
254.261	97.31
254.494	93.31
254.727	88.31
254.96	83.31
255.193	68.31
255.426	69.31
255.659	96.31
255.892	91.31
256.124	95.31
256.357	97.31
256.59	64.31
256.823	83.31
257.056	90.31
257.289	86.31
257.521	72.31
257.754	84.31
257.987	82.31
258.22	92.31
258.452	97.31
258.685	93.31
258.918	93.31
259.151	90.31
259.383	82.31
259.616	81.31
259.849	88.31
260.081	90.31
260.314	94.31
260.547	83.31
260.779	83.31
261.012	93.31
261.244	101.31
261.477	96.31
261.71	113.31
261.942	128.31
262.175	144.31
262.407	102.31
262.64	80.31
262.872	96.31
263.105	85.31
263.337	91.31
263.57	79.31
263.802	87.31
264.035	87.31
264.267	87.31
264.499	85.31
264.732	97.31
264.964	78.31
265.197	86.31
265.429	91.31
265.661	81.31
265.894	80.31
266.126	83.31
266.358	88.31
266.591	82.31
266.823	83.31
267.055	71.31
267.287	96.31
267.52	80.31
267.752	90.31
267.984	77.31
268.216	87.31
268.448	78.31
268.681	92.31
268.913	71.31
269.145	82.31
269.377	83.31
269.609	90.31
269.841	84.31
270.073	88.31
270.306	82.31
270.538	102.31
270.77	86.31
271.002	84.31
271.234	94.31
271.466	96.31
271.698	106.31
271.93	90.31
272.162	91.31
272.394	103.31
272.626	85.31
272.858	95.31
273.09	90.31
273.322	88.31
273.553	88.31
273.785	97.31
274.017	84.31
274.249	85.31
274.481	88.31
274.713	89.31
274.945	83.31
275.176	78.31
275.408	78.31
275.64	113.31
275.872	112.31
276.104	94.31
276.335	101.31
276.567	107.31
276.799	145.31
277.031	135.31
277.262	162.31
277.494	135.31
277.726	95.31
277.957	80.31
278.189	97.31
278.421	89.31
278.652	97.31
278.884	100.31
279.115	97.31
279.347	87.31
279.579	102.31
279.81	108.31
280.042	158.31
280.273	188.31
280.505	138.31
280.736	121.31
280.968	99.31
281.199	85.31
281.431	82.31
281.662	95.31
281.894	94.31
282.125	94.31
282.356	112.31
282.588	159.31
282.819	121.31
283.051	99.31
283.282	84.31
283.513	82.31
283.745	89.31
283.976	81.31
284.207	84.31
284.439	87.31
284.67	76.31
284.901	102.31
285.132	79.31
285.364	93.31
285.595	95.31
285.826	84.31
286.057	90.31
286.288	85.31
286.52	98.31
286.751	66.31
286.982	91.31
287.213	102.31
287.444	98.31
287.675	99.31
287.906	94.31
288.138	107.31
288.369	86.31
288.6	92.31
288.831	84.31
289.062	91.31
289.293	73.31
289.524	95.31
289.755	80.31
289.986	79.31
290.217	93.31
290.448	88.31
290.679	88.31
290.91	86.31
291.141	82.31
291.371	82.31
291.602	89.31
291.833	90.31
292.064	110.31
292.295	98.31
292.526	92.31
292.757	91.31
292.987	85.31
293.218	95.31
293.449	89.31
293.68	96.31
293.91	88.31
294.141	93.31
294.372	97.31
294.603	95.31
294.833	78.31
295.064	98.31
295.295	91.31
295.525	94.31
295.756	99.31
295.987	126.31
296.217	161.31
296.448	132.31
296.679	102.31
296.909	100.31
297.14	93.31
297.37	95.31
297.601	82.31
297.831	91.31
298.062	102.31
298.292	94.31
298.523	86.31
298.753	97.31
298.984	81.31
299.214	81.31
299.445	98.31
299.675	92.31
299.905	107.31
300.136	90.31
300.366	96.31
300.597	97.31
300.827	88.31
301.057	97.31
301.288	112.31
301.518	112.31
301.748	111.31
301.979	116.31
302.209	92.31
302.439	103.31
302.669	100.31
302.9	106.31
303.13	97.31
303.36	103.31
303.59	120.31
303.82	131.31
304.051	107.31
304.281	98.31
304.511	107.31
304.741	102.31
304.971	87.31
305.201	96.31
305.431	94.31
305.661	99.31
305.891	94.31
306.121	86.31
306.352	99.31
306.582	104.31
306.812	117.31
307.042	119.31
307.272	140.31
307.502	154.31
307.731	128.31
307.961	102.31
308.191	91.31
308.421	97.31
308.651	103.31
308.881	100.31
309.111	95.31
309.341	95.31
309.571	97.31
309.8	105.31
310.03	114.31
310.26	116.31
310.49	106.31
310.72	102.31
310.949	121.31
311.179	113.31
311.409	103.31
311.639	94.31
311.868	105.31
312.098	106.31
312.328	85.31
312.557	109.31
312.787	129.31
313.017	127.31
313.246	117.31
313.476	96.31
313.706	99.31
313.935	107.31
314.165	99.31
314.394	121.31
314.624	98.31
314.853	111.31
315.083	85.31
315.312	91.31
315.542	74.31
315.771	102.31
316.001	106.31
316.23	89.31
316.46	103.31
316.689	95.31
316.919	96.31
317.148	108.31
317.377	89.31
317.607	106.31
317.836	110.31
318.065	96.31
318.295	91.31
318.524	90.31
318.753	95.31
318.983	91.31
319.212	106.31
319.441	111.31
319.67	112.31
319.9	99.31
320.129	100.31
320.358	97.31
320.587	114.31
320.816	103.31
321.046	107.31
321.275	105.31
321.504	100.31
321.733	97.31
321.962	105.31
322.191	100.31
322.42	126.31
322.649	119.31
322.878	107.31
323.108	127.31
323.337	128.31
323.566	138.31
323.795	178.31
324.024	211.31
324.253	406.31
324.482	872.31
324.71	1767.31
324.939	2358.31
325.168	877.31
325.397	260.31
325.626	154.31
325.855	146.31
326.084	120.31
326.313	145.31
326.542	166.31
326.77	262.31
326.999	464.31
327.228	948.31
327.457	1720.31
327.686	1415.31
327.914	462.31
328.143	389.31
328.372	463.31
328.6	267.31
328.829	168.31
329.058	166.31
329.287	178.31
329.515	176.31
329.744	190.31
329.972	319.31
330.201	620.31
330.43	896.31
330.658	438.31
330.887	226.31
331.115	180.31
331.344	114.31
331.572	123.31
331.801	114.31
332.03	116.31
332.258	121.31
332.486	110.31
332.715	98.31
332.943	103.31
333.172	104.31
333.4	134.31
333.629	139.31
333.857	190.31
334.085	301.31
334.314	580.31
334.542	1096.31
334.771	1121.31
334.999	302.31
335.227	135.31
335.455	120.31
335.684	105.31
335.912	107.31
336.14	114.31
336.369	104.31
336.597	126.31
336.825	118.31
337.053	112.31
337.281	103.31
337.51	96.31
337.738	95.31
337.966	89.31
338.194	83.31
338.422	94.31
338.65	94.31
338.878	106.31
339.106	88.31
339.334	102.31
339.562	91.31
339.79	94.31
340.018	93.31
340.246	95.31
340.474	108.31
340.702	85.31
340.93	95.31
341.158	83.31
341.386	98.31
341.614	96.31
341.842	89.31
342.07	99.31
342.298	88.31
342.526	102.31
342.754	98.31
342.981	100.31
343.209	104.31
343.437	100.31
343.665	86.31
343.893	91.31
344.12	87.31
344.348	89.31
344.576	92.31
344.804	83.31
345.031	98.31
345.259	104.31
345.487	102.31
345.714	96.31
345.942	111.31
346.17	99.31
346.397	97.31
346.625	103.31
346.853	100.31
347.08	96.31
347.308	99.31
347.535	101.31
347.763	111.31
347.99	102.31
348.218	103.31
348.445	118.31
348.673	107.31
348.9	98.31
349.128	81.31
349.355	89.31
349.583	89.31
349.81	91.31
350.037	104.31
350.265	97.31
350.492	106.31
350.72	97.31
350.947	90.31
351.174	136.31
351.402	104.31
351.629	85.31
351.856	99.31
352.083	111.31
352.311	110.31
352.538	117.31
352.765	122.31
352.992	107.31
353.22	112.31
353.447	125.31
353.674	109.31
353.901	103.31
354.128	106.31
354.355	110.31
354.583	91.31
354.81	94.31
355.037	98.31
355.264	90.31
355.491	89.31
355.718	91.31
355.945	101.31
356.172	95.31
356.399	92.31
356.626	87.31
356.853	81.31
357.08	98.31
357.307	91.31
357.534	94.31
357.761	94.31
357.988	109.31
358.215	103.31
358.441	85.31
358.668	84.31
358.895	95.31
359.122	84.31
359.349	88.31
359.576	91.31
359.802	119.31
360.029	121.31
360.256	134.31
360.483	106.31
360.709	95.31
360.936	109.31
361.163	101.31
361.39	92.31
361.616	102.31
361.843	96.31
362.07	92.31
362.296	86.31
362.523	99.31
362.749	103.31
362.976	101.31
363.203	83.31
363.429	95.31
363.656	114.31
363.882	93.31
364.109	97.31
364.335	93.31
364.562	80.31
364.788	97.31
365.015	94.31
365.241	102.31
365.468	118.31
365.694	107.31
365.92	108.31
366.147	94.31
366.373	104.31
366.599	103.31
366.826	83.31
367.052	95.31
367.278	93.31
367.505	102.31
367.731	107.31
367.957	95.31
368.184	93.31
368.41	117.31
368.636	113.31
368.862	132.31
369.089	97.31
369.315	96.31
369.541	116.31
369.767	92.31
369.993	103.31
370.219	98.31
370.445	88.31
370.672	103.31
370.898	100.31
371.124	82.31
371.35	94.31
371.576	96.31
371.802	89.31
372.028	92.31
372.254	90.31
372.48	85.31
372.706	92.31
372.932	99.31
373.158	92.31
373.384	99.31
373.61	87.31
373.835	84.31
374.061	91.31
374.287	86.31
374.513	94.31
374.739	97.31
374.965	87.31
375.191	82.31
375.416	88.31
375.642	97.31
375.868	97.31
376.094	100.31
376.319	97.31
376.545	82.31
376.771	101.31
376.997	101.31
377.222	78.31
377.448	102.31
377.674	93.31
377.899	93.31
378.125	90.31
378.35	101.31
378.576	88.31
378.802	91.31
379.027	100.31
379.253	104.31
379.478	91.31
379.704	88.31
379.929	97.31
380.155	102.31
380.38	97.31
380.606	99.31
380.831	88.31
381.057	92.31
381.282	100.31
381.507	107.31
381.733	111.31
381.958	101.31
382.184	98.31
382.409	125.31
382.634	108.31
382.86	99.31
383.085	93.31
383.31	95.31
383.535	98.31
383.761	96.31
383.986	102.31
384.211	96.31
384.436	105.31
384.662	96.31
384.887	114.31
385.112	102.31
385.337	102.31
385.562	120.31
385.787	129.31
386.013	115.31
386.238	120.31
386.463	119.31
386.688	114.31
386.913	121.31
387.138	115.31
387.363	105.31
387.588	112.31
387.813	117.31
388.038	112.31
388.263	112.31
388.488	122.31
388.713	106.31
388.938	103.31
389.163	87.31
389.387	94.31
389.612	94.31
389.837	101.31
390.062	91.31
390.287	97.31
390.512	85.31
390.736	106.31
390.961	91.31
391.186	102.31
391.411	92.31
391.636	84.31
391.86	88.31
392.085	90.31
392.31	87.31
392.534	97.31
392.759	95.31
392.984	97.31
393.208	97.31
393.433	99.31
393.658	106.31
393.882	91.31
394.107	93.31
394.331	73.31
394.556	92.31
394.78	73.31
395.005	90.31
395.229	91.31
395.454	86.31
395.678	88.31
395.903	83.31
396.127	88.31
396.352	83.31
396.576	75.31
396.801	96.31
397.025	78.31
397.249	84.31
397.474	101.31
397.698	91.31
397.922	83.31
398.147	94.31
398.371	76.31
398.595	85.31
398.82	86.31
399.044	103.31
399.268	84.31
399.492	87.31
399.717	84.31
399.941	92.31
400.165	98.31
400.389	92.31
400.613	94.31
400.837	84.31
401.062	91.31
401.286	100.31
401.51	104.31
401.734	100.31
401.958	100.31
402.182	143.31
402.406	190.31
402.63	131.31
402.854	106.31
403.078	99.31
403.302	94.31
403.526	96.31
403.75	86.31
403.974	96.31
404.198	93.31
404.422	93.31
404.645	93.31
404.869	107.31
405.093	100.31
405.317	120.31
405.541	124.31
405.765	106.31
405.988	130.31
406.212	209.31
406.436	271.31
406.66	201.31
406.883	113.31
407.107	108.31
407.331	97.31
407.555	99.31
407.778	106.31
408.002	92.31
408.226	102.31
408.449	91.31
408.673	101.31
408.896	99.31
409.12	101.31
409.344	84.31
409.567	89.31
409.791	85.31
410.014	106.31
410.238	90.31
410.461	94.31
410.685	87.31
410.908	106.31
411.132	109.31
411.355	106.31
411.578	112.31
411.802	90.31
412.025	74.31
412.249	95.31
412.472	108.31
412.695	126.31
412.919	107.31
413.142	95.31
413.365	85.31
413.589	93.31
413.812	100.31
414.035	104.31
414.258	96.31
414.482	102.31
414.705	85.31
414.928	92.31
415.151	93.31
415.374	72.31
415.597	89.31
415.821	90.31
416.044	86.31
416.267	88.31
416.49	84.31
416.713	96.31
416.936	100.31
417.159	108.31
417.382	96.31
417.605	98.31
417.828	94.31
418.051	94.31
418.274	79.31
418.497	90.31
418.72	83.31
418.943	95.31
419.166	79.31
419.389	96.31
419.611	86.31
419.834	105.31
420.057	89.31
420.28	94.31
420.503	89.31
420.726	93.31
420.948	101.31
421.171	107.31
421.394	90.31
421.617	98.31
421.839	99.31
422.062	96.31
422.285	100.31
422.507	108.31
422.73	111.31
422.953	108.31
423.175	96.31
423.398	91.31
423.621	91.31
423.843	95.31
424.066	102.31
424.288	91.31
424.511	113.31
424.733	100.31
424.956	120.31
425.178	116.31
425.401	108.31
425.623	105.31
425.846	103.31
426.068	92.31
426.291	86.31
426.513	106.31
426.735	96.31
426.958	91.31
427.18	104.31
427.402	171.31
427.625	225.31
427.847	199.31
428.069	179.31
428.292	110.31
428.514	94.31
428.736	81.31
428.958	86.31
429.181	101.31
429.403	89.31
429.625	89.31
429.847	107.31
430.069	134.31
430.292	88.31
430.514	88.31
430.736	100.31
430.958	95.31
431.18	92.31
431.402	86.31
431.624	100.31
431.846	96.31
432.068	81.31
432.29	82.31
432.512	88.31
432.734	89.31
432.956	92.31
433.178	100.31
433.4	107.31
433.622	95.31
433.844	94.31
434.066	88.31
434.287	90.31
434.509	94.31
434.731	100.31
434.953	82.31
435.175	96.31
435.397	104.31
435.618	80.31
435.84	110.31
436.062	121.31
436.284	113.31
436.505	111.31
436.727	108.31
436.949	96.31
437.17	72.31
437.392	99.31
437.614	97.31
437.835	112.31
438.057	133.31
438.278	130.31
438.5	115.31
438.721	134.31
438.943	111.31
439.165	96.31
439.386	96.31
439.608	103.31
439.829	108.31
440.05	127.31
440.272	170.31
440.493	115.31
440.715	99.31
440.936	92.31
441.158	91.31
441.379	100.31
441.6	99.31
441.822	100.31
442.043	106.31
442.264	133.31
442.486	114.31
442.707	103.31
442.928	122.31
443.149	151.31
443.371	154.31
443.592	127.31
443.813	108.31
444.034	107.31
444.255	96.31
444.476	99.31
444.698	89.31
444.919	96.31
445.14	119.31
445.361	126.31
445.582	119.31
445.803	179.31
446.024	158.31
446.245	146.31
446.466	123.31
446.687	111.31
446.908	109.31
447.129	93.31
447.35	91.31
447.571	99.31
447.792	97.31
448.013	108.31
448.234	123.31
448.455	107.31
448.675	150.31
448.896	138.31
449.117	95.31
449.338	124.31
449.559	131.31
449.779	139.31
450	99.31
450.221	99.31
450.442	108.31
450.662	118.31
450.883	108.31
451.104	132.31
451.324	106.31
451.545	96.31
451.766	112.31
451.986	92.31
452.207	94.31
452.428	98.31
452.648	115.31
452.869	120.31
453.089	118.31
453.31	135.31
453.53	106.31
453.751	100.31
453.971	123.31
454.192	131.31
454.412	109.31
454.633	103.31
454.853	85.31
455.073	83.31
455.294	92.31
455.514	110.31
455.734	106.31
455.955	98.31
456.175	99.31
456.395	87.31
456.616	83.31
456.836	89.31
457.056	95.31
457.276	99.31
457.497	86.31
457.717	96.31
457.937	87.31
458.157	101.31
458.377	103.31
458.598	119.31
458.818	190.31
459.038	210.31
459.258	139.31
459.478	100.31
459.698	87.31
459.918	90.31
460.138	99.31
460.358	90.31
460.578	75.31
460.798	82.31
461.018	86.31
461.238	93.31
461.458	98.31
461.678	90.31
461.898	95.31
462.118	78.31
462.338	89.31
462.558	85.31
462.777	90.31
462.997	95.31
463.217	90.31
463.437	98.31
463.657	83.31
463.876	95.31
464.096	81.31
464.316	89.31
464.536	104.31
464.755	92.31
464.975	114.31
465.195	207.31
465.414	212.31
465.634	100.31
465.854	94.31
466.073	82.31
466.293	95.31
466.512	92.31
466.732	88.31
466.951	91.31
467.171	99.31
467.391	127.31
467.61	130.31
467.829	166.31
468.049	374.31
468.268	545.31
468.488	176.31
468.707	112.31
468.927	91.31
469.146	90.31
469.365	84.31
469.585	99.31
469.804	94.31
470.023	112.31
470.243	103.31
470.462	121.31
470.681	142.31
470.901	91.31
471.12	88.31
471.339	105.31
471.558	122.31
471.777	136.31
471.997	219.31
472.216	678.31
472.435	1584.31
472.654	398.31
472.873	142.31
473.092	105.31
473.311	94.31
473.53	91.31
473.749	96.31
473.968	105.31
474.187	114.31
474.406	104.31
474.625	96.31
474.844	93.31
475.063	101.31
475.282	98.31
475.501	91.31
475.72	101.31
475.939	78.31
476.158	91.31
476.377	68.31
476.596	89.31
476.814	90.31
477.033	99.31
477.252	92.31
477.471	76.31
477.69	93.31
477.908	86.31
478.127	98.31
478.346	86.31
478.564	105.31
478.783	115.31
479.002	103.31
479.22	117.31
479.439	121.31
479.658	136.31
479.876	127.31
480.095	117.31
480.313	118.31
480.532	128.31
480.751	215.31
480.969	627.31
481.188	2692.31
481.406	1634.31
481.624	266.31
481.843	115.31
482.061	99.31
482.28	108.31
482.498	98.31
482.717	93.31
482.935	94.31
483.153	108.31
483.372	112.31
483.59	94.31
483.808	103.31
484.027	82.31
484.245	98.31
484.463	90.31
484.681	107.31
484.9	93.31
485.118	103.31
485.336	100.31
485.554	104.31
485.772	120.31
485.99	113.31
486.209	109.31
486.427	118.31
486.645	122.31
486.863	117.31
487.081	125.31
487.299	106.31
487.517	99.31
487.735	103.31
487.953	93.31
488.171	97.31
488.389	110.31
488.607	99.31
488.825	92.31
489.043	93.31
489.261	101.31
489.479	106.31
489.696	98.31
489.914	105.31
490.132	91.31
490.35	87.31
490.568	90.31
490.786	110.31
491.003	110.31
491.221	89.31
491.439	92.31
491.657	102.31
491.874	90.31
492.092	104.31
492.31	96.31
492.527	106.31
492.745	88.31
492.963	94.31
493.18	88.31
493.398	88.31
493.615	83.31
493.833	92.31
494.05	90.31
494.268	80.31
494.485	99.31
494.703	100.31
494.92	105.31
495.138	90.31
495.355	91.31
495.573	102.31
495.79	90.31
496.008	107.31
496.225	88.31
496.442	89.31
496.66	96.31
496.877	91.31
497.094	94.31
497.312	93.31
497.529	81.31
497.746	105.31
497.963	100.31
498.181	98.31
498.398	107.31
498.615	120.31
498.832	106.31
499.049	102.31
499.267	90.31
499.484	90.31
499.701	102.31
499.918	88.31
500.135	96.31
500.352	84.31
500.569	105.31
500.786	108.31
501.003	85.31
501.22	101.31
501.437	93.31
501.654	105.31
501.871	128.31
502.088	88.31
502.305	97.31
502.522	90.31
502.739	97.31
502.956	86.31
503.172	100.31
503.389	111.31
503.606	118.31
503.823	113.31
504.04	95.31
504.256	97.31
504.473	90.31
504.69	94.31
504.907	100.31
505.123	101.31
505.34	96.31
505.557	80.31
505.773	90.31
505.99	89.31
506.207	103.31
506.423	91.31
506.64	84.31
506.856	100.31
507.073	102.31
507.289	97.31
507.506	104.31
507.722	128.31
507.939	131.31
508.155	113.31
508.372	90.31
508.588	95.31
508.805	99.31
509.021	89.31
509.238	108.31
509.454	102.31
509.67	111.31
509.887	112.31
510.103	150.31
510.319	243.31
510.536	854.31
510.752	2908.31
510.968	787.31
511.184	178.31
511.401	104.31
511.617	104.31
511.833	115.31
512.049	92.31
512.265	90.31
512.481	90.31
512.698	97.31
