Data from Circ_1987_H10_HRD10591_00001.txt Node
Date: Wed Jan 03 12:10:33 EST 2024
User: Yrep
Spectrometer: HR+D1059
Trigger mode: 1
Integration Time (sec): 1.000000E-1
Scans to average: 1
Electric dark correction enabled: true
Nonlinearity correction enabled: false
Boxcar width: 0
XAxis mode: Wavelengths
Number of Pixels in Spectrum: 2048
>>>>>Begin Spectral Data<<<<<
223.165	-10.88
223.4	-10.88
223.635	-10.88
223.869	-27.88
224.104	-23.88
224.338	-20.88
224.573	-6.88
224.808	-4.88
225.042	12.12
225.277	-2.88
225.511	-17.88
225.746	15.12
225.98	7.12
226.215	11.12
226.449	12.12
226.683	11.12
226.918	21.12
227.152	26.12
227.387	30.12
227.621	49.12
227.856	53.12
228.09	38.12
228.324	50.12
228.559	64.12
228.793	66.12
229.027	60.12
229.262	70.12
229.496	72.12
229.73	89.12
229.964	90.12
230.199	83.12
230.433	89.12
230.667	80.12
230.901	85.12
231.136	83.12
231.37	82.12
231.604	74.12
231.838	77.12
232.072	75.12
232.306	70.12
232.541	96.12
232.775	80.12
233.009	88.12
233.243	78.12
233.477	85.12
233.711	83.12
233.945	76.12
234.179	60.12
234.413	76.12
234.647	77.12
234.881	75.12
235.115	83.12
235.349	75.12
235.583	74.12
235.817	68.12
236.051	77.12
236.285	85.12
236.519	75.12
236.753	77.12
236.987	90.12
237.221	93.12
237.455	100.12
237.689	74.12
237.922	69.12
238.156	84.12
238.39	90.12
238.624	84.12
238.858	75.12
239.091	79.12
239.325	93.12
239.559	91.12
239.793	87.12
240.027	71.12
240.26	88.12
240.494	82.12
240.728	68.12
240.961	72.12
241.195	75.12
241.429	96.12
241.662	77.12
241.896	68.12
242.13	81.12
242.363	85.12
242.597	65.12
242.83	87.12
243.064	86.12
243.298	102.12
243.531	78.12
243.765	68.12
243.998	70.12
244.232	74.12
244.465	78.12
244.699	89.12
244.932	87.12
245.166	82.12
245.399	77.12
245.633	73.12
245.866	63.12
246.099	85.12
246.333	93.12
246.566	78.12
246.8	85.12
247.033	86.12
247.266	83.12
247.5	86.12
247.733	85.12
247.966	84.12
248.2	76.12
248.433	98.12
248.666	66.12
248.899	91.12
249.133	85.12
249.366	103.12
249.599	89.12
249.832	88.12
250.066	96.12
250.299	82.12
250.532	77.12
250.765	77.12
250.998	95.12
251.231	74.12
251.465	84.12
251.698	99.12
251.931	96.12
252.164	85.12
252.397	86.12
252.63	88.12
252.863	80.12
253.096	89.12
253.329	74.12
253.562	82.12
253.795	93.12
254.028	86.12
254.261	83.12
254.494	97.12
254.727	84.12
254.96	87.12
255.193	92.12
255.426	75.12
255.659	86.12
255.892	95.12
256.124	94.12
256.357	89.12
256.59	77.12
256.823	86.12
257.056	82.12
257.289	93.12
257.521	91.12
257.754	85.12
257.987	84.12
258.22	80.12
258.452	89.12
258.685	86.12
258.918	85.12
259.151	77.12
259.383	84.12
259.616	78.12
259.849	88.12
260.081	94.12
260.314	89.12
260.547	86.12
260.779	89.12
261.012	104.12
261.244	104.12
261.477	110.12
261.71	102.12
261.942	122.12
262.175	134.12
262.407	83.12
262.64	84.12
262.872	92.12
263.105	88.12
263.337	87.12
263.57	85.12
263.802	93.12
264.035	77.12
264.267	89.12
264.499	73.12
264.732	90.12
264.964	83.12
265.197	80.12
265.429	92.12
265.661	92.12
265.894	78.12
266.126	87.12
266.358	80.12
266.591	77.12
266.823	96.12
267.055	79.12
267.287	103.12
267.52	85.12
267.752	92.12
267.984	97.12
268.216	85.12
268.448	91.12
268.681	86.12
268.913	74.12
269.145	86.12
269.377	99.12
269.609	87.12
269.841	93.12
270.073	96.12
270.306	91.12
270.538	78.12
270.77	83.12
271.002	94.12
271.234	88.12
271.466	93.12
271.698	88.12
271.93	73.12
272.162	90.12
272.394	83.12
272.626	88.12
272.858	78.12
273.09	85.12
273.322	94.12
273.553	88.12
273.785	75.12
274.017	73.12
274.249	101.12
274.481	93.12
274.713	100.12
274.945	84.12
275.176	82.12
275.408	98.12
275.64	99.12
275.872	105.12
276.104	102.12
276.335	90.12
276.567	98.12
276.799	134.12
277.031	135.12
277.262	137.12
277.494	116.12
277.726	91.12
277.957	86.12
278.189	94.12
278.421	97.12
278.652	98.12
278.884	97.12
279.115	87.12
279.347	100.12
279.579	97.12
279.81	105.12
280.042	137.12
280.273	153.12
280.505	125.12
280.736	102.12
280.968	95.12
281.199	98.12
281.431	108.12
281.662	89.12
281.894	92.12
282.125	105.12
282.356	120.12
282.588	148.12
282.819	121.12
283.051	92.12
283.282	103.12
283.513	98.12
283.745	92.12
283.976	100.12
284.207	96.12
284.439	101.12
284.67	92.12
284.901	71.12
285.132	101.12
285.364	77.12
285.595	85.12
285.826	96.12
286.057	80.12
286.288	86.12
286.52	80.12
286.751	91.12
286.982	100.12
287.213	96.12
287.444	90.12
287.675	96.12
287.906	80.12
288.138	101.12
288.369	96.12
288.6	105.12
288.831	97.12
289.062	89.12
289.293	97.12
289.524	93.12
289.755	92.12
289.986	96.12
290.217	96.12
290.448	95.12
290.679	84.12
290.91	88.12
291.141	83.12
291.371	90.12
291.602	94.12
291.833	88.12
292.064	96.12
292.295	92.12
292.526	108.12
292.757	91.12
292.987	95.12
293.218	96.12
293.449	95.12
293.68	83.12
293.91	93.12
294.141	98.12
294.372	107.12
294.603	91.12
294.833	86.12
295.064	86.12
295.295	92.12
295.525	92.12
295.756	96.12
295.987	108.12
296.217	147.12
296.448	147.12
296.679	96.12
296.909	89.12
297.14	91.12
297.37	86.12
297.601	96.12
297.831	91.12
298.062	98.12
298.292	102.12
298.523	80.12
298.753	92.12
298.984	91.12
299.214	96.12
299.445	90.12
299.675	92.12
299.905	103.12
300.136	102.12
300.366	98.12
300.597	89.12
300.827	98.12
301.057	114.12
301.288	109.12
301.518	99.12
301.748	90.12
301.979	110.12
302.209	94.12
302.439	103.12
302.669	100.12
302.9	99.12
303.13	93.12
303.36	109.12
303.59	109.12
303.82	112.12
304.051	116.12
304.281	83.12
304.511	84.12
304.741	85.12
304.971	99.12
305.201	91.12
305.431	105.12
305.661	94.12
305.891	93.12
306.121	106.12
306.352	101.12
306.582	109.12
306.812	120.12
307.042	118.12
307.272	129.12
307.502	142.12
307.731	129.12
307.961	118.12
308.191	91.12
308.421	102.12
308.651	100.12
308.881	91.12
309.111	101.12
309.341	94.12
309.571	104.12
309.8	96.12
310.03	103.12
310.26	101.12
310.49	103.12
310.72	113.12
310.949	110.12
311.179	98.12
311.409	96.12
311.639	100.12
311.868	102.12
312.098	101.12
312.328	100.12
312.557	125.12
312.787	114.12
313.017	104.12
313.246	107.12
313.476	96.12
313.706	105.12
313.935	90.12
314.165	103.12
314.394	111.12
314.624	106.12
314.853	101.12
315.083	122.12
315.312	87.12
315.542	97.12
315.771	94.12
316.001	93.12
316.23	96.12
316.46	80.12
316.689	87.12
316.919	92.12
317.148	105.12
317.377	96.12
317.607	88.12
317.836	104.12
318.065	100.12
318.295	94.12
318.524	84.12
318.753	87.12
318.983	96.12
319.212	109.12
319.441	110.12
319.67	116.12
319.9	101.12
320.129	100.12
320.358	100.12
320.587	99.12
320.816	94.12
321.046	100.12
321.275	96.12
321.504	88.12
321.733	107.12
321.962	106.12
322.191	103.12
322.42	108.12
322.649	117.12
322.878	109.12
323.108	134.12
323.337	134.12
323.566	133.12
323.795	163.12
324.024	193.12
324.253	362.12
324.482	717.12
324.71	1453.12
324.939	1947.12
325.168	747.12
325.397	228.12
325.626	144.12
325.855	126.12
326.084	137.12
326.313	122.12
326.542	155.12
326.77	205.12
326.999	397.12
327.228	768.12
327.457	1418.12
327.686	1147.12
327.914	397.12
328.143	324.12
328.372	388.12
328.6	230.12
328.829	157.12
329.058	166.12
329.287	171.12
329.515	136.12
329.744	170.12
329.972	282.12
330.201	522.12
330.43	753.12
330.658	364.12
330.887	228.12
331.115	160.12
331.344	123.12
331.572	114.12
331.801	111.12
332.03	112.12
332.258	117.12
332.486	98.12
332.715	101.12
332.943	105.12
333.172	93.12
333.4	118.12
333.629	144.12
333.857	164.12
334.085	265.12
334.314	467.12
334.542	888.12
334.771	877.12
334.999	267.12
335.227	143.12
335.455	105.12
335.684	100.12
335.912	112.12
336.14	108.12
336.369	98.12
336.597	118.12
336.825	113.12
337.053	90.12
337.281	96.12
337.51	101.12
337.738	96.12
337.966	97.12
338.194	105.12
338.422	108.12
338.65	110.12
338.878	98.12
339.106	99.12
339.334	100.12
339.562	97.12
339.79	84.12
340.018	89.12
340.246	85.12
340.474	96.12
340.702	89.12
340.93	89.12
341.158	94.12
341.386	111.12
341.614	107.12
341.842	101.12
342.07	87.12
342.298	99.12
342.526	89.12
342.754	103.12
342.981	98.12
343.209	84.12
343.437	95.12
343.665	102.12
343.893	85.12
344.12	108.12
344.348	95.12
344.576	91.12
344.804	92.12
345.031	106.12
345.259	105.12
345.487	103.12
345.714	99.12
345.942	104.12
346.17	94.12
346.397	83.12
346.625	94.12
346.853	96.12
347.08	92.12
347.308	103.12
347.535	96.12
347.763	105.12
347.99	91.12
348.218	93.12
348.445	127.12
348.673	101.12
348.9	99.12
349.128	94.12
349.355	100.12
349.583	115.12
349.81	99.12
350.037	103.12
350.265	98.12
350.492	88.12
350.72	86.12
350.947	115.12
351.174	101.12
351.402	117.12
351.629	99.12
351.856	100.12
352.083	118.12
352.311	116.12
352.538	122.12
352.765	106.12
352.992	104.12
353.22	108.12
353.447	92.12
353.674	103.12
353.901	91.12
354.128	96.12
354.355	91.12
354.583	102.12
354.81	98.12
355.037	101.12
355.264	102.12
355.491	97.12
355.718	102.12
355.945	106.12
356.172	96.12
356.399	98.12
356.626	95.12
356.853	108.12
357.08	98.12
357.307	107.12
357.534	92.12
357.761	90.12
357.988	107.12
358.215	109.12
358.441	102.12
358.668	106.12
358.895	93.12
359.122	93.12
359.349	88.12
359.576	112.12
359.802	112.12
360.029	137.12
360.256	139.12
360.483	102.12
360.709	82.12
360.936	100.12
361.163	99.12
361.39	98.12
361.616	115.12
361.843	96.12
362.07	101.12
362.296	101.12
362.523	102.12
362.749	95.12
362.976	100.12
363.203	88.12
363.429	94.12
363.656	112.12
363.882	87.12
364.109	93.12
364.335	100.12
364.562	112.12
364.788	104.12
365.015	100.12
365.241	105.12
365.468	101.12
365.694	105.12
365.92	101.12
366.147	86.12
366.373	97.12
366.599	95.12
366.826	93.12
367.052	108.12
367.278	93.12
367.505	92.12
367.731	98.12
367.957	98.12
368.184	100.12
368.41	107.12
368.636	116.12
368.862	124.12
369.089	130.12
369.315	97.12
369.541	92.12
369.767	104.12
369.993	111.12
370.219	100.12
370.445	95.12
370.672	94.12
370.898	103.12
371.124	100.12
371.35	100.12
371.576	97.12
371.802	94.12
372.028	99.12
372.254	89.12
372.48	94.12
372.706	104.12
372.932	93.12
373.158	99.12
373.384	97.12
373.61	85.12
373.835	98.12
374.061	112.12
374.287	102.12
374.513	90.12
374.739	96.12
374.965	83.12
375.191	91.12
375.416	101.12
375.642	113.12
375.868	101.12
376.094	99.12
376.319	98.12
376.545	92.12
376.771	98.12
376.997	108.12
377.222	103.12
377.448	92.12
377.674	82.12
377.899	98.12
378.125	106.12
378.35	91.12
378.576	109.12
378.802	92.12
379.027	100.12
379.253	102.12
379.478	101.12
379.704	103.12
379.929	94.12
380.155	106.12
380.38	94.12
380.606	109.12
380.831	106.12
381.057	116.12
381.282	102.12
381.507	110.12
381.733	118.12
381.958	125.12
382.184	115.12
382.409	109.12
382.634	124.12
382.86	123.12
383.085	110.12
383.31	97.12
383.535	102.12
383.761	109.12
383.986	99.12
384.211	122.12
384.436	114.12
384.662	102.12
384.887	120.12
385.112	120.12
385.337	125.12
385.562	146.12
385.787	119.12
386.013	125.12
386.238	142.12
386.463	135.12
386.688	126.12
386.913	134.12
387.138	123.12
387.363	105.12
387.588	106.12
387.813	115.12
388.038	119.12
388.263	127.12
388.488	127.12
388.713	108.12
388.938	87.12
389.163	122.12
389.387	106.12
389.612	83.12
389.837	104.12
390.062	100.12
390.287	107.12
390.512	110.12
390.736	86.12
390.961	85.12
391.186	89.12
391.411	97.12
391.636	78.12
391.86	94.12
392.085	88.12
392.31	82.12
392.534	102.12
392.759	104.12
392.984	95.12
393.208	93.12
393.433	100.12
393.658	99.12
393.882	91.12
394.107	102.12
394.331	92.12
394.556	102.12
394.78	92.12
395.005	106.12
395.229	94.12
395.454	93.12
395.678	75.12
395.903	96.12
396.127	94.12
396.352	87.12
396.576	88.12
396.801	92.12
397.025	98.12
397.249	102.12
397.474	97.12
397.698	92.12
397.922	94.12
398.147	91.12
398.371	88.12
398.595	90.12
398.82	98.12
399.044	87.12
399.268	104.12
399.492	86.12
399.717	91.12
399.941	94.12
400.165	102.12
400.389	97.12
400.613	94.12
400.837	87.12
401.062	94.12
401.286	84.12
401.51	100.12
401.734	103.12
401.958	102.12
402.182	128.12
402.406	177.12
402.63	124.12
402.854	104.12
403.078	85.12
403.302	96.12
403.526	93.12
403.75	84.12
403.974	104.12
404.198	94.12
404.422	95.12
404.645	98.12
404.869	95.12
405.093	97.12
405.317	120.12
405.541	110.12
405.765	101.12
405.988	123.12
406.212	186.12
406.436	261.12
406.66	152.12
406.883	123.12
407.107	114.12
407.331	111.12
407.555	108.12
407.778	110.12
408.002	83.12
408.226	103.12
408.449	92.12
408.673	100.12
408.896	95.12
409.12	113.12
409.344	88.12
409.567	96.12
409.791	96.12
410.014	96.12
410.238	92.12
410.461	96.12
410.685	106.12
410.908	104.12
411.132	116.12
411.355	110.12
411.578	107.12
411.802	88.12
412.025	94.12
412.249	97.12
412.472	113.12
412.695	107.12
412.919	115.12
413.142	101.12
413.365	91.12
413.589	98.12
413.812	94.12
414.035	103.12
414.258	96.12
414.482	92.12
414.705	92.12
414.928	107.12
415.151	86.12
415.374	91.12
415.597	96.12
415.821	105.12
416.044	103.12
416.267	91.12
416.49	86.12
416.713	110.12
416.936	109.12
417.159	100.12
417.382	91.12
417.605	92.12
417.828	126.12
418.051	110.12
418.274	108.12
418.497	93.12
418.72	92.12
418.943	93.12
419.166	89.12
419.389	94.12
419.611	93.12
419.834	103.12
420.057	92.12
420.28	106.12
420.503	98.12
420.726	93.12
420.948	88.12
421.171	85.12
421.394	92.12
421.617	103.12
421.839	90.12
422.062	85.12
422.285	97.12
422.507	103.12
422.73	108.12
422.953	111.12
423.175	91.12
423.398	97.12
423.621	93.12
423.843	101.12
424.066	81.12
424.288	90.12
424.511	94.12
424.733	106.12
424.956	109.12
425.178	121.12
425.401	96.12
425.623	102.12
425.846	99.12
426.068	114.12
426.291	94.12
426.513	88.12
426.735	85.12
426.958	106.12
427.18	122.12
427.402	155.12
427.625	206.12
427.847	172.12
428.069	177.12
428.292	124.12
428.514	91.12
428.736	77.12
428.958	91.12
429.181	91.12
429.403	91.12
429.625	89.12
429.847	99.12
430.069	107.12
430.292	91.12
430.514	86.12
430.736	78.12
430.958	98.12
431.18	80.12
431.402	104.12
431.624	102.12
431.846	91.12
432.068	87.12
432.29	82.12
432.512	97.12
432.734	88.12
432.956	88.12
433.178	95.12
433.4	100.12
433.622	97.12
433.844	92.12
434.066	91.12
434.287	103.12
434.509	98.12
434.731	77.12
434.953	92.12
435.175	103.12
435.397	105.12
435.618	110.12
435.84	125.12
436.062	128.12
436.284	135.12
436.505	105.12
436.727	102.12
436.949	97.12
437.17	88.12
437.392	103.12
437.614	105.12
437.835	115.12
438.057	129.12
438.278	119.12
438.5	106.12
438.721	128.12
438.943	119.12
439.165	102.12
439.386	101.12
439.608	103.12
439.829	123.12
440.05	141.12
440.272	163.12
440.493	97.12
440.715	90.12
440.936	82.12
441.158	86.12
441.379	82.12
441.6	106.12
441.822	101.12
442.043	106.12
442.264	116.12
442.486	128.12
442.707	109.12
442.928	116.12
443.149	138.12
443.371	145.12
443.592	115.12
443.813	135.12
444.034	121.12
444.255	85.12
444.476	84.12
444.698	94.12
444.919	83.12
445.14	121.12
445.361	133.12
445.582	118.12
445.803	147.12
446.024	172.12
446.245	153.12
446.466	108.12
446.687	111.12
446.908	106.12
447.129	84.12
447.35	90.12
447.571	107.12
447.792	105.12
448.013	112.12
448.234	114.12
448.455	107.12
448.675	119.12
448.896	110.12
449.117	109.12
449.338	119.12
449.559	134.12
449.779	126.12
450	118.12
450.221	97.12
450.442	104.12
450.662	108.12
450.883	118.12
451.104	122.12
451.324	108.12
451.545	100.12
451.766	93.12
451.986	84.12
452.207	84.12
452.428	96.12
452.648	111.12
452.869	109.12
453.089	116.12
453.31	129.12
453.53	92.12
453.751	91.12
453.971	113.12
454.192	130.12
454.412	106.12
454.633	78.12
454.853	89.12
455.073	88.12
455.294	109.12
455.514	102.12
455.734	95.12
455.955	109.12
456.175	97.12
456.395	88.12
456.616	87.12
456.836	94.12
457.056	84.12
457.276	91.12
457.497	101.12
457.717	82.12
457.937	80.12
458.157	92.12
458.377	100.12
458.598	119.12
458.818	184.12
459.038	201.12
459.258	134.12
459.478	107.12
459.698	96.12
459.918	89.12
460.138	94.12
460.358	98.12
460.578	98.12
460.798	94.12
461.018	103.12
461.238	88.12
461.458	78.12
461.678	89.12
461.898	93.12
462.118	101.12
462.338	90.12
462.558	87.12
462.777	88.12
462.997	101.12
463.217	98.12
463.437	101.12
463.657	86.12
463.876	101.12
464.096	104.12
464.316	98.12
464.536	96.12
464.755	96.12
464.975	120.12
465.195	190.12
465.414	202.12
465.634	101.12
465.854	94.12
466.073	88.12
466.293	95.12
466.512	93.12
466.732	90.12
466.951	97.12
467.171	85.12
467.391	103.12
467.61	122.12
467.829	163.12
468.049	304.12
468.268	448.12
468.488	152.12
468.707	92.12
468.927	88.12
469.146	105.12
469.365	80.12
469.585	85.12
469.804	93.12
470.023	105.12
470.243	114.12
470.462	118.12
470.681	130.12
470.901	100.12
471.12	92.12
471.339	111.12
471.558	112.12
471.777	140.12
471.997	199.12
472.216	558.12
472.435	1226.12
472.654	343.12
472.873	132.12
473.092	102.12
473.311	99.12
473.53	96.12
473.749	86.12
473.968	110.12
474.187	120.12
474.406	107.12
474.625	89.12
474.844	99.12
475.063	82.12
475.282	76.12
475.501	69.12
475.72	91.12
475.939	86.12
476.158	86.12
476.377	85.12
476.596	86.12
476.814	98.12
477.033	102.12
477.252	100.12
477.471	92.12
477.69	99.12
477.908	100.12
478.127	99.12
478.346	105.12
478.564	105.12
478.783	104.12
479.002	85.12
479.22	114.12
479.439	115.12
479.658	114.12
479.876	112.12
480.095	112.12
480.313	125.12
480.532	128.12
480.751	201.12
480.969	521.12
481.188	2142.12
481.406	1278.12
481.624	224.12
481.843	114.12
482.061	103.12
482.28	112.12
482.498	97.12
482.717	94.12
482.935	93.12
483.153	97.12
483.372	86.12
483.59	99.12
483.808	90.12
484.027	104.12
484.245	99.12
484.463	104.12
484.681	98.12
484.9	110.12
485.118	98.12
485.336	102.12
485.554	104.12
485.772	99.12
485.99	113.12
486.209	108.12
486.427	117.12
486.645	117.12
486.863	122.12
487.081	122.12
487.299	100.12
487.517	105.12
487.735	107.12
487.953	124.12
488.171	98.12
488.389	114.12
488.607	101.12
488.825	98.12
489.043	87.12
489.261	98.12
489.479	90.12
489.696	98.12
489.914	97.12
490.132	82.12
490.35	95.12
490.568	91.12
490.786	86.12
491.003	97.12
491.221	98.12
491.439	100.12
491.657	99.12
491.874	101.12
492.092	96.12
492.31	93.12
492.527	97.12
492.745	92.12
492.963	86.12
493.18	98.12
493.398	100.12
493.615	101.12
493.833	90.12
494.05	96.12
494.268	100.12
494.485	89.12
494.703	86.12
494.92	98.12
495.138	118.12
495.355	84.12
495.573	99.12
495.79	96.12
496.008	96.12
496.225	92.12
496.442	83.12
496.66	93.12
496.877	92.12
497.094	100.12
497.312	95.12
497.529	91.12
497.746	77.12
497.963	80.12
498.181	101.12
498.398	102.12
498.615	109.12
498.832	103.12
499.049	111.12
499.267	87.12
499.484	108.12
499.701	101.12
499.918	95.12
500.135	88.12
500.352	94.12
500.569	99.12
500.786	86.12
501.003	103.12
501.22	92.12
501.437	91.12
501.654	88.12
501.871	113.12
502.088	102.12
502.305	87.12
502.522	84.12
502.739	82.12
502.956	92.12
503.172	110.12
503.389	95.12
503.606	116.12
503.823	103.12
504.04	92.12
504.256	92.12
504.473	91.12
504.69	89.12
504.907	97.12
505.123	96.12
505.34	94.12
505.557	101.12
505.773	104.12
505.99	97.12
506.207	98.12
506.423	92.12
506.64	108.12
506.856	84.12
507.073	96.12
507.289	96.12
507.506	82.12
507.722	120.12
507.939	116.12
508.155	120.12
508.372	93.12
508.588	106.12
508.805	105.12
509.021	96.12
509.238	85.12
509.454	102.12
509.67	105.12
509.887	108.12
510.103	130.12
510.319	213.12
510.536	766.12
510.752	2537.12
510.968	681.12
511.184	165.12
511.401	107.12
511.617	105.12
511.833	98.12
512.049	85.12
