Data from Circ_1987_H10_HRD10591_00048.txt Node
Date: Wed Jan 03 12:10:42 EST 2024
User: Yrep
Spectrometer: HR+D1059
Trigger mode: 1
Integration Time (sec): 1.000000E-1
Scans to average: 1
Electric dark correction enabled: true
Nonlinearity correction enabled: false
Boxcar width: 0
XAxis mode: Wavelengths
Number of Pixels in Spectrum: 2048
>>>>>Begin Spectral Data<<<<<
223.165	-17.31
223.4	-17.31
223.635	-17.31
223.869	-8.31
224.104	-20.31
224.338	-18.31
224.573	-19.31
224.808	-10.31
225.042	-6.31
225.277	-11.31
225.511	-3.31
225.746	-5.31
225.98	16.69
226.215	6.69
226.449	17.69
226.683	20.69
226.918	14.69
227.152	43.69
227.387	35.69
227.621	46.69
227.856	46.69
228.09	43.69
228.324	58.69
228.559	54.69
228.793	61.69
229.027	71.69
229.262	67.69
229.496	53.69
229.73	89.69
229.964	91.69
230.199	65.69
230.433	76.69
230.667	74.69
230.901	72.69
231.136	80.69
231.37	84.69
231.604	84.69
231.838	85.69
232.072	89.69
232.306	77.69
232.541	90.69
232.775	78.69
233.009	95.69
233.243	60.69
233.477	72.69
233.711	66.69
233.945	91.69
234.179	86.69
234.413	87.69
234.647	82.69
234.881	81.69
235.115	88.69
235.349	89.69
235.583	96.69
235.817	79.69
236.051	79.69
236.285	66.69
236.519	74.69
236.753	67.69
236.987	88.69
237.221	90.69
237.455	92.69
237.689	72.69
237.922	76.69
238.156	80.69
238.39	69.69
238.624	77.69
238.858	78.69
239.091	68.69
239.325	86.69
239.559	85.69
239.793	88.69
240.027	76.69
240.26	80.69
240.494	80.69
240.728	72.69
240.961	73.69
241.195	68.69
241.429	72.69
241.662	82.69
241.896	67.69
242.13	64.69
242.363	78.69
242.597	81.69
242.83	79.69
243.064	70.69
243.298	78.69
243.531	76.69
243.765	83.69
243.998	89.69
244.232	76.69
244.465	95.69
244.699	64.69
244.932	73.69
245.166	73.69
245.399	79.69
245.633	77.69
245.866	88.69
246.099	90.69
246.333	91.69
246.566	89.69
246.8	78.69
247.033	77.69
247.266	68.69
247.5	84.69
247.733	86.69
247.966	82.69
248.2	94.69
248.433	94.69
248.666	80.69
248.899	90.69
249.133	96.69
249.366	84.69
249.599	111.69
249.832	103.69
250.066	94.69
250.299	85.69
250.532	94.69
250.765	96.69
250.998	85.69
251.231	74.69
251.465	87.69
251.698	88.69
251.931	88.69
252.164	82.69
252.397	88.69
252.63	84.69
252.863	93.69
253.096	84.69
253.329	74.69
253.562	78.69
253.795	83.69
254.028	89.69
254.261	84.69
254.494	76.69
254.727	97.69
254.96	88.69
255.193	73.69
255.426	88.69
255.659	93.69
255.892	92.69
256.124	92.69
256.357	96.69
256.59	91.69
256.823	93.69
257.056	80.69
257.289	89.69
257.521	99.69
257.754	98.69
257.987	84.69
258.22	89.69
258.452	79.69
258.685	84.69
258.918	85.69
259.151	82.69
259.383	84.69
259.616	80.69
259.849	82.69
260.081	83.69
260.314	99.69
260.547	100.69
260.779	87.69
261.012	102.69
261.244	104.69
261.477	89.69
261.71	100.69
261.942	119.69
262.175	126.69
262.407	102.69
262.64	89.69
262.872	94.69
263.105	81.69
263.337	80.69
263.57	96.69
263.802	84.69
264.035	86.69
264.267	86.69
264.499	95.69
264.732	81.69
264.964	69.69
265.197	81.69
265.429	94.69
265.661	87.69
265.894	81.69
266.126	92.69
266.358	74.69
266.591	86.69
266.823	87.69
267.055	88.69
267.287	84.69
267.52	88.69
267.752	94.69
267.984	93.69
268.216	80.69
268.448	76.69
268.681	73.69
268.913	96.69
269.145	89.69
269.377	78.69
269.609	90.69
269.841	78.69
270.073	95.69
270.306	101.69
270.538	86.69
270.77	80.69
271.002	95.69
271.234	93.69
271.466	81.69
271.698	96.69
271.93	93.69
272.162	92.69
272.394	81.69
272.626	86.69
272.858	94.69
273.09	84.69
273.322	69.69
273.553	86.69
273.785	83.69
274.017	96.69
274.249	98.69
274.481	106.69
274.713	89.69
274.945	90.69
275.176	98.69
275.408	94.69
275.64	90.69
275.872	134.69
276.104	101.69
276.335	95.69
276.567	127.69
276.799	156.69
277.031	162.69
277.262	175.69
277.494	130.69
277.726	94.69
277.957	96.69
278.189	85.69
278.421	98.69
278.652	100.69
278.884	90.69
279.115	90.69
279.347	81.69
279.579	103.69
279.81	121.69
280.042	166.69
280.273	228.69
280.505	165.69
280.736	111.69
280.968	88.69
281.199	98.69
281.431	85.69
281.662	93.69
281.894	88.69
282.125	100.69
282.356	142.69
282.588	168.69
282.819	120.69
283.051	84.69
283.282	97.69
283.513	86.69
283.745	92.69
283.976	88.69
284.207	76.69
284.439	84.69
284.67	97.69
284.901	96.69
285.132	96.69
285.364	110.69
285.595	100.69
285.826	92.69
286.057	99.69
286.288	90.69
286.52	88.69
286.751	95.69
286.982	100.69
287.213	85.69
287.444	88.69
287.675	80.69
287.906	93.69
288.138	90.69
288.369	96.69
288.6	81.69
288.831	94.69
289.062	79.69
289.293	87.69
289.524	78.69
289.755	95.69
289.986	94.69
290.217	81.69
290.448	77.69
290.679	95.69
290.91	83.69
291.141	94.69
291.371	88.69
291.602	74.69
291.833	76.69
292.064	85.69
292.295	86.69
292.526	93.69
292.757	85.69
292.987	80.69
293.218	90.69
293.449	86.69
293.68	92.69
293.91	95.69
294.141	93.69
294.372	100.69
294.603	101.69
294.833	87.69
295.064	98.69
295.295	94.69
295.525	80.69
295.756	82.69
295.987	121.69
296.217	162.69
296.448	158.69
296.679	119.69
296.909	92.69
297.14	93.69
297.37	92.69
297.601	94.69
297.831	83.69
298.062	100.69
298.292	93.69
298.523	95.69
298.753	99.69
298.984	95.69
299.214	82.69
299.445	98.69
299.675	95.69
299.905	90.69
300.136	83.69
300.366	92.69
300.597	88.69
300.827	94.69
301.057	132.69
301.288	110.69
301.518	104.69
301.748	102.69
301.979	105.69
302.209	89.69
302.439	103.69
302.669	93.69
302.9	95.69
303.13	100.69
303.36	112.69
303.59	119.69
303.82	145.69
304.051	102.69
304.281	94.69
304.511	104.69
304.741	98.69
304.971	94.69
305.201	88.69
305.431	90.69
305.661	96.69
305.891	90.69
306.121	108.69
306.352	112.69
306.582	108.69
306.812	96.69
307.042	102.69
307.272	155.69
307.502	165.69
307.731	152.69
307.961	126.69
308.191	87.69
308.421	96.69
308.651	112.69
308.881	104.69
309.111	101.69
309.341	94.69
309.571	101.69
309.8	95.69
310.03	112.69
310.26	102.69
310.49	107.69
310.72	99.69
310.949	96.69
311.179	106.69
311.409	103.69
311.639	89.69
311.868	109.69
312.098	100.69
312.328	104.69
312.557	101.69
312.787	126.69
313.017	108.69
313.246	89.69
313.476	90.69
313.706	87.69
313.935	86.69
314.165	100.69
314.394	117.69
314.624	101.69
314.853	123.69
315.083	104.69
315.312	88.69
315.542	102.69
315.771	98.69
316.001	86.69
316.23	97.69
316.46	96.69
316.689	103.69
316.919	105.69
317.148	98.69
317.377	87.69
317.607	105.69
317.836	93.69
318.065	86.69
318.295	80.69
318.524	98.69
318.753	78.69
318.983	101.69
319.212	105.69
319.441	131.69
319.67	113.69
319.9	104.69
320.129	103.69
320.358	110.69
320.587	108.69
320.816	101.69
321.046	105.69
321.275	93.69
321.504	90.69
321.733	99.69
321.962	110.69
322.191	108.69
322.42	121.69
322.649	108.69
322.878	112.69
323.108	110.69
323.337	133.69
323.566	150.69
323.795	166.69
324.024	217.69
324.253	406.69
324.482	840.69
324.71	1640.69
324.939	2191.69
325.168	837.69
325.397	256.69
325.626	150.69
325.855	139.69
326.084	144.69
326.313	144.69
326.542	152.69
326.77	247.69
326.999	436.69
327.228	879.69
327.457	1530.69
327.686	1257.69
327.914	468.69
328.143	478.69
328.372	582.69
328.6	336.69
328.829	182.69
329.058	177.69
329.287	203.69
329.515	176.69
329.744	217.69
329.972	391.69
330.201	846.69
330.43	1226.69
330.658	551.69
330.887	274.69
331.115	188.69
331.344	120.69
331.572	138.69
331.801	134.69
332.03	115.69
332.258	113.69
332.486	118.69
332.715	117.69
332.943	100.69
333.172	108.69
333.4	118.69
333.629	175.69
333.857	218.69
334.085	354.69
334.314	739.69
334.542	1518.69
334.771	1412.69
334.999	372.69
335.227	167.69
335.455	124.69
335.684	99.69
335.912	121.69
336.14	110.69
336.369	94.69
336.597	115.69
336.825	112.69
337.053	110.69
337.281	101.69
337.51	97.69
337.738	97.69
337.966	99.69
338.194	109.69
338.422	109.69
338.65	110.69
338.878	96.69
339.106	89.69
339.334	90.69
339.562	91.69
339.79	96.69
340.018	84.69
340.246	104.69
340.474	106.69
340.702	110.69
340.93	99.69
341.158	107.69
341.386	112.69
341.614	101.69
341.842	84.69
342.07	95.69
342.298	98.69
342.526	96.69
342.754	92.69
342.981	84.69
343.209	99.69
343.437	100.69
343.665	97.69
343.893	99.69
344.12	84.69
344.348	88.69
344.576	87.69
344.804	105.69
345.031	123.69
345.259	110.69
345.487	107.69
345.714	108.69
345.942	92.69
346.17	100.69
346.397	93.69
346.625	100.69
346.853	100.69
347.08	99.69
347.308	89.69
347.535	112.69
347.763	120.69
347.99	108.69
348.218	109.69
348.445	116.69
348.673	97.69
348.9	106.69
349.128	99.69
349.355	101.69
349.583	110.69
349.81	105.69
350.037	89.69
350.265	92.69
350.492	97.69
350.72	103.69
350.947	104.69
351.174	116.69
351.402	120.69
351.629	117.69
351.856	113.69
352.083	110.69
352.311	120.69
352.538	115.69
352.765	117.69
352.992	121.69
353.22	120.69
353.447	112.69
353.674	108.69
353.901	97.69
354.128	93.69
354.355	107.69
354.583	98.69
354.81	85.69
355.037	95.69
355.264	105.69
355.491	85.69
355.718	87.69
355.945	102.69
356.172	96.69
356.399	97.69
356.626	98.69
356.853	88.69
357.08	101.69
357.307	92.69
357.534	94.69
357.761	83.69
357.988	88.69
358.215	93.69
358.441	101.69
358.668	91.69
358.895	83.69
359.122	83.69
359.349	105.69
359.576	102.69
359.802	113.69
360.029	125.69
360.256	132.69
360.483	114.69
360.709	91.69
360.936	95.69
361.163	111.69
361.39	106.69
361.616	111.69
361.843	100.69
362.07	99.69
362.296	130.69
362.523	94.69
362.749	111.69
362.976	92.69
363.203	95.69
363.429	95.69
363.656	98.69
363.882	82.69
364.109	106.69
364.335	100.69
364.562	94.69
364.788	103.69
365.015	102.69
365.241	107.69
365.468	118.69
365.694	125.69
365.92	114.69
366.147	104.69
366.373	84.69
366.599	88.69
366.826	97.69
367.052	99.69
367.278	87.69
367.505	96.69
367.731	92.69
367.957	98.69
368.184	102.69
368.41	114.69
368.636	131.69
368.862	128.69
369.089	120.69
369.315	96.69
369.541	99.69
369.767	92.69
369.993	106.69
370.219	101.69
370.445	93.69
370.672	93.69
370.898	86.69
371.124	88.69
371.35	106.69
371.576	107.69
371.802	80.69
372.028	86.69
372.254	80.69
372.48	76.69
372.706	89.69
372.932	97.69
373.158	74.69
373.384	98.69
373.61	105.69
373.835	95.69
374.061	94.69
374.287	93.69
374.513	100.69
374.739	95.69
374.965	99.69
375.191	88.69
375.416	97.69
375.642	97.69
375.868	81.69
376.094	89.69
376.319	83.69
376.545	101.69
376.771	79.69
376.997	97.69
377.222	92.69
377.448	93.69
377.674	80.69
377.899	86.69
378.125	88.69
378.35	93.69
378.576	94.69
378.802	69.69
379.027	78.69
379.253	79.69
379.478	90.69
379.704	89.69
379.929	93.69
380.155	88.69
380.38	108.69
380.606	101.69
380.831	84.69
381.057	85.69
381.282	88.69
381.507	95.69
381.733	104.69
381.958	94.69
382.184	88.69
382.409	93.69
382.634	101.69
382.86	102.69
383.085	100.69
383.31	95.69
383.535	99.69
383.761	92.69
383.986	96.69
384.211	102.69
384.436	100.69
384.662	95.69
384.887	92.69
385.112	106.69
385.337	100.69
385.562	98.69
385.787	86.69
386.013	116.69
386.238	120.69
386.463	105.69
386.688	104.69
386.913	92.69
387.138	97.69
387.363	106.69
387.588	97.69
387.813	100.69
388.038	98.69
388.263	98.69
388.488	106.69
388.713	93.69
388.938	85.69
389.163	92.69
389.387	86.69
389.612	100.69
389.837	65.69
390.062	77.69
390.287	94.69
390.512	90.69
390.736	96.69
390.961	92.69
391.186	89.69
391.411	102.69
391.636	88.69
391.86	95.69
392.085	84.69
392.31	87.69
392.534	97.69
392.759	93.69
392.984	86.69
393.208	82.69
393.433	88.69
393.658	80.69
393.882	86.69
394.107	96.69
394.331	78.69
394.556	89.69
394.78	86.69
395.005	80.69
395.229	85.69
395.454	98.69
395.678	85.69
395.903	92.69
396.127	96.69
396.352	86.69
396.576	66.69
396.801	83.69
397.025	83.69
397.249	87.69
397.474	72.69
397.698	84.69
397.922	96.69
398.147	92.69
398.371	81.69
398.595	81.69
398.82	69.69
399.044	93.69
399.268	71.69
399.492	87.69
399.717	84.69
399.941	90.69
400.165	93.69
400.389	95.69
400.613	92.69
400.837	84.69
401.062	77.69
401.286	100.69
401.51	80.69
401.734	86.69
401.958	98.69
402.182	132.69
402.406	200.69
402.63	142.69
402.854	102.69
403.078	102.69
403.302	83.69
403.526	93.69
403.75	98.69
403.974	96.69
404.198	103.69
404.422	104.69
404.645	93.69
404.869	101.69
405.093	121.69
405.317	117.69
405.541	132.69
405.765	128.69
405.988	127.69
406.212	205.69
406.436	322.69
406.66	214.69
406.883	132.69
407.107	121.69
407.331	104.69
407.555	101.69
407.778	98.69
408.002	84.69
408.226	103.69
408.449	96.69
408.673	76.69
408.896	98.69
409.12	98.69
409.344	90.69
409.567	87.69
409.791	91.69
410.014	88.69
410.238	86.69
410.461	80.69
410.685	94.69
410.908	90.69
411.132	97.69
411.355	103.69
411.578	79.69
411.802	95.69
412.025	81.69
412.249	107.69
412.472	105.69
412.695	127.69
412.919	96.69
413.142	92.69
413.365	92.69
413.589	86.69
413.812	90.69
414.035	83.69
414.258	88.69
414.482	94.69
414.705	92.69
414.928	90.69
415.151	90.69
415.374	97.69
415.597	92.69
415.821	90.69
416.044	78.69
416.267	89.69
416.49	79.69
416.713	86.69
416.936	92.69
417.159	82.69
417.382	95.69
417.605	106.69
417.828	86.69
418.051	98.69
418.274	97.69
418.497	103.69
418.72	85.69
418.943	96.69
419.166	103.69
419.389	83.69
419.611	81.69
419.834	86.69
420.057	102.69
420.28	100.69
420.503	93.69
420.726	90.69
420.948	87.69
421.171	100.69
421.394	101.69
421.617	91.69
421.839	87.69
422.062	97.69
422.285	97.69
422.507	92.69
422.73	105.69
422.953	87.69
423.175	97.69
423.398	89.69
423.621	93.69
423.843	92.69
424.066	93.69
424.288	83.69
424.511	87.69
424.733	100.69
424.956	116.69
425.178	100.69
425.401	95.69
425.623	108.69
425.846	96.69
426.068	112.69
426.291	89.69
426.513	91.69
426.735	89.69
426.958	106.69
427.18	102.69
427.402	166.69
427.625	257.69
427.847	203.69
428.069	178.69
428.292	118.69
428.514	93.69
428.736	80.69
428.958	85.69
429.181	81.69
429.403	82.69
429.625	99.69
429.847	101.69
430.069	112.69
430.292	90.69
430.514	85.69
430.736	88.69
430.958	78.69
431.18	92.69
431.402	80.69
431.624	79.69
431.846	86.69
432.068	93.69
432.29	98.69
432.512	90.69
432.734	81.69
432.956	83.69
433.178	102.69
433.4	100.69
433.622	80.69
433.844	88.69
434.066	100.69
434.287	96.69
434.509	93.69
434.731	93.69
434.953	88.69
435.175	102.69
435.397	91.69
435.618	87.69
435.84	113.69
436.062	144.69
436.284	127.69
436.505	114.69
436.727	96.69
436.949	101.69
437.17	82.69
437.392	83.69
437.614	87.69
437.835	120.69
438.057	132.69
438.278	123.69
438.5	118.69
438.721	124.69
438.943	120.69
439.165	94.69
439.386	86.69
439.608	88.69
439.829	103.69
440.05	138.69
440.272	165.69
440.493	123.69
440.715	93.69
440.936	88.69
441.158	89.69
441.379	84.69
441.6	86.69
441.822	100.69
442.043	97.69
442.264	113.69
442.486	118.69
442.707	97.69
442.928	122.69
443.149	167.69
443.371	160.69
443.592	130.69
443.813	126.69
444.034	105.69
444.255	102.69
444.476	89.69
444.698	96.69
444.919	83.69
445.14	127.69
445.361	124.69
445.582	116.69
445.803	169.69
446.024	162.69
446.245	156.69
446.466	120.69
446.687	97.69
446.908	103.69
447.129	90.69
447.35	86.69
447.571	98.69
447.792	106.69
448.013	109.69
448.234	124.69
448.455	108.69
448.675	123.69
448.896	141.69
449.117	108.69
449.338	92.69
449.559	148.69
449.779	135.69
450	80.69
450.221	88.69
450.442	87.69
450.662	92.69
450.883	120.69
451.104	131.69
451.324	107.69
451.545	92.69
451.766	91.69
451.986	82.69
452.207	78.69
452.428	97.69
452.648	106.69
452.869	123.69
453.089	118.69
453.31	138.69
453.53	96.69
453.751	118.69
453.971	117.69
454.192	132.69
454.412	96.69
454.633	92.69
454.853	88.69
455.073	86.69
455.294	87.69
455.514	96.69
455.734	85.69
455.955	80.69
456.175	74.69
456.395	93.69
456.616	90.69
456.836	88.69
457.056	91.69
457.276	86.69
457.497	80.69
457.717	85.69
457.937	81.69
458.157	74.69
458.377	102.69
458.598	133.69
458.818	196.69
459.038	226.69
459.258	139.69
459.478	112.69
459.698	92.69
459.918	80.69
460.138	82.69
460.358	89.69
460.578	89.69
460.798	106.69
461.018	99.69
461.238	89.69
461.458	91.69
461.678	91.69
461.898	89.69
462.118	87.69
462.338	98.69
462.558	95.69
462.777	67.69
462.997	85.69
463.217	101.69
463.437	92.69
463.657	86.69
463.876	100.69
464.096	94.69
464.316	81.69
464.536	90.69
464.755	93.69
464.975	129.69
465.195	241.69
465.414	226.69
465.634	102.69
465.854	99.69
466.073	95.69
466.293	90.69
466.512	93.69
466.732	96.69
466.951	80.69
467.171	92.69
467.391	111.69
467.61	144.69
467.829	188.69
468.049	473.69
468.268	728.69
468.488	198.69
468.707	110.69
468.927	94.69
469.146	103.69
469.365	103.69
469.585	108.69
469.804	102.69
470.023	111.69
470.243	109.69
470.462	120.69
470.681	132.69
470.901	114.69
471.12	111.69
471.339	104.69
471.558	122.69
471.777	134.69
471.997	265.69
472.216	955.69
472.435	2163.69
472.654	519.69
472.873	152.69
473.092	108.69
473.311	105.69
473.53	86.69
473.749	99.69
473.968	93.69
474.187	127.69
474.406	99.69
474.625	85.69
474.844	101.69
475.063	87.69
475.282	94.69
475.501	92.69
475.72	88.69
475.939	86.69
476.158	80.69
476.377	87.69
476.596	100.69
476.814	95.69
477.033	101.69
477.252	106.69
477.471	90.69
477.69	96.69
477.908	95.69
478.127	95.69
478.346	106.69
478.564	97.69
478.783	104.69
479.002	113.69
479.22	110.69
479.439	113.69
479.658	129.69
479.876	121.69
480.095	126.69
480.313	133.69
480.532	155.69
480.751	237.69
480.969	856.69
481.188	3644.69
481.406	2088.69
481.624	302.69
481.843	125.69
482.061	103.69
482.28	97.69
482.498	98.69
482.717	86.69
482.935	88.69
483.153	98.69
483.372	99.69
483.59	92.69
483.808	88.69
484.027	90.69
484.245	94.69
484.463	93.69
484.681	103.69
484.9	97.69
485.118	99.69
485.336	95.69
485.554	90.69
485.772	93.69
485.99	113.69
486.209	109.69
486.427	121.69
486.645	124.69
486.863	120.69
487.081	125.69
487.299	95.69
487.517	94.69
487.735	96.69
487.953	95.69
488.171	106.69
488.389	110.69
488.607	108.69
488.825	95.69
489.043	90.69
489.261	73.69
489.479	92.69
489.696	85.69
489.914	94.69
490.132	92.69
490.35	92.69
490.568	76.69
490.786	90.69
491.003	102.69
491.221	95.69
491.439	101.69
491.657	83.69
491.874	95.69
492.092	99.69
492.31	91.69
492.527	100.69
492.745	100.69
492.963	90.69
493.18	96.69
493.398	72.69
493.615	93.69
493.833	95.69
494.05	88.69
494.268	96.69
494.485	92.69
494.703	95.69
494.92	88.69
495.138	78.69
495.355	89.69
495.573	95.69
495.79	97.69
496.008	93.69
496.225	79.69
496.442	82.69
496.66	68.69
496.877	90.69
497.094	98.69
497.312	90.69
497.529	83.69
497.746	89.69
497.963	89.69
498.181	94.69
498.398	84.69
498.615	109.69
498.832	120.69
499.049	90.69
499.267	87.69
499.484	88.69
499.701	85.69
499.918	96.69
500.135	73.69
500.352	88.69
500.569	104.69
500.786	96.69
501.003	95.69
501.22	83.69
501.437	98.69
501.654	110.69
501.871	128.69
502.088	99.69
502.305	88.69
502.522	82.69
502.739	99.69
502.956	95.69
503.172	90.69
503.389	122.69
503.606	134.69
503.823	98.69
504.04	84.69
504.256	101.69
504.473	92.69
504.69	95.69
504.907	95.69
505.123	89.69
505.34	90.69
505.557	92.69
505.773	98.69
505.99	87.69
506.207	82.69
506.423	85.69
506.64	93.69
506.856	85.69
507.073	91.69
507.289	95.69
507.506	87.69
507.722	134.69
507.939	136.69
508.155	98.69
508.372	84.69
508.588	83.69
508.805	97.69
509.021	89.69
509.238	102.69
509.454	93.69
509.67	80.69
509.887	100.69
510.103	157.69
510.319	240.69
510.536	954.69
510.752	3234.69
510.968	851.69
511.184	190.69
511.401	125.69
511.617	105.69
511.833	107.69
512.049	102.69
512.265	95.69
512.481	102.69
512.698	108.69
512.914	103.69
513.13	98.69
513.346	82.69
