Data from Circ_1987_H10_HRD10591_00005.txt Node
Date: Wed Jan 03 12:10:33 EST 2024
User: Yrep
Spectrometer: HR+D1059
Trigger mode: 1
Integration Time (sec): 1.000000E-1
Scans to average: 1
Electric dark correction enabled: true
Nonlinearity correction enabled: false
Boxcar width: 0
XAxis mode: Wavelengths
Number of Pixels in Spectrum: 2048
>>>>>Begin Spectral Data<<<<<
223.165	-17.5
223.4	-17.5
223.635	-17.5
223.869	-12.5
224.104	-12.5
224.338	-19.5
224.573	-19.5
224.808	-13.5
225.042	-14.5
225.277	-4.5
225.511	10.5
225.746	-7.5
225.98	9.5
226.215	14.5
226.449	15.5
226.683	22.5
226.918	24.5
227.152	24.5
227.387	34.5
227.621	34.5
227.856	48.5
228.09	51.5
228.324	56.5
228.559	48.5
228.793	51.5
229.027	80.5
229.262	79.5
229.496	74.5
229.73	81.5
229.964	97.5
230.199	70.5
230.433	75.5
230.667	75.5
230.901	72.5
231.136	79.5
231.37	75.5
231.604	89.5
231.838	77.5
232.072	79.5
232.306	77.5
232.541	70.5
232.775	69.5
233.009	93.5
233.243	72.5
233.477	82.5
233.711	78.5
233.945	97.5
234.179	83.5
234.413	74.5
234.647	75.5
234.881	74.5
235.115	83.5
235.349	85.5
235.583	95.5
235.817	77.5
236.051	87.5
236.285	79.5
236.519	87.5
236.753	72.5
236.987	93.5
237.221	85.5
237.455	89.5
237.689	71.5
237.922	81.5
238.156	85.5
238.39	72.5
238.624	81.5
238.858	64.5
239.091	66.5
239.325	91.5
239.559	77.5
239.793	78.5
240.027	91.5
240.26	91.5
240.494	78.5
240.728	77.5
240.961	87.5
241.195	78.5
241.429	84.5
241.662	72.5
241.896	79.5
242.13	84.5
242.363	74.5
242.597	65.5
242.83	66.5
243.064	66.5
243.298	82.5
243.531	87.5
243.765	79.5
243.998	84.5
244.232	93.5
244.465	86.5
244.699	75.5
244.932	77.5
245.166	80.5
245.399	83.5
245.633	68.5
245.866	71.5
246.099	70.5
246.333	69.5
246.566	100.5
246.8	94.5
247.033	88.5
247.266	71.5
247.5	81.5
247.733	82.5
247.966	94.5
248.2	68.5
248.433	95.5
248.666	81.5
248.899	75.5
249.133	95.5
249.366	97.5
249.599	99.5
249.832	72.5
250.066	74.5
250.299	90.5
250.532	82.5
250.765	58.5
250.998	67.5
251.231	73.5
251.465	88.5
251.698	86.5
251.931	101.5
252.164	86.5
252.397	78.5
252.63	89.5
252.863	85.5
253.096	83.5
253.329	75.5
253.562	74.5
253.795	69.5
254.028	94.5
254.261	79.5
254.494	85.5
254.727	84.5
254.96	90.5
255.193	83.5
255.426	83.5
255.659	86.5
255.892	90.5
256.124	101.5
256.357	87.5
256.59	81.5
256.823	101.5
257.056	93.5
257.289	78.5
257.521	89.5
257.754	88.5
257.987	86.5
258.22	93.5
258.452	89.5
258.685	84.5
258.918	90.5
259.151	72.5
259.383	88.5
259.616	94.5
259.849	77.5
260.081	70.5
260.314	75.5
260.547	91.5
260.779	75.5
261.012	79.5
261.244	90.5
261.477	81.5
261.71	97.5
261.942	122.5
262.175	124.5
262.407	96.5
262.64	89.5
262.872	70.5
263.105	90.5
263.337	68.5
263.57	88.5
263.802	88.5
264.035	93.5
264.267	84.5
264.499	88.5
264.732	84.5
264.964	80.5
265.197	77.5
265.429	77.5
265.661	72.5
265.894	73.5
266.126	82.5
266.358	77.5
266.591	88.5
266.823	79.5
267.055	84.5
267.287	89.5
267.52	88.5
267.752	88.5
267.984	75.5
268.216	74.5
268.448	89.5
268.681	83.5
268.913	80.5
269.145	83.5
269.377	85.5
269.609	75.5
269.841	89.5
270.073	77.5
270.306	77.5
270.538	80.5
270.77	105.5
271.002	89.5
271.234	94.5
271.466	77.5
271.698	93.5
271.93	88.5
272.162	86.5
272.394	87.5
272.626	86.5
272.858	88.5
273.09	86.5
273.322	86.5
273.553	80.5
273.785	91.5
274.017	101.5
274.249	85.5
274.481	92.5
274.713	88.5
274.945	93.5
275.176	95.5
275.408	103.5
275.64	87.5
275.872	95.5
276.104	104.5
276.335	101.5
276.567	117.5
276.799	114.5
277.031	133.5
277.262	137.5
277.494	112.5
277.726	100.5
277.957	87.5
278.189	82.5
278.421	79.5
278.652	88.5
278.884	90.5
279.115	93.5
279.347	86.5
279.579	92.5
279.81	99.5
280.042	141.5
280.273	159.5
280.505	121.5
280.736	90.5
280.968	94.5
281.199	86.5
281.431	95.5
281.662	83.5
281.894	90.5
282.125	89.5
282.356	122.5
282.588	147.5
282.819	124.5
283.051	92.5
283.282	79.5
283.513	94.5
283.745	82.5
283.976	82.5
284.207	84.5
284.439	73.5
284.67	82.5
284.901	87.5
285.132	93.5
285.364	96.5
285.595	77.5
285.826	93.5
286.057	86.5
286.288	89.5
286.52	83.5
286.751	84.5
286.982	89.5
287.213	86.5
287.444	94.5
287.675	97.5
287.906	106.5
288.138	97.5
288.369	94.5
288.6	110.5
288.831	85.5
289.062	106.5
289.293	107.5
289.524	95.5
289.755	88.5
289.986	97.5
290.217	90.5
290.448	100.5
290.679	96.5
290.91	93.5
291.141	87.5
291.371	86.5
291.602	87.5
291.833	73.5
292.064	86.5
292.295	81.5
292.526	81.5
292.757	93.5
292.987	93.5
293.218	87.5
293.449	96.5
293.68	83.5
293.91	85.5
294.141	95.5
294.372	105.5
294.603	76.5
294.833	93.5
295.064	97.5
295.295	96.5
295.525	96.5
295.756	95.5
295.987	135.5
296.217	151.5
296.448	134.5
296.679	109.5
296.909	103.5
297.14	84.5
297.37	98.5
297.601	87.5
297.831	100.5
298.062	72.5
298.292	81.5
298.523	90.5
298.753	100.5
298.984	99.5
299.214	94.5
299.445	81.5
299.675	96.5
299.905	106.5
300.136	81.5
300.366	102.5
300.597	78.5
300.827	91.5
301.057	100.5
301.288	122.5
301.518	107.5
301.748	95.5
301.979	106.5
302.209	89.5
302.439	105.5
302.669	74.5
302.9	102.5
303.13	95.5
303.36	107.5
303.59	103.5
303.82	119.5
304.051	91.5
304.281	89.5
304.511	98.5
304.741	96.5
304.971	78.5
305.201	90.5
305.431	87.5
305.661	82.5
305.891	98.5
306.121	98.5
306.352	115.5
306.582	116.5
306.812	111.5
307.042	102.5
307.272	115.5
307.502	132.5
307.731	136.5
307.961	113.5
308.191	96.5
308.421	86.5
308.651	114.5
308.881	96.5
309.111	107.5
309.341	98.5
309.571	106.5
309.8	105.5
310.03	95.5
310.26	93.5
310.49	85.5
310.72	99.5
310.949	106.5
311.179	105.5
311.409	106.5
311.639	106.5
311.868	89.5
312.098	93.5
312.328	111.5
312.557	104.5
312.787	125.5
313.017	97.5
313.246	100.5
313.476	94.5
313.706	94.5
313.935	106.5
314.165	114.5
314.394	110.5
314.624	97.5
314.853	107.5
315.083	104.5
315.312	91.5
315.542	80.5
315.771	102.5
316.001	85.5
316.23	82.5
316.46	87.5
316.689	86.5
316.919	101.5
317.148	93.5
317.377	95.5
317.607	100.5
317.836	110.5
318.065	102.5
318.295	88.5
318.524	94.5
318.753	103.5
318.983	92.5
319.212	105.5
319.441	107.5
319.67	122.5
319.9	104.5
320.129	99.5
320.358	80.5
320.587	107.5
320.816	119.5
321.046	111.5
321.275	98.5
321.504	82.5
321.733	87.5
321.962	98.5
322.191	101.5
322.42	109.5
322.649	123.5
322.878	113.5
323.108	124.5
323.337	128.5
323.566	136.5
323.795	170.5
324.024	215.5
324.253	373.5
324.482	765.5
324.71	1554.5
324.939	2059.5
325.168	764.5
325.397	242.5
325.626	160.5
325.855	133.5
326.084	126.5
326.313	117.5
326.542	135.5
326.77	215.5
326.999	405.5
327.228	809.5
327.457	1495.5
327.686	1231.5
327.914	410.5
328.143	329.5
328.372	401.5
328.6	258.5
328.829	162.5
329.058	140.5
329.287	171.5
329.515	153.5
329.744	186.5
329.972	289.5
330.201	550.5
330.43	827.5
330.658	413.5
330.887	206.5
331.115	164.5
331.344	109.5
331.572	106.5
331.801	112.5
332.03	117.5
332.258	95.5
332.486	105.5
332.715	112.5
332.943	108.5
333.172	119.5
333.4	115.5
333.629	134.5
333.857	183.5
334.085	285.5
334.314	534.5
334.542	1025.5
334.771	996.5
334.999	287.5
335.227	143.5
335.455	118.5
335.684	96.5
335.912	102.5
336.14	103.5
336.369	97.5
336.597	118.5
336.825	113.5
337.053	95.5
337.281	107.5
337.51	110.5
337.738	99.5
337.966	102.5
338.194	86.5
338.422	90.5
338.65	106.5
338.878	113.5
339.106	100.5
339.334	98.5
339.562	88.5
339.79	97.5
340.018	99.5
340.246	92.5
340.474	97.5
340.702	97.5
340.93	93.5
341.158	95.5
341.386	102.5
341.614	107.5
341.842	102.5
342.07	110.5
342.298	92.5
342.526	89.5
342.754	103.5
342.981	96.5
343.209	99.5
343.437	98.5
343.665	95.5
343.893	102.5
344.12	93.5
344.348	83.5
344.576	102.5
344.804	89.5
345.031	98.5
345.259	106.5
345.487	91.5
345.714	109.5
345.942	99.5
346.17	100.5
346.397	89.5
346.625	99.5
346.853	88.5
347.08	85.5
347.308	88.5
347.535	102.5
347.763	98.5
347.99	101.5
348.218	105.5
348.445	101.5
348.673	101.5
348.9	93.5
349.128	104.5
349.355	91.5
349.583	87.5
349.81	99.5
350.037	88.5
350.265	83.5
350.492	85.5
350.72	95.5
350.947	106.5
351.174	108.5
351.402	103.5
351.629	96.5
351.856	116.5
352.083	112.5
352.311	97.5
352.538	119.5
352.765	127.5
352.992	122.5
353.22	107.5
353.447	119.5
353.674	110.5
353.901	106.5
354.128	102.5
354.355	96.5
354.583	109.5
354.81	95.5
355.037	100.5
355.264	94.5
355.491	101.5
355.718	108.5
355.945	95.5
356.172	108.5
356.399	91.5
356.626	102.5
356.853	101.5
357.08	104.5
357.307	101.5
357.534	100.5
357.761	98.5
357.988	83.5
358.215	92.5
358.441	99.5
358.668	94.5
358.895	89.5
359.122	105.5
359.349	79.5
359.576	87.5
359.802	114.5
360.029	129.5
360.256	133.5
360.483	107.5
360.709	98.5
360.936	85.5
361.163	105.5
361.39	107.5
361.616	98.5
361.843	81.5
362.07	111.5
362.296	101.5
362.523	88.5
362.749	99.5
362.976	94.5
363.203	97.5
363.429	109.5
363.656	89.5
363.882	96.5
364.109	93.5
364.335	92.5
364.562	101.5
364.788	104.5
365.015	97.5
365.241	97.5
365.468	101.5
365.694	112.5
365.92	98.5
366.147	94.5
366.373	96.5
366.599	83.5
366.826	93.5
367.052	87.5
367.278	89.5
367.505	87.5
367.731	103.5
367.957	87.5
368.184	111.5
368.41	105.5
368.636	120.5
368.862	134.5
369.089	117.5
369.315	96.5
369.541	95.5
369.767	90.5
369.993	114.5
370.219	99.5
370.445	96.5
370.672	94.5
370.898	87.5
371.124	91.5
371.35	94.5
371.576	100.5
371.802	96.5
372.028	88.5
372.254	103.5
372.48	73.5
372.706	103.5
372.932	94.5
373.158	85.5
373.384	96.5
373.61	93.5
373.835	90.5
374.061	100.5
374.287	91.5
374.513	98.5
374.739	88.5
374.965	85.5
375.191	84.5
375.416	84.5
375.642	93.5
375.868	78.5
376.094	97.5
376.319	93.5
376.545	96.5
376.771	89.5
376.997	86.5
377.222	98.5
377.448	85.5
377.674	98.5
377.899	91.5
378.125	91.5
378.35	77.5
378.576	99.5
378.802	87.5
379.027	88.5
379.253	113.5
379.478	96.5
379.704	94.5
379.929	96.5
380.155	108.5
380.38	106.5
380.606	113.5
380.831	97.5
381.057	108.5
381.282	88.5
381.507	104.5
381.733	99.5
381.958	113.5
382.184	114.5
382.409	100.5
382.634	106.5
382.86	99.5
383.085	107.5
383.31	113.5
383.535	95.5
383.761	105.5
383.986	108.5
384.211	99.5
384.436	113.5
384.662	111.5
384.887	125.5
385.112	106.5
385.337	113.5
385.562	107.5
385.787	127.5
386.013	124.5
386.238	134.5
386.463	117.5
386.688	122.5
386.913	120.5
387.138	124.5
387.363	120.5
387.588	116.5
387.813	105.5
388.038	121.5
388.263	132.5
388.488	121.5
388.713	107.5
388.938	103.5
389.163	90.5
389.387	114.5
389.612	93.5
389.837	105.5
390.062	100.5
390.287	91.5
390.512	87.5
390.736	85.5
390.961	87.5
391.186	93.5
391.411	94.5
391.636	97.5
391.86	83.5
392.085	93.5
392.31	88.5
392.534	96.5
392.759	94.5
392.984	91.5
393.208	102.5
393.433	93.5
393.658	101.5
393.882	97.5
394.107	83.5
394.331	99.5
394.556	107.5
394.78	89.5
395.005	105.5
395.229	98.5
395.454	93.5
395.678	74.5
395.903	83.5
396.127	81.5
396.352	84.5
396.576	80.5
396.801	98.5
397.025	104.5
397.249	92.5
397.474	99.5
397.698	95.5
397.922	97.5
398.147	93.5
398.371	90.5
398.595	107.5
398.82	101.5
399.044	84.5
399.268	100.5
399.492	90.5
399.717	95.5
399.941	83.5
400.165	77.5
400.389	77.5
400.613	93.5
400.837	92.5
401.062	78.5
401.286	84.5
401.51	79.5
401.734	93.5
401.958	105.5
402.182	119.5
402.406	175.5
402.63	145.5
402.854	106.5
403.078	102.5
403.302	94.5
403.526	87.5
403.75	89.5
403.974	78.5
404.198	83.5
404.422	72.5
404.645	87.5
404.869	93.5
405.093	113.5
405.317	119.5
405.541	112.5
405.765	113.5
405.988	120.5
406.212	182.5
406.436	292.5
406.66	185.5
406.883	97.5
407.107	104.5
407.331	111.5
407.555	106.5
407.778	109.5
408.002	100.5
408.226	103.5
408.449	104.5
408.673	94.5
408.896	94.5
409.12	104.5
409.344	104.5
409.567	87.5
409.791	97.5
410.014	102.5
410.238	92.5
410.461	93.5
410.685	98.5
410.908	93.5
411.132	104.5
411.355	104.5
411.578	94.5
411.802	78.5
412.025	90.5
412.249	98.5
412.472	118.5
412.695	105.5
412.919	102.5
413.142	88.5
413.365	105.5
413.589	79.5
413.812	99.5
414.035	80.5
414.258	97.5
414.482	90.5
414.705	105.5
414.928	96.5
415.151	104.5
415.374	104.5
415.597	88.5
415.821	103.5
416.044	82.5
416.267	87.5
416.49	97.5
416.713	95.5
416.936	97.5
417.159	88.5
417.382	89.5
417.605	90.5
417.828	97.5
418.051	92.5
418.274	105.5
418.497	83.5
418.72	81.5
418.943	102.5
419.166	93.5
419.389	99.5
419.611	92.5
419.834	95.5
420.057	96.5
420.28	96.5
420.503	74.5
420.726	96.5
420.948	98.5
421.171	96.5
421.394	103.5
421.617	82.5
421.839	86.5
422.062	95.5
422.285	101.5
422.507	107.5
422.73	115.5
422.953	103.5
423.175	87.5
423.398	97.5
423.621	81.5
423.843	97.5
424.066	91.5
424.288	98.5
424.511	89.5
424.733	94.5
424.956	116.5
425.178	120.5
425.401	93.5
425.623	90.5
425.846	87.5
426.068	108.5
426.291	101.5
426.513	99.5
426.735	104.5
426.958	87.5
427.18	113.5
427.402	165.5
427.625	215.5
427.847	190.5
428.069	166.5
428.292	110.5
428.514	88.5
428.736	88.5
428.958	90.5
429.181	91.5
429.403	84.5
429.625	91.5
429.847	98.5
430.069	110.5
430.292	81.5
430.514	81.5
430.736	82.5
430.958	94.5
431.18	85.5
431.402	93.5
431.624	82.5
431.846	89.5
432.068	89.5
432.29	89.5
432.512	83.5
432.734	87.5
432.956	97.5
433.178	100.5
433.4	100.5
433.622	98.5
433.844	92.5
434.066	89.5
434.287	87.5
434.509	103.5
434.731	95.5
434.953	89.5
435.175	102.5
435.397	92.5
435.618	87.5
435.84	95.5
436.062	127.5
436.284	120.5
436.505	93.5
436.727	103.5
436.949	96.5
437.17	74.5
437.392	99.5
437.614	93.5
437.835	111.5
438.057	133.5
438.278	103.5
438.5	107.5
438.721	125.5
438.943	114.5
439.165	84.5
439.386	90.5
439.608	94.5
439.829	96.5
440.05	115.5
440.272	162.5
440.493	101.5
440.715	93.5
440.936	93.5
441.158	87.5
441.379	83.5
441.6	95.5
441.822	98.5
442.043	100.5
442.264	114.5
442.486	110.5
442.707	104.5
442.928	121.5
443.149	163.5
443.371	157.5
443.592	128.5
443.813	124.5
444.034	114.5
444.255	94.5
444.476	83.5
444.698	84.5
444.919	91.5
445.14	137.5
445.361	119.5
445.582	125.5
445.803	170.5
446.024	156.5
446.245	146.5
446.466	118.5
446.687	87.5
446.908	73.5
447.129	85.5
447.35	87.5
447.571	93.5
447.792	96.5
448.013	102.5
448.234	107.5
448.455	99.5
448.675	115.5
448.896	149.5
449.117	103.5
449.338	111.5
449.559	132.5
449.779	145.5
450	105.5
450.221	93.5
450.442	90.5
450.662	89.5
450.883	125.5
451.104	110.5
451.324	104.5
451.545	88.5
451.766	87.5
451.986	103.5
452.207	104.5
452.428	104.5
452.648	105.5
452.869	126.5
453.089	125.5
453.31	111.5
453.53	104.5
453.751	104.5
453.971	112.5
454.192	115.5
454.412	91.5
454.633	93.5
454.853	94.5
455.073	68.5
455.294	97.5
455.514	114.5
455.734	102.5
455.955	86.5
456.175	86.5
456.395	81.5
456.616	85.5
456.836	89.5
457.056	84.5
457.276	83.5
457.497	70.5
457.717	90.5
457.937	82.5
458.157	87.5
458.377	94.5
458.598	123.5
458.818	179.5
459.038	183.5
459.258	129.5
459.478	90.5
459.698	87.5
459.918	86.5
460.138	85.5
460.358	82.5
460.578	87.5
460.798	83.5
461.018	97.5
461.238	106.5
461.458	93.5
461.678	89.5
461.898	88.5
462.118	85.5
462.338	84.5
462.558	97.5
462.777	104.5
462.997	86.5
463.217	90.5
463.437	92.5
463.657	91.5
463.876	85.5
464.096	85.5
464.316	94.5
464.536	99.5
464.755	100.5
464.975	101.5
465.195	182.5
465.414	195.5
465.634	106.5
465.854	89.5
466.073	87.5
466.293	95.5
466.512	83.5
466.732	94.5
466.951	86.5
467.171	90.5
467.391	110.5
467.61	116.5
467.829	149.5
468.049	343.5
468.268	498.5
468.488	158.5
468.707	94.5
468.927	90.5
469.146	86.5
469.365	73.5
469.585	98.5
469.804	93.5
470.023	103.5
470.243	109.5
470.462	95.5
470.681	118.5
470.901	98.5
471.12	87.5
471.339	91.5
471.558	98.5
471.777	112.5
471.997	197.5
472.216	603.5
472.435	1400.5
472.654	359.5
472.873	120.5
473.092	88.5
473.311	95.5
473.53	77.5
473.749	97.5
473.968	108.5
474.187	101.5
474.406	102.5
474.625	104.5
474.844	79.5
475.063	86.5
475.282	91.5
475.501	87.5
475.72	94.5
475.939	97.5
476.158	92.5
476.377	82.5
476.596	98.5
476.814	105.5
477.033	84.5
477.252	99.5
477.471	87.5
477.69	91.5
477.908	80.5
478.127	89.5
478.346	97.5
478.564	94.5
478.783	107.5
479.002	98.5
479.22	93.5
479.439	106.5
479.658	112.5
479.876	98.5
480.095	105.5
480.313	122.5
480.532	134.5
480.751	199.5
480.969	586.5
481.188	2456.5
481.406	1434.5
481.624	253.5
481.843	125.5
482.061	93.5
482.28	89.5
482.498	77.5
482.717	100.5
482.935	94.5
483.153	86.5
483.372	88.5
483.59	75.5
483.808	99.5
484.027	98.5
484.245	102.5
484.463	104.5
484.681	100.5
484.9	97.5
485.118	100.5
485.336	116.5
485.554	89.5
485.772	108.5
485.99	107.5
486.209	106.5
486.427	106.5
486.645	114.5
486.863	117.5
487.081	112.5
487.299	111.5
487.517	105.5
487.735	86.5
487.953	85.5
488.171	108.5
488.389	100.5
488.607	97.5
488.825	93.5
489.043	98.5
489.261	94.5
489.479	92.5
489.696	98.5
489.914	99.5
490.132	87.5
490.35	91.5
490.568	104.5
490.786	93.5
491.003	94.5
491.221	101.5
491.439	71.5
491.657	99.5
491.874	98.5
492.092	89.5
492.31	102.5
492.527	97.5
492.745	105.5
492.963	80.5
493.18	98.5
493.398	109.5
493.615	98.5
493.833	91.5
494.05	97.5
494.268	100.5
494.485	93.5
494.703	102.5
494.92	101.5
495.138	93.5
495.355	82.5
495.573	90.5
495.79	90.5
496.008	87.5
496.225	89.5
496.442	96.5
496.66	88.5
496.877	82.5
497.094	91.5
497.312	91.5
497.529	87.5
497.746	102.5
497.963	97.5
498.181	88.5
498.398	98.5
498.615	93.5
498.832	108.5
499.049	95.5
499.267	86.5
499.484	77.5
499.701	98.5
499.918	83.5
500.135	99.5
500.352	105.5
500.569	89.5
500.786	112.5
501.003	90.5
501.22	96.5
501.437	102.5
501.654	99.5
501.871	103.5
502.088	98.5
502.305	85.5
502.522	87.5
502.739	77.5
502.956	95.5
503.172	103.5
503.389	101.5
503.606	111.5
503.823	102.5
504.04	104.5
504.256	94.5
504.473	85.5
504.69	82.5
504.907	78.5
505.123	90.5
505.34	84.5
505.557	85.5
505.773	83.5
505.99	80.5
506.207	95.5
506.423	85.5
506.64	94.5
506.856	88.5
507.073	88.5
507.289	87.5
507.506	102.5
507.722	113.5
507.939	133.5
508.155	107.5
508.372	99.5
508.588	89.5
508.805	90.5
509.021	100.5
509.238	117.5
509.454	106.5
509.67	100.5
509.887	114.5
510.103	117.5
510.319	221.5
510.536	805.5
510.752	2685.5
510.968	734.5
511.184	167.5
511.401	114.5
511.617	108.5
511.833	98.5
512.049	110.5
512.265	95.5
512.481	84.5
512.698	91.5
512.914	100.5
513.13	107.5
513.346	98.5
513.562	97.5
513.778	92.5
513.994	103.5
514.21	103.5
514.426	133.5
514.642	169.5
514.858	142.5
515.074	191.5
515.29	548.5
515.506	2019.5
515.721	721.5
515.937	179.5
516.153	125.5
516.369	83.5
516.585	97.5
516.801	89.5
517.016	101.5
517.232	100.5
517.448	99.5
517.664	94.5
517.879	98.5
518.095	96.5
518.311	89.5
518.527	111.5
518.742	106.5
518.958	86.5
519.173	79.5
519.389	93.5
519.605	90.5
519.82	85.5
520.036	98.5
520.251	123.5
520.467	127.5
520.682	93.5
520.898	104.5
521.113	132.5
521.329	163.5
521.544	250.5
521.76	707.5
521.975	3341.5
522.19	1968.5
522.406	418.5
522.621	146.5
522.836	109.5
523.052	90.5
523.267	101.5
523.482	99.5
523.698	107.5
523.913	136.5
524.128	113.5
524.343	87.5
524.559	95.5
524.774	105.5
524.989	75.5
525.204	107.5
525.419	110.5
525.634	86.5
525.849	98.5
526.064	96.5
526.28	107.5
526.495	85.5
526.71	83.5
526.925	82.5
527.14	92.5
527.355	87.5
527.57	97.5
527.785	85.5
527.999	81.5
528.214	98.5
528.429	96.5
528.644	87.5
528.859	94.5
529.074	99.5
529.289	121.5
529.503	226.5
529.718	119.5
529.933	101.5
530.148	90.5
530.363	78.5
530.577	96.5
530.792	77.5
531.007	85.5
531.221	94.5
531.436	89.5
531.651	86.5
531.865	100.5
532.08	61.5
532.295	86.5
532.509	96.5
