Data from Circ_1987_H10_HRD10591_00073.txt Node
Date: Wed Jan 03 12:10:47 EST 2024
User: Yrep
Spectrometer: HR+D1059
Trigger mode: 1
Integration Time (sec): 1.000000E-1
Scans to average: 1
Electric dark correction enabled: true
Nonlinearity correction enabled: false
Boxcar width: 0
XAxis mode: Wavelengths
Number of Pixels in Spectrum: 2048
>>>>>Begin Spectral Data<<<<<
223.165	-22.62
223.4	-22.62
223.635	-22.62
223.869	-28.62
224.104	-27.62
224.338	-5.62
224.573	-15.62
224.808	-6.62
225.042	2.38
225.277	-4.62
225.511	-7.62
225.746	6.38
225.98	13.38
226.215	16.38
226.449	12.38
226.683	23.38
226.918	16.38
227.152	28.38
227.387	34.38
227.621	37.38
227.856	34.38
228.09	46.38
228.324	54.38
228.559	66.38
228.793	56.38
229.027	61.38
229.262	70.38
229.496	90.38
229.73	101.38
229.964	103.38
230.199	77.38
230.433	89.38
230.667	73.38
230.901	82.38
231.136	72.38
231.37	84.38
231.604	86.38
231.838	96.38
232.072	79.38
232.306	83.38
232.541	96.38
232.775	92.38
233.009	90.38
233.243	75.38
233.477	93.38
233.711	102.38
233.945	93.38
234.179	92.38
234.413	88.38
234.647	98.38
234.881	98.38
235.115	100.38
235.349	87.38
235.583	75.38
235.817	69.38
236.051	68.38
236.285	77.38
236.519	81.38
236.753	100.38
236.987	86.38
237.221	89.38
237.455	85.38
237.689	90.38
237.922	88.38
238.156	75.38
238.39	72.38
238.624	86.38
238.858	88.38
239.091	76.38
239.325	81.38
239.559	96.38
239.793	82.38
240.027	89.38
240.26	74.38
240.494	76.38
240.728	81.38
240.961	98.38
241.195	91.38
241.429	75.38
241.662	75.38
241.896	85.38
242.13	87.38
242.363	81.38
242.597	72.38
242.83	80.38
243.064	80.38
243.298	82.38
243.531	78.38
243.765	56.38
243.998	85.38
244.232	82.38
244.465	101.38
244.699	88.38
244.932	91.38
245.166	90.38
245.399	76.38
245.633	80.38
245.866	88.38
246.099	82.38
246.333	88.38
246.566	92.38
246.8	97.38
247.033	77.38
247.266	73.38
247.5	72.38
247.733	87.38
247.966	84.38
248.2	90.38
248.433	97.38
248.666	77.38
248.899	97.38
249.133	91.38
249.366	104.38
249.599	86.38
249.832	74.38
250.066	90.38
250.299	84.38
250.532	93.38
250.765	90.38
250.998	76.38
251.231	91.38
251.465	72.38
251.698	85.38
251.931	90.38
252.164	91.38
252.397	93.38
252.63	78.38
252.863	78.38
253.096	89.38
253.329	83.38
253.562	88.38
253.795	81.38
254.028	93.38
254.261	92.38
254.494	74.38
254.727	96.38
254.96	84.38
255.193	72.38
255.426	95.38
255.659	80.38
255.892	98.38
256.124	110.38
256.357	96.38
256.59	80.38
256.823	91.38
257.056	84.38
257.289	93.38
257.521	90.38
257.754	98.38
257.987	98.38
258.22	96.38
258.452	89.38
258.685	79.38
258.918	91.38
259.151	101.38
259.383	83.38
259.616	62.38
259.849	97.38
260.081	97.38
260.314	85.38
260.547	95.38
260.779	102.38
261.012	97.38
261.244	118.38
261.477	99.38
261.71	100.38
261.942	130.38
262.175	148.38
262.407	89.38
262.64	87.38
262.872	94.38
263.105	92.38
263.337	100.38
263.57	80.38
263.802	71.38
264.035	90.38
264.267	78.38
264.499	85.38
264.732	82.38
264.964	70.38
265.197	72.38
265.429	93.38
265.661	80.38
265.894	85.38
266.126	83.38
266.358	85.38
266.591	84.38
266.823	102.38
267.055	90.38
267.287	100.38
267.52	88.38
267.752	91.38
267.984	73.38
268.216	85.38
268.448	105.38
268.681	100.38
268.913	100.38
269.145	77.38
269.377	95.38
269.609	84.38
269.841	82.38
270.073	86.38
270.306	87.38
270.538	82.38
270.77	92.38
271.002	84.38
271.234	99.38
271.466	91.38
271.698	90.38
271.93	106.38
272.162	95.38
272.394	85.38
272.626	76.38
272.858	79.38
273.09	82.38
273.322	96.38
273.553	84.38
273.785	73.38
274.017	90.38
274.249	92.38
274.481	88.38
274.713	100.38
274.945	100.38
275.176	94.38
275.408	102.38
275.64	111.38
275.872	128.38
276.104	115.38
276.335	111.38
276.567	116.38
276.799	151.38
277.031	182.38
277.262	180.38
277.494	167.38
277.726	99.38
277.957	89.38
278.189	88.38
278.421	86.38
278.652	78.38
278.884	92.38
279.115	88.38
279.347	94.38
279.579	111.38
279.81	132.38
280.042	178.38
280.273	230.38
280.505	164.38
280.736	111.38
280.968	91.38
281.199	95.38
281.431	90.38
281.662	105.38
281.894	99.38
282.125	98.38
282.356	138.38
282.588	178.38
282.819	142.38
283.051	96.38
283.282	102.38
283.513	99.38
283.745	95.38
283.976	94.38
284.207	108.38
284.439	76.38
284.67	86.38
284.901	82.38
285.132	106.38
285.364	83.38
285.595	86.38
285.826	90.38
286.057	100.38
286.288	80.38
286.52	92.38
286.751	85.38
286.982	96.38
287.213	94.38
287.444	83.38
287.675	90.38
287.906	106.38
288.138	89.38
288.369	91.38
288.6	93.38
288.831	96.38
289.062	89.38
289.293	94.38
289.524	88.38
289.755	95.38
289.986	100.38
290.217	83.38
290.448	89.38
290.679	87.38
290.91	90.38
291.141	105.38
291.371	109.38
291.602	96.38
291.833	93.38
292.064	104.38
292.295	96.38
292.526	99.38
292.757	107.38
292.987	99.38
293.218	91.38
293.449	98.38
293.68	94.38
293.91	82.38
294.141	101.38
294.372	93.38
294.603	101.38
294.833	86.38
295.064	96.38
295.295	88.38
295.525	100.38
295.756	121.38
295.987	117.38
296.217	147.38
296.448	146.38
296.679	113.38
296.909	92.38
297.14	105.38
297.37	105.38
297.601	103.38
297.831	101.38
298.062	98.38
298.292	88.38
298.523	100.38
298.753	95.38
298.984	85.38
299.214	102.38
299.445	100.38
299.675	90.38
299.905	97.38
300.136	94.38
300.366	88.38
300.597	98.38
300.827	109.38
301.057	102.38
301.288	112.38
301.518	110.38
301.748	112.38
301.979	117.38
302.209	108.38
302.439	94.38
302.669	92.38
302.9	105.38
303.13	108.38
303.36	114.38
303.59	142.38
303.82	138.38
304.051	114.38
304.281	97.38
304.511	91.38
304.741	92.38
304.971	89.38
305.201	104.38
305.431	91.38
305.661	98.38
305.891	108.38
306.121	98.38
306.352	117.38
306.582	121.38
306.812	114.38
307.042	139.38
307.272	156.38
307.502	185.38
307.731	177.38
307.961	148.38
308.191	98.38
308.421	99.38
308.651	94.38
308.881	99.38
309.111	93.38
309.341	105.38
309.571	104.38
309.8	100.38
310.03	86.38
310.26	122.38
310.49	106.38
310.72	114.38
310.949	126.38
311.179	119.38
311.409	102.38
311.639	104.38
311.868	113.38
312.098	92.38
312.328	109.38
312.557	119.38
312.787	139.38
313.017	111.38
313.246	98.38
313.476	93.38
313.706	102.38
313.935	105.38
314.165	116.38
314.394	126.38
314.624	110.38
314.853	105.38
315.083	101.38
315.312	96.38
315.542	101.38
315.771	101.38
316.001	101.38
316.23	108.38
316.46	92.38
316.689	100.38
316.919	103.38
317.148	107.38
317.377	109.38
317.607	111.38
317.836	110.38
318.065	98.38
318.295	93.38
318.524	101.38
318.753	98.38
318.983	88.38
319.212	122.38
319.441	126.38
319.67	117.38
319.9	100.38
320.129	102.38
320.358	110.38
320.587	94.38
320.816	104.38
321.046	117.38
321.275	101.38
321.504	96.38
321.733	106.38
321.962	107.38
322.191	103.38
322.42	109.38
322.649	125.38
322.878	122.38
323.108	124.38
323.337	150.38
323.566	163.38
323.795	186.38
324.024	238.38
324.253	484.38
324.482	1017.38
324.71	2207.38
324.939	2902.38
325.168	1034.38
325.397	305.38
325.626	187.38
325.855	152.38
326.084	151.38
326.313	150.38
326.542	184.38
326.77	266.38
326.999	536.38
327.228	1131.38
327.457	2163.38
327.686	1757.38
327.914	570.38
328.143	496.38
328.372	623.38
328.6	350.38
328.829	181.38
329.058	194.38
329.287	193.38
329.515	196.38
329.744	234.38
329.972	453.38
330.201	938.38
330.43	1368.38
330.658	622.38
330.887	279.38
331.115	208.38
331.344	139.38
331.572	129.38
331.801	128.38
332.03	154.38
332.258	119.38
332.486	118.38
332.715	113.38
332.943	122.38
333.172	118.38
333.4	141.38
333.629	169.38
333.857	235.38
334.085	392.38
334.314	871.38
334.542	1697.38
334.771	1600.38
334.999	418.38
335.227	176.38
335.455	131.38
335.684	121.38
335.912	113.38
336.14	100.38
336.369	102.38
336.597	125.38
336.825	110.38
337.053	104.38
337.281	88.38
337.51	93.38
337.738	92.38
337.966	92.38
338.194	122.38
338.422	91.38
338.65	102.38
338.878	99.38
339.106	95.38
339.334	102.38
339.562	96.38
339.79	107.38
340.018	113.38
340.246	100.38
340.474	100.38
340.702	110.38
340.93	106.38
341.158	90.38
341.386	92.38
341.614	96.38
341.842	100.38
342.07	92.38
342.298	100.38
342.526	112.38
342.754	93.38
342.981	91.38
343.209	84.38
343.437	99.38
343.665	104.38
343.893	92.38
344.12	85.38
344.348	92.38
344.576	77.38
344.804	98.38
345.031	108.38
345.259	127.38
345.487	105.38
345.714	101.38
345.942	110.38
346.17	93.38
346.397	109.38
346.625	103.38
346.853	98.38
347.08	105.38
347.308	100.38
347.535	122.38
347.763	116.38
347.99	109.38
348.218	115.38
348.445	118.38
348.673	120.38
348.9	91.38
349.128	98.38
349.355	88.38
349.583	85.38
349.81	91.38
350.037	101.38
350.265	103.38
350.492	100.38
350.72	97.38
350.947	113.38
351.174	120.38
351.402	123.38
351.629	90.38
351.856	98.38
352.083	107.38
352.311	122.38
352.538	131.38
352.765	123.38
352.992	125.38
353.22	119.38
353.447	109.38
353.674	113.38
353.901	105.38
354.128	93.38
354.355	94.38
354.583	106.38
354.81	111.38
355.037	97.38
355.264	99.38
355.491	88.38
355.718	89.38
355.945	99.38
356.172	121.38
356.399	101.38
356.626	90.38
356.853	78.38
357.08	92.38
357.307	98.38
357.534	93.38
357.761	102.38
357.988	99.38
358.215	99.38
358.441	96.38
358.668	96.38
358.895	89.38
359.122	97.38
359.349	94.38
359.576	125.38
359.802	104.38
360.029	136.38
360.256	139.38
360.483	112.38
360.709	96.38
360.936	92.38
361.163	102.38
361.39	105.38
361.616	105.38
361.843	97.38
362.07	110.38
362.296	110.38
362.523	117.38
362.749	103.38
362.976	94.38
363.203	99.38
363.429	76.38
363.656	102.38
363.882	95.38
364.109	102.38
364.335	103.38
364.562	96.38
364.788	110.38
365.015	107.38
365.241	117.38
365.468	121.38
365.694	132.38
365.92	110.38
366.147	85.38
366.373	102.38
366.599	96.38
366.826	91.38
367.052	99.38
367.278	96.38
367.505	96.38
367.731	102.38
367.957	96.38
368.184	83.38
368.41	125.38
368.636	120.38
368.862	116.38
369.089	109.38
369.315	110.38
369.541	96.38
369.767	101.38
369.993	90.38
370.219	108.38
370.445	91.38
370.672	88.38
370.898	92.38
371.124	99.38
371.35	81.38
371.576	93.38
371.802	96.38
372.028	87.38
372.254	97.38
372.48	100.38
372.706	92.38
372.932	90.38
373.158	78.38
373.384	98.38
373.61	112.38
373.835	99.38
374.061	116.38
374.287	92.38
374.513	84.38
374.739	96.38
374.965	86.38
375.191	98.38
375.416	110.38
375.642	107.38
375.868	91.38
376.094	102.38
376.319	84.38
376.545	93.38
376.771	97.38
376.997	105.38
377.222	97.38
377.448	92.38
377.674	92.38
377.899	93.38
378.125	92.38
378.35	96.38
378.576	78.38
378.802	102.38
379.027	99.38
379.253	87.38
379.478	89.38
379.704	91.38
379.929	90.38
380.155	93.38
380.38	90.38
380.606	105.38
380.831	98.38
381.057	116.38
381.282	103.38
381.507	97.38
381.733	108.38
381.958	105.38
382.184	109.38
382.409	100.38
382.634	99.38
382.86	94.38
383.085	96.38
383.31	102.38
383.535	106.38
383.761	100.38
383.986	96.38
384.211	94.38
384.436	80.38
384.662	93.38
384.887	93.38
385.112	95.38
385.337	110.38
385.562	101.38
385.787	107.38
386.013	113.38
386.238	106.38
386.463	123.38
386.688	114.38
386.913	108.38
387.138	110.38
387.363	101.38
387.588	96.38
387.813	99.38
388.038	95.38
388.263	106.38
388.488	100.38
388.713	98.38
388.938	93.38
389.163	96.38
389.387	96.38
389.612	106.38
389.837	97.38
390.062	96.38
390.287	80.38
390.512	105.38
390.736	103.38
390.961	103.38
391.186	94.38
391.411	102.38
391.636	95.38
391.86	99.38
392.085	96.38
392.31	100.38
392.534	90.38
392.759	88.38
392.984	98.38
393.208	92.38
393.433	109.38
393.658	93.38
393.882	100.38
394.107	90.38
394.331	99.38
394.556	86.38
394.78	92.38
395.005	102.38
395.229	92.38
395.454	90.38
395.678	92.38
395.903	89.38
396.127	106.38
396.352	100.38
396.576	102.38
396.801	81.38
397.025	85.38
397.249	83.38
397.474	82.38
397.698	94.38
397.922	93.38
398.147	101.38
398.371	98.38
398.595	88.38
398.82	76.38
399.044	93.38
399.268	85.38
399.492	96.38
399.717	90.38
399.941	98.38
400.165	105.38
400.389	107.38
400.613	83.38
400.837	86.38
401.062	105.38
401.286	98.38
401.51	91.38
401.734	105.38
401.958	101.38
402.182	137.38
402.406	183.38
402.63	146.38
402.854	106.38
403.078	106.38
403.302	108.38
403.526	111.38
403.75	90.38
403.974	93.38
404.198	105.38
404.422	99.38
404.645	97.38
404.869	100.38
405.093	126.38
405.317	152.38
405.541	152.38
405.765	123.38
405.988	138.38
406.212	213.38
406.436	289.38
406.66	196.38
406.883	124.38
407.107	114.38
407.331	98.38
407.555	117.38
407.778	95.38
408.002	107.38
408.226	99.38
408.449	85.38
408.673	100.38
408.896	105.38
409.12	109.38
409.344	90.38
409.567	89.38
409.791	96.38
410.014	107.38
410.238	92.38
410.461	85.38
410.685	99.38
410.908	114.38
411.132	104.38
411.355	108.38
411.578	101.38
411.802	100.38
412.025	84.38
412.249	103.38
412.472	102.38
412.695	144.38
412.919	120.38
413.142	98.38
413.365	97.38
413.589	91.38
413.812	106.38
414.035	89.38
414.258	112.38
414.482	105.38
414.705	76.38
414.928	104.38
415.151	109.38
415.374	91.38
415.597	97.38
415.821	85.38
416.044	100.38
416.267	91.38
416.49	95.38
416.713	100.38
416.936	97.38
417.159	92.38
417.382	92.38
417.605	101.38
417.828	121.38
418.051	103.38
418.274	100.38
418.497	85.38
418.72	95.38
418.943	84.38
419.166	89.38
419.389	99.38
419.611	102.38
419.834	93.38
420.057	76.38
420.28	87.38
420.503	93.38
420.726	97.38
420.948	102.38
421.171	120.38
421.394	107.38
421.617	100.38
421.839	93.38
422.062	97.38
422.285	83.38
422.507	103.38
422.73	105.38
422.953	91.38
423.175	93.38
423.398	96.38
423.621	88.38
423.843	102.38
424.066	92.38
424.288	93.38
424.511	69.38
424.733	104.38
424.956	120.38
425.178	123.38
425.401	103.38
425.623	106.38
425.846	96.38
426.068	91.38
426.291	98.38
426.513	98.38
426.735	90.38
426.958	108.38
427.18	121.38
427.402	196.38
427.625	268.38
427.847	262.38
428.069	232.38
428.292	140.38
428.514	106.38
428.736	96.38
428.958	94.38
429.181	91.38
429.403	88.38
429.625	91.38
429.847	91.38
430.069	116.38
430.292	107.38
430.514	88.38
430.736	86.38
430.958	91.38
431.18	100.38
431.402	89.38
431.624	84.38
431.846	96.38
432.068	83.38
432.29	84.38
432.512	102.38
432.734	98.38
432.956	96.38
433.178	109.38
433.4	113.38
433.622	104.38
433.844	88.38
434.066	103.38
434.287	88.38
434.509	88.38
434.731	100.38
434.953	76.38
435.175	97.38
435.397	105.38
435.618	94.38
435.84	124.38
436.062	160.38
436.284	148.38
436.505	115.38
436.727	105.38
436.949	92.38
437.17	90.38
437.392	91.38
437.614	91.38
437.835	129.38
438.057	146.38
438.278	139.38
438.5	123.38
438.721	149.38
438.943	128.38
439.165	93.38
439.386	89.38
439.608	97.38
439.829	112.38
440.05	156.38
440.272	197.38
440.493	130.38
440.715	94.38
440.936	83.38
441.158	102.38
441.379	90.38
441.6	111.38
441.822	97.38
442.043	99.38
442.264	118.38
442.486	118.38
442.707	102.38
442.928	133.38
443.149	169.38
443.371	170.38
443.592	136.38
443.813	126.38
444.034	132.38
444.255	85.38
444.476	97.38
444.698	85.38
444.919	88.38
445.14	126.38
445.361	143.38
445.582	130.38
445.803	187.38
446.024	168.38
446.245	174.38
446.466	149.38
446.687	112.38
446.908	89.38
447.129	89.38
447.35	104.38
447.571	85.38
447.792	110.38
448.013	100.38
448.234	110.38
448.455	106.38
448.675	124.38
448.896	158.38
449.117	106.38
449.338	130.38
449.559	157.38
449.779	154.38
450	103.38
450.221	92.38
450.442	101.38
450.662	107.38
450.883	133.38
451.104	121.38
451.324	108.38
451.545	96.38
451.766	102.38
451.986	84.38
452.207	87.38
452.428	91.38
452.648	99.38
452.869	133.38
453.089	117.38
453.31	144.38
453.53	106.38
453.751	109.38
453.971	109.38
454.192	141.38
454.412	102.38
454.633	94.38
454.853	95.38
455.073	83.38
455.294	107.38
455.514	112.38
455.734	95.38
455.955	93.38
456.175	82.38
456.395	81.38
456.616	89.38
456.836	97.38
457.056	92.38
457.276	86.38
457.497	94.38
457.717	86.38
457.937	96.38
458.157	82.38
458.377	102.38
458.598	126.38
458.818	194.38
459.038	233.38
459.258	153.38
459.478	91.38
459.698	100.38
459.918	89.38
460.138	90.38
460.358	82.38
460.578	92.38
460.798	94.38
461.018	102.38
461.238	94.38
461.458	90.38
461.678	90.38
461.898	91.38
462.118	84.38
462.338	90.38
462.558	94.38
462.777	88.38
462.997	84.38
463.217	104.38
463.437	88.38
463.657	99.38
463.876	84.38
464.096	91.38
464.316	110.38
464.536	101.38
464.755	96.38
464.975	120.38
465.195	229.38
465.414	214.38
465.634	95.38
465.854	95.38
466.073	91.38
466.293	91.38
466.512	96.38
466.732	101.38
466.951	93.38
467.171	109.38
467.391	105.38
467.61	139.38
467.829	205.38
468.049	516.38
468.268	772.38
468.488	210.38
468.707	110.38
468.927	99.38
469.146	93.38
469.365	102.38
469.585	96.38
469.804	92.38
470.023	120.38
470.243	115.38
470.462	113.38
470.681	133.38
470.901	104.38
471.12	98.38
471.339	101.38
471.558	110.38
471.777	150.38
471.997	298.38
472.216	968.38
472.435	2261.38
472.654	564.38
472.873	153.38
473.092	113.38
473.311	110.38
473.53	108.38
473.749	97.38
473.968	116.38
474.187	117.38
474.406	108.38
474.625	87.38
474.844	86.38
475.063	80.38
475.282	101.38
475.501	97.38
475.72	88.38
475.939	94.38
476.158	101.38
476.377	98.38
476.596	113.38
476.814	109.38
477.033	94.38
477.252	99.38
477.471	102.38
477.69	101.38
477.908	102.38
478.127	96.38
478.346	86.38
478.564	89.38
478.783	128.38
479.002	102.38
479.22	99.38
479.439	129.38
479.658	123.38
479.876	117.38
480.095	119.38
480.313	144.38
480.532	175.38
480.751	267.38
480.969	920.38
481.188	3986.38
481.406	2261.38
481.624	342.38
481.843	136.38
482.061	107.38
482.28	110.38
482.498	93.38
482.717	105.38
482.935	102.38
483.153	86.38
483.372	85.38
483.59	101.38
483.808	93.38
484.027	107.38
484.245	115.38
484.463	102.38
484.681	96.38
484.9	92.38
485.118	96.38
485.336	85.38
485.554	96.38
485.772	80.38
485.99	101.38
486.209	103.38
486.427	115.38
486.645	120.38
486.863	136.38
487.081	117.38
487.299	114.38
487.517	112.38
487.735	86.38
487.953	102.38
488.171	101.38
488.389	97.38
488.607	101.38
488.825	94.38
489.043	88.38
489.261	100.38
489.479	82.38
489.696	89.38
489.914	98.38
490.132	97.38
490.35	90.38
490.568	106.38
490.786	101.38
491.003	96.38
491.221	102.38
491.439	88.38
491.657	101.38
491.874	104.38
492.092	84.38
492.31	97.38
492.527	92.38
492.745	88.38
492.963	103.38
493.18	97.38
493.398	85.38
493.615	92.38
493.833	88.38
494.05	100.38
494.268	91.38
494.485	103.38
494.703	93.38
494.92	88.38
495.138	92.38
495.355	104.38
495.573	98.38
495.79	98.38
496.008	100.38
496.225	105.38
496.442	75.38
496.66	109.38
496.877	101.38
497.094	101.38
497.312	99.38
497.529	82.38
497.746	98.38
497.963	93.38
498.181	97.38
498.398	101.38
498.615	129.38
498.832	117.38
499.049	103.38
499.267	94.38
499.484	85.38
499.701	98.38
499.918	96.38
500.135	102.38
500.352	84.38
500.569	85.38
500.786	107.38
501.003	90.38
501.22	88.38
501.437	85.38
501.654	96.38
501.871	120.38
502.088	96.38
502.305	86.38
502.522	94.38
502.739	96.38
502.956	92.38
503.172	90.38
503.389	103.38
503.606	117.38
503.823	112.38
504.04	97.38
504.256	101.38
504.473	95.38
504.69	91.38
504.907	93.38
505.123	93.38
505.34	96.38
505.557	102.38
505.773	87.38
505.99	96.38
506.207	84.38
506.423	82.38
506.64	101.38
506.856	103.38
507.073	94.38
507.289	103.38
507.506	106.38
507.722	133.38
507.939	136.38
508.155	102.38
508.372	94.38
508.588	82.38
508.805	105.38
509.021	88.38
509.238	102.38
509.454	107.38
509.67	127.38
509.887	108.38
510.103	142.38
510.319	250.38
510.536	821.38
510.752	2751.38
510.968	740.38
511.184	173.38
511.401	116.38
