Data from Circ_1987_H10_HRD10591_00016.txt Node
Date: Wed Jan 03 12:10:36 EST 2024
User: Yrep
Spectrometer: HR+D1059
Trigger mode: 1
Integration Time (sec): 1.000000E-1
Scans to average: 1
Electric dark correction enabled: true
Nonlinearity correction enabled: false
Boxcar width: 0
XAxis mode: Wavelengths
Number of Pixels in Spectrum: 2048
>>>>>Begin Spectral Data<<<<<
223.165	-9.88
223.4	-9.88
223.635	-9.88
223.869	-12.88
224.104	-4.88
224.338	-13.88
224.573	-21.88
224.808	-13.88
225.042	-7.88
225.277	-5.88
225.511	-8.88
225.746	-4.88
225.98	-4.88
226.215	21.12
226.449	19.12
226.683	20.12
226.918	19.12
227.152	30.12
227.387	38.12
227.621	35.12
227.856	56.12
228.09	44.12
228.324	49.12
228.559	50.12
228.793	56.12
229.027	79.12
229.262	78.12
229.496	79.12
229.73	112.12
229.964	105.12
230.199	88.12
230.433	80.12
230.667	88.12
230.901	86.12
231.136	72.12
231.37	76.12
231.604	67.12
231.838	71.12
232.072	63.12
232.306	83.12
232.541	86.12
232.775	79.12
233.009	76.12
233.243	94.12
233.477	80.12
233.711	95.12
233.945	76.12
234.179	78.12
234.413	80.12
234.647	84.12
234.881	101.12
235.115	89.12
235.349	63.12
235.583	73.12
235.817	71.12
236.051	87.12
236.285	80.12
236.519	89.12
236.753	82.12
236.987	93.12
237.221	94.12
237.455	101.12
237.689	75.12
237.922	67.12
238.156	82.12
238.39	86.12
238.624	79.12
238.858	88.12
239.091	77.12
239.325	79.12
239.559	86.12
239.793	81.12
240.027	93.12
240.26	90.12
240.494	78.12
240.728	81.12
240.961	79.12
241.195	88.12
241.429	86.12
241.662	86.12
241.896	81.12
242.13	88.12
242.363	76.12
242.597	79.12
242.83	84.12
243.064	76.12
243.298	88.12
243.531	88.12
243.765	81.12
243.998	91.12
244.232	101.12
244.465	86.12
244.699	88.12
244.932	82.12
245.166	84.12
245.399	83.12
245.633	69.12
245.866	80.12
246.099	96.12
246.333	78.12
246.566	82.12
246.8	86.12
247.033	82.12
247.266	70.12
247.5	84.12
247.733	91.12
247.966	85.12
248.2	98.12
248.433	85.12
248.666	65.12
248.899	76.12
249.133	106.12
249.366	108.12
249.599	93.12
249.832	102.12
250.066	85.12
250.299	98.12
250.532	91.12
250.765	84.12
250.998	81.12
251.231	98.12
251.465	83.12
251.698	81.12
251.931	82.12
252.164	89.12
252.397	88.12
252.63	88.12
252.863	83.12
253.096	72.12
253.329	100.12
253.562	70.12
253.795	84.12
254.028	79.12
254.261	98.12
254.494	90.12
254.727	80.12
254.96	75.12
255.193	104.12
255.426	86.12
255.659	91.12
255.892	91.12
256.124	99.12
256.357	83.12
256.59	97.12
256.823	71.12
257.056	88.12
257.289	92.12
257.521	77.12
257.754	78.12
257.987	75.12
258.22	94.12
258.452	98.12
258.685	98.12
258.918	96.12
259.151	77.12
259.383	80.12
259.616	78.12
259.849	85.12
260.081	98.12
260.314	96.12
260.547	88.12
260.779	79.12
261.012	95.12
261.244	115.12
261.477	101.12
261.71	110.12
261.942	129.12
262.175	150.12
262.407	100.12
262.64	92.12
262.872	82.12
263.105	90.12
263.337	85.12
263.57	90.12
263.802	96.12
264.035	85.12
264.267	78.12
264.499	94.12
264.732	65.12
264.964	64.12
265.197	94.12
265.429	90.12
265.661	83.12
265.894	84.12
266.126	79.12
266.358	99.12
266.591	74.12
266.823	75.12
267.055	85.12
267.287	85.12
267.52	97.12
267.752	80.12
267.984	67.12
268.216	92.12
268.448	86.12
268.681	91.12
268.913	100.12
269.145	84.12
269.377	95.12
269.609	95.12
269.841	95.12
270.073	93.12
270.306	86.12
270.538	94.12
270.77	80.12
271.002	85.12
271.234	90.12
271.466	87.12
271.698	82.12
271.93	83.12
272.162	98.12
272.394	81.12
272.626	102.12
272.858	84.12
273.09	83.12
273.322	91.12
273.553	77.12
273.785	82.12
274.017	100.12
274.249	91.12
274.481	86.12
274.713	100.12
274.945	81.12
275.176	106.12
275.408	92.12
275.64	101.12
275.872	108.12
276.104	116.12
276.335	92.12
276.567	107.12
276.799	143.12
277.031	162.12
277.262	172.12
277.494	158.12
277.726	101.12
277.957	79.12
278.189	84.12
278.421	90.12
278.652	98.12
278.884	102.12
279.115	93.12
279.347	95.12
279.579	96.12
279.81	112.12
280.042	148.12
280.273	224.12
280.505	172.12
280.736	116.12
280.968	75.12
281.199	82.12
281.431	88.12
281.662	98.12
281.894	91.12
282.125	104.12
282.356	150.12
282.588	151.12
282.819	138.12
283.051	102.12
283.282	78.12
283.513	87.12
283.745	88.12
283.976	97.12
284.207	83.12
284.439	79.12
284.67	65.12
284.901	93.12
285.132	71.12
285.364	91.12
285.595	94.12
285.826	96.12
286.057	87.12
286.288	89.12
286.52	90.12
286.751	91.12
286.982	86.12
287.213	94.12
287.444	86.12
287.675	84.12
287.906	85.12
288.138	87.12
288.369	95.12
288.6	91.12
288.831	90.12
289.062	96.12
289.293	97.12
289.524	76.12
289.755	88.12
289.986	92.12
290.217	82.12
290.448	84.12
290.679	104.12
290.91	88.12
291.141	90.12
291.371	86.12
291.602	93.12
291.833	94.12
292.064	89.12
292.295	113.12
292.526	104.12
292.757	102.12
292.987	101.12
293.218	88.12
293.449	103.12
293.68	94.12
293.91	91.12
294.141	94.12
294.372	80.12
294.603	90.12
294.833	90.12
295.064	87.12
295.295	74.12
295.525	76.12
295.756	113.12
295.987	125.12
296.217	168.12
296.448	158.12
296.679	118.12
296.909	103.12
297.14	103.12
297.37	93.12
297.601	88.12
297.831	95.12
298.062	98.12
298.292	96.12
298.523	85.12
298.753	85.12
298.984	83.12
299.214	88.12
299.445	92.12
299.675	104.12
299.905	100.12
300.136	107.12
300.366	105.12
300.597	102.12
300.827	87.12
301.057	118.12
301.288	107.12
301.518	97.12
301.748	86.12
301.979	112.12
302.209	107.12
302.439	113.12
302.669	88.12
302.9	103.12
303.13	99.12
303.36	119.12
303.59	130.12
303.82	137.12
304.051	103.12
304.281	90.12
304.511	92.12
304.741	93.12
304.971	91.12
305.201	93.12
305.431	98.12
305.661	100.12
305.891	110.12
306.121	117.12
306.352	102.12
306.582	118.12
306.812	108.12
307.042	106.12
307.272	153.12
307.502	169.12
307.731	145.12
307.961	122.12
308.191	99.12
308.421	108.12
308.651	83.12
308.881	114.12
309.111	101.12
309.341	104.12
309.571	107.12
309.8	101.12
310.03	123.12
310.26	120.12
310.49	116.12
310.72	109.12
310.949	120.12
311.179	126.12
311.409	107.12
311.639	91.12
311.868	100.12
312.098	89.12
312.328	105.12
312.557	106.12
312.787	140.12
313.017	119.12
313.246	116.12
313.476	96.12
313.706	96.12
313.935	103.12
314.165	92.12
314.394	115.12
314.624	111.12
314.853	111.12
315.083	109.12
315.312	86.12
315.542	96.12
315.771	86.12
316.001	95.12
316.23	103.12
316.46	87.12
316.689	105.12
316.919	104.12
317.148	118.12
317.377	104.12
317.607	105.12
317.836	100.12
318.065	104.12
318.295	92.12
318.524	101.12
318.753	110.12
318.983	95.12
319.212	114.12
319.441	120.12
319.67	118.12
319.9	98.12
320.129	90.12
320.358	99.12
320.587	109.12
320.816	102.12
321.046	102.12
321.275	106.12
321.504	97.12
321.733	98.12
321.962	108.12
322.191	117.12
322.42	115.12
322.649	127.12
322.878	128.12
323.108	119.12
323.337	150.12
323.566	148.12
323.795	175.12
324.024	258.12
324.253	448.12
324.482	981.12
324.71	2042.12
324.939	2718.12
325.168	1014.12
325.397	295.12
325.626	163.12
325.855	148.12
326.084	140.12
326.313	154.12
326.542	166.12
326.77	263.12
326.999	512.12
327.228	1054.12
327.457	1929.12
327.686	1584.12
327.914	512.12
328.143	480.12
328.372	600.12
328.6	323.12
328.829	196.12
329.058	179.12
329.287	180.12
329.515	177.12
329.744	228.12
329.972	430.12
330.201	854.12
330.43	1260.12
330.658	585.12
330.887	292.12
331.115	198.12
331.344	136.12
331.572	132.12
331.801	123.12
332.03	116.12
332.258	119.12
332.486	106.12
332.715	117.12
332.943	113.12
333.172	128.12
333.4	129.12
333.629	163.12
333.857	225.12
334.085	396.12
334.314	787.12
334.542	1554.12
334.771	1477.12
334.999	401.12
335.227	172.12
335.455	123.12
335.684	119.12
335.912	113.12
336.14	121.12
336.369	107.12
336.597	116.12
336.825	130.12
337.053	112.12
337.281	99.12
337.51	114.12
337.738	96.12
337.966	100.12
338.194	114.12
338.422	105.12
338.65	100.12
338.878	105.12
339.106	84.12
339.334	103.12
339.562	94.12
339.79	100.12
340.018	100.12
340.246	83.12
340.474	110.12
340.702	91.12
340.93	107.12
341.158	96.12
341.386	111.12
341.614	115.12
341.842	105.12
342.07	112.12
342.298	116.12
342.526	103.12
342.754	104.12
342.981	103.12
343.209	91.12
343.437	116.12
343.665	95.12
343.893	86.12
344.12	92.12
344.348	90.12
344.576	85.12
344.804	100.12
345.031	105.12
345.259	107.12
345.487	99.12
345.714	94.12
345.942	94.12
346.17	92.12
346.397	103.12
346.625	113.12
346.853	95.12
347.08	104.12
347.308	99.12
347.535	111.12
347.763	119.12
347.99	107.12
348.218	105.12
348.445	118.12
348.673	103.12
348.9	92.12
349.128	87.12
349.355	103.12
349.583	105.12
349.81	107.12
350.037	105.12
350.265	98.12
350.492	86.12
350.72	103.12
350.947	127.12
351.174	127.12
351.402	131.12
351.629	122.12
351.856	112.12
352.083	118.12
352.311	107.12
352.538	141.12
352.765	117.12
352.992	132.12
353.22	113.12
353.447	99.12
353.674	112.12
353.901	95.12
354.128	102.12
354.355	100.12
354.583	99.12
354.81	102.12
355.037	101.12
355.264	99.12
355.491	88.12
355.718	92.12
355.945	93.12
356.172	83.12
356.399	92.12
356.626	91.12
356.853	107.12
357.08	84.12
357.307	94.12
357.534	84.12
357.761	91.12
357.988	99.12
358.215	89.12
358.441	81.12
358.668	101.12
358.895	91.12
359.122	104.12
359.349	112.12
359.576	94.12
359.802	118.12
360.029	149.12
360.256	145.12
360.483	135.12
360.709	91.12
360.936	111.12
361.163	99.12
361.39	106.12
361.616	113.12
361.843	101.12
362.07	111.12
362.296	106.12
362.523	98.12
362.749	105.12
362.976	109.12
363.203	105.12
363.429	89.12
363.656	90.12
363.882	101.12
364.109	94.12
364.335	85.12
364.562	100.12
364.788	107.12
365.015	87.12
365.241	103.12
365.468	124.12
365.694	126.12
365.92	106.12
366.147	96.12
366.373	83.12
366.599	98.12
366.826	94.12
367.052	102.12
367.278	95.12
367.505	87.12
367.731	102.12
367.957	98.12
368.184	86.12
368.41	102.12
368.636	130.12
368.862	126.12
369.089	121.12
369.315	96.12
369.541	104.12
369.767	94.12
369.993	95.12
370.219	100.12
370.445	88.12
370.672	81.12
370.898	98.12
371.124	98.12
371.35	97.12
371.576	96.12
371.802	80.12
372.028	80.12
372.254	84.12
372.48	95.12
372.706	90.12
372.932	100.12
373.158	96.12
373.384	96.12
373.61	95.12
373.835	98.12
374.061	90.12
374.287	93.12
374.513	95.12
374.739	79.12
374.965	94.12
375.191	107.12
375.416	94.12
375.642	95.12
375.868	107.12
376.094	97.12
376.319	90.12
376.545	95.12
376.771	113.12
376.997	97.12
377.222	99.12
377.448	94.12
377.674	97.12
377.899	99.12
378.125	98.12
378.35	92.12
378.576	99.12
378.802	93.12
379.027	94.12
379.253	93.12
379.478	95.12
379.704	100.12
379.929	96.12
380.155	99.12
380.38	112.12
380.606	98.12
380.831	112.12
381.057	102.12
381.282	97.12
381.507	104.12
381.733	107.12
381.958	99.12
382.184	100.12
382.409	104.12
382.634	106.12
382.86	105.12
383.085	109.12
383.31	120.12
383.535	103.12
383.761	100.12
383.986	107.12
384.211	90.12
384.436	116.12
384.662	113.12
384.887	109.12
385.112	130.12
385.337	120.12
385.562	104.12
385.787	103.12
386.013	113.12
386.238	135.12
386.463	121.12
386.688	119.12
386.913	102.12
387.138	122.12
387.363	118.12
387.588	104.12
387.813	107.12
388.038	97.12
388.263	112.12
388.488	114.12
388.713	86.12
388.938	94.12
389.163	100.12
389.387	101.12
389.612	72.12
389.837	94.12
390.062	106.12
390.287	91.12
390.512	105.12
390.736	97.12
390.961	82.12
391.186	96.12
391.411	103.12
391.636	103.12
391.86	88.12
392.085	99.12
392.31	86.12
392.534	91.12
392.759	84.12
392.984	98.12
393.208	92.12
393.433	105.12
393.658	91.12
393.882	70.12
394.107	90.12
394.331	90.12
394.556	91.12
394.78	90.12
395.005	90.12
395.229	88.12
395.454	98.12
395.678	92.12
395.903	83.12
396.127	99.12
396.352	110.12
396.576	102.12
396.801	90.12
397.025	113.12
397.249	88.12
397.474	88.12
397.698	90.12
397.922	83.12
398.147	78.12
398.371	93.12
398.595	93.12
398.82	91.12
399.044	103.12
399.268	80.12
399.492	95.12
399.717	88.12
399.941	87.12
400.165	106.12
400.389	115.12
400.613	103.12
400.837	93.12
401.062	98.12
401.286	114.12
401.51	101.12
401.734	100.12
401.958	113.12
402.182	144.12
402.406	198.12
402.63	160.12
402.854	113.12
403.078	100.12
403.302	106.12
403.526	105.12
403.75	93.12
403.974	86.12
404.198	107.12
404.422	99.12
404.645	96.12
404.869	106.12
405.093	116.12
405.317	142.12
405.541	133.12
405.765	115.12
405.988	135.12
406.212	225.12
406.436	318.12
406.66	222.12
406.883	130.12
407.107	102.12
407.331	119.12
407.555	130.12
407.778	119.12
408.002	104.12
408.226	90.12
408.449	94.12
408.673	100.12
408.896	104.12
409.12	112.12
409.344	101.12
409.567	91.12
409.791	83.12
410.014	91.12
410.238	104.12
410.461	94.12
410.685	98.12
410.908	99.12
411.132	126.12
411.355	104.12
411.578	97.12
411.802	89.12
412.025	85.12
412.249	104.12
412.472	127.12
412.695	138.12
412.919	112.12
413.142	114.12
413.365	100.12
413.589	99.12
413.812	90.12
414.035	103.12
414.258	93.12
414.482	88.12
414.705	89.12
414.928	100.12
415.151	92.12
415.374	89.12
415.597	90.12
415.821	91.12
416.044	104.12
416.267	103.12
416.49	102.12
416.713	110.12
416.936	83.12
417.159	93.12
417.382	100.12
417.605	99.12
417.828	111.12
418.051	117.12
418.274	92.12
418.497	95.12
418.72	77.12
418.943	74.12
419.166	87.12
419.389	84.12
419.611	87.12
419.834	89.12
420.057	109.12
420.28	100.12
420.503	94.12
420.726	104.12
420.948	112.12
421.171	113.12
421.394	103.12
421.617	105.12
421.839	91.12
422.062	104.12
422.285	110.12
422.507	95.12
422.73	105.12
422.953	108.12
423.175	100.12
423.398	97.12
423.621	90.12
423.843	84.12
424.066	90.12
424.288	108.12
424.511	116.12
424.733	126.12
424.956	121.12
425.178	113.12
425.401	108.12
425.623	113.12
425.846	94.12
426.068	111.12
426.291	99.12
426.513	115.12
426.735	112.12
426.958	104.12
427.18	131.12
427.402	190.12
427.625	279.12
427.847	242.12
428.069	219.12
428.292	129.12
428.514	97.12
428.736	78.12
428.958	87.12
429.181	80.12
429.403	91.12
429.625	96.12
429.847	85.12
430.069	116.12
430.292	100.12
430.514	100.12
430.736	93.12
430.958	84.12
431.18	96.12
431.402	89.12
431.624	98.12
431.846	81.12
432.068	85.12
432.29	85.12
432.512	107.12
432.734	84.12
432.956	100.12
433.178	109.12
433.4	94.12
433.622	79.12
433.844	86.12
434.066	95.12
434.287	101.12
434.509	101.12
434.731	98.12
434.953	91.12
435.175	96.12
435.397	109.12
435.618	102.12
435.84	117.12
436.062	156.12
436.284	136.12
436.505	126.12
436.727	112.12
436.949	102.12
437.17	96.12
437.392	92.12
437.614	97.12
437.835	136.12
438.057	154.12
438.278	148.12
438.5	136.12
438.721	171.12
438.943	127.12
439.165	84.12
439.386	98.12
439.608	100.12
439.829	116.12
440.05	166.12
440.272	188.12
440.493	126.12
440.715	101.12
440.936	95.12
441.158	87.12
441.379	98.12
441.6	114.12
441.822	102.12
442.043	106.12
442.264	118.12
442.486	139.12
442.707	106.12
442.928	132.12
443.149	187.12
443.371	175.12
443.592	132.12
443.813	144.12
444.034	135.12
444.255	107.12
444.476	87.12
444.698	95.12
444.919	98.12
445.14	118.12
445.361	121.12
445.582	140.12
445.803	184.12
446.024	186.12
446.245	194.12
446.466	112.12
446.687	108.12
446.908	97.12
447.129	104.12
447.35	90.12
447.571	86.12
447.792	92.12
448.013	112.12
448.234	132.12
448.455	131.12
448.675	143.12
448.896	154.12
449.117	123.12
449.338	120.12
449.559	175.12
449.779	164.12
450	100.12
450.221	97.12
450.442	86.12
450.662	114.12
450.883	137.12
451.104	145.12
451.324	109.12
451.545	86.12
451.766	91.12
451.986	102.12
452.207	102.12
452.428	83.12
452.648	100.12
452.869	130.12
453.089	137.12
453.31	140.12
453.53	109.12
453.751	102.12
453.971	140.12
454.192	145.12
454.412	109.12
454.633	93.12
454.853	79.12
455.073	96.12
455.294	104.12
455.514	118.12
455.734	100.12
455.955	71.12
456.175	86.12
456.395	92.12
456.616	92.12
456.836	86.12
457.056	96.12
457.276	71.12
457.497	97.12
457.717	95.12
457.937	85.12
458.157	89.12
458.377	98.12
458.598	115.12
458.818	216.12
459.038	246.12
459.258	161.12
459.478	123.12
459.698	94.12
459.918	82.12
460.138	89.12
460.358	91.12
460.578	89.12
460.798	103.12
461.018	98.12
461.238	84.12
461.458	83.12
461.678	95.12
461.898	91.12
462.118	86.12
462.338	106.12
462.558	74.12
462.777	87.12
462.997	99.12
463.217	111.12
463.437	98.12
463.657	99.12
463.876	89.12
464.096	86.12
464.316	100.12
464.536	102.12
464.755	96.12
464.975	132.12
465.195	256.12
465.414	263.12
465.634	114.12
465.854	90.12
466.073	91.12
466.293	104.12
466.512	85.12
466.732	100.12
466.951	92.12
467.171	99.12
467.391	106.12
467.61	152.12
467.829	190.12
468.049	457.12
468.268	676.12
468.488	205.12
468.707	109.12
468.927	94.12
469.146	97.12
469.365	87.12
469.585	103.12
469.804	87.12
470.023	116.12
470.243	103.12
470.462	119.12
470.681	150.12
470.901	108.12
471.12	95.12
471.339	108.12
471.558	103.12
471.777	139.12
471.997	255.12
472.216	886.12
472.435	2069.12
472.654	514.12
472.873	160.12
473.092	104.12
473.311	92.12
473.53	102.12
473.749	100.12
473.968	116.12
474.187	136.12
474.406	125.12
474.625	98.12
474.844	88.12
475.063	100.12
475.282	102.12
475.501	93.12
475.72	103.12
475.939	80.12
476.158	91.12
476.377	102.12
476.596	92.12
476.814	99.12
477.033	104.12
477.252	88.12
477.471	92.12
477.69	96.12
477.908	87.12
478.127	85.12
478.346	100.12
478.564	101.12
478.783	101.12
479.002	107.12
479.22	116.12
479.439	120.12
479.658	129.12
479.876	117.12
480.095	116.12
480.313	131.12
480.532	163.12
480.751	249.12
480.969	810.12
481.188	3565.12
481.406	2135.12
481.624	324.12
481.843	132.12
482.061	111.12
482.28	96.12
482.498	96.12
482.717	80.12
482.935	107.12
483.153	96.12
483.372	103.12
483.59	102.12
483.808	90.12
484.027	90.12
484.245	99.12
484.463	101.12
484.681	105.12
484.9	89.12
485.118	107.12
485.336	100.12
485.554	102.12
485.772	111.12
485.99	122.12
486.209	110.12
486.427	111.12
486.645	132.12
486.863	160.12
487.081	108.12
487.299	92.12
487.517	101.12
487.735	103.12
487.953	91.12
488.171	114.12
488.389	100.12
488.607	103.12
488.825	104.12
489.043	101.12
489.261	83.12
489.479	85.12
489.696	96.12
489.914	88.12
490.132	90.12
490.35	104.12
490.568	115.12
490.786	107.12
491.003	108.12
491.221	97.12
491.439	109.12
491.657	91.12
491.874	82.12
492.092	105.12
492.31	84.12
492.527	100.12
492.745	111.12
492.963	98.12
493.18	89.12
493.398	105.12
493.615	94.12
493.833	86.12
494.05	87.12
494.268	95.12
494.485	88.12
494.703	97.12
494.92	99.12
495.138	85.12
495.355	105.12
495.573	98.12
495.79	101.12
496.008	102.12
496.225	101.12
496.442	98.12
496.66	110.12
496.877	91.12
497.094	68.12
497.312	105.12
497.529	100.12
497.746	96.12
497.963	93.12
498.181	86.12
498.398	89.12
498.615	107.12
498.832	114.12
499.049	103.12
499.267	88.12
499.484	83.12
499.701	74.12
499.918	95.12
500.135	87.12
500.352	98.12
500.569	90.12
500.786	117.12
501.003	85.12
501.22	102.12
501.437	98.12
501.654	107.12
501.871	121.12
502.088	104.12
502.305	72.12
502.522	94.12
502.739	88.12
502.956	84.12
503.172	101.12
503.389	109.12
503.606	140.12
503.823	110.12
504.04	99.12
504.256	105.12
504.473	88.12
504.69	103.12
504.907	96.12
505.123	97.12
505.34	103.12
505.557	89.12
505.773	96.12
505.99	105.12
506.207	83.12
506.423	91.12
506.64	106.12
506.856	91.12
507.073	104.12
507.289	92.12
507.506	105.12
507.722	127.12
507.939	156.12
508.155	123.12
508.372	93.12
508.588	89.12
508.805	86.12
509.021	100.12
509.238	106.12
509.454	97.12
509.67	106.12
509.887	115.12
510.103	150.12
510.319	254.12
510.536	944.12
510.752	3240.12
510.968	861.12
511.184	173.12
