Data from Circ_1987_H10_HRD10591_00066.txt Node
Date: Wed Jan 03 12:10:46 EST 2024
User: Yrep
Spectrometer: HR+D1059
Trigger mode: 1
Integration Time (sec): 1.000000E-1
Scans to average: 1
Electric dark correction enabled: true
Nonlinearity correction enabled: false
Boxcar width: 0
XAxis mode: Wavelengths
Number of Pixels in Spectrum: 2048
>>>>>Begin Spectral Data<<<<<
223.165	-9
223.4	-9
223.635	-9
223.869	-16
224.104	-26
224.338	-25
224.573	-14
224.808	-12
225.042	-7
225.277	-17
225.511	-3
225.746	6
225.98	8
226.215	9
226.449	23
226.683	30
226.918	33
227.152	20
227.387	41
227.621	21
227.856	45
228.09	57
228.324	40
228.559	48
228.793	54
229.027	50
229.262	72
229.496	74
229.73	84
229.964	96
230.199	74
230.433	62
230.667	82
230.901	74
231.136	82
231.37	77
231.604	71
231.838	78
232.072	74
232.306	81
232.541	80
232.775	78
233.009	82
233.243	78
233.477	89
233.711	78
233.945	78
234.179	78
234.413	87
234.647	85
234.881	78
235.115	70
235.349	60
235.583	78
235.817	77
236.051	73
236.285	77
236.519	81
236.753	82
236.987	82
237.221	96
237.455	110
237.689	97
237.922	82
238.156	82
238.39	72
238.624	87
238.858	80
239.091	78
239.325	71
239.559	81
239.793	74
240.027	85
240.26	79
240.494	74
240.728	74
240.961	81
241.195	70
241.429	80
241.662	82
241.896	78
242.13	56
242.363	88
242.597	86
242.83	84
243.064	76
243.298	68
243.531	71
243.765	69
243.998	78
244.232	90
244.465	86
244.699	91
244.932	84
245.166	76
245.399	78
245.633	91
245.866	86
246.099	75
246.333	82
246.566	81
246.8	88
247.033	78
247.266	67
247.5	66
247.733	84
247.966	84
248.2	70
248.433	80
248.666	82
248.899	92
249.133	97
249.366	109
249.599	98
249.832	84
250.066	94
250.299	87
250.532	88
250.765	72
250.998	88
251.231	92
251.465	92
251.698	95
251.931	101
252.164	70
252.397	73
252.63	80
252.863	85
253.096	83
253.329	87
253.562	77
253.795	78
254.028	69
254.261	84
254.494	80
254.727	91
254.96	93
255.193	90
255.426	80
255.659	87
255.892	113
256.124	116
256.357	85
256.59	84
256.823	74
257.056	81
257.289	88
257.521	89
257.754	90
257.987	86
258.22	108
258.452	99
258.685	92
258.918	99
259.151	93
259.383	70
259.616	83
259.849	86
260.081	80
260.314	93
260.547	106
260.779	110
261.012	102
261.244	99
261.477	101
261.71	111
261.942	136
262.175	149
262.407	89
262.64	93
262.872	82
263.105	75
263.337	95
263.57	93
263.802	90
264.035	95
264.267	84
264.499	81
264.732	82
264.964	95
265.197	91
265.429	95
265.661	84
265.894	106
266.126	74
266.358	84
266.591	78
266.823	69
267.055	103
267.287	94
267.52	76
267.752	81
267.984	72
268.216	85
268.448	88
268.681	93
268.913	80
269.145	94
269.377	64
269.609	77
269.841	88
270.073	85
270.306	92
270.538	90
270.77	82
271.002	86
271.234	90
271.466	80
271.698	96
271.93	97
272.162	99
272.394	94
272.626	73
272.858	88
273.09	88
273.322	86
273.553	78
273.785	102
274.017	72
274.249	80
274.481	73
274.713	80
274.945	94
275.176	90
275.408	111
275.64	104
275.872	142
276.104	99
276.335	101
276.567	119
276.799	162
277.031	196
277.262	221
277.494	162
277.726	115
277.957	106
278.189	87
278.421	96
278.652	95
278.884	87
279.115	102
279.347	101
279.579	126
279.81	138
280.042	225
280.273	285
280.505	210
280.736	112
280.968	102
281.199	96
281.431	87
281.662	76
281.894	93
282.125	95
282.356	152
282.588	181
282.819	144
283.051	96
283.282	94
283.513	80
283.745	93
283.976	81
284.207	97
284.439	78
284.67	108
284.901	95
285.132	95
285.364	86
285.595	83
285.826	95
286.057	94
286.288	97
286.52	85
286.751	86
286.982	83
287.213	93
287.444	88
287.675	69
287.906	84
288.138	91
288.369	88
288.6	88
288.831	96
289.062	90
289.293	85
289.524	79
289.755	87
289.986	82
290.217	83
290.448	78
290.679	79
290.91	112
291.141	94
291.371	94
291.602	91
291.833	90
292.064	88
292.295	93
292.526	101
292.757	103
292.987	89
293.218	95
293.449	91
293.68	95
293.91	91
294.141	99
294.372	99
294.603	93
294.833	82
295.064	83
295.295	92
295.525	99
295.756	110
295.987	135
296.217	173
296.448	144
296.679	106
296.909	100
297.14	88
297.37	94
297.601	99
297.831	101
298.062	81
298.292	103
298.523	100
298.753	83
298.984	91
299.214	96
299.445	93
299.675	110
299.905	108
300.136	101
300.366	87
300.597	102
300.827	97
301.057	114
301.288	120
301.518	110
301.748	103
301.979	112
302.209	112
302.439	95
302.669	89
302.9	104
303.13	98
303.36	105
303.59	134
303.82	148
304.051	121
304.281	90
304.511	86
304.741	100
304.971	98
305.201	84
305.431	94
305.661	83
305.891	91
306.121	108
306.352	119
306.582	132
306.812	100
307.042	136
307.272	178
307.502	192
307.731	174
307.961	129
308.191	86
308.421	94
308.651	106
308.881	101
309.111	94
309.341	106
309.571	101
309.8	104
310.03	110
310.26	114
310.49	102
310.72	125
310.949	129
311.179	116
311.409	95
311.639	109
311.868	94
312.098	96
312.328	114
312.557	117
312.787	126
313.017	110
313.246	106
313.476	92
313.706	101
313.935	98
314.165	121
314.394	122
314.624	110
314.853	106
315.083	97
315.312	88
315.542	86
315.771	81
316.001	78
316.23	93
316.46	93
316.689	86
316.919	102
317.148	110
317.377	92
317.607	114
317.836	105
318.065	101
318.295	93
318.524	80
318.753	89
318.983	110
319.212	113
319.441	126
319.67	119
319.9	111
320.129	88
320.358	95
320.587	103
320.816	104
321.046	105
321.275	114
321.504	104
321.733	97
321.962	104
322.191	106
322.42	115
322.649	132
322.878	124
323.108	137
323.337	162
323.566	167
323.795	178
324.024	204
324.253	445
324.482	956
324.71	1886
324.939	2426
325.168	924
325.397	283
325.626	174
325.855	136
326.084	155
326.313	142
326.542	179
326.77	256
326.999	488
327.228	972
327.457	1712
327.686	1371
327.914	558
328.143	586
328.372	746
328.6	398
328.829	206
329.058	215
329.287	226
329.515	184
329.744	279
329.972	533
330.201	1081
330.43	1650
330.658	724
330.887	336
331.115	225
331.344	148
331.572	127
331.801	144
332.03	142
332.258	113
332.486	112
332.715	118
332.943	125
333.172	120
333.4	138
333.629	170
333.857	238
334.085	472
334.314	1005
334.542	2072
334.771	1913
334.999	490
335.227	209
335.455	124
335.684	122
335.912	105
336.14	114
336.369	106
336.597	130
336.825	115
337.053	107
337.281	96
337.51	112
337.738	93
337.966	96
338.194	116
338.422	116
338.65	95
338.878	101
339.106	80
339.334	98
339.562	106
339.79	97
340.018	103
340.246	99
340.474	114
340.702	106
340.93	112
341.158	94
341.386	105
341.614	113
341.842	97
342.07	93
342.298	101
342.526	96
342.754	88
342.981	93
343.209	81
343.437	104
343.665	99
343.893	88
344.12	89
344.348	105
344.576	94
344.804	97
345.031	118
345.259	118
345.487	98
345.714	117
345.942	94
346.17	98
346.397	95
346.625	110
346.853	90
347.08	94
347.308	108
347.535	114
347.763	110
347.99	104
348.218	114
348.445	135
348.673	108
348.9	106
349.128	99
349.355	100
349.583	91
349.81	89
350.037	96
350.265	95
350.492	90
350.72	105
350.947	104
351.174	135
351.402	134
351.629	106
351.856	104
352.083	109
352.311	131
352.538	118
352.765	134
352.992	114
353.22	129
353.447	120
353.674	102
353.901	86
354.128	101
354.355	92
354.583	106
354.81	88
355.037	98
355.264	99
355.491	94
355.718	92
355.945	96
356.172	97
356.399	81
356.626	92
356.853	112
357.08	101
357.307	76
357.534	91
357.761	110
357.988	97
358.215	110
358.441	99
358.668	98
358.895	96
359.122	96
359.349	94
359.576	95
359.802	133
360.029	152
360.256	153
360.483	125
360.709	86
360.936	100
361.163	104
361.39	99
361.616	95
361.843	111
362.07	117
362.296	114
362.523	104
362.749	98
362.976	105
363.203	98
363.429	99
363.656	97
363.882	97
364.109	81
364.335	93
364.562	86
364.788	101
365.015	102
365.241	98
365.468	126
365.694	118
365.92	111
366.147	104
366.373	102
366.599	94
366.826	106
367.052	89
367.278	90
367.505	99
367.731	113
367.957	112
368.184	95
368.41	114
368.636	125
368.862	137
369.089	127
369.315	121
369.541	85
369.767	96
369.993	86
370.219	87
370.445	100
370.672	86
370.898	84
371.124	90
371.35	84
371.576	90
371.802	83
372.028	89
372.254	86
372.48	88
372.706	73
372.932	97
373.158	83
373.384	83
373.61	92
373.835	83
374.061	92
374.287	88
374.513	80
374.739	92
374.965	88
375.191	89
375.416	97
375.642	103
375.868	99
376.094	101
376.319	99
376.545	82
376.771	88
376.997	98
377.222	95
377.448	86
377.674	74
377.899	83
378.125	81
378.35	73
378.576	81
378.802	86
379.027	93
379.253	71
379.478	91
379.704	95
379.929	96
380.155	98
380.38	94
380.606	101
380.831	114
381.057	106
381.282	93
381.507	103
381.733	89
381.958	89
382.184	91
382.409	104
382.634	94
382.86	84
383.085	88
383.31	94
383.535	102
383.761	110
383.986	91
384.211	101
384.436	94
384.662	98
384.887	99
385.112	84
385.337	99
385.562	96
385.787	105
386.013	102
386.238	106
386.463	102
386.688	110
386.913	99
387.138	93
387.363	101
387.588	104
387.813	93
388.038	87
388.263	104
388.488	107
388.713	94
388.938	96
389.163	88
389.387	80
389.612	93
389.837	87
390.062	88
390.287	88
390.512	89
390.736	76
390.961	79
391.186	92
391.411	83
391.636	69
391.86	76
392.085	82
392.31	89
392.534	86
392.759	99
392.984	78
393.208	100
393.433	110
393.658	83
393.882	94
394.107	80
394.331	87
394.556	91
394.78	94
395.005	80
395.229	89
395.454	97
395.678	95
395.903	99
396.127	101
396.352	89
396.576	74
396.801	92
397.025	85
397.249	88
397.474	79
397.698	82
397.922	101
398.147	94
398.371	90
398.595	93
398.82	89
399.044	78
399.268	82
399.492	89
399.717	92
399.941	86
400.165	110
400.389	95
400.613	108
400.837	76
401.062	107
401.286	114
401.51	100
401.734	109
401.958	122
402.182	161
402.406	203
402.63	170
402.854	108
403.078	100
403.302	92
403.526	99
403.75	98
403.974	87
404.198	96
404.422	87
404.645	80
404.869	108
405.093	115
405.317	152
405.541	158
405.765	121
405.988	150
406.212	243
406.436	357
406.66	225
406.883	123
407.107	125
407.331	101
407.555	118
407.778	103
408.002	95
408.226	94
408.449	106
408.673	89
408.896	99
409.12	102
409.344	93
409.567	82
409.791	86
410.014	95
410.238	96
410.461	89
410.685	108
410.908	99
411.132	123
411.355	115
411.578	83
411.802	83
412.025	102
412.249	88
412.472	121
412.695	157
412.919	124
413.142	112
413.365	97
413.589	88
413.812	85
414.035	94
414.258	98
414.482	95
414.705	94
414.928	87
415.151	102
415.374	92
415.597	81
415.821	93
416.044	86
416.267	96
416.49	78
416.713	78
416.936	89
417.159	100
417.382	88
417.605	118
417.828	115
418.051	102
418.274	100
418.497	100
418.72	84
418.943	90
419.166	83
419.389	82
419.611	82
419.834	101
420.057	93
420.28	97
420.503	83
420.726	86
420.948	107
421.171	110
421.394	95
421.617	86
421.839	92
422.062	74
422.285	92
422.507	104
422.73	110
422.953	108
423.175	97
423.398	90
423.621	81
423.843	91
424.066	77
424.288	89
424.511	113
424.733	110
424.956	124
425.178	104
425.401	110
425.623	116
425.846	103
426.068	111
426.291	110
426.513	104
426.735	96
426.958	105
427.18	127
427.402	197
427.625	276
427.847	251
428.069	220
428.292	117
428.514	92
428.736	95
428.958	98
429.181	87
429.403	80
429.625	99
429.847	90
430.069	112
430.292	100
430.514	89
430.736	80
430.958	84
431.18	95
431.402	82
431.624	78
431.846	90
432.068	94
432.29	90
432.512	96
432.734	96
432.956	112
433.178	110
433.4	92
433.622	88
433.844	87
434.066	102
434.287	100
434.509	90
434.731	103
434.953	72
435.175	104
435.397	92
435.618	100
435.84	117
436.062	137
436.284	124
436.505	99
436.727	106
436.949	103
437.17	116
437.392	92
437.614	108
437.835	163
438.057	154
438.278	154
438.5	107
438.721	146
438.943	122
439.165	92
439.386	69
439.608	93
439.829	113
440.05	156
440.272	204
440.493	112
440.715	90
440.936	91
441.158	89
441.379	90
441.6	104
441.822	105
442.043	105
442.264	147
442.486	118
442.707	96
442.928	99
443.149	188
443.371	178
443.592	128
443.813	159
444.034	135
444.255	94
444.476	74
444.698	98
444.919	83
445.14	125
445.361	134
445.582	123
445.803	196
446.024	183
446.245	176
446.466	124
446.687	102
446.908	69
447.129	72
447.35	99
447.571	86
447.792	97
448.013	111
448.234	131
448.455	110
448.675	152
448.896	144
449.117	94
449.338	116
449.559	141
449.779	160
450	111
450.221	88
450.442	94
450.662	122
450.883	121
451.104	167
451.324	108
451.545	86
451.766	103
451.986	103
452.207	103
452.428	109
452.648	107
452.869	131
453.089	143
453.31	158
453.53	112
453.751	111
453.971	136
454.192	134
454.412	103
454.633	96
454.853	98
455.073	92
455.294	116
455.514	105
455.734	102
455.955	104
456.175	86
456.395	74
456.616	102
456.836	108
457.056	87
457.276	83
457.497	82
457.717	78
457.937	86
458.157	96
458.377	99
458.598	126
458.818	223
459.038	263
459.258	166
459.478	117
459.698	74
459.918	76
460.138	89
460.358	72
460.578	80
460.798	95
461.018	88
461.238	101
461.458	94
461.678	85
461.898	88
462.118	97
462.338	91
462.558	94
462.777	98
462.997	95
463.217	111
463.437	112
463.657	88
463.876	89
464.096	97
464.316	79
464.536	110
464.755	101
464.975	135
465.195	261
465.414	266
465.634	116
465.854	92
466.073	86
466.293	89
466.512	80
466.732	85
466.951	86
467.171	107
467.391	120
467.61	157
467.829	227
468.049	601
468.268	871
468.488	225
468.707	123
468.927	107
469.146	95
469.365	89
469.585	92
469.804	116
470.023	114
470.243	113
470.462	122
470.681	154
470.901	100
471.12	100
471.339	105
471.558	104
471.777	156
471.997	305
472.216	1204
472.435	2748
472.654	615
472.873	188
473.092	108
473.311	102
473.53	105
473.749	81
473.968	128
474.187	131
474.406	117
474.625	94
474.844	94
475.063	99
475.282	93
475.501	89
475.72	108
475.939	85
476.158	94
476.377	86
476.596	88
476.814	105
477.033	110
477.252	96
477.471	95
477.69	96
477.908	84
478.127	92
478.346	84
478.564	99
478.783	124
479.002	101
479.22	101
479.439	127
479.658	150
479.876	128
480.095	125
480.313	149
480.532	181
480.751	291
480.969	1093
481.188	4692
481.406	2681
481.624	387
481.843	144
482.061	125
482.28	101
482.498	97
482.717	90
482.935	97
483.153	88
483.372	97
483.59	109
483.808	92
484.027	106
484.245	100
484.463	112
484.681	101
484.9	104
485.118	103
485.336	107
485.554	108
485.772	105
485.99	119
486.209	113
486.427	121
486.645	144
486.863	147
487.081	126
487.299	107
487.517	84
487.735	99
487.953	92
488.171	90
488.389	97
488.607	110
488.825	97
489.043	100
489.261	100
489.479	111
489.696	91
489.914	86
490.132	103
490.35	86
490.568	101
490.786	93
491.003	101
491.221	98
491.439	100
491.657	94
491.874	101
492.092	90
492.31	117
492.527	118
492.745	112
492.963	95
493.18	97
493.398	109
493.615	107
493.833	112
494.05	95
494.268	111
494.485	80
494.703	87
494.92	88
495.138	91
495.355	92
495.573	89
495.79	112
496.008	93
496.225	84
496.442	96
496.66	89
496.877	100
497.094	78
497.312	89
497.529	89
497.746	85
497.963	99
498.181	102
498.398	105
498.615	127
498.832	104
499.049	110
499.267	92
499.484	95
499.701	84
499.918	98
500.135	86
500.352	94
500.569	110
500.786	122
501.003	101
501.22	101
501.437	92
501.654	102
501.871	130
502.088	105
502.305	105
502.522	103
502.739	89
502.956	95
503.172	108
503.389	109
503.606	145
503.823	119
504.04	105
504.256	95
504.473	94
504.69	100
504.907	94
505.123	101
505.34	84
505.557	92
505.773	96
505.99	100
506.207	94
506.423	86
506.64	92
506.856	79
507.073	92
507.289	87
507.506	102
507.722	145
507.939	155
508.155	111
508.372	100
508.588	90
508.805	93
509.021	104
509.238	105
509.454	103
509.67	113
509.887	121
510.103	144
510.319	264
510.536	1021
510.752	3554
510.968	898
511.184	195
511.401	131
511.617	128
511.833	126
512.049	105
512.265	102
512.481	92
512.698	98
512.914	98
513.13	109
513.346	88
513.562	100
513.778	110
513.994	104
514.21	140
514.426	156
514.642	197
514.858	162
515.074	246
515.29	815
515.506	2877
515.721	964
515.937	220
516.153	146
516.369	113
516.585	115
516.801	105
517.016	101
517.232	111
517.448	101
517.664	100
517.879	106
518.095	102
518.311	123
518.527	108
518.742	92
518.958	116
519.173	106
519.389	98
519.605	98
519.82	111
520.036	123
520.251	151
520.467	165
520.682	126
520.898	129
521.113	152
521.329	202
521.544	328
521.76	1050
521.975	4907
522.19	2837
522.406	555
522.621	182
522.836	140
523.052	100
523.267	103
523.482	110
523.698	113
523.913	157
524.128	120
524.343	105
524.559	107
524.774	96
524.989	110
525.204	113
525.419	101
525.634	78
525.849	93
526.064	90
526.28	97
526.495	98
526.71	89
526.925	95
527.14	90
527.355	97
527.57	88
527.785	76
527.999	101
528.214	94
528.429	103
528.644	99
528.859	95
529.074	104
529.289	170
529.503	321
529.718	150
529.933	103
530.148	80
530.363	82
530.577	90
530.792	95
531.007	98
531.221	86
531.436	86
531.651	88
531.865	87
532.08	89
532.295	104
532.509	98
532.724	82
532.938	80
533.153	92
533.367	87
533.582	106
533.796	107
534.011	112
534.225	88
534.44	113
534.654	117
534.868	106
535.083	99
535.297	100
535.511	112
535.726	116
535.94	115
536.154	104
536.369	92
536.583	87
536.797	88
537.011	92
537.225	73
537.44	103
537.654	83
537.868	95
538.082	79
538.296	94
538.51	89
538.724	98
538.938	97
539.153	105
539.367	134
539.581	105
539.795	111
540.009	96
540.222	83
540.436	95
540.65	98
540.864	101
541.078	106
541.292	84
541.506	105
541.72	89
541.934	92
542.147	88
542.361	94
542.575	88
542.789	99
543.002	87
543.216	97
543.43	107
543.644	103
543.857	90
544.071	99
544.285	82
544.498	83
544.712	103
544.925	90
545.139	97
545.352	91
545.566	97
545.779	99
545.993	83
546.206	93
546.42	97
546.633	111
546.847	109
547.06	96
547.274	87
547.487	110
547.7	95
547.914	93
548.127	100
548.34	84
548.554	92
548.767	97
548.98	88
549.193	94
549.407	100
549.62	94
549.833	92
550.046	94
550.259	87
550.473	94
550.686	106
550.899	96
551.112	97
551.325	98
551.538	93
551.751	80
551.964	80
552.177	92
552.39	87
552.603	92
552.816	88
553.029	90
553.242	86
553.455	103
553.667	112
553.88	125
554.093	113
554.306	118
554.519	142
554.732	107
554.944	88
555.157	98
555.37	96
555.583	93
555.795	96
556.008	98
556.221	89
556.433	95
556.646	78
556.859	97
557.071	92
557.284	85
557.496	84
557.709	97
557.921	86
558.134	98
558.346	106
558.559	89
558.771	85
558.984	102
559.196	85
559.409	93
559.621	94
559.833	95
560.046	95
560.258	123
560.47	144
560.683	112
560.895	89
561.107	94
561.32	83
561.532	104
561.744	73
561.956	100
562.168	98
562.381	101
562.593	87
562.805	96
563.017	85
563.229	88
563.441	82
563.653	73
563.865	106
564.077	106
564.289	92
564.501	81
564.713	99
564.925	103
565.137	112
565.349	103
565.561	102
565.773	92
565.985	88
566.197	102
566.408	98
566.62	94
566.832	80
567.044	81
567.255	81
567.467	87
567.679	91
567.891	92
568.102	92
568.314	87
568.526	85
568.737	92
568.949	97
569.161	76
569.372	76
569.584	72
569.795	108
570.007	141
570.218	310
570.43	156
570.641	92
570.853	84
571.064	82
571.276	88
571.487	80
571.698	95
571.91	99
572.121	84
572.333	67
572.544	99
572.755	80
572.966	99
573.178	89
573.389	105
573.6	93
573.811	84
574.023	100
574.234	85
574.445	97
574.656	78
574.867	90
575.078	102
575.289	90
575.501	85
575.712	105
575.923	72
576.134	81
576.345	86
576.556	102
576.767	99
576.978	86
577.188	97
577.399	107
577.61	97
577.821	89
578.032	129
578.243	344
578.454	1098
