Data from Circ_1987_H10_HRD10591_00008.txt Node
Date: Wed Jan 03 12:10:34 EST 2024
User: Yrep
Spectrometer: HR+D1059
Trigger mode: 1
Integration Time (sec): 1.000000E-1
Scans to average: 1
Electric dark correction enabled: true
Nonlinearity correction enabled: false
Boxcar width: 0
XAxis mode: Wavelengths
Number of Pixels in Spectrum: 2048
>>>>>Begin Spectral Data<<<<<
223.165	-15.69
223.4	-15.69
223.635	-15.69
223.869	-23.69
224.104	-30.69
224.338	-13.69
224.573	-17.69
224.808	-3.69
225.042	4.31
225.277	1.31
225.511	-5.69
225.746	-4.69
225.98	8.31
226.215	17.31
226.449	14.31
226.683	26.31
226.918	19.31
227.152	24.31
227.387	40.31
227.621	23.31
227.856	35.31
228.09	55.31
228.324	58.31
228.559	64.31
228.793	49.31
229.027	56.31
229.262	70.31
229.496	81.31
229.73	96.31
229.964	86.31
230.199	72.31
230.433	70.31
230.667	73.31
230.901	80.31
231.136	84.31
231.37	79.31
231.604	80.31
231.838	82.31
232.072	92.31
232.306	83.31
232.541	78.31
232.775	88.31
233.009	90.31
233.243	70.31
233.477	72.31
233.711	71.31
233.945	83.31
234.179	86.31
234.413	80.31
234.647	80.31
234.881	88.31
235.115	81.31
235.349	80.31
235.583	99.31
235.817	86.31
236.051	67.31
236.285	77.31
236.519	86.31
236.753	73.31
236.987	88.31
237.221	83.31
237.455	71.31
237.689	87.31
237.922	81.31
238.156	72.31
238.39	74.31
238.624	82.31
238.858	88.31
239.091	95.31
239.325	75.31
239.559	67.31
239.793	87.31
240.027	94.31
240.26	73.31
240.494	72.31
240.728	76.31
240.961	78.31
241.195	80.31
241.429	81.31
241.662	76.31
241.896	98.31
242.13	72.31
242.363	88.31
242.597	71.31
242.83	80.31
243.064	71.31
243.298	85.31
243.531	71.31
243.765	73.31
243.998	102.31
244.232	82.31
244.465	90.31
244.699	97.31
244.932	83.31
245.166	85.31
245.399	81.31
245.633	98.31
245.866	73.31
246.099	73.31
246.333	89.31
246.566	90.31
246.8	63.31
247.033	84.31
247.266	84.31
247.5	85.31
247.733	84.31
247.966	90.31
248.2	90.31
248.433	88.31
248.666	89.31
248.899	91.31
249.133	108.31
249.366	105.31
249.599	104.31
249.832	66.31
250.066	80.31
250.299	85.31
250.532	98.31
250.765	89.31
250.998	88.31
251.231	83.31
251.465	90.31
251.698	84.31
251.931	80.31
252.164	81.31
252.397	82.31
252.63	79.31
252.863	94.31
253.096	84.31
253.329	92.31
253.562	82.31
253.795	88.31
254.028	87.31
254.261	82.31
254.494	82.31
254.727	91.31
254.96	88.31
255.193	71.31
255.426	79.31
255.659	88.31
255.892	84.31
256.124	95.31
256.357	85.31
256.59	83.31
256.823	93.31
257.056	74.31
257.289	89.31
257.521	90.31
257.754	103.31
257.987	86.31
258.22	94.31
258.452	100.31
258.685	81.31
258.918	70.31
259.151	85.31
259.383	91.31
259.616	86.31
259.849	80.31
260.081	90.31
260.314	94.31
260.547	79.31
260.779	86.31
261.012	103.31
261.244	95.31
261.477	101.31
261.71	87.31
261.942	109.31
262.175	113.31
262.407	91.31
262.64	84.31
262.872	86.31
263.105	87.31
263.337	86.31
263.57	94.31
263.802	88.31
264.035	97.31
264.267	76.31
264.499	73.31
264.732	87.31
264.964	88.31
265.197	94.31
265.429	87.31
265.661	72.31
265.894	83.31
266.126	100.31
266.358	84.31
266.591	70.31
266.823	86.31
267.055	74.31
267.287	90.31
267.52	92.31
267.752	86.31
267.984	81.31
268.216	70.31
268.448	84.31
268.681	86.31
268.913	90.31
269.145	82.31
269.377	87.31
269.609	84.31
269.841	101.31
270.073	90.31
270.306	86.31
270.538	75.31
270.77	91.31
271.002	90.31
271.234	100.31
271.466	104.31
271.698	89.31
271.93	86.31
272.162	82.31
272.394	96.31
272.626	86.31
272.858	100.31
273.09	99.31
273.322	88.31
273.553	89.31
273.785	78.31
274.017	83.31
274.249	87.31
274.481	89.31
274.713	87.31
274.945	85.31
275.176	89.31
275.408	91.31
275.64	111.31
275.872	112.31
276.104	106.31
276.335	95.31
276.567	120.31
276.799	146.31
277.031	138.31
277.262	151.31
277.494	121.31
277.726	80.31
277.957	88.31
278.189	83.31
278.421	93.31
278.652	81.31
278.884	96.31
279.115	98.31
279.347	91.31
279.579	96.31
279.81	107.31
280.042	136.31
280.273	171.31
280.505	120.31
280.736	94.31
280.968	99.31
281.199	99.31
281.431	78.31
281.662	82.31
281.894	93.31
282.125	113.31
282.356	125.31
282.588	145.31
282.819	118.31
283.051	94.31
283.282	96.31
283.513	72.31
283.745	90.31
283.976	95.31
284.207	83.31
284.439	97.31
284.67	78.31
284.901	82.31
285.132	86.31
285.364	86.31
285.595	92.31
285.826	106.31
286.057	104.31
286.288	93.31
286.52	78.31
286.751	95.31
286.982	74.31
287.213	84.31
287.444	102.31
287.675	82.31
287.906	90.31
288.138	95.31
288.369	100.31
288.6	90.31
288.831	84.31
289.062	91.31
289.293	83.31
289.524	84.31
289.755	92.31
289.986	82.31
290.217	94.31
290.448	91.31
290.679	95.31
290.91	82.31
291.141	94.31
291.371	88.31
291.602	86.31
291.833	97.31
292.064	107.31
292.295	103.31
292.526	91.31
292.757	86.31
292.987	105.31
293.218	90.31
293.449	103.31
293.68	79.31
293.91	95.31
294.141	83.31
294.372	73.31
294.603	98.31
294.833	76.31
295.064	93.31
295.295	93.31
295.525	88.31
295.756	104.31
295.987	125.31
296.217	154.31
296.448	139.31
296.679	105.31
296.909	88.31
297.14	81.31
297.37	82.31
297.601	95.31
297.831	82.31
298.062	94.31
298.292	105.31
298.523	92.31
298.753	73.31
298.984	98.31
299.214	84.31
299.445	105.31
299.675	88.31
299.905	95.31
300.136	100.31
300.366	90.31
300.597	104.31
300.827	97.31
301.057	95.31
301.288	103.31
301.518	100.31
301.748	86.31
301.979	95.31
302.209	96.31
302.439	99.31
302.669	95.31
302.9	104.31
303.13	109.31
303.36	96.31
303.59	101.31
303.82	142.31
304.051	102.31
304.281	92.31
304.511	87.31
304.741	90.31
304.971	94.31
305.201	106.31
305.431	89.31
305.661	87.31
305.891	118.31
306.121	98.31
306.352	116.31
306.582	121.31
306.812	111.31
307.042	91.31
307.272	138.31
307.502	138.31
307.731	138.31
307.961	120.31
308.191	99.31
308.421	98.31
308.651	73.31
308.881	105.31
309.111	98.31
309.341	98.31
309.571	104.31
309.8	106.31
310.03	107.31
310.26	102.31
310.49	100.31
310.72	106.31
310.949	110.31
311.179	102.31
311.409	101.31
311.639	104.31
311.868	113.31
312.098	100.31
312.328	102.31
312.557	111.31
312.787	109.31
313.017	96.31
313.246	103.31
313.476	99.31
313.706	102.31
313.935	98.31
314.165	99.31
314.394	118.31
314.624	111.31
314.853	104.31
315.083	75.31
315.312	90.31
315.542	90.31
315.771	111.31
316.001	99.31
316.23	82.31
316.46	92.31
316.689	99.31
316.919	95.31
317.148	100.31
317.377	107.31
317.607	96.31
317.836	102.31
318.065	100.31
318.295	84.31
318.524	96.31
318.753	90.31
318.983	93.31
319.212	115.31
319.441	109.31
319.67	115.31
319.9	98.31
320.129	94.31
320.358	105.31
320.587	101.31
320.816	95.31
321.046	104.31
321.275	90.31
321.504	100.31
321.733	110.31
321.962	94.31
322.191	107.31
322.42	111.31
322.649	105.31
322.878	111.31
323.108	126.31
323.337	138.31
323.566	146.31
323.795	159.31
324.024	201.31
324.253	360.31
324.482	763.31
324.71	1487.31
324.939	1994.31
325.168	758.31
325.397	232.31
325.626	158.31
325.855	143.31
326.084	136.31
326.313	133.31
326.542	159.31
326.77	225.31
326.999	404.31
327.228	797.31
327.457	1460.31
327.686	1152.31
327.914	412.31
328.143	347.31
328.372	411.31
328.6	245.31
328.829	150.31
329.058	150.31
329.287	164.31
329.515	139.31
329.744	182.31
329.972	283.31
330.201	567.31
330.43	816.31
330.658	393.31
330.887	213.31
331.115	146.31
331.344	111.31
331.572	102.31
331.801	120.31
332.03	109.31
332.258	104.31
332.486	101.31
332.715	100.31
332.943	98.31
333.172	128.31
333.4	100.31
333.629	126.31
333.857	177.31
334.085	276.31
334.314	528.31
334.542	1015.31
334.771	946.31
334.999	285.31
335.227	146.31
335.455	123.31
335.684	105.31
335.912	103.31
336.14	104.31
336.369	100.31
336.597	98.31
336.825	108.31
337.053	111.31
337.281	101.31
337.51	91.31
337.738	96.31
337.966	98.31
338.194	87.31
338.422	99.31
338.65	102.31
338.878	101.31
339.106	90.31
339.334	97.31
339.562	95.31
339.79	98.31
340.018	96.31
340.246	99.31
340.474	105.31
340.702	100.31
340.93	114.31
341.158	107.31
341.386	107.31
341.614	98.31
341.842	104.31
342.07	91.31
342.298	95.31
342.526	88.31
342.754	95.31
342.981	87.31
343.209	78.31
343.437	105.31
343.665	77.31
343.893	96.31
344.12	88.31
344.348	89.31
344.576	79.31
344.804	91.31
345.031	99.31
345.259	106.31
345.487	105.31
345.714	97.31
345.942	116.31
346.17	92.31
346.397	93.31
346.625	95.31
346.853	84.31
347.08	97.31
347.308	108.31
347.535	109.31
347.763	106.31
347.99	101.31
348.218	110.31
348.445	104.31
348.673	105.31
348.9	90.31
349.128	105.31
349.355	92.31
349.583	92.31
349.81	96.31
350.037	107.31
350.265	99.31
350.492	94.31
350.72	92.31
350.947	93.31
351.174	103.31
351.402	107.31
351.629	114.31
351.856	113.31
352.083	110.31
352.311	110.31
352.538	112.31
352.765	109.31
352.992	111.31
353.22	121.31
353.447	104.31
353.674	105.31
353.901	100.31
354.128	100.31
354.355	99.31
354.583	97.31
354.81	114.31
355.037	87.31
355.264	107.31
355.491	108.31
355.718	88.31
355.945	108.31
356.172	91.31
356.399	105.31
356.626	94.31
356.853	95.31
357.08	100.31
357.307	95.31
357.534	91.31
357.761	104.31
357.988	98.31
358.215	100.31
358.441	100.31
358.668	107.31
358.895	90.31
359.122	82.31
359.349	94.31
359.576	94.31
359.802	116.31
360.029	134.31
360.256	119.31
360.483	98.31
360.709	96.31
360.936	95.31
361.163	89.31
361.39	95.31
361.616	96.31
361.843	96.31
362.07	71.31
362.296	109.31
362.523	102.31
362.749	106.31
362.976	102.31
363.203	96.31
363.429	102.31
363.656	86.31
363.882	90.31
364.109	87.31
364.335	100.31
364.562	105.31
364.788	91.31
365.015	104.31
365.241	100.31
365.468	113.31
365.694	112.31
365.92	111.31
366.147	94.31
366.373	92.31
366.599	90.31
366.826	95.31
367.052	106.31
367.278	90.31
367.505	95.31
367.731	110.31
367.957	102.31
368.184	93.31
368.41	110.31
368.636	114.31
368.862	126.31
369.089	119.31
369.315	107.31
369.541	99.31
369.767	100.31
369.993	103.31
370.219	98.31
370.445	86.31
370.672	97.31
370.898	92.31
371.124	90.31
371.35	98.31
371.576	95.31
371.802	102.31
372.028	81.31
372.254	95.31
372.48	86.31
372.706	85.31
372.932	88.31
373.158	93.31
373.384	96.31
373.61	89.31
373.835	107.31
374.061	89.31
374.287	97.31
374.513	103.31
374.739	104.31
374.965	87.31
375.191	89.31
375.416	95.31
375.642	92.31
375.868	91.31
376.094	92.31
376.319	92.31
376.545	97.31
376.771	96.31
376.997	81.31
377.222	99.31
377.448	104.31
377.674	91.31
377.899	92.31
378.125	95.31
378.35	89.31
378.576	75.31
378.802	99.31
379.027	99.31
379.253	91.31
379.478	89.31
379.704	96.31
379.929	83.31
380.155	90.31
380.38	95.31
380.606	94.31
380.831	96.31
381.057	110.31
381.282	103.31
381.507	108.31
381.733	104.31
381.958	104.31
382.184	116.31
382.409	117.31
382.634	119.31
382.86	122.31
383.085	93.31
383.31	104.31
383.535	121.31
383.761	102.31
383.986	120.31
384.211	85.31
384.436	96.31
384.662	105.31
384.887	112.31
385.112	114.31
385.337	116.31
385.562	116.31
385.787	103.31
386.013	111.31
386.238	139.31
386.463	125.31
386.688	115.31
386.913	122.31
387.138	102.31
387.363	111.31
387.588	97.31
387.813	100.31
388.038	118.31
388.263	116.31
388.488	125.31
388.713	102.31
388.938	106.31
389.163	100.31
389.387	107.31
389.612	97.31
389.837	94.31
390.062	91.31
390.287	98.31
390.512	84.31
390.736	87.31
390.961	92.31
391.186	109.31
391.411	76.31
391.636	92.31
391.86	92.31
392.085	93.31
392.31	87.31
392.534	87.31
392.759	85.31
392.984	110.31
393.208	97.31
393.433	86.31
393.658	86.31
393.882	90.31
394.107	82.31
394.331	89.31
394.556	107.31
394.78	80.31
395.005	84.31
395.229	99.31
395.454	85.31
395.678	89.31
395.903	72.31
396.127	86.31
396.352	88.31
396.576	87.31
396.801	97.31
397.025	102.31
397.249	91.31
397.474	75.31
397.698	82.31
397.922	86.31
398.147	79.31
398.371	98.31
398.595	89.31
398.82	96.31
399.044	81.31
399.268	98.31
399.492	87.31
399.717	90.31
399.941	99.31
400.165	98.31
400.389	94.31
400.613	67.31
400.837	90.31
401.062	91.31
401.286	106.31
401.51	90.31
401.734	102.31
401.958	110.31
402.182	129.31
402.406	166.31
402.63	135.31
402.854	104.31
403.078	83.31
403.302	95.31
403.526	88.31
403.75	92.31
403.974	85.31
404.198	94.31
404.422	98.31
404.645	93.31
404.869	92.31
405.093	104.31
405.317	117.31
405.541	130.31
405.765	108.31
405.988	123.31
406.212	193.31
406.436	274.31
406.66	180.31
406.883	107.31
407.107	95.31
407.331	88.31
407.555	96.31
407.778	102.31
408.002	90.31
408.226	94.31
408.449	91.31
408.673	83.31
408.896	96.31
409.12	95.31
409.344	87.31
409.567	83.31
409.791	86.31
410.014	89.31
410.238	99.31
410.461	85.31
410.685	90.31
410.908	102.31
411.132	107.31
411.355	99.31
411.578	97.31
411.802	73.31
412.025	91.31
412.249	99.31
412.472	101.31
412.695	114.31
412.919	118.31
413.142	90.31
413.365	89.31
413.589	90.31
413.812	94.31
414.035	98.31
414.258	96.31
414.482	90.31
414.705	75.31
414.928	89.31
415.151	90.31
415.374	104.31
415.597	85.31
415.821	97.31
416.044	97.31
416.267	98.31
416.49	95.31
416.713	91.31
416.936	107.31
417.159	98.31
417.382	104.31
417.605	115.31
417.828	96.31
418.051	101.31
418.274	83.31
418.497	88.31
418.72	67.31
418.943	73.31
419.166	74.31
419.389	95.31
419.611	83.31
419.834	104.31
420.057	94.31
420.28	98.31
420.503	90.31
420.726	85.31
420.948	95.31
421.171	103.31
421.394	93.31
421.617	94.31
421.839	111.31
422.062	84.31
422.285	91.31
422.507	86.31
422.73	107.31
422.953	83.31
423.175	103.31
423.398	96.31
423.621	88.31
423.843	83.31
424.066	71.31
424.288	93.31
424.511	84.31
424.733	114.31
424.956	102.31
425.178	86.31
425.401	95.31
425.623	100.31
425.846	89.31
426.068	90.31
426.291	82.31
426.513	87.31
426.735	93.31
426.958	100.31
427.18	111.31
427.402	162.31
427.625	216.31
427.847	182.31
428.069	166.31
428.292	101.31
428.514	91.31
428.736	96.31
428.958	78.31
429.181	108.31
429.403	91.31
429.625	90.31
429.847	94.31
430.069	103.31
430.292	112.31
430.514	95.31
430.736	96.31
430.958	85.31
431.18	80.31
431.402	75.31
431.624	90.31
431.846	94.31
432.068	83.31
432.29	86.31
432.512	82.31
432.734	95.31
432.956	95.31
433.178	108.31
433.4	105.31
433.622	90.31
433.844	103.31
434.066	74.31
434.287	111.31
434.509	99.31
434.731	94.31
434.953	90.31
435.175	99.31
435.397	104.31
435.618	105.31
435.84	115.31
436.062	146.31
436.284	117.31
436.505	84.31
436.727	103.31
436.949	94.31
437.17	96.31
437.392	84.31
437.614	99.31
437.835	116.31
438.057	130.31
438.278	106.31
438.5	119.31
438.721	105.31
438.943	121.31
439.165	90.31
439.386	98.31
439.608	89.31
439.829	108.31
440.05	130.31
440.272	152.31
440.493	100.31
440.715	78.31
440.936	85.31
441.158	86.31
441.379	94.31
441.6	98.31
441.822	88.31
442.043	96.31
442.264	111.31
442.486	112.31
442.707	106.31
442.928	106.31
443.149	138.31
443.371	139.31
443.592	119.31
443.813	115.31
444.034	102.31
444.255	96.31
444.476	95.31
444.698	77.31
444.919	92.31
445.14	130.31
445.361	122.31
445.582	112.31
445.803	143.31
446.024	156.31
446.245	151.31
446.466	118.31
446.687	100.31
446.908	98.31
447.129	97.31
447.35	105.31
447.571	100.31
447.792	107.31
448.013	95.31
448.234	116.31
448.455	113.31
448.675	124.31
448.896	145.31
449.117	111.31
449.338	104.31
449.559	138.31
449.779	133.31
450	94.31
450.221	84.31
450.442	104.31
450.662	102.31
450.883	121.31
451.104	128.31
451.324	98.31
451.545	81.31
451.766	94.31
451.986	89.31
452.207	94.31
452.428	99.31
452.648	93.31
452.869	116.31
453.089	123.31
453.31	121.31
453.53	91.31
453.751	95.31
453.971	103.31
454.192	124.31
454.412	90.31
454.633	99.31
454.853	94.31
455.073	99.31
455.294	90.31
455.514	99.31
455.734	84.31
455.955	75.31
456.175	75.31
456.395	95.31
456.616	79.31
456.836	69.31
457.056	94.31
457.276	85.31
457.497	89.31
457.717	88.31
457.937	78.31
458.157	100.31
458.377	106.31
458.598	122.31
458.818	171.31
459.038	189.31
459.258	131.31
459.478	96.31
459.698	89.31
459.918	90.31
460.138	87.31
460.358	93.31
460.578	86.31
460.798	101.31
461.018	89.31
461.238	96.31
461.458	67.31
461.678	84.31
461.898	99.31
462.118	95.31
462.338	97.31
462.558	96.31
462.777	80.31
462.997	97.31
463.217	90.31
463.437	100.31
463.657	101.31
463.876	86.31
464.096	91.31
464.316	96.31
464.536	107.31
464.755	103.31
464.975	129.31
465.195	207.31
465.414	199.31
465.634	106.31
465.854	86.31
466.073	93.31
466.293	96.31
466.512	100.31
466.732	80.31
466.951	94.31
467.171	111.31
467.391	105.31
467.61	140.31
467.829	171.31
468.049	342.31
468.268	505.31
468.488	164.31
468.707	107.31
468.927	94.31
469.146	85.31
469.365	102.31
469.585	97.31
469.804	100.31
470.023	89.31
470.243	104.31
470.462	116.31
470.681	129.31
470.901	94.31
471.12	95.31
471.339	98.31
471.558	108.31
471.777	127.31
471.997	197.31
472.216	631.31
472.435	1397.31
472.654	371.31
472.873	119.31
473.092	104.31
473.311	89.31
473.53	86.31
473.749	91.31
473.968	112.31
474.187	116.31
474.406	116.31
474.625	96.31
474.844	93.31
475.063	98.31
475.282	103.31
475.501	88.31
475.72	85.31
475.939	91.31
476.158	86.31
476.377	89.31
476.596	87.31
476.814	103.31
477.033	103.31
477.252	86.31
477.471	94.31
477.69	90.31
477.908	100.31
478.127	86.31
478.346	95.31
478.564	94.31
478.783	102.31
479.002	105.31
479.22	98.31
479.439	99.31
479.658	134.31
479.876	112.31
480.095	104.31
480.313	120.31
480.532	132.31
480.751	188.31
480.969	582.31
481.188	2432.31
481.406	1418.31
481.624	244.31
481.843	123.31
482.061	102.31
482.28	93.31
482.498	99.31
482.717	81.31
482.935	95.31
483.153	101.31
483.372	87.31
483.59	87.31
483.808	104.31
484.027	88.31
484.245	105.31
484.463	102.31
484.681	110.31
484.9	92.31
485.118	96.31
485.336	108.31
485.554	107.31
485.772	105.31
485.99	110.31
486.209	106.31
486.427	111.31
486.645	131.31
486.863	133.31
487.081	109.31
487.299	92.31
487.517	110.31
487.735	102.31
487.953	104.31
488.171	97.31
488.389	85.31
488.607	103.31
488.825	86.31
489.043	99.31
489.261	98.31
489.479	86.31
489.696	97.31
489.914	91.31
490.132	101.31
490.35	97.31
490.568	101.31
490.786	82.31
491.003	98.31
491.221	92.31
491.439	104.31
491.657	103.31
491.874	109.31
492.092	92.31
492.31	102.31
492.527	107.31
492.745	106.31
492.963	100.31
493.18	90.31
493.398	80.31
493.615	108.31
493.833	92.31
494.05	92.31
494.268	95.31
494.485	90.31
494.703	88.31
494.92	96.31
495.138	82.31
495.355	88.31
495.573	100.31
495.79	92.31
496.008	106.31
496.225	98.31
496.442	94.31
496.66	96.31
496.877	89.31
497.094	91.31
497.312	88.31
497.529	90.31
497.746	83.31
497.963	100.31
498.181	92.31
498.398	102.31
498.615	117.31
498.832	102.31
499.049	92.31
499.267	110.31
499.484	93.31
499.701	81.31
499.918	102.31
500.135	83.31
500.352	84.31
500.569	95.31
500.786	107.31
501.003	90.31
501.22	88.31
501.437	91.31
501.654	102.31
501.871	93.31
502.088	97.31
502.305	85.31
502.522	102.31
502.739	91.31
502.956	88.31
503.172	99.31
503.389	100.31
503.606	122.31
503.823	90.31
504.04	94.31
504.256	92.31
504.473	93.31
504.69	91.31
504.907	94.31
505.123	78.31
505.34	107.31
505.557	87.31
505.773	89.31
505.99	101.31
506.207	96.31
506.423	85.31
506.64	107.31
506.856	97.31
507.073	96.31
507.289	87.31
507.506	99.31
507.722	105.31
507.939	123.31
508.155	91.31
508.372	96.31
508.588	100.31
508.805	116.31
509.021	107.31
509.238	95.31
509.454	95.31
509.67	99.31
509.887	114.31
510.103	141.31
510.319	238.31
510.536	817.31
510.752	2785.31
510.968	756.31
511.184	156.31
511.401	136.31
511.617	102.31
511.833	97.31
512.049	103.31
512.265	89.31
512.481	94.31
512.698	88.31
512.914	90.31
