Data from Circ_1987_H10_HRD10591_00061.txt Node
Date: Wed Jan 03 12:10:45 EST 2024
User: Yrep
Spectrometer: HR+D1059
Trigger mode: 1
Integration Time (sec): 1.000000E-1
Scans to average: 1
Electric dark correction enabled: true
Nonlinearity correction enabled: false
Boxcar width: 0
XAxis mode: Wavelengths
Number of Pixels in Spectrum: 2048
>>>>>Begin Spectral Data<<<<<
223.165	-14.06
223.4	-14.06
223.635	-14.06
223.869	-28.06
224.104	-31.06
224.338	-9.06
224.573	-19.06
224.808	-9.06
225.042	-4.06
225.277	-1.06
225.511	-4.06
225.746	9.94
225.98	2.94
226.215	11.94
226.449	18.94
226.683	30.94
226.918	14.94
227.152	29.94
227.387	39.94
227.621	42.94
227.856	36.94
228.09	35.94
228.324	45.94
228.559	62.94
228.793	68.94
229.027	62.94
229.262	77.94
229.496	89.94
229.73	106.94
229.964	101.94
230.199	82.94
230.433	82.94
230.667	73.94
230.901	69.94
231.136	65.94
231.37	83.94
231.604	84.94
231.838	75.94
232.072	71.94
232.306	78.94
232.541	77.94
232.775	73.94
233.009	81.94
233.243	64.94
233.477	84.94
233.711	70.94
233.945	85.94
234.179	75.94
234.413	94.94
234.647	102.94
234.881	80.94
235.115	92.94
235.349	96.94
235.583	60.94
235.817	81.94
236.051	72.94
236.285	71.94
236.519	85.94
236.753	78.94
236.987	87.94
237.221	108.94
237.455	86.94
237.689	86.94
237.922	69.94
238.156	82.94
238.39	81.94
238.624	70.94
238.858	74.94
239.091	80.94
239.325	86.94
239.559	81.94
239.793	87.94
240.027	84.94
240.26	88.94
240.494	102.94
240.728	102.94
240.961	95.94
241.195	77.94
241.429	69.94
241.662	83.94
241.896	73.94
242.13	73.94
242.363	84.94
242.597	74.94
242.83	80.94
243.064	84.94
243.298	81.94
243.531	71.94
243.765	80.94
243.998	83.94
244.232	104.94
244.465	88.94
244.699	87.94
244.932	81.94
245.166	93.94
245.399	91.94
245.633	80.94
245.866	70.94
246.099	77.94
246.333	90.94
246.566	76.94
246.8	80.94
247.033	84.94
247.266	99.94
247.5	99.94
247.733	83.94
247.966	81.94
248.2	77.94
248.433	87.94
248.666	90.94
248.899	79.94
249.133	76.94
249.366	110.94
249.599	105.94
249.832	96.94
250.066	99.94
250.299	88.94
250.532	100.94
250.765	76.94
250.998	100.94
251.231	97.94
251.465	88.94
251.698	91.94
251.931	85.94
252.164	77.94
252.397	88.94
252.63	87.94
252.863	92.94
253.096	96.94
253.329	90.94
253.562	85.94
253.795	85.94
254.028	79.94
254.261	87.94
254.494	84.94
254.727	93.94
254.96	81.94
255.193	96.94
255.426	90.94
255.659	88.94
255.892	94.94
256.124	106.94
256.357	85.94
256.59	76.94
256.823	82.94
257.056	77.94
257.289	78.94
257.521	83.94
257.754	93.94
257.987	88.94
258.22	93.94
258.452	103.94
258.685	104.94
258.918	92.94
259.151	89.94
259.383	84.94
259.616	94.94
259.849	90.94
260.081	99.94
260.314	80.94
260.547	73.94
260.779	87.94
261.012	123.94
261.244	114.94
261.477	99.94
261.71	95.94
261.942	152.94
262.175	151.94
262.407	96.94
262.64	98.94
262.872	89.94
263.105	100.94
263.337	100.94
263.57	106.94
263.802	79.94
264.035	92.94
264.267	97.94
264.499	71.94
264.732	88.94
264.964	94.94
265.197	81.94
265.429	78.94
265.661	88.94
265.894	89.94
266.126	83.94
266.358	93.94
266.591	83.94
266.823	84.94
267.055	92.94
267.287	77.94
267.52	76.94
267.752	85.94
267.984	93.94
268.216	75.94
268.448	100.94
268.681	86.94
268.913	96.94
269.145	92.94
269.377	96.94
269.609	94.94
269.841	90.94
270.073	92.94
270.306	88.94
270.538	91.94
270.77	83.94
271.002	76.94
271.234	85.94
271.466	95.94
271.698	88.94
271.93	88.94
272.162	108.94
272.394	96.94
272.626	88.94
272.858	88.94
273.09	88.94
273.322	82.94
273.553	87.94
273.785	89.94
274.017	91.94
274.249	88.94
274.481	87.94
274.713	101.94
274.945	93.94
275.176	95.94
275.408	112.94
275.64	121.94
275.872	137.94
276.104	110.94
276.335	111.94
276.567	125.94
276.799	146.94
277.031	186.94
277.262	213.94
277.494	140.94
277.726	110.94
277.957	86.94
278.189	102.94
278.421	94.94
278.652	91.94
278.884	90.94
279.115	101.94
279.347	92.94
279.579	101.94
279.81	149.94
280.042	214.94
280.273	294.94
280.505	202.94
280.736	118.94
280.968	109.94
281.199	98.94
281.431	91.94
281.662	97.94
281.894	88.94
282.125	115.94
282.356	156.94
282.588	187.94
282.819	137.94
283.051	97.94
283.282	92.94
283.513	76.94
283.745	100.94
283.976	99.94
284.207	89.94
284.439	99.94
284.67	95.94
284.901	93.94
285.132	102.94
285.364	90.94
285.595	106.94
285.826	94.94
286.057	84.94
286.288	81.94
286.52	89.94
286.751	104.94
286.982	81.94
287.213	82.94
287.444	88.94
287.675	92.94
287.906	100.94
288.138	103.94
288.369	98.94
288.6	104.94
288.831	98.94
289.062	91.94
289.293	103.94
289.524	91.94
289.755	84.94
289.986	96.94
290.217	97.94
290.448	87.94
290.679	90.94
290.91	100.94
291.141	83.94
291.371	109.94
291.602	94.94
291.833	91.94
292.064	108.94
292.295	94.94
292.526	85.94
292.757	101.94
292.987	97.94
293.218	97.94
293.449	89.94
293.68	91.94
293.91	95.94
294.141	99.94
294.372	94.94
294.603	81.94
294.833	99.94
295.064	89.94
295.295	97.94
295.525	104.94
295.756	95.94
295.987	137.94
296.217	171.94
296.448	152.94
296.679	94.94
296.909	109.94
297.14	92.94
297.37	93.94
297.601	99.94
297.831	94.94
298.062	109.94
298.292	108.94
298.523	103.94
298.753	102.94
298.984	78.94
299.214	88.94
299.445	84.94
299.675	96.94
299.905	121.94
300.136	100.94
300.366	88.94
300.597	94.94
300.827	103.94
301.057	102.94
301.288	118.94
301.518	100.94
301.748	117.94
301.979	111.94
302.209	110.94
302.439	106.94
302.669	102.94
302.9	95.94
303.13	107.94
303.36	110.94
303.59	133.94
303.82	139.94
304.051	118.94
304.281	107.94
304.511	112.94
304.741	86.94
304.971	103.94
305.201	100.94
305.431	101.94
305.661	92.94
305.891	98.94
306.121	97.94
306.352	116.94
306.582	121.94
306.812	120.94
307.042	124.94
307.272	163.94
307.502	181.94
307.731	173.94
307.961	147.94
308.191	99.94
308.421	96.94
308.651	100.94
308.881	104.94
309.111	104.94
309.341	95.94
309.571	107.94
309.8	121.94
310.03	105.94
310.26	98.94
310.49	113.94
310.72	119.94
310.949	123.94
311.179	130.94
311.409	108.94
311.639	108.94
311.868	113.94
312.098	102.94
312.328	108.94
312.557	129.94
312.787	138.94
313.017	113.94
313.246	105.94
313.476	92.94
313.706	103.94
313.935	105.94
314.165	121.94
314.394	117.94
314.624	101.94
314.853	108.94
315.083	113.94
315.312	84.94
315.542	93.94
315.771	89.94
316.001	106.94
316.23	108.94
316.46	98.94
316.689	99.94
316.919	98.94
317.148	109.94
317.377	118.94
317.607	109.94
317.836	108.94
318.065	107.94
318.295	95.94
318.524	92.94
318.753	97.94
318.983	104.94
319.212	111.94
319.441	134.94
319.67	134.94
319.9	118.94
320.129	97.94
320.358	106.94
320.587	110.94
320.816	104.94
321.046	117.94
321.275	109.94
321.504	108.94
321.733	100.94
321.962	101.94
322.191	110.94
322.42	110.94
322.649	120.94
322.878	145.94
323.108	141.94
323.337	144.94
323.566	162.94
323.795	184.94
324.024	274.94
324.253	530.94
324.482	1144.94
324.71	2390.94
324.939	3220.94
325.168	1146.94
325.397	345.94
325.626	185.94
325.855	143.94
326.084	140.94
326.313	150.94
326.542	204.94
326.77	288.94
326.999	575.94
327.228	1222.94
327.457	2278.94
327.686	1848.94
327.914	616.94
328.143	568.94
328.372	719.94
328.6	396.94
328.829	210.94
329.058	220.94
329.287	220.94
329.515	192.94
329.744	273.94
329.972	500.94
330.201	1060.94
330.43	1560.94
330.658	698.94
330.887	328.94
331.115	216.94
331.344	136.94
331.572	137.94
331.801	137.94
332.03	140.94
332.258	118.94
332.486	110.94
332.715	124.94
332.943	125.94
333.172	151.94
333.4	166.94
333.629	172.94
333.857	250.94
334.085	456.94
334.314	988.94
334.542	1960.94
334.771	1864.94
334.999	476.94
335.227	190.94
335.455	141.94
335.684	125.94
335.912	113.94
336.14	113.94
336.369	117.94
336.597	127.94
336.825	113.94
337.053	115.94
337.281	104.94
337.51	94.94
337.738	108.94
337.966	117.94
338.194	119.94
338.422	108.94
338.65	117.94
338.878	102.94
339.106	102.94
339.334	111.94
339.562	123.94
339.79	84.94
340.018	93.94
340.246	97.94
340.474	108.94
340.702	107.94
340.93	98.94
341.158	110.94
341.386	106.94
341.614	86.94
341.842	95.94
342.07	98.94
342.298	117.94
342.526	96.94
342.754	81.94
342.981	101.94
343.209	100.94
343.437	109.94
343.665	94.94
343.893	98.94
344.12	93.94
344.348	96.94
344.576	97.94
344.804	100.94
345.031	94.94
345.259	132.94
345.487	86.94
345.714	121.94
345.942	88.94
346.17	98.94
346.397	96.94
346.625	110.94
346.853	107.94
347.08	99.94
347.308	107.94
347.535	110.94
347.763	133.94
347.99	113.94
348.218	129.94
348.445	111.94
348.673	120.94
348.9	120.94
349.128	103.94
349.355	104.94
349.583	83.94
349.81	102.94
350.037	96.94
350.265	118.94
350.492	90.94
350.72	102.94
350.947	116.94
351.174	114.94
351.402	125.94
351.629	103.94
351.856	108.94
352.083	108.94
352.311	121.94
352.538	136.94
352.765	117.94
352.992	131.94
353.22	123.94
353.447	115.94
353.674	113.94
353.901	101.94
354.128	100.94
354.355	110.94
354.583	102.94
354.81	106.94
355.037	101.94
355.264	92.94
355.491	84.94
355.718	94.94
355.945	103.94
356.172	96.94
356.399	93.94
356.626	84.94
356.853	89.94
357.08	91.94
357.307	89.94
357.534	101.94
357.761	101.94
357.988	90.94
358.215	103.94
358.441	84.94
358.668	88.94
358.895	121.94
359.122	107.94
359.349	105.94
359.576	108.94
359.802	135.94
360.029	169.94
360.256	163.94
360.483	121.94
360.709	94.94
360.936	90.94
361.163	110.94
361.39	93.94
361.616	124.94
361.843	102.94
362.07	97.94
362.296	128.94
362.523	95.94
362.749	99.94
362.976	97.94
363.203	92.94
363.429	86.94
363.656	100.94
363.882	103.94
364.109	94.94
364.335	97.94
364.562	108.94
364.788	102.94
365.015	120.94
365.241	110.94
365.468	135.94
365.694	126.94
365.92	110.94
366.147	96.94
366.373	104.94
366.599	98.94
366.826	91.94
367.052	77.94
367.278	89.94
367.505	107.94
367.731	98.94
367.957	98.94
368.184	118.94
368.41	124.94
368.636	138.94
368.862	132.94
369.089	130.94
369.315	110.94
369.541	105.94
369.767	93.94
369.993	101.94
370.219	113.94
370.445	90.94
370.672	108.94
370.898	93.94
371.124	110.94
371.35	104.94
371.576	86.94
371.802	98.94
372.028	90.94
372.254	107.94
372.48	86.94
372.706	82.94
372.932	88.94
373.158	98.94
373.384	94.94
373.61	93.94
373.835	87.94
374.061	95.94
374.287	97.94
374.513	94.94
374.739	86.94
374.965	102.94
375.191	100.94
375.416	97.94
375.642	114.94
375.868	96.94
376.094	83.94
376.319	86.94
376.545	98.94
376.771	91.94
376.997	84.94
377.222	96.94
377.448	98.94
377.674	104.94
377.899	94.94
378.125	91.94
378.35	94.94
378.576	92.94
378.802	101.94
379.027	81.94
379.253	98.94
379.478	102.94
379.704	103.94
379.929	85.94
380.155	107.94
380.38	87.94
380.606	104.94
380.831	86.94
381.057	102.94
381.282	88.94
381.507	95.94
381.733	98.94
381.958	84.94
382.184	101.94
382.409	102.94
382.634	106.94
382.86	98.94
383.085	100.94
383.31	113.94
383.535	116.94
383.761	100.94
383.986	99.94
384.211	118.94
384.436	112.94
384.662	107.94
384.887	104.94
385.112	110.94
385.337	96.94
385.562	107.94
385.787	99.94
386.013	110.94
386.238	125.94
386.463	117.94
386.688	119.94
386.913	107.94
387.138	95.94
387.363	103.94
387.588	110.94
387.813	97.94
388.038	110.94
388.263	108.94
388.488	106.94
388.713	94.94
388.938	98.94
389.163	106.94
389.387	96.94
389.612	92.94
389.837	98.94
390.062	98.94
390.287	90.94
390.512	98.94
390.736	90.94
390.961	77.94
391.186	96.94
391.411	88.94
391.636	103.94
391.86	98.94
392.085	76.94
392.31	87.94
392.534	94.94
392.759	93.94
392.984	100.94
393.208	93.94
393.433	91.94
393.658	94.94
393.882	84.94
394.107	89.94
394.331	86.94
394.556	109.94
394.78	101.94
395.005	92.94
395.229	97.94
395.454	88.94
395.678	88.94
395.903	84.94
396.127	89.94
396.352	99.94
396.576	93.94
396.801	91.94
397.025	92.94
397.249	105.94
397.474	94.94
397.698	104.94
397.922	94.94
398.147	90.94
398.371	98.94
398.595	89.94
398.82	91.94
399.044	86.94
399.268	85.94
399.492	94.94
399.717	105.94
399.941	90.94
400.165	92.94
400.389	97.94
400.613	93.94
400.837	96.94
401.062	101.94
401.286	88.94
401.51	90.94
401.734	100.94
401.958	112.94
402.182	149.94
402.406	206.94
402.63	164.94
402.854	111.94
403.078	104.94
403.302	95.94
403.526	99.94
403.75	95.94
403.974	99.94
404.198	90.94
404.422	96.94
404.645	100.94
404.869	113.94
405.093	137.94
405.317	152.94
405.541	161.94
405.765	128.94
405.988	158.94
406.212	225.94
406.436	329.94
406.66	218.94
406.883	118.94
407.107	102.94
407.331	110.94
407.555	111.94
407.778	112.94
408.002	102.94
408.226	100.94
408.449	90.94
408.673	98.94
408.896	98.94
409.12	96.94
409.344	82.94
409.567	90.94
409.791	91.94
410.014	91.94
410.238	76.94
410.461	100.94
410.685	97.94
410.908	97.94
411.132	110.94
411.355	116.94
411.578	101.94
411.802	92.94
412.025	104.94
412.249	92.94
412.472	121.94
412.695	155.94
412.919	118.94
413.142	109.94
413.365	89.94
413.589	83.94
413.812	88.94
414.035	92.94
414.258	102.94
414.482	91.94
414.705	102.94
414.928	90.94
415.151	85.94
415.374	100.94
415.597	92.94
415.821	102.94
416.044	85.94
416.267	93.94
416.49	77.94
416.713	93.94
416.936	96.94
417.159	93.94
417.382	99.94
417.605	110.94
417.828	122.94
418.051	101.94
418.274	102.94
418.497	90.94
418.72	96.94
418.943	104.94
419.166	110.94
419.389	99.94
419.611	88.94
419.834	102.94
420.057	112.94
420.28	110.94
420.503	105.94
420.726	94.94
420.948	93.94
421.171	116.94
421.394	96.94
421.617	92.94
421.839	99.94
422.062	94.94
422.285	105.94
422.507	112.94
422.73	120.94
422.953	103.94
423.175	103.94
423.398	109.94
423.621	92.94
423.843	99.94
424.066	92.94
424.288	103.94
424.511	109.94
424.733	107.94
424.956	123.94
425.178	105.94
425.401	114.94
425.623	108.94
425.846	96.94
426.068	96.94
426.291	109.94
426.513	109.94
426.735	112.94
426.958	103.94
427.18	141.94
427.402	199.94
427.625	284.94
427.847	282.94
428.069	245.94
428.292	136.94
428.514	104.94
428.736	88.94
428.958	100.94
429.181	106.94
429.403	105.94
429.625	91.94
429.847	115.94
430.069	121.94
430.292	110.94
430.514	96.94
430.736	83.94
430.958	100.94
431.18	86.94
431.402	95.94
431.624	89.94
431.846	87.94
432.068	104.94
432.29	78.94
432.512	98.94
432.734	88.94
432.956	97.94
433.178	114.94
433.4	105.94
433.622	106.94
433.844	105.94
434.066	96.94
434.287	98.94
434.509	96.94
434.731	96.94
434.953	86.94
435.175	90.94
435.397	88.94
435.618	103.94
435.84	121.94
436.062	149.94
436.284	133.94
436.505	118.94
436.727	109.94
436.949	86.94
437.17	90.94
437.392	98.94
437.614	100.94
437.835	128.94
438.057	163.94
438.278	140.94
438.5	132.94
438.721	148.94
438.943	110.94
439.165	92.94
439.386	82.94
439.608	88.94
439.829	132.94
440.05	174.94
440.272	194.94
440.493	115.94
440.715	95.94
440.936	93.94
441.158	105.94
441.379	97.94
441.6	118.94
441.822	113.94
442.043	115.94
442.264	119.94
442.486	114.94
442.707	108.94
442.928	129.94
443.149	196.94
443.371	184.94
443.592	139.94
443.813	150.94
444.034	130.94
444.255	115.94
444.476	95.94
444.698	101.94
444.919	97.94
445.14	124.94
445.361	136.94
445.582	153.94
445.803	194.94
446.024	219.94
446.245	165.94
446.466	134.94
446.687	97.94
446.908	89.94
447.129	97.94
447.35	112.94
447.571	108.94
447.792	103.94
448.013	128.94
448.234	114.94
448.455	124.94
448.675	146.94
448.896	150.94
449.117	106.94
449.338	124.94
449.559	166.94
449.779	158.94
450	106.94
450.221	103.94
450.442	101.94
450.662	115.94
450.883	140.94
451.104	138.94
451.324	117.94
451.545	102.94
451.766	82.94
451.986	94.94
452.207	85.94
452.428	97.94
452.648	120.94
452.869	120.94
453.089	144.94
453.31	147.94
453.53	108.94
453.751	112.94
453.971	118.94
454.192	131.94
454.412	116.94
454.633	98.94
454.853	83.94
455.073	89.94
455.294	91.94
455.514	119.94
455.734	94.94
455.955	90.94
456.175	89.94
456.395	74.94
456.616	89.94
456.836	92.94
457.056	92.94
457.276	91.94
457.497	83.94
457.717	90.94
457.937	98.94
458.157	90.94
458.377	102.94
458.598	129.94
458.818	233.94
459.038	269.94
459.258	162.94
459.478	102.94
459.698	104.94
459.918	85.94
460.138	90.94
460.358	84.94
460.578	95.94
460.798	98.94
461.018	93.94
461.238	94.94
461.458	103.94
461.678	78.94
461.898	88.94
462.118	94.94
462.338	94.94
462.558	77.94
462.777	71.94
462.997	99.94
463.217	107.94
463.437	89.94
463.657	95.94
463.876	96.94
464.096	95.94
464.316	110.94
464.536	102.94
464.755	112.94
464.975	132.94
465.195	271.94
465.414	263.94
465.634	113.94
465.854	84.94
466.073	80.94
466.293	99.94
466.512	86.94
466.732	105.94
466.951	109.94
467.171	107.94
467.391	102.94
467.61	158.94
467.829	220.94
468.049	580.94
468.268	900.94
468.488	237.94
468.707	116.94
468.927	102.94
469.146	85.94
469.365	88.94
469.585	88.94
469.804	118.94
470.023	123.94
470.243	103.94
470.462	128.94
470.681	163.94
470.901	109.94
471.12	99.94
471.339	120.94
471.558	117.94
471.777	142.94
471.997	300.94
472.216	1118.94
472.435	2607.94
472.654	635.94
472.873	170.94
473.092	106.94
473.311	106.94
473.53	100.94
473.749	114.94
473.968	112.94
474.187	136.94
474.406	116.94
474.625	92.94
474.844	105.94
475.063	94.94
475.282	89.94
475.501	99.94
475.72	89.94
475.939	88.94
476.158	90.94
476.377	95.94
476.596	106.94
476.814	113.94
477.033	94.94
477.252	102.94
477.471	100.94
477.69	92.94
477.908	98.94
478.127	94.94
478.346	106.94
478.564	112.94
478.783	117.94
479.002	108.94
479.22	110.94
479.439	131.94
479.658	142.94
479.876	130.94
480.095	129.94
480.313	135.94
480.532	162.94
480.751	296.94
480.969	1059.94
481.188	4541.94
481.406	2614.94
481.624	374.94
481.843	152.94
482.061	121.94
482.28	105.94
482.498	101.94
482.717	108.94
482.935	103.94
483.153	94.94
483.372	107.94
483.59	76.94
483.808	92.94
484.027	98.94
484.245	89.94
484.463	103.94
484.681	121.94
484.9	105.94
485.118	94.94
485.336	105.94
485.554	109.94
485.772	115.94
485.99	109.94
486.209	89.94
486.427	123.94
486.645	122.94
486.863	134.94
487.081	117.94
487.299	109.94
487.517	109.94
487.735	105.94
487.953	121.94
488.171	105.94
488.389	86.94
488.607	108.94
488.825	91.94
489.043	90.94
489.261	92.94
489.479	70.94
489.696	88.94
489.914	100.94
490.132	100.94
490.35	106.94
490.568	89.94
490.786	98.94
491.003	94.94
491.221	90.94
491.439	103.94
491.657	99.94
491.874	105.94
492.092	102.94
492.31	98.94
492.527	110.94
492.745	93.94
492.963	95.94
493.18	87.94
493.398	100.94
493.615	107.94
493.833	93.94
494.05	94.94
494.268	98.94
494.485	94.94
494.703	88.94
494.92	95.94
495.138	97.94
495.355	96.94
495.573	107.94
495.79	98.94
496.008	110.94
496.225	90.94
496.442	93.94
496.66	100.94
496.877	100.94
497.094	107.94
497.312	94.94
497.529	97.94
497.746	114.94
497.963	95.94
498.181	102.94
498.398	104.94
498.615	108.94
498.832	109.94
499.049	81.94
499.267	96.94
499.484	92.94
499.701	96.94
499.918	81.94
500.135	88.94
500.352	91.94
500.569	103.94
500.786	101.94
501.003	98.94
501.22	104.94
501.437	91.94
501.654	114.94
501.871	122.94
502.088	90.94
502.305	75.94
502.522	88.94
502.739	106.94
502.956	98.94
503.172	112.94
503.389	114.94
503.606	134.94
503.823	123.94
504.04	91.94
504.256	98.94
504.473	90.94
504.69	94.94
504.907	107.94
505.123	86.94
505.34	97.94
505.557	84.94
505.773	100.94
505.99	78.94
506.207	84.94
506.423	91.94
506.64	97.94
506.856	84.94
507.073	113.94
507.289	104.94
507.506	112.94
507.722	136.94
507.939	157.94
508.155	88.94
508.372	100.94
508.588	98.94
508.805	91.94
509.021	113.94
509.238	103.94
509.454	96.94
509.67	106.94
509.887	129.94
510.103	154.94
510.319	252.94
510.536	963.94
510.752	3293.94
