Data from Circ_1987_H10_HRD10591_00010.txt Node
Date: Wed Jan 03 12:10:34 EST 2024
User: Yrep
Spectrometer: HR+D1059
Trigger mode: 1
Integration Time (sec): 1.000000E-1
Scans to average: 1
Electric dark correction enabled: true
Nonlinearity correction enabled: false
Boxcar width: 0
XAxis mode: Wavelengths
Number of Pixels in Spectrum: 2048
>>>>>Begin Spectral Data<<<<<
223.165	-15.44
223.4	-15.44
223.635	-15.44
223.869	-12.44
224.104	-18.44
224.338	-16.44
224.573	-23.44
224.808	-1.44
225.042	-5.44
225.277	10.56
225.511	-8.44
225.746	3.56
225.98	11.56
226.215	15.56
226.449	17.56
226.683	21.56
226.918	9.56
227.152	11.56
227.387	30.56
227.621	29.56
227.856	48.56
228.09	39.56
228.324	40.56
228.559	49.56
228.793	58.56
229.027	55.56
229.262	60.56
229.496	81.56
229.73	98.56
229.964	80.56
230.199	71.56
230.433	62.56
230.667	81.56
230.901	72.56
231.136	78.56
231.37	90.56
231.604	64.56
231.838	76.56
232.072	75.56
232.306	71.56
232.541	80.56
232.775	82.56
233.009	89.56
233.243	83.56
233.477	87.56
233.711	89.56
233.945	84.56
234.179	78.56
234.413	72.56
234.647	88.56
234.881	83.56
235.115	87.56
235.349	91.56
235.583	62.56
235.817	63.56
236.051	75.56
236.285	70.56
236.519	64.56
236.753	72.56
236.987	74.56
237.221	93.56
237.455	94.56
237.689	90.56
237.922	70.56
238.156	80.56
238.39	69.56
238.624	76.56
238.858	76.56
239.091	68.56
239.325	76.56
239.559	77.56
239.793	71.56
240.027	76.56
240.26	87.56
240.494	82.56
240.728	63.56
240.961	76.56
241.195	92.56
241.429	80.56
241.662	88.56
241.896	77.56
242.13	69.56
242.363	82.56
242.597	83.56
242.83	83.56
243.064	84.56
243.298	79.56
243.531	69.56
243.765	94.56
243.998	80.56
244.232	70.56
244.465	77.56
244.699	75.56
244.932	78.56
245.166	82.56
245.399	63.56
245.633	78.56
245.866	82.56
246.099	71.56
246.333	58.56
246.566	88.56
246.8	78.56
247.033	88.56
247.266	80.56
247.5	70.56
247.733	69.56
247.966	89.56
248.2	82.56
248.433	74.56
248.666	79.56
248.899	86.56
249.133	87.56
249.366	90.56
249.599	93.56
249.832	93.56
250.066	92.56
250.299	78.56
250.532	79.56
250.765	89.56
250.998	88.56
251.231	71.56
251.465	78.56
251.698	75.56
251.931	78.56
252.164	83.56
252.397	74.56
252.63	71.56
252.863	69.56
253.096	69.56
253.329	69.56
253.562	67.56
253.795	71.56
254.028	84.56
254.261	86.56
254.494	61.56
254.727	90.56
254.96	85.56
255.193	79.56
255.426	62.56
255.659	87.56
255.892	93.56
256.124	83.56
256.357	86.56
256.59	101.56
256.823	75.56
257.056	79.56
257.289	92.56
257.521	87.56
257.754	91.56
257.987	82.56
258.22	97.56
258.452	89.56
258.685	96.56
258.918	91.56
259.151	62.56
259.383	72.56
259.616	81.56
259.849	86.56
260.081	86.56
260.314	95.56
260.547	83.56
260.779	94.56
261.012	92.56
261.244	92.56
261.477	81.56
261.71	100.56
261.942	120.56
262.175	118.56
262.407	86.56
262.64	101.56
262.872	74.56
263.105	92.56
263.337	85.56
263.57	81.56
263.802	75.56
264.035	81.56
264.267	90.56
264.499	89.56
264.732	95.56
264.964	89.56
265.197	78.56
265.429	78.56
265.661	71.56
265.894	69.56
266.126	84.56
266.358	87.56
266.591	78.56
266.823	68.56
267.055	92.56
267.287	85.56
267.52	78.56
267.752	87.56
267.984	77.56
268.216	64.56
268.448	99.56
268.681	89.56
268.913	86.56
269.145	69.56
269.377	85.56
269.609	88.56
269.841	92.56
270.073	73.56
270.306	74.56
270.538	86.56
270.77	97.56
271.002	76.56
271.234	77.56
271.466	90.56
271.698	80.56
271.93	94.56
272.162	92.56
272.394	83.56
272.626	77.56
272.858	77.56
273.09	99.56
273.322	90.56
273.553	93.56
273.785	85.56
274.017	83.56
274.249	84.56
274.481	95.56
274.713	83.56
274.945	88.56
275.176	98.56
275.408	86.56
275.64	110.56
275.872	100.56
276.104	98.56
276.335	87.56
276.567	96.56
276.799	118.56
277.031	129.56
277.262	149.56
277.494	102.56
277.726	91.56
277.957	90.56
278.189	76.56
278.421	84.56
278.652	94.56
278.884	80.56
279.115	90.56
279.347	76.56
279.579	100.56
279.81	105.56
280.042	143.56
280.273	175.56
280.505	124.56
280.736	84.56
280.968	87.56
281.199	99.56
281.431	83.56
281.662	91.56
281.894	87.56
282.125	97.56
282.356	112.56
282.588	142.56
282.819	122.56
283.051	93.56
283.282	99.56
283.513	102.56
283.745	80.56
283.976	81.56
284.207	89.56
284.439	86.56
284.67	98.56
284.901	85.56
285.132	79.56
285.364	89.56
285.595	91.56
285.826	81.56
286.057	86.56
286.288	97.56
286.52	71.56
286.751	89.56
286.982	87.56
287.213	102.56
287.444	94.56
287.675	84.56
287.906	90.56
288.138	92.56
288.369	98.56
288.6	88.56
288.831	103.56
289.062	86.56
289.293	89.56
289.524	87.56
289.755	93.56
289.986	85.56
290.217	89.56
290.448	81.56
290.679	96.56
290.91	114.56
291.141	92.56
291.371	99.56
291.602	93.56
291.833	80.56
292.064	82.56
292.295	85.56
292.526	80.56
292.757	93.56
292.987	90.56
293.218	87.56
293.449	103.56
293.68	79.56
293.91	106.56
294.141	86.56
294.372	76.56
294.603	86.56
294.833	87.56
295.064	92.56
295.295	95.56
295.525	107.56
295.756	86.56
295.987	119.56
296.217	128.56
296.448	128.56
296.679	101.56
296.909	99.56
297.14	109.56
297.37	88.56
297.601	80.56
297.831	72.56
298.062	84.56
298.292	83.56
298.523	93.56
298.753	83.56
298.984	86.56
299.214	98.56
299.445	81.56
299.675	90.56
299.905	93.56
300.136	88.56
300.366	92.56
300.597	81.56
300.827	97.56
301.057	96.56
301.288	108.56
301.518	94.56
301.748	78.56
301.979	114.56
302.209	94.56
302.439	93.56
302.669	96.56
302.9	90.56
303.13	90.56
303.36	114.56
303.59	114.56
303.82	130.56
304.051	108.56
304.281	90.56
304.511	87.56
304.741	94.56
304.971	98.56
305.201	83.56
305.431	85.56
305.661	82.56
305.891	91.56
306.121	93.56
306.352	93.56
306.582	93.56
306.812	104.56
307.042	117.56
307.272	126.56
307.502	133.56
307.731	141.56
307.961	130.56
308.191	98.56
308.421	99.56
308.651	90.56
308.881	100.56
309.111	99.56
309.341	91.56
309.571	119.56
309.8	103.56
310.03	84.56
310.26	104.56
310.49	85.56
310.72	86.56
310.949	115.56
311.179	109.56
311.409	75.56
311.639	82.56
311.868	99.56
312.098	103.56
312.328	95.56
312.557	102.56
312.787	110.56
313.017	110.56
313.246	100.56
313.476	88.56
313.706	77.56
313.935	90.56
314.165	95.56
314.394	91.56
314.624	102.56
314.853	107.56
315.083	104.56
315.312	91.56
315.542	83.56
315.771	73.56
316.001	95.56
316.23	102.56
316.46	80.56
316.689	72.56
316.919	83.56
317.148	103.56
317.377	99.56
317.607	102.56
317.836	96.56
318.065	90.56
318.295	88.56
318.524	70.56
318.753	79.56
318.983	92.56
319.212	103.56
319.441	106.56
319.67	124.56
319.9	82.56
320.129	101.56
320.358	97.56
320.587	81.56
320.816	93.56
321.046	103.56
321.275	100.56
321.504	82.56
321.733	95.56
321.962	90.56
322.191	94.56
322.42	104.56
322.649	111.56
322.878	100.56
323.108	103.56
323.337	114.56
323.566	131.56
323.795	150.56
324.024	212.56
324.253	344.56
324.482	712.56
324.71	1462.56
324.939	1904.56
325.168	720.56
325.397	245.56
325.626	162.56
325.855	119.56
326.084	119.56
326.313	127.56
326.542	148.56
326.77	208.56
326.999	392.56
327.228	744.56
327.457	1351.56
327.686	1128.56
327.914	394.56
328.143	348.56
328.372	423.56
328.6	265.56
328.829	140.56
329.058	147.56
329.287	158.56
329.515	137.56
329.744	180.56
329.972	286.56
330.201	555.56
330.43	830.56
330.658	412.56
330.887	223.56
331.115	163.56
331.344	117.56
331.572	95.56
331.801	114.56
332.03	121.56
332.258	87.56
332.486	88.56
332.715	97.56
332.943	106.56
333.172	110.56
333.4	120.56
333.629	130.56
333.857	157.56
334.085	269.56
334.314	516.56
334.542	990.56
334.771	1011.56
334.999	284.56
335.227	126.56
335.455	102.56
335.684	106.56
335.912	102.56
336.14	99.56
336.369	98.56
336.597	95.56
336.825	97.56
337.053	96.56
337.281	94.56
337.51	104.56
337.738	82.56
337.966	98.56
338.194	107.56
338.422	103.56
338.65	81.56
338.878	90.56
339.106	92.56
339.334	98.56
339.562	81.56
339.79	75.56
340.018	94.56
340.246	74.56
340.474	95.56
340.702	76.56
340.93	90.56
341.158	84.56
341.386	99.56
341.614	105.56
341.842	88.56
342.07	79.56
342.298	90.56
342.526	90.56
342.754	89.56
342.981	90.56
343.209	94.56
343.437	96.56
343.665	85.56
343.893	84.56
344.12	99.56
344.348	83.56
344.576	97.56
344.804	103.56
345.031	103.56
345.259	113.56
345.487	102.56
345.714	96.56
345.942	90.56
346.17	78.56
346.397	83.56
346.625	90.56
346.853	95.56
347.08	80.56
347.308	94.56
347.535	101.56
347.763	84.56
347.99	108.56
348.218	119.56
348.445	114.56
348.673	105.56
348.9	92.56
349.128	92.56
349.355	81.56
349.583	100.56
349.81	100.56
350.037	94.56
350.265	99.56
350.492	98.56
350.72	100.56
350.947	83.56
351.174	96.56
351.402	110.56
351.629	111.56
351.856	91.56
352.083	106.56
352.311	108.56
352.538	119.56
352.765	120.56
352.992	104.56
353.22	109.56
353.447	108.56
353.674	112.56
353.901	101.56
354.128	96.56
354.355	94.56
354.583	76.56
354.81	85.56
355.037	90.56
355.264	85.56
355.491	98.56
355.718	106.56
355.945	98.56
356.172	102.56
356.399	97.56
356.626	90.56
356.853	81.56
357.08	90.56
357.307	99.56
357.534	90.56
357.761	94.56
357.988	92.56
358.215	108.56
358.441	96.56
358.668	92.56
358.895	96.56
359.122	80.56
359.349	96.56
359.576	87.56
359.802	103.56
360.029	110.56
360.256	119.56
360.483	124.56
360.709	85.56
360.936	86.56
361.163	83.56
361.39	90.56
361.616	93.56
361.843	106.56
362.07	99.56
362.296	86.56
362.523	89.56
362.749	96.56
362.976	84.56
363.203	99.56
363.429	95.56
363.656	102.56
363.882	107.56
364.109	90.56
364.335	95.56
364.562	92.56
364.788	102.56
365.015	100.56
365.241	98.56
365.468	120.56
365.694	104.56
365.92	91.56
366.147	75.56
366.373	92.56
366.599	95.56
366.826	90.56
367.052	92.56
367.278	80.56
367.505	91.56
367.731	98.56
367.957	102.56
368.184	109.56
368.41	98.56
368.636	97.56
368.862	119.56
369.089	112.56
369.315	101.56
369.541	86.56
369.767	77.56
369.993	92.56
370.219	91.56
370.445	83.56
370.672	79.56
370.898	91.56
371.124	83.56
371.35	80.56
371.576	79.56
371.802	85.56
372.028	102.56
372.254	85.56
372.48	87.56
372.706	82.56
372.932	92.56
373.158	90.56
373.384	85.56
373.61	91.56
373.835	79.56
374.061	79.56
374.287	85.56
374.513	85.56
374.739	89.56
374.965	86.56
375.191	92.56
375.416	79.56
375.642	95.56
375.868	90.56
376.094	94.56
376.319	80.56
376.545	84.56
376.771	89.56
376.997	101.56
377.222	88.56
377.448	86.56
377.674	98.56
377.899	82.56
378.125	75.56
378.35	82.56
378.576	94.56
378.802	91.56
379.027	87.56
379.253	103.56
379.478	76.56
379.704	99.56
379.929	80.56
380.155	105.56
380.38	92.56
380.606	80.56
380.831	82.56
381.057	109.56
381.282	98.56
381.507	91.56
381.733	93.56
381.958	100.56
382.184	88.56
382.409	86.56
382.634	97.56
382.86	92.56
383.085	99.56
383.31	96.56
383.535	107.56
383.761	85.56
383.986	92.56
384.211	90.56
384.436	107.56
384.662	113.56
384.887	97.56
385.112	111.56
385.337	101.56
385.562	109.56
385.787	103.56
386.013	113.56
386.238	118.56
386.463	111.56
386.688	113.56
386.913	101.56
387.138	113.56
387.363	103.56
387.588	98.56
387.813	112.56
388.038	109.56
388.263	111.56
388.488	100.56
388.713	94.56
388.938	97.56
389.163	100.56
389.387	94.56
389.612	107.56
389.837	85.56
390.062	86.56
390.287	87.56
390.512	99.56
390.736	81.56
390.961	86.56
391.186	78.56
391.411	90.56
391.636	85.56
391.86	82.56
392.085	84.56
392.31	86.56
392.534	95.56
392.759	89.56
392.984	82.56
393.208	84.56
393.433	98.56
393.658	87.56
393.882	78.56
394.107	80.56
394.331	67.56
394.556	74.56
394.78	77.56
395.005	88.56
395.229	83.56
395.454	88.56
395.678	68.56
395.903	81.56
396.127	99.56
396.352	79.56
396.576	99.56
396.801	93.56
397.025	89.56
397.249	80.56
397.474	88.56
397.698	80.56
397.922	77.56
398.147	86.56
398.371	81.56
398.595	85.56
398.82	78.56
399.044	87.56
399.268	79.56
399.492	76.56
399.717	91.56
399.941	99.56
400.165	66.56
400.389	101.56
400.613	101.56
400.837	83.56
401.062	71.56
401.286	90.56
401.51	97.56
401.734	84.56
401.958	103.56
402.182	131.56
402.406	179.56
402.63	136.56
402.854	108.56
403.078	99.56
403.302	85.56
403.526	96.56
403.75	96.56
403.974	84.56
404.198	78.56
404.422	92.56
404.645	85.56
404.869	98.56
405.093	88.56
405.317	115.56
405.541	121.56
405.765	99.56
405.988	122.56
406.212	182.56
406.436	280.56
406.66	164.56
406.883	111.56
407.107	104.56
407.331	98.56
407.555	110.56
407.778	95.56
408.002	88.56
408.226	86.56
408.449	88.56
408.673	79.56
408.896	81.56
409.12	80.56
409.344	85.56
409.567	78.56
409.791	80.56
410.014	96.56
410.238	89.56
410.461	102.56
410.685	81.56
410.908	107.56
411.132	104.56
411.355	92.56
411.578	88.56
411.802	90.56
412.025	70.56
412.249	97.56
412.472	99.56
412.695	111.56
412.919	96.56
413.142	91.56
413.365	79.56
413.589	89.56
413.812	95.56
414.035	81.56
414.258	93.56
414.482	100.56
414.705	90.56
414.928	87.56
415.151	102.56
415.374	92.56
415.597	88.56
415.821	84.56
416.044	90.56
416.267	89.56
416.49	82.56
416.713	88.56
416.936	87.56
417.159	87.56
417.382	97.56
417.605	100.56
417.828	96.56
418.051	96.56
418.274	88.56
418.497	85.56
418.72	79.56
418.943	81.56
419.166	106.56
419.389	86.56
419.611	97.56
419.834	95.56
420.057	91.56
420.28	83.56
420.503	82.56
420.726	108.56
420.948	94.56
421.171	96.56
421.394	74.56
421.617	86.56
421.839	81.56
422.062	97.56
422.285	90.56
422.507	99.56
422.73	92.56
422.953	98.56
423.175	95.56
423.398	79.56
423.621	92.56
423.843	84.56
424.066	72.56
424.288	83.56
424.511	87.56
424.733	106.56
424.956	102.56
425.178	107.56
425.401	99.56
425.623	100.56
425.846	83.56
426.068	103.56
426.291	82.56
426.513	90.56
426.735	95.56
426.958	89.56
427.18	93.56
427.402	151.56
427.625	194.56
427.847	176.56
428.069	160.56
428.292	108.56
428.514	95.56
428.736	80.56
428.958	92.56
429.181	98.56
429.403	81.56
429.625	86.56
429.847	85.56
430.069	89.56
430.292	92.56
430.514	87.56
430.736	93.56
430.958	81.56
431.18	86.56
431.402	87.56
431.624	83.56
431.846	82.56
432.068	95.56
432.29	94.56
432.512	83.56
432.734	90.56
432.956	94.56
433.178	96.56
433.4	86.56
433.622	67.56
433.844	90.56
434.066	74.56
434.287	93.56
434.509	93.56
434.731	82.56
434.953	72.56
435.175	82.56
435.397	90.56
435.618	92.56
435.84	98.56
436.062	109.56
436.284	108.56
436.505	94.56
436.727	85.56
436.949	87.56
437.17	91.56
437.392	76.56
437.614	87.56
437.835	107.56
438.057	106.56
438.278	120.56
438.5	109.56
438.721	122.56
438.943	93.56
439.165	79.56
439.386	90.56
439.608	87.56
439.829	96.56
440.05	133.56
440.272	155.56
440.493	91.56
440.715	85.56
440.936	89.56
441.158	79.56
441.379	96.56
441.6	89.56
441.822	100.56
442.043	90.56
442.264	107.56
442.486	117.56
442.707	103.56
442.928	109.56
443.149	138.56
443.371	137.56
443.592	108.56
443.813	117.56
444.034	109.56
444.255	79.56
444.476	94.56
444.698	81.56
444.919	93.56
445.14	121.56
445.361	124.56
445.582	120.56
445.803	130.56
446.024	143.56
446.245	138.56
446.466	114.56
446.687	95.56
446.908	93.56
447.129	85.56
447.35	79.56
447.571	81.56
447.792	104.56
448.013	101.56
448.234	108.56
448.455	87.56
448.675	129.56
448.896	127.56
449.117	84.56
449.338	95.56
449.559	111.56
449.779	136.56
450	88.56
450.221	86.56
450.442	101.56
450.662	86.56
450.883	108.56
451.104	127.56
451.324	108.56
451.545	96.56
451.766	76.56
451.986	92.56
452.207	80.56
452.428	92.56
452.648	109.56
452.869	119.56
453.089	112.56
453.31	127.56
453.53	101.56
453.751	91.56
453.971	115.56
454.192	109.56
454.412	83.56
454.633	86.56
454.853	80.56
455.073	76.56
455.294	82.56
455.514	95.56
455.734	101.56
455.955	81.56
456.175	73.56
456.395	77.56
456.616	90.56
456.836	92.56
457.056	81.56
457.276	74.56
457.497	82.56
457.717	83.56
457.937	91.56
458.157	84.56
458.377	87.56
458.598	105.56
458.818	168.56
459.038	196.56
459.258	121.56
459.478	93.56
459.698	101.56
459.918	81.56
460.138	86.56
460.358	86.56
460.578	78.56
460.798	85.56
461.018	87.56
461.238	90.56
461.458	70.56
461.678	80.56
461.898	72.56
462.118	97.56
462.338	86.56
462.558	71.56
462.777	76.56
462.997	97.56
463.217	95.56
463.437	79.56
463.657	83.56
463.876	76.56
464.096	95.56
464.316	92.56
464.536	86.56
464.755	95.56
464.975	107.56
465.195	192.56
465.414	200.56
465.634	103.56
465.854	83.56
466.073	78.56
466.293	94.56
466.512	89.56
466.732	95.56
466.951	84.56
467.171	96.56
467.391	120.56
467.61	115.56
467.829	165.56
468.049	340.56
468.268	503.56
468.488	169.56
468.707	98.56
468.927	94.56
469.146	91.56
469.365	79.56
469.585	79.56
469.804	94.56
470.023	98.56
470.243	106.56
470.462	98.56
470.681	112.56
470.901	100.56
471.12	90.56
471.339	95.56
471.558	100.56
471.777	101.56
471.997	192.56
472.216	606.56
472.435	1442.56
472.654	372.56
472.873	122.56
473.092	96.56
473.311	99.56
473.53	90.56
473.749	93.56
473.968	108.56
474.187	119.56
474.406	87.56
474.625	94.56
474.844	98.56
475.063	84.56
475.282	87.56
475.501	78.56
475.72	100.56
475.939	76.56
476.158	91.56
476.377	78.56
476.596	89.56
476.814	94.56
477.033	109.56
477.252	95.56
477.471	85.56
477.69	83.56
477.908	97.56
478.127	94.56
478.346	90.56
478.564	84.56
478.783	105.56
479.002	93.56
479.22	95.56
479.439	121.56
479.658	101.56
479.876	115.56
480.095	110.56
480.313	101.56
480.532	116.56
480.751	186.56
480.969	560.56
481.188	2427.56
481.406	1447.56
481.624	238.56
481.843	113.56
482.061	83.56
482.28	94.56
482.498	108.56
482.717	95.56
482.935	92.56
483.153	82.56
483.372	86.56
483.59	72.56
483.808	70.56
484.027	85.56
484.245	98.56
484.463	97.56
484.681	107.56
484.9	86.56
485.118	87.56
485.336	95.56
485.554	101.56
485.772	91.56
485.99	103.56
486.209	102.56
486.427	106.56
486.645	109.56
486.863	115.56
487.081	115.56
487.299	111.56
487.517	96.56
487.735	104.56
487.953	91.56
488.171	110.56
488.389	106.56
488.607	101.56
488.825	89.56
489.043	83.56
489.261	92.56
489.479	101.56
489.696	88.56
489.914	86.56
490.132	98.56
490.35	92.56
490.568	83.56
490.786	91.56
491.003	96.56
491.221	102.56
491.439	93.56
491.657	83.56
491.874	92.56
492.092	78.56
492.31	82.56
492.527	85.56
492.745	89.56
492.963	90.56
493.18	82.56
493.398	90.56
493.615	79.56
493.833	83.56
494.05	91.56
494.268	100.56
494.485	78.56
494.703	85.56
494.92	85.56
495.138	89.56
495.355	96.56
495.573	90.56
495.79	108.56
496.008	90.56
496.225	93.56
496.442	92.56
496.66	102.56
496.877	87.56
497.094	108.56
497.312	87.56
497.529	86.56
497.746	74.56
497.963	88.56
498.181	89.56
498.398	104.56
498.615	106.56
498.832	85.56
499.049	86.56
499.267	92.56
499.484	81.56
499.701	79.56
499.918	90.56
500.135	86.56
500.352	87.56
500.569	86.56
500.786	93.56
501.003	87.56
501.22	89.56
501.437	89.56
501.654	101.56
501.871	117.56
502.088	92.56
502.305	93.56
502.522	94.56
502.739	93.56
502.956	85.56
503.172	91.56
503.389	106.56
503.606	110.56
503.823	109.56
504.04	99.56
504.256	92.56
504.473	93.56
504.69	88.56
504.907	86.56
505.123	97.56
505.34	92.56
505.557	90.56
505.773	97.56
505.99	93.56
506.207	100.56
506.423	87.56
506.64	78.56
506.856	81.56
507.073	77.56
507.289	90.56
507.506	92.56
507.722	116.56
507.939	133.56
508.155	99.56
508.372	102.56
508.588	81.56
508.805	93.56
509.021	101.56
509.238	94.56
509.454	92.56
509.67	92.56
509.887	94.56
510.103	139.56
510.319	212.56
510.536	780.56
510.752	2701.56
510.968	741.56
511.184	166.56
511.401	103.56
511.617	103.56
511.833	104.56
512.049	82.56
512.265	89.56
512.481	84.56
512.698	88.56
512.914	87.56
513.13	102.56
513.346	96.56
513.562	102.56
513.778	86.56
513.994	97.56
514.21	102.56
514.426	135.56
514.642	154.56
514.858	118.56
