Data from Circ_1987_H10_HRD10591_00050.txt Node
Date: Wed Jan 03 12:10:42 EST 2024
User: Yrep
Spectrometer: HR+D1059
Trigger mode: 1
Integration Time (sec): 1.000000E-1
Scans to average: 1
Electric dark correction enabled: true
Nonlinearity correction enabled: false
Boxcar width: 0
XAxis mode: Wavelengths
Number of Pixels in Spectrum: 2048
>>>>>Begin Spectral Data<<<<<
223.165	-11.06
223.4	-11.06
223.635	-11.06
223.869	-33.06
224.104	-26.06
224.338	-14.06
224.573	-13.06
224.808	-3.06
225.042	-16.06
225.277	-6.06
225.511	1.94
225.746	-4.06
225.98	-1.06
226.215	22.94
226.449	26.94
226.683	29.94
226.918	18.94
227.152	26.94
227.387	36.94
227.621	38.94
227.856	60.94
228.09	51.94
228.324	54.94
228.559	64.94
228.793	50.94
229.027	69.94
229.262	85.94
229.496	76.94
229.73	74.94
229.964	102.94
230.199	74.94
230.433	78.94
230.667	65.94
230.901	86.94
231.136	82.94
231.37	76.94
231.604	72.94
231.838	73.94
232.072	90.94
232.306	92.94
232.541	85.94
232.775	86.94
233.009	69.94
233.243	73.94
233.477	88.94
233.711	92.94
233.945	84.94
234.179	88.94
234.413	80.94
234.647	88.94
234.881	76.94
235.115	90.94
235.349	90.94
235.583	88.94
235.817	70.94
236.051	91.94
236.285	88.94
236.519	76.94
236.753	77.94
236.987	90.94
237.221	74.94
237.455	84.94
237.689	86.94
237.922	71.94
238.156	81.94
238.39	96.94
238.624	73.94
238.858	83.94
239.091	98.94
239.325	71.94
239.559	90.94
239.793	93.94
240.027	91.94
240.26	82.94
240.494	71.94
240.728	85.94
240.961	80.94
241.195	87.94
241.429	76.94
241.662	79.94
241.896	82.94
242.13	85.94
242.363	80.94
242.597	78.94
242.83	82.94
243.064	81.94
243.298	77.94
243.531	80.94
243.765	72.94
243.998	96.94
244.232	101.94
244.465	87.94
244.699	84.94
244.932	84.94
245.166	70.94
245.399	75.94
245.633	89.94
245.866	83.94
246.099	81.94
246.333	67.94
246.566	94.94
246.8	82.94
247.033	73.94
247.266	86.94
247.5	78.94
247.733	89.94
247.966	70.94
248.2	80.94
248.433	89.94
248.666	79.94
248.899	88.94
249.133	96.94
249.366	117.94
249.599	96.94
249.832	89.94
250.066	87.94
250.299	87.94
250.532	98.94
250.765	102.94
250.998	86.94
251.231	72.94
251.465	73.94
251.698	76.94
251.931	74.94
252.164	101.94
252.397	94.94
252.63	82.94
252.863	80.94
253.096	82.94
253.329	81.94
253.562	83.94
253.795	83.94
254.028	91.94
254.261	69.94
254.494	83.94
254.727	106.94
254.96	85.94
255.193	85.94
255.426	77.94
255.659	82.94
255.892	86.94
256.124	97.94
256.357	82.94
256.59	84.94
256.823	89.94
257.056	90.94
257.289	82.94
257.521	82.94
257.754	91.94
257.987	93.94
258.22	95.94
258.452	96.94
258.685	84.94
258.918	81.94
259.151	81.94
259.383	97.94
259.616	93.94
259.849	84.94
260.081	89.94
260.314	84.94
260.547	82.94
260.779	91.94
261.012	103.94
261.244	99.94
261.477	101.94
261.71	95.94
261.942	123.94
262.175	129.94
262.407	97.94
262.64	88.94
262.872	86.94
263.105	80.94
263.337	91.94
263.57	83.94
263.802	87.94
264.035	65.94
264.267	77.94
264.499	99.94
264.732	98.94
264.964	89.94
265.197	92.94
265.429	82.94
265.661	74.94
265.894	74.94
266.126	88.94
266.358	79.94
266.591	83.94
266.823	88.94
267.055	84.94
267.287	74.94
267.52	75.94
267.752	77.94
267.984	99.94
268.216	91.94
268.448	86.94
268.681	103.94
268.913	98.94
269.145	97.94
269.377	101.94
269.609	78.94
269.841	62.94
270.073	71.94
270.306	88.94
270.538	85.94
270.77	99.94
271.002	90.94
271.234	97.94
271.466	82.94
271.698	90.94
271.93	85.94
272.162	100.94
272.394	89.94
272.626	89.94
272.858	82.94
273.09	80.94
273.322	89.94
273.553	87.94
273.785	98.94
274.017	82.94
274.249	96.94
274.481	104.94
274.713	92.94
274.945	89.94
275.176	98.94
275.408	105.94
275.64	101.94
275.872	113.94
276.104	114.94
276.335	97.94
276.567	129.94
276.799	125.94
277.031	135.94
277.262	152.94
277.494	131.94
277.726	102.94
277.957	98.94
278.189	93.94
278.421	78.94
278.652	84.94
278.884	96.94
279.115	83.94
279.347	93.94
279.579	95.94
279.81	96.94
280.042	140.94
280.273	187.94
280.505	142.94
280.736	99.94
280.968	80.94
281.199	100.94
281.431	109.94
281.662	100.94
281.894	99.94
282.125	108.94
282.356	113.94
282.588	163.94
282.819	118.94
283.051	100.94
283.282	88.94
283.513	91.94
283.745	93.94
283.976	101.94
284.207	97.94
284.439	77.94
284.67	97.94
284.901	94.94
285.132	89.94
285.364	96.94
285.595	86.94
285.826	90.94
286.057	97.94
286.288	90.94
286.52	88.94
286.751	87.94
286.982	90.94
287.213	102.94
287.444	92.94
287.675	93.94
287.906	98.94
288.138	77.94
288.369	96.94
288.6	82.94
288.831	88.94
289.062	88.94
289.293	86.94
289.524	78.94
289.755	73.94
289.986	90.94
290.217	90.94
290.448	96.94
290.679	79.94
290.91	88.94
291.141	110.94
291.371	93.94
291.602	93.94
291.833	98.94
292.064	93.94
292.295	84.94
292.526	98.94
292.757	70.94
292.987	98.94
293.218	101.94
293.449	89.94
293.68	94.94
293.91	85.94
294.141	87.94
294.372	98.94
294.603	93.94
294.833	88.94
295.064	99.94
295.295	93.94
295.525	99.94
295.756	111.94
295.987	128.94
296.217	150.94
296.448	114.94
296.679	103.94
296.909	84.94
297.14	85.94
297.37	103.94
297.601	86.94
297.831	90.94
298.062	90.94
298.292	92.94
298.523	108.94
298.753	102.94
298.984	90.94
299.214	99.94
299.445	96.94
299.675	98.94
299.905	106.94
300.136	91.94
300.366	101.94
300.597	97.94
300.827	91.94
301.057	100.94
301.288	120.94
301.518	95.94
301.748	96.94
301.979	118.94
302.209	88.94
302.439	85.94
302.669	92.94
302.9	91.94
303.13	98.94
303.36	94.94
303.59	128.94
303.82	145.94
304.051	96.94
304.281	107.94
304.511	104.94
304.741	76.94
304.971	96.94
305.201	92.94
305.431	91.94
305.661	100.94
305.891	114.94
306.121	107.94
306.352	93.94
306.582	124.94
306.812	114.94
307.042	106.94
307.272	141.94
307.502	147.94
307.731	148.94
307.961	129.94
308.191	99.94
308.421	94.94
308.651	110.94
308.881	99.94
309.111	90.94
309.341	99.94
309.571	109.94
309.8	106.94
310.03	102.94
310.26	99.94
310.49	99.94
310.72	98.94
310.949	121.94
311.179	113.94
311.409	104.94
311.639	99.94
311.868	102.94
312.098	103.94
312.328	110.94
312.557	114.94
312.787	123.94
313.017	103.94
313.246	107.94
313.476	97.94
313.706	99.94
313.935	93.94
314.165	91.94
314.394	109.94
314.624	89.94
314.853	96.94
315.083	96.94
315.312	96.94
315.542	97.94
315.771	89.94
316.001	107.94
316.23	95.94
316.46	93.94
316.689	93.94
316.919	110.94
317.148	93.94
317.377	103.94
317.607	102.94
317.836	110.94
318.065	99.94
318.295	98.94
318.524	93.94
318.753	84.94
318.983	96.94
319.212	99.94
319.441	113.94
319.67	118.94
319.9	103.94
320.129	102.94
320.358	85.94
320.587	95.94
320.816	98.94
321.046	107.94
321.275	112.94
321.504	110.94
321.733	92.94
321.962	99.94
322.191	109.94
322.42	114.94
322.649	110.94
322.878	113.94
323.108	120.94
323.337	136.94
323.566	154.94
323.795	157.94
324.024	218.94
324.253	385.94
324.482	818.94
324.71	1662.94
324.939	2275.94
325.168	812.94
325.397	268.94
325.626	164.94
325.855	125.94
326.084	144.94
326.313	139.94
326.542	155.94
326.77	238.94
326.999	445.94
327.228	898.94
327.457	1652.94
327.686	1322.94
327.914	439.94
328.143	377.94
328.372	445.94
328.6	277.94
328.829	177.94
329.058	165.94
329.287	164.94
329.515	150.94
329.744	204.94
329.972	325.94
330.201	636.94
330.43	881.94
330.658	435.94
330.887	235.94
331.115	168.94
331.344	115.94
331.572	110.94
331.801	129.94
332.03	137.94
332.258	107.94
332.486	91.94
332.715	96.94
332.943	109.94
333.172	110.94
333.4	109.94
333.629	137.94
333.857	194.94
334.085	304.94
334.314	577.94
334.542	1109.94
334.771	1092.94
334.999	329.94
335.227	156.94
335.455	117.94
335.684	108.94
335.912	121.94
336.14	96.94
336.369	105.94
336.597	134.94
336.825	101.94
337.053	95.94
337.281	103.94
337.51	105.94
337.738	101.94
337.966	104.94
338.194	98.94
338.422	89.94
338.65	104.94
338.878	99.94
339.106	95.94
339.334	107.94
339.562	91.94
339.79	101.94
340.018	87.94
340.246	106.94
340.474	100.94
340.702	102.94
340.93	90.94
341.158	90.94
341.386	99.94
341.614	108.94
341.842	120.94
342.07	96.94
342.298	96.94
342.526	111.94
342.754	86.94
342.981	97.94
343.209	96.94
343.437	102.94
343.665	109.94
343.893	83.94
344.12	94.94
344.348	93.94
344.576	101.94
344.804	96.94
345.031	96.94
345.259	105.94
345.487	106.94
345.714	91.94
345.942	90.94
346.17	88.94
346.397	82.94
346.625	105.94
346.853	84.94
347.08	84.94
347.308	105.94
347.535	105.94
347.763	103.94
347.99	106.94
348.218	117.94
348.445	112.94
348.673	109.94
348.9	106.94
349.128	104.94
349.355	89.94
349.583	96.94
349.81	96.94
350.037	105.94
350.265	94.94
350.492	92.94
350.72	83.94
350.947	105.94
351.174	110.94
351.402	122.94
351.629	120.94
351.856	90.94
352.083	95.94
352.311	109.94
352.538	120.94
352.765	110.94
352.992	122.94
353.22	107.94
353.447	115.94
353.674	107.94
353.901	103.94
354.128	114.94
354.355	109.94
354.583	103.94
354.81	93.94
355.037	97.94
355.264	85.94
355.491	97.94
355.718	102.94
355.945	87.94
356.172	90.94
356.399	114.94
356.626	88.94
356.853	96.94
357.08	103.94
357.307	81.94
357.534	93.94
357.761	107.94
357.988	90.94
358.215	105.94
358.441	91.94
358.668	99.94
358.895	91.94
359.122	89.94
359.349	88.94
359.576	104.94
359.802	101.94
360.029	109.94
360.256	117.94
360.483	110.94
360.709	110.94
360.936	114.94
361.163	101.94
361.39	104.94
361.616	110.94
361.843	93.94
362.07	103.94
362.296	104.94
362.523	98.94
362.749	101.94
362.976	96.94
363.203	86.94
363.429	90.94
363.656	89.94
363.882	96.94
364.109	92.94
364.335	92.94
364.562	85.94
364.788	101.94
365.015	102.94
365.241	105.94
365.468	96.94
365.694	109.94
365.92	96.94
366.147	108.94
366.373	92.94
366.599	90.94
366.826	85.94
367.052	104.94
367.278	101.94
367.505	96.94
367.731	101.94
367.957	105.94
368.184	100.94
368.41	114.94
368.636	122.94
368.862	146.94
369.089	123.94
369.315	92.94
369.541	99.94
369.767	85.94
369.993	87.94
370.219	95.94
370.445	99.94
370.672	89.94
370.898	99.94
371.124	117.94
371.35	92.94
371.576	91.94
371.802	94.94
372.028	91.94
372.254	82.94
372.48	101.94
372.706	88.94
372.932	80.94
373.158	82.94
373.384	95.94
373.61	87.94
373.835	98.94
374.061	83.94
374.287	95.94
374.513	96.94
374.739	96.94
374.965	100.94
375.191	84.94
375.416	92.94
375.642	85.94
375.868	103.94
376.094	91.94
376.319	94.94
376.545	97.94
376.771	86.94
376.997	82.94
377.222	100.94
377.448	94.94
377.674	101.94
377.899	82.94
378.125	96.94
378.35	102.94
378.576	90.94
378.802	93.94
379.027	98.94
379.253	99.94
379.478	88.94
379.704	91.94
379.929	103.94
380.155	105.94
380.38	87.94
380.606	102.94
380.831	94.94
381.057	102.94
381.282	92.94
381.507	97.94
381.733	103.94
381.958	113.94
382.184	110.94
382.409	108.94
382.634	100.94
382.86	107.94
383.085	101.94
383.31	98.94
383.535	96.94
383.761	91.94
383.986	106.94
384.211	94.94
384.436	85.94
384.662	110.94
384.887	106.94
385.112	120.94
385.337	126.94
385.562	103.94
385.787	124.94
386.013	107.94
386.238	131.94
386.463	97.94
386.688	121.94
386.913	101.94
387.138	107.94
387.363	102.94
387.588	102.94
387.813	102.94
388.038	118.94
388.263	117.94
388.488	102.94
388.713	95.94
388.938	106.94
389.163	83.94
389.387	94.94
389.612	98.94
389.837	99.94
390.062	97.94
390.287	93.94
390.512	84.94
390.736	93.94
390.961	86.94
391.186	94.94
391.411	99.94
391.636	82.94
391.86	91.94
392.085	92.94
392.31	87.94
392.534	100.94
392.759	81.94
392.984	103.94
393.208	86.94
393.433	110.94
393.658	93.94
393.882	83.94
394.107	94.94
394.331	93.94
394.556	89.94
394.78	102.94
395.005	94.94
395.229	80.94
395.454	94.94
395.678	99.94
395.903	93.94
396.127	109.94
396.352	93.94
396.576	83.94
396.801	91.94
397.025	81.94
397.249	90.94
397.474	97.94
397.698	100.94
397.922	100.94
398.147	90.94
398.371	92.94
398.595	93.94
398.82	97.94
399.044	102.94
399.268	87.94
399.492	97.94
399.717	88.94
399.941	97.94
400.165	77.94
400.389	85.94
400.613	90.94
400.837	97.94
401.062	84.94
401.286	94.94
401.51	101.94
401.734	86.94
401.958	102.94
402.182	156.94
402.406	168.94
402.63	116.94
402.854	99.94
403.078	98.94
403.302	97.94
403.526	91.94
403.75	84.94
403.974	95.94
404.198	95.94
404.422	84.94
404.645	83.94
404.869	88.94
405.093	112.94
405.317	122.94
405.541	133.94
405.765	110.94
405.988	125.94
406.212	194.94
406.436	273.94
406.66	178.94
406.883	123.94
407.107	101.94
407.331	93.94
407.555	108.94
407.778	101.94
408.002	101.94
408.226	83.94
408.449	81.94
408.673	100.94
408.896	98.94
409.12	93.94
409.344	93.94
409.567	93.94
409.791	96.94
410.014	99.94
410.238	109.94
410.461	89.94
410.685	103.94
410.908	111.94
411.132	91.94
411.355	96.94
411.578	102.94
411.802	94.94
412.025	88.94
412.249	103.94
412.472	101.94
412.695	127.94
412.919	106.94
413.142	88.94
413.365	114.94
413.589	86.94
413.812	100.94
414.035	96.94
414.258	79.94
414.482	88.94
414.705	82.94
414.928	80.94
415.151	87.94
415.374	95.94
415.597	91.94
415.821	88.94
416.044	69.94
416.267	90.94
416.49	92.94
416.713	94.94
416.936	90.94
417.159	96.94
417.382	100.94
417.605	96.94
417.828	102.94
418.051	110.94
418.274	104.94
418.497	83.94
418.72	96.94
418.943	83.94
419.166	105.94
419.389	90.94
419.611	98.94
419.834	97.94
420.057	89.94
420.28	94.94
420.503	90.94
420.726	95.94
420.948	86.94
421.171	94.94
421.394	91.94
421.617	100.94
421.839	85.94
422.062	106.94
422.285	98.94
422.507	108.94
422.73	107.94
422.953	117.94
423.175	91.94
423.398	87.94
423.621	96.94
423.843	94.94
424.066	88.94
424.288	96.94
424.511	110.94
424.733	106.94
424.956	99.94
425.178	110.94
425.401	102.94
425.623	111.94
425.846	97.94
426.068	88.94
426.291	107.94
426.513	98.94
426.735	97.94
426.958	99.94
427.18	118.94
427.402	158.94
427.625	209.94
427.847	197.94
428.069	172.94
428.292	123.94
428.514	84.94
428.736	93.94
428.958	118.94
429.181	82.94
429.403	83.94
429.625	82.94
429.847	103.94
430.069	96.94
430.292	102.94
430.514	85.94
430.736	91.94
430.958	89.94
431.18	102.94
431.402	92.94
431.624	82.94
431.846	88.94
432.068	91.94
432.29	96.94
432.512	93.94
432.734	96.94
432.956	91.94
433.178	118.94
433.4	95.94
433.622	90.94
433.844	107.94
434.066	102.94
434.287	104.94
434.509	77.94
434.731	88.94
434.953	80.94
435.175	87.94
435.397	96.94
435.618	84.94
435.84	104.94
436.062	152.94
436.284	121.94
436.505	100.94
436.727	96.94
436.949	97.94
437.17	100.94
437.392	98.94
437.614	97.94
437.835	134.94
438.057	124.94
438.278	118.94
438.5	111.94
438.721	137.94
438.943	107.94
439.165	92.94
439.386	87.94
439.608	99.94
439.829	100.94
440.05	144.94
440.272	175.94
440.493	105.94
440.715	104.94
440.936	90.94
441.158	101.94
441.379	79.94
441.6	80.94
441.822	105.94
442.043	90.94
442.264	115.94
442.486	116.94
442.707	100.94
442.928	119.94
443.149	148.94
443.371	153.94
443.592	113.94
443.813	123.94
444.034	119.94
444.255	96.94
444.476	84.94
444.698	100.94
444.919	84.94
445.14	128.94
445.361	133.94
445.582	136.94
445.803	160.94
446.024	162.94
446.245	158.94
446.466	138.94
446.687	98.94
446.908	100.94
447.129	92.94
447.35	92.94
447.571	99.94
447.792	103.94
448.013	126.94
448.234	118.94
448.455	116.94
448.675	125.94
448.896	125.94
449.117	104.94
449.338	119.94
449.559	138.94
449.779	152.94
450	92.94
450.221	110.94
450.442	97.94
450.662	104.94
450.883	108.94
451.104	118.94
451.324	94.94
451.545	96.94
451.766	77.94
451.986	97.94
452.207	105.94
452.428	88.94
452.648	102.94
452.869	131.94
453.089	113.94
453.31	128.94
453.53	103.94
453.751	108.94
453.971	116.94
454.192	130.94
454.412	97.94
454.633	88.94
454.853	87.94
455.073	94.94
455.294	98.94
455.514	108.94
455.734	100.94
455.955	93.94
456.175	94.94
456.395	94.94
456.616	99.94
456.836	89.94
457.056	88.94
457.276	87.94
457.497	78.94
457.717	99.94
457.937	89.94
458.157	77.94
458.377	90.94
458.598	110.94
458.818	186.94
459.038	184.94
459.258	132.94
459.478	96.94
459.698	106.94
459.918	88.94
460.138	100.94
460.358	86.94
460.578	91.94
460.798	99.94
461.018	94.94
461.238	80.94
461.458	80.94
461.678	87.94
461.898	101.94
462.118	90.94
462.338	90.94
462.558	78.94
462.777	84.94
462.997	92.94
463.217	115.94
463.437	90.94
463.657	76.94
463.876	79.94
464.096	86.94
464.316	100.94
464.536	99.94
464.755	85.94
464.975	117.94
465.195	203.94
465.414	194.94
465.634	113.94
465.854	88.94
466.073	102.94
466.293	95.94
466.512	93.94
466.732	96.94
466.951	99.94
467.171	102.94
467.391	120.94
467.61	126.94
467.829	173.94
468.049	379.94
468.268	552.94
468.488	155.94
468.707	91.94
468.927	95.94
469.146	96.94
469.365	90.94
469.585	100.94
469.804	103.94
470.023	98.94
470.243	98.94
470.462	118.94
470.681	118.94
470.901	105.94
471.12	100.94
471.339	109.94
471.558	115.94
471.777	114.94
471.997	221.94
472.216	724.94
472.435	1578.94
472.654	395.94
472.873	135.94
473.092	96.94
473.311	94.94
473.53	97.94
473.749	86.94
473.968	113.94
474.187	134.94
474.406	110.94
474.625	96.94
474.844	80.94
475.063	82.94
475.282	105.94
475.501	88.94
475.72	105.94
475.939	86.94
476.158	84.94
476.377	94.94
476.596	106.94
476.814	113.94
477.033	98.94
477.252	91.94
477.471	97.94
477.69	98.94
477.908	83.94
478.127	93.94
478.346	100.94
478.564	87.94
478.783	102.94
479.002	99.94
479.22	116.94
479.439	129.94
479.658	118.94
479.876	118.94
480.095	112.94
480.313	115.94
480.532	129.94
480.751	212.94
480.969	654.94
481.188	2718.94
481.406	1553.94
481.624	252.94
481.843	110.94
482.061	76.94
482.28	94.94
482.498	97.94
482.717	101.94
482.935	97.94
483.153	98.94
483.372	93.94
483.59	96.94
483.808	85.94
484.027	96.94
484.245	93.94
484.463	101.94
484.681	88.94
484.9	88.94
485.118	101.94
485.336	97.94
485.554	101.94
485.772	103.94
485.99	105.94
486.209	106.94
486.427	112.94
486.645	109.94
486.863	136.94
487.081	109.94
487.299	100.94
487.517	107.94
487.735	100.94
487.953	102.94
488.171	100.94
488.389	110.94
488.607	107.94
488.825	100.94
489.043	101.94
489.261	96.94
489.479	91.94
489.696	94.94
489.914	84.94
490.132	85.94
490.35	101.94
490.568	87.94
490.786	101.94
491.003	114.94
491.221	84.94
491.439	96.94
491.657	82.94
491.874	98.94
492.092	98.94
492.31	93.94
492.527	83.94
492.745	80.94
492.963	90.94
493.18	89.94
493.398	91.94
493.615	93.94
493.833	99.94
494.05	97.94
494.268	102.94
494.485	98.94
494.703	96.94
494.92	88.94
495.138	91.94
495.355	84.94
495.573	94.94
495.79	90.94
496.008	108.94
496.225	98.94
496.442	89.94
496.66	94.94
496.877	97.94
497.094	98.94
497.312	90.94
497.529	87.94
497.746	81.94
497.963	100.94
498.181	88.94
498.398	94.94
498.615	128.94
498.832	108.94
499.049	98.94
499.267	85.94
499.484	93.94
499.701	96.94
499.918	94.94
500.135	100.94
500.352	103.94
500.569	87.94
500.786	112.94
501.003	98.94
501.22	85.94
501.437	87.94
501.654	102.94
501.871	117.94
502.088	95.94
502.305	93.94
502.522	107.94
502.739	96.94
502.956	96.94
503.172	90.94
503.389	109.94
503.606	108.94
503.823	87.94
504.04	78.94
504.256	94.94
504.473	102.94
504.69	101.94
504.907	100.94
505.123	93.94
505.34	98.94
505.557	96.94
505.773	98.94
505.99	95.94
506.207	94.94
506.423	103.94
506.64	99.94
506.856	106.94
507.073	78.94
507.289	89.94
507.506	91.94
507.722	115.94
507.939	134.94
508.155	108.94
508.372	112.94
508.588	88.94
508.805	97.94
509.021	101.94
509.238	115.94
509.454	101.94
509.67	107.94
509.887	105.94
510.103	128.94
510.319	216.94
510.536	798.94
510.752	2641.94
510.968	751.94
511.184	166.94
511.401	114.94
511.617	110.94
511.833	105.94
512.049	114.94
512.265	100.94
512.481	97.94
512.698	94.94
