Data from Circ_1987_H10_HRD10591_00049.txt Node
Date: Wed Jan 03 12:10:42 EST 2024
User: Yrep
Spectrometer: HR+D1059
Trigger mode: 1
Integration Time (sec): 1.000000E-1
Scans to average: 1
Electric dark correction enabled: true
Nonlinearity correction enabled: false
Boxcar width: 0
XAxis mode: Wavelengths
Number of Pixels in Spectrum: 2048
>>>>>Begin Spectral Data<<<<<
223.165	-11.88
223.4	-11.88
223.635	-11.88
223.869	-1.88
224.104	-23.88
224.338	-20.88
224.573	-21.88
224.808	-11.88
225.042	-5.88
225.277	-13.88
225.511	-0.88
225.746	6.12
225.98	6.12
226.215	7.12
226.449	8.12
226.683	23.12
226.918	30.12
227.152	32.12
227.387	34.12
227.621	54.12
227.856	38.12
228.09	58.12
228.324	58.12
228.559	65.12
228.793	50.12
229.027	68.12
229.262	73.12
229.496	60.12
229.73	88.12
229.964	86.12
230.199	73.12
230.433	78.12
230.667	75.12
230.901	73.12
231.136	80.12
231.37	80.12
231.604	80.12
231.838	75.12
232.072	82.12
232.306	82.12
232.541	97.12
232.775	74.12
233.009	84.12
233.243	88.12
233.477	78.12
233.711	89.12
233.945	86.12
234.179	75.12
234.413	94.12
234.647	87.12
234.881	91.12
235.115	84.12
235.349	83.12
235.583	95.12
235.817	80.12
236.051	82.12
236.285	80.12
236.519	82.12
236.753	92.12
236.987	93.12
237.221	103.12
237.455	96.12
237.689	91.12
237.922	80.12
238.156	78.12
238.39	88.12
238.624	90.12
238.858	76.12
239.091	66.12
239.325	85.12
239.559	89.12
239.793	72.12
240.027	81.12
240.26	88.12
240.494	89.12
240.728	66.12
240.961	84.12
241.195	82.12
241.429	73.12
241.662	73.12
241.896	72.12
242.13	91.12
242.363	67.12
242.597	87.12
242.83	88.12
243.064	80.12
243.298	79.12
243.531	94.12
243.765	87.12
243.998	76.12
244.232	91.12
244.465	81.12
244.699	70.12
244.932	81.12
245.166	86.12
245.399	94.12
245.633	84.12
245.866	78.12
246.099	68.12
246.333	89.12
246.566	82.12
246.8	86.12
247.033	90.12
247.266	77.12
247.5	95.12
247.733	91.12
247.966	94.12
248.2	78.12
248.433	95.12
248.666	88.12
248.899	72.12
249.133	84.12
249.366	101.12
249.599	102.12
249.832	94.12
250.066	92.12
250.299	89.12
250.532	87.12
250.765	87.12
250.998	85.12
251.231	81.12
251.465	97.12
251.698	94.12
251.931	79.12
252.164	78.12
252.397	82.12
252.63	90.12
252.863	78.12
253.096	95.12
253.329	90.12
253.562	87.12
253.795	74.12
254.028	71.12
254.261	83.12
254.494	90.12
254.727	91.12
254.96	96.12
255.193	83.12
255.426	82.12
255.659	95.12
255.892	108.12
256.124	101.12
256.357	105.12
256.59	94.12
256.823	82.12
257.056	87.12
257.289	95.12
257.521	94.12
257.754	90.12
257.987	102.12
258.22	102.12
258.452	97.12
258.685	101.12
258.918	91.12
259.151	84.12
259.383	90.12
259.616	79.12
259.849	88.12
260.081	83.12
260.314	80.12
260.547	85.12
260.779	95.12
261.012	98.12
261.244	106.12
261.477	96.12
261.71	104.12
261.942	124.12
262.175	135.12
262.407	100.12
262.64	97.12
262.872	91.12
263.105	87.12
263.337	78.12
263.57	79.12
263.802	80.12
264.035	102.12
264.267	85.12
264.499	90.12
264.732	79.12
264.964	92.12
265.197	99.12
265.429	83.12
265.661	81.12
265.894	107.12
266.126	84.12
266.358	84.12
266.591	91.12
266.823	68.12
267.055	71.12
267.287	87.12
267.52	88.12
267.752	95.12
267.984	91.12
268.216	74.12
268.448	89.12
268.681	92.12
268.913	83.12
269.145	89.12
269.377	94.12
269.609	72.12
269.841	88.12
270.073	78.12
270.306	93.12
270.538	95.12
270.77	95.12
271.002	88.12
271.234	95.12
271.466	101.12
271.698	71.12
271.93	83.12
272.162	80.12
272.394	96.12
272.626	95.12
272.858	88.12
273.09	86.12
273.322	71.12
273.553	86.12
273.785	90.12
274.017	90.12
274.249	97.12
274.481	88.12
274.713	72.12
274.945	106.12
275.176	105.12
275.408	91.12
275.64	106.12
275.872	101.12
276.104	98.12
276.335	96.12
276.567	118.12
276.799	132.12
277.031	169.12
277.262	170.12
277.494	134.12
277.726	95.12
277.957	96.12
278.189	99.12
278.421	99.12
278.652	112.12
278.884	88.12
279.115	94.12
279.347	90.12
279.579	98.12
279.81	112.12
280.042	188.12
280.273	222.12
280.505	170.12
280.736	105.12
280.968	93.12
281.199	88.12
281.431	87.12
281.662	96.12
281.894	89.12
282.125	103.12
282.356	129.12
282.588	173.12
282.819	142.12
283.051	95.12
283.282	75.12
283.513	74.12
283.745	74.12
283.976	88.12
284.207	96.12
284.439	83.12
284.67	89.12
284.901	100.12
285.132	88.12
285.364	87.12
285.595	79.12
285.826	95.12
286.057	86.12
286.288	88.12
286.52	87.12
286.751	80.12
286.982	78.12
287.213	87.12
287.444	83.12
287.675	99.12
287.906	94.12
288.138	90.12
288.369	102.12
288.6	81.12
288.831	77.12
289.062	90.12
289.293	91.12
289.524	84.12
289.755	90.12
289.986	84.12
290.217	94.12
290.448	94.12
290.679	88.12
290.91	84.12
291.141	92.12
291.371	89.12
291.602	83.12
291.833	70.12
292.064	76.12
292.295	89.12
292.526	82.12
292.757	88.12
292.987	88.12
293.218	106.12
293.449	96.12
293.68	90.12
293.91	99.12
294.141	102.12
294.372	74.12
294.603	74.12
294.833	90.12
295.064	83.12
295.295	93.12
295.525	90.12
295.756	90.12
295.987	120.12
296.217	145.12
296.448	129.12
296.679	86.12
296.909	89.12
297.14	78.12
297.37	92.12
297.601	85.12
297.831	80.12
298.062	103.12
298.292	91.12
298.523	94.12
298.753	102.12
298.984	95.12
299.214	94.12
299.445	107.12
299.675	108.12
299.905	94.12
300.136	95.12
300.366	105.12
300.597	88.12
300.827	95.12
301.057	102.12
301.288	108.12
301.518	101.12
301.748	81.12
301.979	104.12
302.209	102.12
302.439	102.12
302.669	101.12
302.9	89.12
303.13	94.12
303.36	111.12
303.59	120.12
303.82	135.12
304.051	106.12
304.281	86.12
304.511	104.12
304.741	81.12
304.971	89.12
305.201	90.12
305.431	91.12
305.661	98.12
305.891	99.12
306.121	101.12
306.352	106.12
306.582	114.12
306.812	106.12
307.042	110.12
307.272	142.12
307.502	162.12
307.731	167.12
307.961	106.12
308.191	96.12
308.421	101.12
308.651	102.12
308.881	93.12
309.111	98.12
309.341	96.12
309.571	109.12
309.8	98.12
310.03	95.12
310.26	105.12
310.49	115.12
310.72	112.12
310.949	134.12
311.179	120.12
311.409	100.12
311.639	106.12
311.868	102.12
312.098	99.12
312.328	94.12
312.557	99.12
312.787	119.12
313.017	102.12
313.246	100.12
313.476	96.12
313.706	96.12
313.935	96.12
314.165	100.12
314.394	108.12
314.624	126.12
314.853	103.12
315.083	104.12
315.312	94.12
315.542	94.12
315.771	97.12
316.001	79.12
316.23	86.12
316.46	92.12
316.689	100.12
316.919	100.12
317.148	115.12
317.377	102.12
317.607	108.12
317.836	91.12
318.065	89.12
318.295	94.12
318.524	84.12
318.753	96.12
318.983	102.12
319.212	104.12
319.441	113.12
319.67	127.12
319.9	95.12
320.129	89.12
320.358	113.12
320.587	105.12
320.816	103.12
321.046	107.12
321.275	107.12
321.504	93.12
321.733	86.12
321.962	94.12
322.191	82.12
322.42	113.12
322.649	122.12
322.878	121.12
323.108	116.12
323.337	138.12
323.566	140.12
323.795	158.12
324.024	203.12
324.253	376.12
324.482	743.12
324.71	1503.12
324.939	1970.12
325.168	767.12
325.397	246.12
325.626	160.12
325.855	133.12
326.084	119.12
326.313	123.12
326.542	168.12
326.77	227.12
326.999	389.12
327.228	782.12
327.457	1360.12
327.686	1136.12
327.914	434.12
328.143	441.12
328.372	559.12
328.6	320.12
328.829	176.12
329.058	180.12
329.287	204.12
329.515	170.12
329.744	209.12
329.972	388.12
330.201	790.12
330.43	1147.12
330.658	542.12
330.887	262.12
331.115	182.12
331.344	126.12
331.572	121.12
331.801	130.12
332.03	121.12
332.258	110.12
332.486	92.12
332.715	109.12
332.943	109.12
333.172	106.12
333.4	132.12
333.629	147.12
333.857	213.12
334.085	342.12
334.314	679.12
334.542	1382.12
334.771	1320.12
334.999	370.12
335.227	154.12
335.455	118.12
335.684	111.12
335.912	119.12
336.14	121.12
336.369	118.12
336.597	119.12
336.825	106.12
337.053	114.12
337.281	95.12
337.51	95.12
337.738	94.12
337.966	100.12
338.194	100.12
338.422	116.12
338.65	96.12
338.878	106.12
339.106	105.12
339.334	105.12
339.562	112.12
339.79	99.12
340.018	102.12
340.246	94.12
340.474	101.12
340.702	108.12
340.93	79.12
341.158	90.12
341.386	91.12
341.614	112.12
341.842	106.12
342.07	88.12
342.298	103.12
342.526	98.12
342.754	80.12
342.981	95.12
343.209	100.12
343.437	99.12
343.665	102.12
343.893	94.12
344.12	96.12
344.348	74.12
344.576	84.12
344.804	88.12
345.031	107.12
345.259	106.12
345.487	109.12
345.714	92.12
345.942	97.12
346.17	111.12
346.397	92.12
346.625	104.12
346.853	96.12
347.08	89.12
347.308	103.12
347.535	124.12
347.763	102.12
347.99	108.12
348.218	101.12
348.445	108.12
348.673	120.12
348.9	97.12
349.128	106.12
349.355	111.12
349.583	96.12
349.81	94.12
350.037	90.12
350.265	94.12
350.492	97.12
350.72	102.12
350.947	95.12
351.174	114.12
351.402	115.12
351.629	106.12
351.856	100.12
352.083	106.12
352.311	111.12
352.538	115.12
352.765	120.12
352.992	123.12
353.22	116.12
353.447	129.12
353.674	108.12
353.901	92.12
354.128	74.12
354.355	93.12
354.583	81.12
354.81	95.12
355.037	106.12
355.264	90.12
355.491	98.12
355.718	90.12
355.945	84.12
356.172	85.12
356.399	84.12
356.626	103.12
356.853	96.12
357.08	94.12
357.307	93.12
357.534	100.12
357.761	89.12
357.988	99.12
358.215	101.12
358.441	85.12
358.668	96.12
358.895	90.12
359.122	107.12
359.349	92.12
359.576	98.12
359.802	113.12
360.029	141.12
360.256	136.12
360.483	114.12
360.709	91.12
360.936	93.12
361.163	120.12
361.39	112.12
361.616	91.12
361.843	105.12
362.07	104.12
362.296	92.12
362.523	85.12
362.749	88.12
362.976	99.12
363.203	88.12
363.429	93.12
363.656	97.12
363.882	98.12
364.109	90.12
364.335	94.12
364.562	96.12
364.788	95.12
365.015	106.12
365.241	99.12
365.468	120.12
365.694	119.12
365.92	110.12
366.147	96.12
366.373	80.12
366.599	87.12
366.826	91.12
367.052	92.12
367.278	93.12
367.505	91.12
367.731	107.12
367.957	99.12
368.184	89.12
368.41	108.12
368.636	111.12
368.862	122.12
369.089	119.12
369.315	93.12
369.541	95.12
369.767	99.12
369.993	99.12
370.219	90.12
370.445	92.12
370.672	99.12
370.898	88.12
371.124	83.12
371.35	91.12
371.576	90.12
371.802	96.12
372.028	101.12
372.254	96.12
372.48	80.12
372.706	99.12
372.932	87.12
373.158	106.12
373.384	102.12
373.61	104.12
373.835	105.12
374.061	102.12
374.287	102.12
374.513	87.12
374.739	100.12
374.965	90.12
375.191	90.12
375.416	82.12
375.642	91.12
375.868	84.12
376.094	84.12
376.319	102.12
376.545	86.12
376.771	87.12
376.997	102.12
377.222	97.12
377.448	92.12
377.674	94.12
377.899	96.12
378.125	80.12
378.35	100.12
378.576	99.12
378.802	104.12
379.027	106.12
379.253	97.12
379.478	88.12
379.704	80.12
379.929	87.12
380.155	96.12
380.38	97.12
380.606	85.12
380.831	97.12
381.057	104.12
381.282	103.12
381.507	100.12
381.733	95.12
381.958	95.12
382.184	95.12
382.409	82.12
382.634	100.12
382.86	105.12
383.085	101.12
383.31	90.12
383.535	99.12
383.761	108.12
383.986	88.12
384.211	84.12
384.436	84.12
384.662	100.12
384.887	107.12
385.112	88.12
385.337	97.12
385.562	108.12
385.787	104.12
386.013	112.12
386.238	105.12
386.463	110.12
386.688	95.12
386.913	100.12
387.138	94.12
387.363	108.12
387.588	115.12
387.813	86.12
388.038	99.12
388.263	102.12
388.488	107.12
388.713	99.12
388.938	95.12
389.163	100.12
389.387	95.12
389.612	84.12
389.837	85.12
390.062	90.12
390.287	85.12
390.512	95.12
390.736	97.12
390.961	105.12
391.186	92.12
391.411	96.12
391.636	94.12
391.86	84.12
392.085	84.12
392.31	99.12
392.534	90.12
392.759	102.12
392.984	98.12
393.208	89.12
393.433	108.12
393.658	84.12
393.882	80.12
394.107	83.12
394.331	94.12
394.556	80.12
394.78	92.12
395.005	87.12
395.229	96.12
395.454	93.12
395.678	86.12
395.903	102.12
396.127	94.12
396.352	85.12
396.576	94.12
396.801	88.12
397.025	92.12
397.249	99.12
397.474	94.12
397.698	88.12
397.922	87.12
398.147	95.12
398.371	94.12
398.595	73.12
398.82	101.12
399.044	85.12
399.268	82.12
399.492	87.12
399.717	96.12
399.941	73.12
400.165	102.12
400.389	95.12
400.613	92.12
400.837	97.12
401.062	96.12
401.286	108.12
401.51	90.12
401.734	104.12
401.958	107.12
402.182	153.12
402.406	188.12
402.63	151.12
402.854	107.12
403.078	84.12
403.302	92.12
403.526	102.12
403.75	99.12
403.974	95.12
404.198	103.12
404.422	80.12
404.645	87.12
404.869	106.12
405.093	113.12
405.317	128.12
405.541	124.12
405.765	113.12
405.988	124.12
406.212	209.12
406.436	284.12
406.66	194.12
406.883	139.12
407.107	104.12
407.331	92.12
407.555	110.12
407.778	103.12
408.002	95.12
408.226	93.12
408.449	106.12
408.673	91.12
408.896	106.12
409.12	105.12
409.344	104.12
409.567	78.12
409.791	97.12
410.014	93.12
410.238	89.12
410.461	103.12
410.685	95.12
410.908	106.12
411.132	106.12
411.355	102.12
411.578	106.12
411.802	87.12
412.025	83.12
412.249	102.12
412.472	113.12
412.695	144.12
412.919	105.12
413.142	104.12
413.365	92.12
413.589	98.12
413.812	89.12
414.035	97.12
414.258	90.12
414.482	91.12
414.705	96.12
414.928	98.12
415.151	100.12
415.374	90.12
415.597	84.12
415.821	80.12
416.044	94.12
416.267	93.12
416.49	88.12
416.713	94.12
416.936	93.12
417.159	83.12
417.382	94.12
417.605	100.12
417.828	110.12
418.051	91.12
418.274	87.12
418.497	98.12
418.72	96.12
418.943	90.12
419.166	107.12
419.389	98.12
419.611	87.12
419.834	94.12
420.057	91.12
420.28	86.12
420.503	86.12
420.726	90.12
420.948	100.12
421.171	89.12
421.394	96.12
421.617	86.12
421.839	84.12
422.062	99.12
422.285	85.12
422.507	116.12
422.73	120.12
422.953	89.12
423.175	110.12
423.398	91.12
423.621	75.12
423.843	92.12
424.066	78.12
424.288	88.12
424.511	96.12
424.733	97.12
424.956	103.12
425.178	115.12
425.401	105.12
425.623	113.12
425.846	99.12
426.068	103.12
426.291	98.12
426.513	91.12
426.735	106.12
426.958	99.12
427.18	126.12
427.402	164.12
427.625	238.12
427.847	190.12
428.069	175.12
428.292	122.12
428.514	109.12
428.736	95.12
428.958	103.12
429.181	84.12
429.403	105.12
429.625	85.12
429.847	86.12
430.069	113.12
430.292	100.12
430.514	90.12
430.736	84.12
430.958	82.12
431.18	93.12
431.402	76.12
431.624	84.12
431.846	94.12
432.068	94.12
432.29	95.12
432.512	92.12
432.734	88.12
432.956	75.12
433.178	95.12
433.4	98.12
433.622	90.12
433.844	69.12
434.066	97.12
434.287	91.12
434.509	71.12
434.731	105.12
434.953	92.12
435.175	89.12
435.397	96.12
435.618	84.12
435.84	104.12
436.062	136.12
436.284	129.12
436.505	108.12
436.727	108.12
436.949	89.12
437.17	86.12
437.392	91.12
437.614	96.12
437.835	119.12
438.057	151.12
438.278	128.12
438.5	107.12
438.721	139.12
438.943	117.12
439.165	103.12
439.386	88.12
439.608	102.12
439.829	104.12
440.05	146.12
440.272	158.12
440.493	113.12
440.715	98.12
440.936	79.12
441.158	83.12
441.379	71.12
441.6	97.12
441.822	100.12
442.043	116.12
442.264	129.12
442.486	103.12
442.707	102.12
442.928	100.12
443.149	156.12
443.371	162.12
443.592	146.12
443.813	112.12
444.034	114.12
444.255	95.12
444.476	86.12
444.698	98.12
444.919	98.12
445.14	115.12
445.361	106.12
445.582	126.12
445.803	168.12
446.024	163.12
446.245	157.12
446.466	118.12
446.687	91.12
446.908	90.12
447.129	89.12
447.35	92.12
447.571	89.12
447.792	108.12
448.013	106.12
448.234	126.12
448.455	106.12
448.675	107.12
448.896	131.12
449.117	113.12
449.338	116.12
449.559	137.12
449.779	142.12
450	103.12
450.221	94.12
450.442	83.12
450.662	99.12
450.883	131.12
451.104	120.12
451.324	97.12
451.545	90.12
451.766	99.12
451.986	91.12
452.207	101.12
452.428	98.12
452.648	110.12
452.869	128.12
453.089	136.12
453.31	145.12
453.53	109.12
453.751	104.12
453.971	125.12
454.192	132.12
454.412	100.12
454.633	80.12
454.853	88.12
455.073	79.12
455.294	95.12
455.514	121.12
455.734	110.12
455.955	82.12
456.175	91.12
456.395	87.12
456.616	86.12
456.836	83.12
457.056	95.12
457.276	88.12
457.497	85.12
457.717	101.12
457.937	106.12
458.157	102.12
458.377	94.12
458.598	115.12
458.818	193.12
459.038	210.12
459.258	131.12
459.478	99.12
459.698	105.12
459.918	93.12
460.138	97.12
460.358	94.12
460.578	96.12
460.798	106.12
461.018	105.12
461.238	99.12
461.458	75.12
461.678	94.12
461.898	82.12
462.118	88.12
462.338	89.12
462.558	81.12
462.777	86.12
462.997	105.12
463.217	112.12
463.437	96.12
463.657	89.12
463.876	108.12
464.096	100.12
464.316	101.12
464.536	103.12
464.755	98.12
464.975	120.12
465.195	206.12
465.414	225.12
465.634	111.12
465.854	95.12
466.073	99.12
466.293	84.12
466.512	98.12
466.732	89.12
466.951	109.12
467.171	95.12
467.391	119.12
467.61	128.12
467.829	202.12
468.049	438.12
468.268	715.12
468.488	196.12
468.707	103.12
468.927	98.12
469.146	76.12
469.365	97.12
469.585	99.12
469.804	106.12
470.023	108.12
470.243	114.12
470.462	113.12
470.681	128.12
470.901	103.12
471.12	98.12
471.339	106.12
471.558	107.12
471.777	131.12
471.997	245.12
472.216	842.12
472.435	1972.12
472.654	484.12
472.873	150.12
473.092	118.12
473.311	95.12
473.53	99.12
473.749	86.12
473.968	94.12
474.187	132.12
474.406	110.12
474.625	92.12
474.844	89.12
475.063	89.12
475.282	84.12
475.501	96.12
475.72	98.12
475.939	102.12
476.158	90.12
476.377	98.12
476.596	91.12
476.814	97.12
477.033	95.12
477.252	107.12
477.471	95.12
477.69	99.12
477.908	96.12
478.127	92.12
478.346	102.12
478.564	107.12
478.783	105.12
479.002	112.12
479.22	123.12
479.439	116.12
479.658	126.12
479.876	113.12
480.095	125.12
480.313	135.12
480.532	143.12
480.751	251.12
480.969	794.12
481.188	3413.12
481.406	1957.12
481.624	314.12
481.843	144.12
482.061	105.12
482.28	98.12
482.498	88.12
482.717	100.12
482.935	89.12
483.153	106.12
483.372	105.12
483.59	105.12
483.808	87.12
484.027	98.12
484.245	104.12
484.463	107.12
484.681	103.12
484.9	88.12
485.118	115.12
485.336	114.12
485.554	105.12
485.772	115.12
485.99	127.12
486.209	114.12
486.427	116.12
486.645	118.12
486.863	122.12
487.081	125.12
487.299	119.12
487.517	94.12
487.735	94.12
487.953	87.12
488.171	93.12
488.389	98.12
488.607	103.12
488.825	93.12
489.043	84.12
489.261	103.12
489.479	103.12
489.696	84.12
489.914	102.12
490.132	90.12
490.35	82.12
490.568	77.12
490.786	99.12
491.003	102.12
491.221	104.12
491.439	107.12
491.657	87.12
491.874	111.12
492.092	81.12
492.31	100.12
492.527	104.12
492.745	115.12
492.963	100.12
493.18	85.12
493.398	87.12
493.615	98.12
493.833	103.12
494.05	86.12
494.268	97.12
494.485	92.12
494.703	82.12
494.92	97.12
495.138	88.12
495.355	96.12
495.573	104.12
495.79	90.12
496.008	108.12
496.225	103.12
496.442	88.12
496.66	99.12
496.877	106.12
497.094	88.12
497.312	95.12
497.529	94.12
497.746	84.12
497.963	103.12
498.181	99.12
498.398	98.12
498.615	114.12
498.832	117.12
499.049	102.12
499.267	94.12
499.484	95.12
499.701	90.12
499.918	92.12
500.135	84.12
500.352	91.12
500.569	119.12
500.786	91.12
501.003	74.12
501.22	77.12
501.437	102.12
501.654	99.12
501.871	124.12
502.088	101.12
502.305	104.12
502.522	96.12
502.739	99.12
502.956	88.12
503.172	87.12
503.389	102.12
503.606	118.12
503.823	91.12
504.04	110.12
504.256	101.12
504.473	91.12
504.69	94.12
504.907	94.12
505.123	103.12
505.34	81.12
505.557	107.12
505.773	90.12
505.99	92.12
506.207	98.12
506.423	92.12
506.64	113.12
506.856	86.12
507.073	91.12
507.289	107.12
507.506	99.12
507.722	117.12
507.939	135.12
508.155	96.12
508.372	101.12
508.588	96.12
508.805	104.12
509.021	100.12
509.238	105.12
509.454	105.12
509.67	96.12
509.887	124.12
510.103	132.12
510.319	243.12
510.536	855.12
510.752	3033.12
510.968	801.12
511.184	174.12
511.401	123.12
511.617	109.12
511.833	108.12
512.049	99.12
512.265	93.12
512.481	108.12
