Data from Circ_1987_H10_HRD10591_00078.txt Node
Date: Wed Jan 03 12:10:48 EST 2024
User: Yrep
Spectrometer: HR+D1059
Trigger mode: 1
Integration Time (sec): 1.000000E-1
Scans to average: 1
Electric dark correction enabled: true
Nonlinearity correction enabled: false
Boxcar width: 0
XAxis mode: Wavelengths
Number of Pixels in Spectrum: 2048
>>>>>Begin Spectral Data<<<<<
223.165	-16.88
223.4	-16.88
223.635	-16.88
223.869	-3.88
224.104	-18.88
224.338	-28.88
224.573	-22.88
224.808	-4.88
225.042	-10.88
225.277	-2.88
225.511	-1.88
225.746	-0.88
225.98	30.12
226.215	4.12
226.449	16.12
226.683	19.12
226.918	21.12
227.152	22.12
227.387	50.12
227.621	46.12
227.856	42.12
228.09	43.12
228.324	47.12
228.559	43.12
228.793	59.12
229.027	52.12
229.262	71.12
229.496	80.12
229.73	87.12
229.964	81.12
230.199	83.12
230.433	64.12
230.667	91.12
230.901	83.12
231.136	77.12
231.37	75.12
231.604	84.12
231.838	98.12
232.072	78.12
232.306	86.12
232.541	82.12
232.775	77.12
233.009	66.12
233.243	88.12
233.477	91.12
233.711	82.12
233.945	88.12
234.179	94.12
234.413	83.12
234.647	95.12
234.881	93.12
235.115	75.12
235.349	85.12
235.583	85.12
235.817	72.12
236.051	66.12
236.285	81.12
236.519	67.12
236.753	90.12
236.987	77.12
237.221	86.12
237.455	81.12
237.689	87.12
237.922	82.12
238.156	81.12
238.39	70.12
238.624	74.12
238.858	65.12
239.091	80.12
239.325	86.12
239.559	89.12
239.793	86.12
240.027	77.12
240.26	90.12
240.494	91.12
240.728	100.12
240.961	67.12
241.195	70.12
241.429	84.12
241.662	81.12
241.896	73.12
242.13	74.12
242.363	91.12
242.597	77.12
242.83	77.12
243.064	80.12
243.298	65.12
243.531	95.12
243.765	85.12
243.998	87.12
244.232	84.12
244.465	77.12
244.699	89.12
244.932	85.12
245.166	70.12
245.399	71.12
245.633	75.12
245.866	79.12
246.099	79.12
246.333	82.12
246.566	85.12
246.8	85.12
247.033	68.12
247.266	79.12
247.5	79.12
247.733	69.12
247.966	81.12
248.2	79.12
248.433	86.12
248.666	75.12
248.899	71.12
249.133	82.12
249.366	116.12
249.599	102.12
249.832	74.12
250.066	90.12
250.299	86.12
250.532	91.12
250.765	99.12
250.998	89.12
251.231	86.12
251.465	81.12
251.698	94.12
251.931	91.12
252.164	89.12
252.397	94.12
252.63	86.12
252.863	94.12
253.096	94.12
253.329	89.12
253.562	72.12
253.795	69.12
254.028	99.12
254.261	70.12
254.494	89.12
254.727	89.12
254.96	84.12
255.193	85.12
255.426	73.12
255.659	70.12
255.892	108.12
256.124	102.12
256.357	82.12
256.59	99.12
256.823	82.12
257.056	93.12
257.289	108.12
257.521	95.12
257.754	91.12
257.987	98.12
258.22	97.12
258.452	83.12
258.685	101.12
258.918	87.12
259.151	82.12
259.383	70.12
259.616	88.12
259.849	79.12
260.081	90.12
260.314	85.12
260.547	92.12
260.779	109.12
261.012	88.12
261.244	116.12
261.477	110.12
261.71	82.12
261.942	134.12
262.175	129.12
262.407	111.12
262.64	90.12
262.872	93.12
263.105	90.12
263.337	87.12
263.57	85.12
263.802	86.12
264.035	81.12
264.267	69.12
264.499	72.12
264.732	76.12
264.964	63.12
265.197	83.12
265.429	83.12
265.661	78.12
265.894	95.12
266.126	87.12
266.358	95.12
266.591	98.12
266.823	69.12
267.055	82.12
267.287	69.12
267.52	77.12
267.752	97.12
267.984	88.12
268.216	84.12
268.448	79.12
268.681	103.12
268.913	90.12
269.145	77.12
269.377	92.12
269.609	93.12
269.841	74.12
270.073	89.12
270.306	70.12
270.538	82.12
270.77	85.12
271.002	85.12
271.234	83.12
271.466	86.12
271.698	87.12
271.93	84.12
272.162	93.12
272.394	97.12
272.626	88.12
272.858	96.12
273.09	80.12
273.322	78.12
273.553	89.12
273.785	81.12
274.017	85.12
274.249	82.12
274.481	99.12
274.713	91.12
274.945	97.12
275.176	94.12
275.408	112.12
275.64	111.12
275.872	116.12
276.104	100.12
276.335	83.12
276.567	125.12
276.799	143.12
277.031	161.12
277.262	199.12
277.494	163.12
277.726	97.12
277.957	92.12
278.189	96.12
278.421	97.12
278.652	96.12
278.884	92.12
279.115	86.12
279.347	101.12
279.579	102.12
279.81	127.12
280.042	187.12
280.273	260.12
280.505	191.12
280.736	110.12
280.968	87.12
281.199	88.12
281.431	105.12
281.662	89.12
281.894	97.12
282.125	113.12
282.356	126.12
282.588	176.12
282.819	121.12
283.051	85.12
283.282	93.12
283.513	93.12
283.745	86.12
283.976	89.12
284.207	97.12
284.439	109.12
284.67	90.12
284.901	85.12
285.132	85.12
285.364	80.12
285.595	97.12
285.826	92.12
286.057	71.12
286.288	79.12
286.52	91.12
286.751	101.12
286.982	74.12
287.213	100.12
287.444	99.12
287.675	100.12
287.906	90.12
288.138	94.12
288.369	80.12
288.6	80.12
288.831	94.12
289.062	83.12
289.293	78.12
289.524	85.12
289.755	84.12
289.986	93.12
290.217	78.12
290.448	90.12
290.679	93.12
290.91	92.12
291.141	81.12
291.371	94.12
291.602	93.12
291.833	91.12
292.064	85.12
292.295	85.12
292.526	81.12
292.757	90.12
292.987	85.12
293.218	65.12
293.449	85.12
293.68	73.12
293.91	86.12
294.141	92.12
294.372	75.12
294.603	83.12
294.833	102.12
295.064	80.12
295.295	101.12
295.525	102.12
295.756	98.12
295.987	135.12
296.217	170.12
296.448	130.12
296.679	82.12
296.909	94.12
297.14	104.12
297.37	89.12
297.601	81.12
297.831	83.12
298.062	102.12
298.292	106.12
298.523	82.12
298.753	83.12
298.984	90.12
299.214	77.12
299.445	99.12
299.675	93.12
299.905	100.12
300.136	98.12
300.366	88.12
300.597	85.12
300.827	97.12
301.057	102.12
301.288	110.12
301.518	89.12
301.748	105.12
301.979	107.12
302.209	102.12
302.439	96.12
302.669	98.12
302.9	84.12
303.13	105.12
303.36	107.12
303.59	127.12
303.82	146.12
304.051	99.12
304.281	95.12
304.511	107.12
304.741	99.12
304.971	83.12
305.201	87.12
305.431	93.12
305.661	99.12
305.891	89.12
306.121	99.12
306.352	104.12
306.582	108.12
306.812	118.12
307.042	121.12
307.272	148.12
307.502	179.12
307.731	152.12
307.961	121.12
308.191	84.12
308.421	92.12
308.651	97.12
308.881	96.12
309.111	104.12
309.341	106.12
309.571	121.12
309.8	105.12
310.03	112.12
310.26	123.12
310.49	93.12
310.72	112.12
310.949	120.12
311.179	111.12
311.409	107.12
311.639	99.12
311.868	107.12
312.098	112.12
312.328	99.12
312.557	116.12
312.787	133.12
313.017	117.12
313.246	98.12
313.476	90.12
313.706	105.12
313.935	107.12
314.165	108.12
314.394	127.12
314.624	111.12
314.853	98.12
315.083	103.12
315.312	80.12
315.542	83.12
315.771	94.12
316.001	99.12
316.23	97.12
316.46	101.12
316.689	99.12
316.919	101.12
317.148	99.12
317.377	99.12
317.607	107.12
317.836	90.12
318.065	94.12
318.295	93.12
318.524	78.12
318.753	87.12
318.983	107.12
319.212	107.12
319.441	110.12
319.67	103.12
319.9	86.12
320.129	98.12
320.358	94.12
320.587	111.12
320.816	103.12
321.046	101.12
321.275	99.12
321.504	98.12
321.733	96.12
321.962	112.12
322.191	102.12
322.42	119.12
322.649	116.12
322.878	118.12
323.108	119.12
323.337	137.12
323.566	147.12
323.795	170.12
324.024	223.12
324.253	415.12
324.482	855.12
324.71	1760.12
324.939	2331.12
325.168	878.12
325.397	267.12
325.626	152.12
325.855	130.12
326.084	142.12
326.313	138.12
326.542	160.12
326.77	245.12
326.999	465.12
327.228	875.12
327.457	1665.12
327.686	1356.12
327.914	502.12
328.143	528.12
328.372	673.12
328.6	365.12
328.829	199.12
329.058	193.12
329.287	192.12
329.515	181.12
329.744	253.12
329.972	479.12
330.201	1000.12
330.43	1421.12
330.658	634.12
330.887	314.12
331.115	205.12
331.344	130.12
331.572	139.12
331.801	130.12
332.03	141.12
332.258	131.12
332.486	110.12
332.715	109.12
332.943	97.12
333.172	114.12
333.4	137.12
333.629	151.12
333.857	233.12
334.085	437.12
334.314	898.12
334.542	1783.12
334.771	1689.12
334.999	427.12
335.227	181.12
335.455	131.12
335.684	100.12
335.912	107.12
336.14	120.12
336.369	107.12
336.597	103.12
336.825	112.12
337.053	99.12
337.281	87.12
337.51	91.12
337.738	93.12
337.966	95.12
338.194	100.12
338.422	103.12
338.65	102.12
338.878	107.12
339.106	97.12
339.334	107.12
339.562	106.12
339.79	112.12
340.018	104.12
340.246	102.12
340.474	111.12
340.702	106.12
340.93	94.12
341.158	107.12
341.386	110.12
341.614	115.12
341.842	111.12
342.07	104.12
342.298	93.12
342.526	104.12
342.754	84.12
342.981	89.12
343.209	99.12
343.437	103.12
343.665	88.12
343.893	108.12
344.12	90.12
344.348	102.12
344.576	101.12
344.804	98.12
345.031	102.12
345.259	115.12
345.487	94.12
345.714	92.12
345.942	88.12
346.17	85.12
346.397	88.12
346.625	104.12
346.853	91.12
347.08	89.12
347.308	104.12
347.535	112.12
347.763	113.12
347.99	104.12
348.218	112.12
348.445	116.12
348.673	117.12
348.9	98.12
349.128	98.12
349.355	92.12
349.583	109.12
349.81	83.12
350.037	97.12
350.265	98.12
350.492	100.12
350.72	95.12
350.947	124.12
351.174	121.12
351.402	121.12
351.629	107.12
351.856	114.12
352.083	114.12
352.311	127.12
352.538	136.12
352.765	122.12
352.992	115.12
353.22	137.12
353.447	112.12
353.674	107.12
353.901	93.12
354.128	93.12
354.355	103.12
354.583	110.12
354.81	109.12
355.037	114.12
355.264	91.12
355.491	82.12
355.718	93.12
355.945	84.12
356.172	91.12
356.399	93.12
356.626	97.12
356.853	83.12
357.08	91.12
357.307	92.12
357.534	84.12
357.761	93.12
357.988	97.12
358.215	92.12
358.441	101.12
358.668	78.12
358.895	85.12
359.122	109.12
359.349	97.12
359.576	105.12
359.802	121.12
360.029	153.12
360.256	146.12
360.483	131.12
360.709	97.12
360.936	97.12
361.163	102.12
361.39	96.12
361.616	111.12
361.843	73.12
362.07	97.12
362.296	120.12
362.523	95.12
362.749	110.12
362.976	102.12
363.203	103.12
363.429	99.12
363.656	84.12
363.882	91.12
364.109	91.12
364.335	97.12
364.562	91.12
364.788	86.12
365.015	99.12
365.241	106.12
365.468	126.12
365.694	119.12
365.92	109.12
366.147	90.12
366.373	94.12
366.599	97.12
366.826	99.12
367.052	79.12
367.278	110.12
367.505	96.12
367.731	86.12
367.957	105.12
368.184	103.12
368.41	100.12
368.636	130.12
368.862	123.12
369.089	119.12
369.315	104.12
369.541	91.12
369.767	94.12
369.993	101.12
370.219	108.12
370.445	85.12
370.672	90.12
370.898	78.12
371.124	85.12
371.35	77.12
371.576	86.12
371.802	91.12
372.028	94.12
372.254	88.12
372.48	99.12
372.706	88.12
372.932	87.12
373.158	88.12
373.384	101.12
373.61	102.12
373.835	90.12
374.061	81.12
374.287	101.12
374.513	92.12
374.739	95.12
374.965	106.12
375.191	89.12
375.416	74.12
375.642	89.12
375.868	97.12
376.094	87.12
376.319	102.12
376.545	93.12
376.771	82.12
376.997	108.12
377.222	92.12
377.448	84.12
377.674	93.12
377.899	90.12
378.125	90.12
378.35	88.12
378.576	93.12
378.802	96.12
379.027	96.12
379.253	83.12
379.478	94.12
379.704	96.12
379.929	97.12
380.155	103.12
380.38	102.12
380.606	96.12
380.831	87.12
381.057	105.12
381.282	84.12
381.507	79.12
381.733	94.12
381.958	100.12
382.184	95.12
382.409	110.12
382.634	97.12
382.86	93.12
383.085	96.12
383.31	91.12
383.535	95.12
383.761	94.12
383.986	107.12
384.211	93.12
384.436	87.12
384.662	112.12
384.887	90.12
385.112	119.12
385.337	112.12
385.562	108.12
385.787	105.12
386.013	115.12
386.238	104.12
386.463	120.12
386.688	107.12
386.913	94.12
387.138	111.12
387.363	124.12
387.588	103.12
387.813	86.12
388.038	109.12
388.263	101.12
388.488	94.12
388.713	84.12
388.938	90.12
389.163	93.12
389.387	90.12
389.612	87.12
389.837	100.12
390.062	101.12
390.287	89.12
390.512	89.12
390.736	74.12
390.961	95.12
391.186	89.12
391.411	93.12
391.636	80.12
391.86	83.12
392.085	79.12
392.31	78.12
392.534	80.12
392.759	99.12
392.984	95.12
393.208	91.12
393.433	85.12
393.658	97.12
393.882	84.12
394.107	90.12
394.331	103.12
394.556	83.12
394.78	89.12
395.005	82.12
395.229	98.12
395.454	78.12
395.678	96.12
395.903	77.12
396.127	91.12
396.352	88.12
396.576	89.12
396.801	81.12
397.025	93.12
397.249	81.12
397.474	85.12
397.698	101.12
397.922	86.12
398.147	94.12
398.371	80.12
398.595	74.12
398.82	78.12
399.044	77.12
399.268	73.12
399.492	80.12
399.717	91.12
399.941	96.12
400.165	91.12
400.389	100.12
400.613	85.12
400.837	96.12
401.062	81.12
401.286	111.12
401.51	89.12
401.734	104.12
401.958	115.12
402.182	132.12
402.406	189.12
402.63	152.12
402.854	115.12
403.078	101.12
403.302	95.12
403.526	94.12
403.75	77.12
403.974	96.12
404.198	94.12
404.422	85.12
404.645	106.12
404.869	118.12
405.093	127.12
405.317	138.12
405.541	145.12
405.765	120.12
405.988	133.12
406.212	219.12
406.436	295.12
406.66	216.12
406.883	120.12
407.107	106.12
407.331	93.12
407.555	112.12
407.778	105.12
408.002	93.12
408.226	98.12
408.449	98.12
408.673	102.12
408.896	91.12
409.12	102.12
409.344	90.12
409.567	75.12
409.791	79.12
410.014	96.12
410.238	98.12
410.461	105.12
410.685	90.12
410.908	120.12
411.132	101.12
411.355	115.12
411.578	99.12
411.802	92.12
412.025	97.12
412.249	94.12
412.472	115.12
412.695	132.12
412.919	110.12
413.142	103.12
413.365	103.12
413.589	91.12
413.812	84.12
414.035	97.12
414.258	95.12
414.482	100.12
414.705	97.12
414.928	104.12
415.151	102.12
415.374	101.12
415.597	93.12
415.821	93.12
416.044	96.12
416.267	91.12
416.49	89.12
416.713	82.12
416.936	98.12
417.159	101.12
417.382	93.12
417.605	102.12
417.828	105.12
418.051	104.12
418.274	92.12
418.497	92.12
418.72	99.12
418.943	93.12
419.166	90.12
419.389	99.12
419.611	87.12
419.834	80.12
420.057	106.12
420.28	106.12
420.503	90.12
420.726	87.12
420.948	97.12
421.171	111.12
421.394	87.12
421.617	74.12
421.839	93.12
422.062	93.12
422.285	98.12
422.507	93.12
422.73	120.12
422.953	96.12
423.175	95.12
423.398	90.12
423.621	96.12
423.843	101.12
424.066	85.12
424.288	108.12
424.511	100.12
424.733	99.12
424.956	122.12
425.178	114.12
425.401	121.12
425.623	108.12
425.846	101.12
426.068	86.12
426.291	88.12
426.513	89.12
426.735	111.12
426.958	100.12
427.18	122.12
427.402	178.12
427.625	243.12
427.847	259.12
428.069	206.12
428.292	120.12
428.514	91.12
428.736	89.12
428.958	85.12
429.181	89.12
429.403	87.12
429.625	97.12
429.847	104.12
430.069	115.12
430.292	102.12
430.514	102.12
430.736	91.12
430.958	75.12
431.18	85.12
431.402	85.12
431.624	82.12
431.846	84.12
432.068	93.12
432.29	93.12
432.512	81.12
432.734	94.12
432.956	93.12
433.178	113.12
433.4	112.12
433.622	91.12
433.844	75.12
434.066	95.12
434.287	84.12
434.509	101.12
434.731	99.12
434.953	100.12
435.175	83.12
435.397	78.12
435.618	96.12
435.84	118.12
436.062	145.12
436.284	132.12
436.505	93.12
436.727	112.12
436.949	93.12
437.17	86.12
437.392	86.12
437.614	91.12
437.835	144.12
438.057	154.12
438.278	148.12
438.5	118.12
438.721	150.12
438.943	108.12
439.165	98.12
439.386	84.12
439.608	82.12
439.829	106.12
440.05	143.12
440.272	189.12
440.493	100.12
440.715	95.12
440.936	95.12
441.158	104.12
441.379	92.12
441.6	106.12
441.822	105.12
442.043	104.12
442.264	115.12
442.486	114.12
442.707	103.12
442.928	132.12
443.149	177.12
443.371	171.12
443.592	134.12
443.813	121.12
444.034	135.12
444.255	82.12
444.476	85.12
444.698	91.12
444.919	93.12
445.14	137.12
445.361	116.12
445.582	133.12
445.803	171.12
446.024	161.12
446.245	162.12
446.466	126.12
446.687	102.12
446.908	98.12
447.129	99.12
447.35	105.12
447.571	107.12
447.792	97.12
448.013	102.12
448.234	118.12
448.455	118.12
448.675	130.12
448.896	131.12
449.117	119.12
449.338	105.12
449.559	141.12
449.779	159.12
450	94.12
450.221	90.12
450.442	94.12
450.662	111.12
450.883	133.12
451.104	155.12
451.324	98.12
451.545	90.12
451.766	97.12
451.986	93.12
452.207	97.12
452.428	88.12
452.648	109.12
452.869	119.12
453.089	154.12
453.31	123.12
453.53	103.12
453.751	100.12
453.971	105.12
454.192	131.12
454.412	106.12
454.633	84.12
454.853	103.12
455.073	103.12
455.294	87.12
455.514	113.12
455.734	98.12
455.955	93.12
456.175	90.12
456.395	93.12
456.616	90.12
456.836	84.12
457.056	80.12
457.276	82.12
457.497	91.12
457.717	94.12
457.937	84.12
458.157	94.12
458.377	100.12
458.598	132.12
458.818	225.12
459.038	234.12
459.258	151.12
459.478	117.12
459.698	91.12
459.918	92.12
460.138	101.12
460.358	82.12
460.578	96.12
460.798	83.12
461.018	85.12
461.238	77.12
461.458	96.12
461.678	90.12
461.898	88.12
462.118	85.12
462.338	104.12
462.558	79.12
462.777	85.12
462.997	101.12
463.217	103.12
463.437	94.12
463.657	96.12
463.876	98.12
464.096	100.12
464.316	92.12
464.536	103.12
464.755	90.12
464.975	128.12
465.195	247.12
465.414	245.12
465.634	97.12
465.854	87.12
466.073	97.12
466.293	93.12
466.512	85.12
466.732	93.12
466.951	91.12
467.171	96.12
467.391	114.12
467.61	162.12
467.829	213.12
468.049	563.12
468.268	825.12
468.488	213.12
468.707	117.12
468.927	92.12
469.146	92.12
469.365	91.12
469.585	74.12
469.804	112.12
470.023	130.12
470.243	95.12
470.462	123.12
470.681	149.12
470.901	100.12
471.12	105.12
471.339	110.12
471.558	119.12
471.777	163.12
471.997	299.12
472.216	1055.12
472.435	2479.12
472.654	576.12
472.873	165.12
473.092	101.12
473.311	90.12
473.53	94.12
473.749	93.12
473.968	113.12
474.187	137.12
474.406	111.12
474.625	94.12
474.844	88.12
475.063	88.12
475.282	85.12
475.501	82.12
475.72	97.12
475.939	85.12
476.158	100.12
476.377	86.12
476.596	68.12
476.814	96.12
477.033	101.12
477.252	105.12
477.471	107.12
477.69	96.12
477.908	87.12
478.127	90.12
478.346	102.12
478.564	86.12
478.783	113.12
479.002	106.12
479.22	106.12
479.439	129.12
479.658	130.12
479.876	133.12
480.095	120.12
480.313	134.12
480.532	169.12
480.751	280.12
480.969	942.12
481.188	4257.12
481.406	2431.12
481.624	365.12
481.843	131.12
482.061	126.12
482.28	91.12
482.498	103.12
482.717	93.12
482.935	111.12
483.153	107.12
483.372	81.12
483.59	89.12
483.808	100.12
484.027	87.12
484.245	81.12
484.463	108.12
484.681	116.12
484.9	102.12
485.118	86.12
485.336	107.12
485.554	93.12
485.772	99.12
485.99	94.12
486.209	102.12
486.427	121.12
486.645	138.12
486.863	131.12
487.081	105.12
487.299	101.12
487.517	107.12
487.735	106.12
487.953	81.12
488.171	110.12
488.389	85.12
488.607	104.12
488.825	100.12
489.043	101.12
489.261	98.12
489.479	100.12
489.696	86.12
489.914	74.12
490.132	96.12
490.35	93.12
490.568	103.12
490.786	100.12
491.003	94.12
491.221	89.12
491.439	98.12
491.657	87.12
491.874	85.12
492.092	85.12
492.31	100.12
492.527	104.12
492.745	89.12
492.963	87.12
493.18	109.12
493.398	86.12
493.615	107.12
493.833	94.12
494.05	86.12
494.268	103.12
494.485	85.12
494.703	89.12
494.92	91.12
495.138	85.12
495.355	109.12
495.573	93.12
495.79	85.12
496.008	81.12
496.225	93.12
496.442	106.12
496.66	93.12
496.877	87.12
497.094	102.12
497.312	84.12
497.529	83.12
497.746	110.12
497.963	96.12
498.181	93.12
498.398	97.12
498.615	117.12
498.832	98.12
499.049	87.12
499.267	89.12
499.484	94.12
499.701	107.12
499.918	89.12
500.135	90.12
500.352	101.12
500.569	107.12
500.786	101.12
501.003	95.12
501.22	86.12
501.437	98.12
501.654	111.12
501.871	124.12
502.088	101.12
502.305	89.12
502.522	101.12
502.739	95.12
502.956	89.12
503.172	93.12
503.389	100.12
503.606	119.12
503.823	124.12
504.04	101.12
504.256	102.12
504.473	94.12
504.69	94.12
504.907	95.12
505.123	94.12
505.34	87.12
505.557	93.12
505.773	93.12
505.99	76.12
506.207	81.12
506.423	78.12
506.64	92.12
506.856	84.12
507.073	90.12
507.289	88.12
507.506	110.12
507.722	113.12
507.939	130.12
508.155	97.12
508.372	97.12
508.588	112.12
508.805	93.12
509.021	101.12
509.238	116.12
509.454	109.12
509.67	102.12
509.887	107.12
510.103	152.12
510.319	234.12
510.536	880.12
510.752	3140.12
510.968	831.12
511.184	168.12
511.401	132.12
511.617	113.12
511.833	115.12
512.049	114.12
512.265	95.12
512.481	105.12
