Data from Circ_1987_H10_HRD10591_00002.txt Node
Date: Wed Jan 03 12:10:33 EST 2024
User: Yrep
Spectrometer: HR+D1059
Trigger mode: 1
Integration Time (sec): 1.000000E-1
Scans to average: 1
Electric dark correction enabled: true
Nonlinearity correction enabled: false
Boxcar width: 0
XAxis mode: Wavelengths
Number of Pixels in Spectrum: 2048
>>>>>Begin Spectral Data<<<<<
223.165	-15
223.4	-15
223.635	-15
223.869	-17
224.104	-30
224.338	-10
224.573	-15
224.808	-22
225.042	-19
225.277	2
225.511	-11
225.746	8
225.98	7
226.215	12
226.449	21
226.683	21
226.918	40
227.152	28
227.387	35
227.621	35
227.856	56
228.09	40
228.324	38
228.559	53
228.793	60
229.027	46
229.262	61
229.496	81
229.73	78
229.964	90
230.199	70
230.433	83
230.667	69
230.901	79
231.136	86
231.37	69
231.604	84
231.838	90
232.072	74
232.306	74
232.541	77
232.775	75
233.009	90
233.243	92
233.477	80
233.711	80
233.945	74
234.179	95
234.413	78
234.647	89
234.881	77
235.115	83
235.349	71
235.583	62
235.817	69
236.051	65
236.285	75
236.519	79
236.753	72
236.987	78
237.221	94
237.455	85
237.689	72
237.922	70
238.156	80
238.39	78
238.624	77
238.858	75
239.091	76
239.325	76
239.559	98
239.793	79
240.027	78
240.26	75
240.494	86
240.728	69
240.961	64
241.195	71
241.429	68
241.662	71
241.896	82
242.13	71
242.363	84
242.597	67
242.83	66
243.064	89
243.298	78
243.531	83
243.765	79
243.998	66
244.232	82
244.465	74
244.699	83
244.932	74
245.166	74
245.399	72
245.633	76
245.866	88
246.099	96
246.333	72
246.566	66
246.8	87
247.033	75
247.266	83
247.5	80
247.733	72
247.966	83
248.2	76
248.433	81
248.666	76
248.899	72
249.133	90
249.366	115
249.599	87
249.832	71
250.066	76
250.299	81
250.532	83
250.765	76
250.998	79
251.231	70
251.465	74
251.698	74
251.931	85
252.164	85
252.397	77
252.63	68
252.863	78
253.096	80
253.329	83
253.562	78
253.795	88
254.028	74
254.261	79
254.494	71
254.727	90
254.96	74
255.193	75
255.426	84
255.659	87
255.892	79
256.124	88
256.357	81
256.59	90
256.823	75
257.056	76
257.289	85
257.521	84
257.754	76
257.987	83
258.22	97
258.452	91
258.685	81
258.918	85
259.151	86
259.383	82
259.616	83
259.849	75
260.081	77
260.314	87
260.547	83
260.779	92
261.012	105
261.244	74
261.477	87
261.71	86
261.942	115
262.175	127
262.407	90
262.64	104
262.872	91
263.105	82
263.337	92
263.57	78
263.802	80
264.035	83
264.267	85
264.499	75
264.732	82
264.964	88
265.197	80
265.429	93
265.661	82
265.894	76
266.126	76
266.358	81
266.591	94
266.823	81
267.055	78
267.287	90
267.52	87
267.752	92
267.984	86
268.216	87
268.448	100
268.681	65
268.913	90
269.145	91
269.377	86
269.609	70
269.841	80
270.073	68
270.306	97
270.538	76
270.77	79
271.002	84
271.234	97
271.466	94
271.698	93
271.93	69
272.162	75
272.394	76
272.626	81
272.858	84
273.09	88
273.322	94
273.553	86
273.785	80
274.017	72
274.249	74
274.481	85
274.713	85
274.945	102
275.176	85
275.408	82
275.64	109
275.872	111
276.104	90
276.335	98
276.567	117
276.799	126
277.031	128
277.262	142
277.494	107
277.726	90
277.957	74
278.189	82
278.421	86
278.652	89
278.884	86
279.115	80
279.347	90
279.579	87
279.81	99
280.042	144
280.273	158
280.505	127
280.736	84
280.968	91
281.199	78
281.431	98
281.662	86
281.894	86
282.125	102
282.356	127
282.588	146
282.819	128
283.051	88
283.282	90
283.513	92
283.745	71
283.976	99
284.207	94
284.439	85
284.67	80
284.901	84
285.132	87
285.364	78
285.595	92
285.826	90
286.057	94
286.288	83
286.52	87
286.751	70
286.982	80
287.213	84
287.444	80
287.675	85
287.906	80
288.138	79
288.369	91
288.6	90
288.831	86
289.062	92
289.293	93
289.524	91
289.755	98
289.986	80
290.217	78
290.448	95
290.679	74
290.91	78
291.141	94
291.371	86
291.602	95
291.833	76
292.064	92
292.295	101
292.526	89
292.757	98
292.987	89
293.218	103
293.449	84
293.68	88
293.91	80
294.141	76
294.372	103
294.603	76
294.833	74
295.064	85
295.295	85
295.525	97
295.756	94
295.987	118
296.217	138
296.448	133
296.679	103
296.909	91
297.14	72
297.37	78
297.601	92
297.831	93
298.062	99
298.292	80
298.523	74
298.753	81
298.984	93
299.214	89
299.445	93
299.675	99
299.905	101
300.136	104
300.366	85
300.597	96
300.827	103
301.057	100
301.288	117
301.518	97
301.748	94
301.979	104
302.209	90
302.439	90
302.669	75
302.9	85
303.13	86
303.36	91
303.59	119
303.82	117
304.051	90
304.281	74
304.511	95
304.741	90
304.971	86
305.201	106
305.431	96
305.661	94
305.891	87
306.121	96
306.352	110
306.582	99
306.812	108
307.042	126
307.272	143
307.502	123
307.731	131
307.961	111
308.191	93
308.421	89
308.651	93
308.881	96
309.111	83
309.341	96
309.571	95
309.8	102
310.03	99
310.26	98
310.49	97
310.72	88
310.949	113
311.179	111
311.409	104
311.639	93
311.868	116
312.098	92
312.328	92
312.557	111
312.787	111
313.017	106
313.246	94
313.476	92
313.706	95
313.935	99
314.165	101
314.394	107
314.624	97
314.853	83
315.083	94
315.312	87
315.542	94
315.771	93
316.001	92
316.23	93
316.46	85
316.689	80
316.919	88
317.148	92
317.377	83
317.607	92
317.836	104
318.065	92
318.295	92
318.524	83
318.753	99
318.983	103
319.212	104
319.441	112
319.67	112
319.9	95
320.129	88
320.358	97
320.587	103
320.816	84
321.046	99
321.275	96
321.504	103
321.733	110
321.962	116
322.191	108
322.42	106
322.649	123
322.878	108
323.108	128
323.337	132
323.566	138
323.795	160
324.024	213
324.253	391
324.482	801
324.71	1666
324.939	2230
325.168	828
325.397	229
325.626	146
325.855	132
326.084	119
326.313	139
326.542	156
326.77	227
326.999	422
327.228	876
327.457	1612
327.686	1296
327.914	411
328.143	341
328.372	405
328.6	244
328.829	151
329.058	155
329.287	164
329.515	144
329.744	180
329.972	273
330.201	559
330.43	814
330.658	392
330.887	209
331.115	170
331.344	131
331.572	103
331.801	100
332.03	129
332.258	119
332.486	87
332.715	95
332.943	120
333.172	108
333.4	101
333.629	132
333.857	167
334.085	276
334.314	491
334.542	995
334.771	945
334.999	279
335.227	113
335.455	106
335.684	105
335.912	93
336.14	107
336.369	100
336.597	98
336.825	100
337.053	100
337.281	87
337.51	89
337.738	86
337.966	105
338.194	98
338.422	104
338.65	95
338.878	83
339.106	94
339.334	84
339.562	95
339.79	101
340.018	96
340.246	86
340.474	86
340.702	97
340.93	89
341.158	85
341.386	116
341.614	102
341.842	97
342.07	86
342.298	100
342.526	92
342.754	84
342.981	100
343.209	90
343.437	101
343.665	88
343.893	79
344.12	77
344.348	82
344.576	95
344.804	82
345.031	89
345.259	100
345.487	95
345.714	100
345.942	110
346.17	87
346.397	95
346.625	95
346.853	93
347.08	101
347.308	80
347.535	99
347.763	114
347.99	80
348.218	94
348.445	111
348.673	99
348.9	85
349.128	103
349.355	85
349.583	88
349.81	70
350.037	107
350.265	101
350.492	95
350.72	94
350.947	103
351.174	107
351.402	120
351.629	115
351.856	111
352.083	109
352.311	103
352.538	128
352.765	118
352.992	116
353.22	102
353.447	110
353.674	93
353.901	102
354.128	82
354.355	94
354.583	98
354.81	105
355.037	92
355.264	76
355.491	95
355.718	90
355.945	89
356.172	94
356.399	103
356.626	93
356.853	98
357.08	95
357.307	70
357.534	84
357.761	95
357.988	99
358.215	100
358.441	105
358.668	111
358.895	89
359.122	94
359.349	87
359.576	100
359.802	121
360.029	131
360.256	125
360.483	120
360.709	83
360.936	88
361.163	101
361.39	104
361.616	100
361.843	74
362.07	96
362.296	107
362.523	100
362.749	82
362.976	97
363.203	98
363.429	91
363.656	93
363.882	89
364.109	78
364.335	97
364.562	89
364.788	94
365.015	109
365.241	117
365.468	103
365.694	118
365.92	101
366.147	94
366.373	109
366.599	96
366.826	86
367.052	79
367.278	113
367.505	90
367.731	92
367.957	101
368.184	106
368.41	114
368.636	103
368.862	132
369.089	101
369.315	91
369.541	91
369.767	98
369.993	106
370.219	88
370.445	86
370.672	86
370.898	77
371.124	95
371.35	91
371.576	87
371.802	82
372.028	85
372.254	87
372.48	90
372.706	88
372.932	75
373.158	100
373.384	80
373.61	93
373.835	94
374.061	86
374.287	96
374.513	93
374.739	91
374.965	95
375.191	76
375.416	88
375.642	96
375.868	80
376.094	90
376.319	75
376.545	77
376.771	84
376.997	91
377.222	91
377.448	99
377.674	101
377.899	103
378.125	84
378.35	77
378.576	98
378.802	71
379.027	97
379.253	94
379.478	97
379.704	100
379.929	98
380.155	93
380.38	91
380.606	92
380.831	92
381.057	114
381.282	96
381.507	90
381.733	114
381.958	104
382.184	109
382.409	99
382.634	109
382.86	115
383.085	94
383.31	109
383.535	108
383.761	103
383.986	105
384.211	101
384.436	107
384.662	104
384.887	104
385.112	123
385.337	119
385.562	114
385.787	128
386.013	123
386.238	131
386.463	127
386.688	123
386.913	115
387.138	119
387.363	119
387.588	110
387.813	107
388.038	124
388.263	131
388.488	120
388.713	96
388.938	93
389.163	86
389.387	76
389.612	89
389.837	89
390.062	87
390.287	76
390.512	91
390.736	86
390.961	90
391.186	94
391.411	86
391.636	88
391.86	85
392.085	90
392.31	90
392.534	88
392.759	88
392.984	98
393.208	102
393.433	106
393.658	119
393.882	85
394.107	99
394.331	83
394.556	83
394.78	86
395.005	82
395.229	82
395.454	93
395.678	90
395.903	85
396.127	91
396.352	85
396.576	83
396.801	86
397.025	92
397.249	90
397.474	94
397.698	90
397.922	76
398.147	85
398.371	77
398.595	79
398.82	79
399.044	83
399.268	77
399.492	95
399.717	97
399.941	87
400.165	107
400.389	88
400.613	92
400.837	79
401.062	78
401.286	98
401.51	99
401.734	97
401.958	107
402.182	123
402.406	162
402.63	133
402.854	94
403.078	94
403.302	81
403.526	81
403.75	86
403.974	93
404.198	86
404.422	100
404.645	87
404.869	101
405.093	108
405.317	126
405.541	114
405.765	114
405.988	138
406.212	198
406.436	267
406.66	168
406.883	110
407.107	96
407.331	88
407.555	86
407.778	97
408.002	90
408.226	83
408.449	83
408.673	86
408.896	97
409.12	89
409.344	97
409.567	89
409.791	89
410.014	109
410.238	95
410.461	98
410.685	87
410.908	107
411.132	101
411.355	96
411.578	101
411.802	83
412.025	89
412.249	111
412.472	103
412.695	111
412.919	109
413.142	100
413.365	77
413.589	95
413.812	95
414.035	92
414.258	94
414.482	82
414.705	97
414.928	93
415.151	112
415.374	96
415.597	86
415.821	102
416.044	78
416.267	83
416.49	90
416.713	93
416.936	71
417.159	92
417.382	94
417.605	86
417.828	103
418.051	103
418.274	85
418.497	94
418.72	79
418.943	76
419.166	96
419.389	100
419.611	92
419.834	94
420.057	83
420.28	99
420.503	84
420.726	88
420.948	87
421.171	95
421.394	100
421.617	104
421.839	90
422.062	70
422.285	103
422.507	94
422.73	120
422.953	103
423.175	100
423.398	89
423.621	100
423.843	84
424.066	88
424.288	70
424.511	94
424.733	97
424.956	122
425.178	99
425.401	93
425.623	119
425.846	90
426.068	95
426.291	94
426.513	89
426.735	100
426.958	86
427.18	109
427.402	151
427.625	208
427.847	198
428.069	165
428.292	111
428.514	87
428.736	94
428.958	83
429.181	91
429.403	88
429.625	91
429.847	83
430.069	107
430.292	103
430.514	79
430.736	89
430.958	85
431.18	90
431.402	97
431.624	81
431.846	83
432.068	89
432.29	77
432.512	75
432.734	69
432.956	99
433.178	103
433.4	90
433.622	90
433.844	90
434.066	103
434.287	92
434.509	98
434.731	98
434.953	74
435.175	95
435.397	89
435.618	82
435.84	95
436.062	125
436.284	124
436.505	104
436.727	114
436.949	95
437.17	96
437.392	104
437.614	85
437.835	107
438.057	138
438.278	116
438.5	94
438.721	127
438.943	87
439.165	89
439.386	108
439.608	97
439.829	105
440.05	133
440.272	182
440.493	102
440.715	90
440.936	86
441.158	100
441.379	96
441.6	98
441.822	78
442.043	91
442.264	108
442.486	90
442.707	88
442.928	129
443.149	162
443.371	156
443.592	138
443.813	130
444.034	112
444.255	80
444.476	78
444.698	94
444.919	97
445.14	108
445.361	115
445.582	115
445.803	157
446.024	148
446.245	131
446.466	114
446.687	84
446.908	83
447.129	76
447.35	93
447.571	100
447.792	110
448.013	105
448.234	102
448.455	103
448.675	112
448.896	112
449.117	107
449.338	100
449.559	132
449.779	136
450	101
450.221	76
450.442	91
450.662	104
450.883	114
451.104	112
451.324	93
451.545	76
451.766	88
451.986	80
452.207	85
452.428	100
452.648	98
452.869	113
453.089	110
453.31	133
453.53	104
453.751	88
453.971	119
454.192	118
454.412	108
454.633	91
454.853	104
455.073	85
455.294	80
455.514	112
455.734	75
455.955	90
456.175	66
456.395	93
456.616	78
456.836	80
457.056	88
457.276	84
457.497	96
457.717	82
457.937	85
458.157	92
458.377	100
458.598	99
458.818	188
459.038	211
459.258	138
459.478	94
459.698	82
459.918	80
460.138	85
460.358	78
460.578	75
460.798	102
461.018	74
461.238	91
461.458	86
461.678	75
461.898	79
462.118	83
462.338	78
462.558	98
462.777	96
462.997	94
463.217	86
463.437	93
463.657	98
463.876	71
464.096	96
464.316	99
464.536	79
464.755	104
464.975	114
465.195	190
465.414	218
465.634	105
465.854	83
466.073	109
466.293	76
466.512	99
466.732	89
466.951	92
467.171	97
467.391	117
467.61	118
467.829	141
468.049	296
468.268	462
468.488	154
468.707	97
468.927	87
469.146	80
469.365	90
469.585	92
469.804	95
470.023	92
470.243	101
470.462	118
470.681	128
470.901	101
471.12	98
471.339	74
471.558	94
471.777	124
471.997	192
472.216	612
472.435	1368
472.654	350
472.873	119
473.092	108
473.311	78
473.53	100
473.749	82
473.968	102
474.187	112
474.406	99
474.625	82
474.844	91
475.063	88
475.282	87
475.501	93
475.72	83
475.939	88
476.158	91
476.377	83
476.596	95
476.814	98
477.033	93
477.252	98
477.471	90
477.69	88
477.908	82
478.127	95
478.346	93
478.564	83
478.783	103
479.002	98
479.22	98
479.439	105
479.658	116
479.876	106
480.095	108
480.313	109
480.532	132
480.751	184
480.969	526
481.188	2324
481.406	1364
481.624	234
481.843	104
482.061	86
482.28	91
482.498	92
482.717	100
482.935	88
483.153	90
483.372	92
483.59	86
483.808	86
484.027	91
484.245	93
484.463	98
484.681	91
484.9	95
485.118	93
485.336	105
485.554	106
485.772	99
485.99	120
486.209	116
486.427	119
486.645	115
486.863	131
487.081	98
487.299	104
487.517	97
487.735	102
487.953	93
488.171	90
488.389	87
488.607	120
488.825	91
489.043	101
489.261	95
489.479	94
489.696	81
489.914	83
490.132	84
490.35	86
490.568	95
490.786	85
491.003	78
491.221	100
491.439	90
491.657	108
491.874	93
492.092	80
492.31	82
492.527	89
492.745	86
492.963	97
493.18	94
493.398	87
493.615	95
493.833	98
494.05	85
494.268	71
494.485	84
494.703	78
494.92	90
495.138	81
495.355	86
495.573	94
495.79	84
496.008	94
496.225	84
496.442	88
496.66	92
496.877	87
497.094	94
497.312	94
497.529	70
497.746	80
497.963	95
498.181	86
498.398	94
498.615	111
498.832	101
499.049	103
499.267	95
499.484	95
499.701	91
499.918	93
500.135	103
500.352	82
500.569	87
500.786	93
501.003	98
501.22	110
501.437	89
501.654	78
501.871	114
502.088	82
502.305	106
502.522	88
502.739	93
502.956	87
503.172	102
503.389	111
503.606	112
503.823	98
504.04	94
504.256	96
504.473	96
504.69	87
504.907	104
505.123	90
505.34	88
505.557	98
505.773	99
505.99	83
506.207	94
506.423	91
506.64	89
506.856	96
507.073	102
507.289	84
507.506	96
507.722	121
507.939	122
508.155	98
508.372	95
508.588	91
508.805	85
509.021	87
509.238	96
509.454	94
509.67	93
509.887	106
510.103	143
510.319	231
510.536	831
510.752	2790
510.968	744
511.184	160
511.401	122
511.617	114
511.833	111
512.049	97
512.265	88
512.481	87
512.698	101
512.914	99
513.13	88
513.346	93
513.562	82
513.778	96
513.994	88
514.21	115
514.426	138
514.642	162
514.858	131
515.074	197
515.29	572
515.506	2042
515.721	750
515.937	187
516.153	118
516.369	103
516.585	100
516.801	79
517.016	95
517.232	99
517.448	88
517.664	92
517.879	95
518.095	92
518.311	101
518.527	104
518.742	84
518.958	107
519.173	78
519.389	93
519.605	94
519.82	107
520.036	116
520.251	149
520.467	123
520.682	121
520.898	119
521.113	114
521.329	138
521.544	247
521.76	748
521.975	3485
522.19	2046
522.406	420
522.621	156
522.836	108
523.052	94
523.267	85
523.482	97
523.698	100
523.913	127
524.128	107
524.343	81
524.559	87
524.774	98
524.989	109
525.204	109
525.419	97
525.634	84
525.849	95
526.064	77
526.28	97
526.495	96
526.71	79
526.925	82
527.14	82
527.355	74
527.57	93
527.785	92
527.999	86
528.214	81
528.429	84
528.644	95
528.859	83
529.074	92
529.289	140
529.503	238
529.718	110
529.933	96
530.148	96
530.363	63
530.577	82
530.792	78
531.007	100
531.221	86
531.436	101
531.651	103
531.865	92
532.08	78
532.295	90
532.509	105
532.724	84
532.938	108
533.153	98
533.367	88
533.582	91
533.796	85
534.011	97
534.225	93
534.44	83
534.654	90
534.868	97
535.083	87
535.297	94
535.511	102
535.726	98
535.94	90
536.154	100
536.369	91
536.583	94
536.797	85
537.011	82
537.225	75
537.44	91
537.654	108
537.868	100
538.082	89
538.296	86
538.51	86
538.724	75
538.938	94
539.153	87
539.367	107
539.581	92
539.795	87
540.009	86
540.222	100
540.436	97
540.65	90
540.864	90
541.078	99
541.292	90
541.506	71
541.72	92
541.934	101
542.147	93
542.361	92
542.575	91
542.789	93
543.002	94
543.216	99
543.43	99
543.644	78
543.857	96
544.071	92
544.285	83
544.498	91
544.712	87
544.925	106
545.139	108
545.352	88
545.566	88
545.779	97
545.993	104
546.206	95
546.42	91
546.633	79
546.847	96
547.06	92
547.274	76
547.487	69
547.7	83
547.914	92
548.127	72
548.34	101
548.554	90
548.767	78
548.98	82
549.193	78
549.407	87
549.62	95
549.833	86
550.046	85
550.259	101
550.473	103
550.686	95
550.899	95
551.112	86
551.325	80
551.538	98
551.751	86
551.964	82
552.177	88
552.39	98
552.603	84
552.816	101
553.029	88
553.242	84
553.455	118
553.667	116
553.88	117
554.093	102
554.306	104
554.519	110
554.732	89
554.944	80
555.157	83
555.37	83
555.583	95
555.795	85
556.008	95
556.221	89
556.433	96
556.646	88
556.859	91
557.071	84
557.284	93
557.496	102
557.709	102
557.921	93
558.134	92
558.346	90
558.559	81
558.771	87
558.984	86
559.196	103
559.409	94
559.621	97
559.833	77
560.046	98
560.258	91
560.47	117
560.683	86
560.895	77
561.107	96
561.32	96
561.532	87
561.744	90
561.956	96
562.168	75
562.381	101
562.593	73
562.805	81
563.017	107
563.229	88
563.441	78
563.653	89
563.865	76
564.077	63
564.289	77
564.501	84
564.713	79
564.925	87
565.137	117
565.349	95
565.561	85
565.773	92
565.985	91
566.197	98
566.408	103
566.62	91
566.832	75
567.044	92
567.255	89
567.467	82
567.679	80
567.891	74
568.102	100
568.314	88
568.526	90
568.737	95
568.949	82
569.161	92
569.372	98
569.584	85
569.795	85
570.007	114
570.218	262
570.43	138
570.641	89
570.853	92
571.064	78
571.276	71
571.487	86
571.698	88
571.91	75
572.121	90
572.333	83
572.544	74
572.755	85
572.966	91
573.178	85
573.389	87
573.6	85
573.811	79
574.023	79
574.234	90
574.445	80
574.656	96
574.867	81
575.078	87
575.289	98
575.501	98
575.712	90
575.923	100
576.134	82
576.345	93
576.556	99
576.767	86
576.978	87
577.188	80
577.399	78
577.61	94
577.821	107
578.032	101
578.243	286
578.454	846
578.665	236
578.875	100
579.086	81
579.297	90
579.508	93
579.718	99
579.929	90
580.14	85
580.35	84
580.561	82
580.772	79
580.982	75
581.193	71
581.403	81
581.614	82
581.825	94
582.035	88
