Data from Circ_1987_H10_HRD10591_00094.txt Node
Date: Wed Jan 03 12:10:51 EST 2024
User: Yrep
Spectrometer: HR+D1059
Trigger mode: 1
Integration Time (sec): 1.000000E-1
Scans to average: 1
Electric dark correction enabled: true
Nonlinearity correction enabled: false
Boxcar width: 0
XAxis mode: Wavelengths
Number of Pixels in Spectrum: 2048
>>>>>Begin Spectral Data<<<<<
223.165	-13.62
223.4	-13.62
223.635	-13.62
223.869	-9.62
224.104	-22.62
224.338	-19.62
224.573	-26.62
224.808	2.38
225.042	-5.62
225.277	-12.62
225.511	-4.62
225.746	1.38
225.98	7.38
226.215	17.38
226.449	14.38
226.683	14.38
226.918	24.38
227.152	33.38
227.387	35.38
227.621	42.38
227.856	39.38
228.09	44.38
228.324	56.38
228.559	44.38
228.793	59.38
229.027	70.38
229.262	68.38
229.496	78.38
229.73	75.38
229.964	82.38
230.199	79.38
230.433	89.38
230.667	93.38
230.901	75.38
231.136	95.38
231.37	80.38
231.604	86.38
231.838	73.38
232.072	71.38
232.306	90.38
232.541	86.38
232.775	102.38
233.009	80.38
233.243	85.38
233.477	71.38
233.711	98.38
233.945	70.38
234.179	72.38
234.413	86.38
234.647	86.38
234.881	81.38
235.115	83.38
235.349	69.38
235.583	75.38
235.817	95.38
236.051	82.38
236.285	80.38
236.519	82.38
236.753	80.38
236.987	85.38
237.221	87.38
237.455	107.38
237.689	89.38
237.922	72.38
238.156	72.38
238.39	68.38
238.624	68.38
238.858	71.38
239.091	82.38
239.325	94.38
239.559	95.38
239.793	80.38
240.027	89.38
240.26	86.38
240.494	86.38
240.728	74.38
240.961	77.38
241.195	81.38
241.429	86.38
241.662	86.38
241.896	83.38
242.13	73.38
242.363	82.38
242.597	71.38
242.83	89.38
243.064	87.38
243.298	61.38
243.531	91.38
243.765	86.38
243.998	95.38
244.232	64.38
244.465	97.38
244.699	92.38
244.932	61.38
245.166	71.38
245.399	88.38
245.633	84.38
245.866	96.38
246.099	76.38
246.333	89.38
246.566	72.38
246.8	81.38
247.033	82.38
247.266	81.38
247.5	85.38
247.733	74.38
247.966	72.38
248.2	91.38
248.433	91.38
248.666	89.38
248.899	75.38
249.133	90.38
249.366	103.38
249.599	99.38
249.832	94.38
250.066	89.38
250.299	92.38
250.532	68.38
250.765	69.38
250.998	84.38
251.231	82.38
251.465	88.38
251.698	95.38
251.931	85.38
252.164	82.38
252.397	71.38
252.63	86.38
252.863	86.38
253.096	84.38
253.329	89.38
253.562	91.38
253.795	94.38
254.028	80.38
254.261	82.38
254.494	89.38
254.727	72.38
254.96	90.38
255.193	86.38
255.426	92.38
255.659	92.38
255.892	120.38
256.124	105.38
256.357	92.38
256.59	83.38
256.823	88.38
257.056	94.38
257.289	92.38
257.521	79.38
257.754	84.38
257.987	89.38
258.22	98.38
258.452	102.38
258.685	79.38
258.918	82.38
259.151	81.38
259.383	83.38
259.616	83.38
259.849	91.38
260.081	94.38
260.314	86.38
260.547	88.38
260.779	93.38
261.012	99.38
261.244	106.38
261.477	103.38
261.71	99.38
261.942	137.38
262.175	148.38
262.407	97.38
262.64	91.38
262.872	90.38
263.105	85.38
263.337	84.38
263.57	92.38
263.802	97.38
264.035	92.38
264.267	71.38
264.499	82.38
264.732	78.38
264.964	86.38
265.197	73.38
265.429	79.38
265.661	73.38
265.894	91.38
266.126	82.38
266.358	79.38
266.591	83.38
266.823	90.38
267.055	80.38
267.287	82.38
267.52	78.38
267.752	91.38
267.984	94.38
268.216	88.38
268.448	88.38
268.681	87.38
268.913	91.38
269.145	84.38
269.377	83.38
269.609	93.38
269.841	92.38
270.073	83.38
270.306	82.38
270.538	89.38
270.77	80.38
271.002	88.38
271.234	76.38
271.466	97.38
271.698	88.38
271.93	91.38
272.162	103.38
272.394	96.38
272.626	100.38
272.858	89.38
273.09	78.38
273.322	79.38
273.553	82.38
273.785	93.38
274.017	92.38
274.249	81.38
274.481	100.38
274.713	103.38
274.945	106.38
275.176	104.38
275.408	106.38
275.64	106.38
275.872	114.38
276.104	110.38
276.335	104.38
276.567	114.38
276.799	141.38
277.031	148.38
277.262	184.38
277.494	137.38
277.726	102.38
277.957	85.38
278.189	97.38
278.421	95.38
278.652	88.38
278.884	86.38
279.115	97.38
279.347	102.38
279.579	90.38
279.81	116.38
280.042	186.38
280.273	246.38
280.505	172.38
280.736	117.38
280.968	99.38
281.199	94.38
281.431	89.38
281.662	95.38
281.894	107.38
282.125	101.38
282.356	123.38
282.588	178.38
282.819	133.38
283.051	109.38
283.282	99.38
283.513	80.38
283.745	81.38
283.976	80.38
284.207	87.38
284.439	97.38
284.67	79.38
284.901	87.38
285.132	83.38
285.364	79.38
285.595	92.38
285.826	91.38
286.057	96.38
286.288	97.38
286.52	97.38
286.751	85.38
286.982	84.38
287.213	97.38
287.444	86.38
287.675	97.38
287.906	103.38
288.138	92.38
288.369	90.38
288.6	103.38
288.831	94.38
289.062	92.38
289.293	97.38
289.524	79.38
289.755	84.38
289.986	83.38
290.217	90.38
290.448	101.38
290.679	100.38
290.91	108.38
291.141	91.38
291.371	94.38
291.602	94.38
291.833	85.38
292.064	86.38
292.295	79.38
292.526	99.38
292.757	86.38
292.987	101.38
293.218	98.38
293.449	83.38
293.68	84.38
293.91	95.38
294.141	100.38
294.372	85.38
294.603	82.38
294.833	97.38
295.064	95.38
295.295	98.38
295.525	97.38
295.756	102.38
295.987	121.38
296.217	153.38
296.448	124.38
296.679	98.38
296.909	94.38
297.14	92.38
297.37	103.38
297.601	99.38
297.831	84.38
298.062	105.38
298.292	97.38
298.523	95.38
298.753	87.38
298.984	82.38
299.214	91.38
299.445	112.38
299.675	95.38
299.905	107.38
300.136	90.38
300.366	95.38
300.597	78.38
300.827	94.38
301.057	94.38
301.288	106.38
301.518	101.38
301.748	90.38
301.979	97.38
302.209	103.38
302.439	95.38
302.669	89.38
302.9	97.38
303.13	99.38
303.36	111.38
303.59	123.38
303.82	133.38
304.051	96.38
304.281	97.38
304.511	101.38
304.741	98.38
304.971	97.38
305.201	104.38
305.431	84.38
305.661	86.38
305.891	107.38
306.121	105.38
306.352	105.38
306.582	116.38
306.812	99.38
307.042	118.38
307.272	160.38
307.502	160.38
307.731	171.38
307.961	121.38
308.191	100.38
308.421	88.38
308.651	107.38
308.881	91.38
309.111	87.38
309.341	89.38
309.571	94.38
309.8	84.38
310.03	97.38
310.26	100.38
310.49	96.38
310.72	109.38
310.949	108.38
311.179	107.38
311.409	106.38
311.639	93.38
311.868	89.38
312.098	94.38
312.328	100.38
312.557	113.38
312.787	117.38
313.017	131.38
313.246	102.38
313.476	103.38
313.706	105.38
313.935	101.38
314.165	113.38
314.394	111.38
314.624	97.38
314.853	105.38
315.083	93.38
315.312	95.38
315.542	109.38
315.771	92.38
316.001	96.38
316.23	84.38
316.46	94.38
316.689	99.38
316.919	105.38
317.148	103.38
317.377	91.38
317.607	91.38
317.836	88.38
318.065	88.38
318.295	79.38
318.524	89.38
318.753	103.38
318.983	112.38
319.212	114.38
319.441	104.38
319.67	112.38
319.9	104.38
320.129	114.38
320.358	97.38
320.587	84.38
320.816	115.38
321.046	103.38
321.275	100.38
321.504	103.38
321.733	106.38
321.962	107.38
322.191	115.38
322.42	118.38
322.649	119.38
322.878	117.38
323.108	123.38
323.337	128.38
323.566	137.38
323.795	159.38
324.024	198.38
324.253	375.38
324.482	802.38
324.71	1546.38
324.939	2020.38
325.168	799.38
325.397	254.38
325.626	161.38
325.855	115.38
326.084	128.38
326.313	138.38
326.542	171.38
326.77	217.38
326.999	415.38
327.228	832.38
327.457	1463.38
327.686	1200.38
327.914	455.38
328.143	466.38
328.372	561.38
328.6	330.38
328.829	180.38
329.058	163.38
329.287	193.38
329.515	176.38
329.744	217.38
329.972	431.38
330.201	868.38
330.43	1279.38
330.658	567.38
330.887	285.38
331.115	187.38
331.344	128.38
331.572	114.38
331.801	115.38
332.03	126.38
332.258	117.38
332.486	107.38
332.715	110.38
332.943	107.38
333.172	129.38
333.4	125.38
333.629	144.38
333.857	204.38
334.085	378.38
334.314	775.38
334.542	1598.38
334.771	1501.38
334.999	416.38
335.227	156.38
335.455	116.38
335.684	107.38
335.912	102.38
336.14	106.38
336.369	103.38
336.597	130.38
336.825	119.38
337.053	111.38
337.281	101.38
337.51	95.38
337.738	96.38
337.966	96.38
338.194	108.38
338.422	94.38
338.65	98.38
338.878	95.38
339.106	92.38
339.334	80.38
339.562	99.38
339.79	90.38
340.018	91.38
340.246	105.38
340.474	102.38
340.702	104.38
340.93	98.38
341.158	102.38
341.386	105.38
341.614	94.38
341.842	102.38
342.07	97.38
342.298	91.38
342.526	92.38
342.754	95.38
342.981	80.38
343.209	80.38
343.437	94.38
343.665	92.38
343.893	90.38
344.12	80.38
344.348	89.38
344.576	95.38
344.804	95.38
345.031	100.38
345.259	104.38
345.487	99.38
345.714	89.38
345.942	103.38
346.17	100.38
346.397	96.38
346.625	111.38
346.853	106.38
347.08	92.38
347.308	99.38
347.535	105.38
347.763	104.38
347.99	101.38
348.218	112.38
348.445	104.38
348.673	101.38
348.9	87.38
349.128	92.38
349.355	71.38
349.583	103.38
349.81	90.38
350.037	97.38
350.265	86.38
350.492	105.38
350.72	99.38
350.947	104.38
351.174	130.38
351.402	119.38
351.629	96.38
351.856	103.38
352.083	123.38
352.311	115.38
352.538	111.38
352.765	120.38
352.992	127.38
353.22	115.38
353.447	103.38
353.674	93.38
353.901	112.38
354.128	107.38
354.355	96.38
354.583	98.38
354.81	102.38
355.037	88.38
355.264	91.38
355.491	80.38
355.718	90.38
355.945	100.38
356.172	86.38
356.399	94.38
356.626	101.38
356.853	80.38
357.08	102.38
357.307	91.38
357.534	103.38
357.761	86.38
357.988	103.38
358.215	75.38
358.441	90.38
358.668	91.38
358.895	96.38
359.122	87.38
359.349	92.38
359.576	89.38
359.802	116.38
360.029	118.38
360.256	127.38
360.483	116.38
360.709	100.38
360.936	97.38
361.163	103.38
361.39	107.38
361.616	107.38
361.843	93.38
362.07	94.38
362.296	97.38
362.523	107.38
362.749	92.38
362.976	95.38
363.203	97.38
363.429	101.38
363.656	98.38
363.882	87.38
364.109	97.38
364.335	94.38
364.562	99.38
364.788	95.38
365.015	86.38
365.241	121.38
365.468	117.38
365.694	113.38
365.92	103.38
366.147	106.38
366.373	103.38
366.599	98.38
366.826	94.38
367.052	100.38
367.278	91.38
367.505	95.38
367.731	88.38
367.957	96.38
368.184	106.38
368.41	111.38
368.636	116.38
368.862	119.38
369.089	118.38
369.315	97.38
369.541	103.38
369.767	91.38
369.993	89.38
370.219	91.38
370.445	97.38
370.672	98.38
370.898	91.38
371.124	88.38
371.35	97.38
371.576	100.38
371.802	88.38
372.028	89.38
372.254	94.38
372.48	86.38
372.706	99.38
372.932	94.38
373.158	91.38
373.384	86.38
373.61	93.38
373.835	94.38
374.061	95.38
374.287	94.38
374.513	84.38
374.739	102.38
374.965	89.38
375.191	100.38
375.416	90.38
375.642	98.38
375.868	106.38
376.094	80.38
376.319	90.38
376.545	71.38
376.771	95.38
376.997	97.38
377.222	97.38
377.448	83.38
377.674	88.38
377.899	92.38
378.125	96.38
378.35	114.38
378.576	96.38
378.802	79.38
379.027	90.38
379.253	92.38
379.478	81.38
379.704	87.38
379.929	104.38
380.155	86.38
380.38	95.38
380.606	96.38
380.831	96.38
381.057	112.38
381.282	94.38
381.507	96.38
381.733	102.38
381.958	92.38
382.184	82.38
382.409	88.38
382.634	100.38
382.86	105.38
383.085	103.38
383.31	106.38
383.535	102.38
383.761	98.38
383.986	91.38
384.211	95.38
384.436	91.38
384.662	107.38
384.887	112.38
385.112	96.38
385.337	105.38
385.562	92.38
385.787	111.38
386.013	106.38
386.238	104.38
386.463	117.38
386.688	108.38
386.913	102.38
387.138	89.38
387.363	107.38
387.588	95.38
387.813	112.38
388.038	111.38
388.263	106.38
388.488	94.38
388.713	100.38
388.938	84.38
389.163	99.38
389.387	96.38
389.612	106.38
389.837	82.38
390.062	96.38
390.287	95.38
390.512	81.38
390.736	88.38
390.961	86.38
391.186	87.38
391.411	75.38
391.636	83.38
391.86	84.38
392.085	86.38
392.31	104.38
392.534	89.38
392.759	102.38
392.984	96.38
393.208	81.38
393.433	78.38
393.658	83.38
393.882	80.38
394.107	87.38
394.331	82.38
394.556	87.38
394.78	90.38
395.005	93.38
395.229	90.38
395.454	91.38
395.678	93.38
395.903	93.38
396.127	88.38
396.352	83.38
396.576	84.38
396.801	89.38
397.025	101.38
397.249	84.38
397.474	80.38
397.698	95.38
397.922	94.38
398.147	82.38
398.371	91.38
398.595	90.38
398.82	91.38
399.044	89.38
399.268	81.38
399.492	81.38
399.717	94.38
399.941	106.38
400.165	96.38
400.389	82.38
400.613	75.38
400.837	101.38
401.062	92.38
401.286	100.38
401.51	96.38
401.734	82.38
401.958	107.38
402.182	160.38
402.406	174.38
402.63	135.38
402.854	120.38
403.078	104.38
403.302	85.38
403.526	87.38
403.75	97.38
403.974	87.38
404.198	104.38
404.422	92.38
404.645	96.38
404.869	103.38
405.093	108.38
405.317	132.38
405.541	144.38
405.765	116.38
405.988	130.38
406.212	192.38
406.436	286.38
406.66	188.38
406.883	112.38
407.107	102.38
407.331	98.38
407.555	113.38
407.778	97.38
408.002	100.38
408.226	90.38
408.449	94.38
408.673	88.38
408.896	92.38
409.12	109.38
409.344	92.38
409.567	99.38
409.791	86.38
410.014	104.38
410.238	92.38
410.461	92.38
410.685	82.38
410.908	94.38
411.132	104.38
411.355	86.38
411.578	98.38
411.802	82.38
412.025	105.38
412.249	105.38
412.472	113.38
412.695	122.38
412.919	100.38
413.142	103.38
413.365	85.38
413.589	94.38
413.812	82.38
414.035	83.38
414.258	95.38
414.482	98.38
414.705	94.38
414.928	98.38
415.151	83.38
415.374	82.38
415.597	74.38
415.821	84.38
416.044	90.38
416.267	102.38
416.49	86.38
416.713	89.38
416.936	96.38
417.159	88.38
417.382	99.38
417.605	89.38
417.828	111.38
418.051	95.38
418.274	71.38
418.497	87.38
418.72	74.38
418.943	89.38
419.166	91.38
419.389	86.38
419.611	99.38
419.834	99.38
420.057	100.38
420.28	94.38
420.503	87.38
420.726	89.38
420.948	93.38
421.171	104.38
421.394	103.38
421.617	99.38
421.839	84.38
422.062	85.38
422.285	78.38
422.507	100.38
422.73	113.38
422.953	88.38
423.175	86.38
423.398	81.38
423.621	87.38
423.843	82.38
424.066	95.38
424.288	91.38
424.511	91.38
424.733	100.38
424.956	115.38
425.178	105.38
425.401	105.38
425.623	119.38
425.846	96.38
426.068	96.38
426.291	91.38
426.513	90.38
426.735	95.38
426.958	90.38
427.18	114.38
427.402	165.38
427.625	227.38
427.847	201.38
428.069	180.38
428.292	112.38
428.514	105.38
428.736	100.38
428.958	92.38
429.181	86.38
429.403	93.38
429.625	94.38
429.847	113.38
430.069	116.38
430.292	108.38
430.514	79.38
430.736	87.38
430.958	94.38
431.18	82.38
431.402	93.38
431.624	90.38
431.846	88.38
432.068	90.38
432.29	91.38
432.512	91.38
432.734	70.38
432.956	89.38
433.178	113.38
433.4	102.38
433.622	102.38
433.844	101.38
434.066	111.38
434.287	92.38
434.509	83.38
434.731	94.38
434.953	81.38
435.175	91.38
435.397	92.38
435.618	100.38
435.84	108.38
436.062	109.38
436.284	112.38
436.505	104.38
436.727	97.38
436.949	105.38
437.17	91.38
437.392	86.38
437.614	94.38
437.835	116.38
438.057	147.38
438.278	134.38
438.5	120.38
438.721	137.38
438.943	103.38
439.165	83.38
439.386	95.38
439.608	99.38
439.829	118.38
440.05	153.38
440.272	172.38
440.493	114.38
440.715	98.38
440.936	89.38
441.158	78.38
441.379	99.38
441.6	108.38
441.822	107.38
442.043	87.38
442.264	115.38
442.486	97.38
442.707	104.38
442.928	124.38
443.149	151.38
443.371	152.38
443.592	118.38
443.813	140.38
444.034	119.38
444.255	91.38
444.476	87.38
444.698	97.38
444.919	93.38
445.14	130.38
445.361	126.38
445.582	130.38
445.803	154.38
446.024	156.38
446.245	169.38
446.466	102.38
446.687	91.38
446.908	87.38
447.129	79.38
447.35	85.38
447.571	91.38
447.792	102.38
448.013	100.38
448.234	119.38
448.455	95.38
448.675	137.38
448.896	114.38
449.117	97.38
449.338	107.38
449.559	138.38
449.779	138.38
450	90.38
450.221	92.38
450.442	77.38
450.662	101.38
450.883	125.38
451.104	139.38
451.324	108.38
451.545	98.38
451.766	72.38
451.986	87.38
452.207	101.38
452.428	104.38
452.648	95.38
452.869	121.38
453.089	127.38
453.31	126.38
453.53	79.38
453.751	90.38
453.971	115.38
454.192	135.38
454.412	108.38
454.633	92.38
454.853	87.38
455.073	96.38
455.294	100.38
455.514	126.38
455.734	87.38
455.955	80.38
456.175	91.38
456.395	95.38
456.616	98.38
456.836	84.38
457.056	91.38
457.276	85.38
457.497	81.38
457.717	98.38
457.937	93.38
458.157	96.38
458.377	91.38
458.598	114.38
458.818	186.38
459.038	209.38
459.258	150.38
459.478	98.38
459.698	95.38
459.918	80.38
460.138	99.38
460.358	84.38
460.578	84.38
460.798	93.38
461.018	94.38
461.238	90.38
461.458	95.38
461.678	78.38
461.898	88.38
462.118	89.38
462.338	90.38
462.558	89.38
462.777	85.38
462.997	97.38
463.217	100.38
463.437	90.38
463.657	112.38
463.876	103.38
464.096	98.38
464.316	94.38
464.536	99.38
464.755	100.38
464.975	129.38
465.195	208.38
465.414	203.38
465.634	90.38
465.854	99.38
466.073	83.38
466.293	101.38
466.512	90.38
466.732	82.38
466.951	102.38
467.171	106.38
467.391	113.38
467.61	133.38
467.829	206.38
468.049	506.38
468.268	788.38
468.488	203.38
468.707	105.38
468.927	105.38
469.146	84.38
469.365	90.38
469.585	105.38
469.804	101.38
470.023	106.38
470.243	96.38
470.462	105.38
470.681	128.38
470.901	108.38
471.12	99.38
471.339	100.38
471.558	97.38
471.777	147.38
471.997	279.38
472.216	971.38
472.435	2263.38
472.654	526.38
472.873	152.38
473.092	119.38
473.311	98.38
473.53	100.38
473.749	83.38
473.968	98.38
474.187	128.38
474.406	111.38
474.625	100.38
474.844	96.38
475.063	97.38
475.282	92.38
475.501	86.38
475.72	84.38
475.939	79.38
476.158	97.38
476.377	94.38
476.596	105.38
476.814	110.38
477.033	89.38
477.252	97.38
477.471	89.38
477.69	88.38
477.908	98.38
478.127	108.38
478.346	88.38
478.564	95.38
478.783	97.38
479.002	109.38
479.22	97.38
479.439	116.38
479.658	133.38
479.876	112.38
480.095	128.38
480.313	137.38
480.532	148.38
480.751	271.38
480.969	880.38
481.188	3808.38
481.406	2170.38
481.624	325.38
481.843	125.38
482.061	108.38
482.28	117.38
482.498	101.38
482.717	90.38
482.935	86.38
483.153	96.38
483.372	89.38
483.59	95.38
483.808	94.38
484.027	99.38
484.245	100.38
484.463	100.38
484.681	95.38
484.9	104.38
485.118	94.38
485.336	96.38
485.554	119.38
485.772	112.38
485.99	106.38
486.209	102.38
486.427	96.38
486.645	113.38
486.863	123.38
487.081	104.38
487.299	102.38
487.517	96.38
487.735	97.38
487.953	85.38
488.171	98.38
488.389	92.38
488.607	99.38
488.825	104.38
489.043	91.38
489.261	103.38
489.479	92.38
489.696	84.38
489.914	82.38
490.132	88.38
490.35	95.38
490.568	95.38
490.786	89.38
491.003	95.38
491.221	104.38
491.439	112.38
491.657	101.38
491.874	96.38
492.092	95.38
492.31	91.38
492.527	92.38
492.745	96.38
492.963	106.38
493.18	98.38
493.398	88.38
493.615	94.38
493.833	91.38
494.05	86.38
494.268	91.38
494.485	93.38
494.703	86.38
494.92	95.38
495.138	92.38
495.355	105.38
495.573	90.38
495.79	89.38
496.008	99.38
496.225	110.38
496.442	88.38
496.66	93.38
496.877	95.38
497.094	105.38
497.312	108.38
497.529	103.38
497.746	112.38
497.963	110.38
498.181	93.38
498.398	102.38
498.615	104.38
498.832	105.38
499.049	94.38
499.267	90.38
499.484	90.38
499.701	83.38
499.918	83.38
500.135	101.38
500.352	90.38
500.569	90.38
500.786	104.38
501.003	91.38
501.22	84.38
501.437	97.38
501.654	99.38
501.871	109.38
502.088	105.38
502.305	75.38
502.522	90.38
502.739	98.38
502.956	107.38
503.172	106.38
503.389	110.38
503.606	122.38
503.823	111.38
504.04	94.38
504.256	84.38
504.473	88.38
504.69	105.38
504.907	90.38
505.123	95.38
505.34	102.38
505.557	89.38
505.773	94.38
505.99	96.38
506.207	91.38
506.423	68.38
506.64	86.38
506.856	96.38
507.073	99.38
507.289	87.38
507.506	110.38
507.722	121.38
507.939	128.38
508.155	102.38
508.372	96.38
508.588	112.38
508.805	102.38
509.021	85.38
509.238	95.38
509.454	94.38
509.67	108.38
509.887	112.38
510.103	130.38
510.319	228.38
510.536	840.38
510.752	2923.38
510.968	775.38
511.184	173.38
511.401	126.38
511.617	121.38
511.833	105.38
512.049	96.38
512.265	94.38
512.481	96.38
512.698	94.38
512.914	101.38
