Data from Circ_1987_H10_HRD10591_00038.txt Node
Date: Wed Jan 03 12:10:40 EST 2024
User: Yrep
Spectrometer: HR+D1059
Trigger mode: 1
Integration Time (sec): 1.000000E-1
Scans to average: 1
Electric dark correction enabled: true
Nonlinearity correction enabled: false
Boxcar width: 0
XAxis mode: Wavelengths
Number of Pixels in Spectrum: 2048
>>>>>Begin Spectral Data<<<<<
223.165	-15.94
223.4	-15.94
223.635	-15.94
223.869	-0.94
224.104	-30.94
224.338	-11.94
224.573	-24.94
224.808	-13.94
225.042	-20.94
225.277	-2.94
225.511	-3.94
225.746	6.06
225.98	11.06
226.215	17.06
226.449	22.06
226.683	26.06
226.918	18.06
227.152	26.06
227.387	48.06
227.621	29.06
227.856	42.06
228.09	49.06
228.324	41.06
228.559	58.06
228.793	58.06
229.027	60.06
229.262	73.06
229.496	76.06
229.73	90.06
229.964	99.06
230.199	89.06
230.433	69.06
230.667	76.06
230.901	85.06
231.136	79.06
231.37	90.06
231.604	74.06
231.838	77.06
232.072	77.06
232.306	82.06
232.541	90.06
232.775	93.06
233.009	86.06
233.243	84.06
233.477	79.06
233.711	90.06
233.945	85.06
234.179	87.06
234.413	88.06
234.647	72.06
234.881	93.06
235.115	90.06
235.349	77.06
235.583	76.06
235.817	73.06
236.051	79.06
236.285	97.06
236.519	73.06
236.753	68.06
236.987	71.06
237.221	100.06
237.455	95.06
237.689	70.06
237.922	81.06
238.156	77.06
238.39	68.06
238.624	73.06
238.858	85.06
239.091	61.06
239.325	75.06
239.559	80.06
239.793	84.06
240.027	75.06
240.26	85.06
240.494	86.06
240.728	63.06
240.961	76.06
241.195	91.06
241.429	80.06
241.662	70.06
241.896	79.06
242.13	77.06
242.363	82.06
242.597	82.06
242.83	72.06
243.064	78.06
243.298	83.06
243.531	81.06
243.765	83.06
243.998	98.06
244.232	79.06
244.465	90.06
244.699	99.06
244.932	83.06
245.166	85.06
245.399	91.06
245.633	82.06
245.866	97.06
246.099	79.06
246.333	93.06
246.566	75.06
246.8	66.06
247.033	84.06
247.266	70.06
247.5	97.06
247.733	74.06
247.966	63.06
248.2	85.06
248.433	75.06
248.666	87.06
248.899	88.06
249.133	103.06
249.366	109.06
249.599	99.06
249.832	92.06
250.066	94.06
250.299	82.06
250.532	91.06
250.765	79.06
250.998	81.06
251.231	92.06
251.465	89.06
251.698	88.06
251.931	93.06
252.164	90.06
252.397	95.06
252.63	87.06
252.863	74.06
253.096	89.06
253.329	81.06
253.562	79.06
253.795	86.06
254.028	91.06
254.261	92.06
254.494	76.06
254.727	80.06
254.96	76.06
255.193	73.06
255.426	85.06
255.659	87.06
255.892	90.06
256.124	91.06
256.357	98.06
256.59	96.06
256.823	100.06
257.056	87.06
257.289	76.06
257.521	91.06
257.754	79.06
257.987	89.06
258.22	81.06
258.452	89.06
258.685	94.06
258.918	83.06
259.151	83.06
259.383	84.06
259.616	93.06
259.849	71.06
260.081	78.06
260.314	89.06
260.547	99.06
260.779	77.06
261.012	96.06
261.244	97.06
261.477	79.06
261.71	101.06
261.942	126.06
262.175	146.06
262.407	82.06
262.64	93.06
262.872	99.06
263.105	81.06
263.337	96.06
263.57	73.06
263.802	93.06
264.035	77.06
264.267	90.06
264.499	92.06
264.732	88.06
264.964	77.06
265.197	99.06
265.429	79.06
265.661	94.06
265.894	90.06
266.126	87.06
266.358	90.06
266.591	93.06
266.823	71.06
267.055	71.06
267.287	85.06
267.52	90.06
267.752	83.06
267.984	79.06
268.216	88.06
268.448	102.06
268.681	94.06
268.913	86.06
269.145	85.06
269.377	91.06
269.609	90.06
269.841	90.06
270.073	96.06
270.306	85.06
270.538	88.06
270.77	106.06
271.002	92.06
271.234	95.06
271.466	88.06
271.698	91.06
271.93	95.06
272.162	91.06
272.394	72.06
272.626	76.06
272.858	81.06
273.09	83.06
273.322	82.06
273.553	91.06
273.785	93.06
274.017	92.06
274.249	91.06
274.481	92.06
274.713	100.06
274.945	105.06
275.176	103.06
275.408	95.06
275.64	113.06
275.872	124.06
276.104	110.06
276.335	90.06
276.567	110.06
276.799	125.06
277.031	153.06
277.262	187.06
277.494	148.06
277.726	101.06
277.957	92.06
278.189	90.06
278.421	91.06
278.652	92.06
278.884	103.06
279.115	90.06
279.347	102.06
279.579	101.06
279.81	120.06
280.042	178.06
280.273	218.06
280.505	172.06
280.736	97.06
280.968	102.06
281.199	97.06
281.431	106.06
281.662	100.06
281.894	91.06
282.125	104.06
282.356	127.06
282.588	186.06
282.819	147.06
283.051	105.06
283.282	83.06
283.513	95.06
283.745	98.06
283.976	92.06
284.207	81.06
284.439	85.06
284.67	96.06
284.901	102.06
285.132	93.06
285.364	83.06
285.595	108.06
285.826	83.06
286.057	93.06
286.288	82.06
286.52	89.06
286.751	83.06
286.982	80.06
287.213	92.06
287.444	93.06
287.675	84.06
287.906	82.06
288.138	97.06
288.369	104.06
288.6	105.06
288.831	96.06
289.062	99.06
289.293	101.06
289.524	84.06
289.755	87.06
289.986	91.06
290.217	101.06
290.448	92.06
290.679	87.06
290.91	98.06
291.141	84.06
291.371	103.06
291.602	83.06
291.833	79.06
292.064	90.06
292.295	96.06
292.526	104.06
292.757	98.06
292.987	91.06
293.218	83.06
293.449	89.06
293.68	94.06
293.91	91.06
294.141	99.06
294.372	90.06
294.603	81.06
294.833	100.06
295.064	97.06
295.295	98.06
295.525	97.06
295.756	119.06
295.987	114.06
296.217	173.06
296.448	129.06
296.679	111.06
296.909	104.06
297.14	86.06
297.37	83.06
297.601	88.06
297.831	79.06
298.062	76.06
298.292	87.06
298.523	81.06
298.753	109.06
298.984	88.06
299.214	100.06
299.445	105.06
299.675	97.06
299.905	104.06
300.136	88.06
300.366	98.06
300.597	96.06
300.827	97.06
301.057	110.06
301.288	115.06
301.518	95.06
301.748	100.06
301.979	113.06
302.209	90.06
302.439	107.06
302.669	105.06
302.9	80.06
303.13	96.06
303.36	122.06
303.59	115.06
303.82	135.06
304.051	104.06
304.281	100.06
304.511	112.06
304.741	103.06
304.971	95.06
305.201	95.06
305.431	105.06
305.661	88.06
305.891	84.06
306.121	99.06
306.352	121.06
306.582	119.06
306.812	115.06
307.042	107.06
307.272	145.06
307.502	169.06
307.731	135.06
307.961	113.06
308.191	89.06
308.421	85.06
308.651	100.06
308.881	99.06
309.111	105.06
309.341	100.06
309.571	102.06
309.8	102.06
310.03	107.06
310.26	108.06
310.49	98.06
310.72	113.06
310.949	131.06
311.179	108.06
311.409	101.06
311.639	112.06
311.868	109.06
312.098	116.06
312.328	106.06
312.557	128.06
312.787	109.06
313.017	118.06
313.246	115.06
313.476	88.06
313.706	106.06
313.935	116.06
314.165	101.06
314.394	105.06
314.624	115.06
314.853	95.06
315.083	104.06
315.312	90.06
315.542	97.06
315.771	103.06
316.001	75.06
316.23	93.06
316.46	88.06
316.689	90.06
316.919	106.06
317.148	108.06
317.377	112.06
317.607	117.06
317.836	113.06
318.065	93.06
318.295	93.06
318.524	100.06
318.753	103.06
318.983	112.06
319.212	119.06
319.441	122.06
319.67	116.06
319.9	100.06
320.129	90.06
320.358	95.06
320.587	110.06
320.816	104.06
321.046	108.06
321.275	106.06
321.504	95.06
321.733	104.06
321.962	104.06
322.191	114.06
322.42	109.06
322.649	113.06
322.878	116.06
323.108	128.06
323.337	139.06
323.566	160.06
323.795	177.06
324.024	245.06
324.253	470.06
324.482	1036.06
324.71	2137.06
324.939	2888.06
325.168	1029.06
325.397	303.06
325.626	183.06
325.855	153.06
326.084	136.06
326.313	145.06
326.542	161.06
326.77	267.06
326.999	543.06
327.228	1121.06
327.457	2079.06
327.686	1657.06
327.914	548.06
328.143	483.06
328.372	548.06
328.6	335.06
328.829	195.06
329.058	176.06
329.287	197.06
329.515	159.06
329.744	240.06
329.972	374.06
330.201	797.06
330.43	1195.06
330.658	556.06
330.887	284.06
331.115	180.06
331.344	120.06
331.572	144.06
331.801	129.06
332.03	136.06
332.258	109.06
332.486	101.06
332.715	97.06
332.943	113.06
333.172	115.06
333.4	127.06
333.629	154.06
333.857	224.06
334.085	367.06
334.314	739.06
334.542	1451.06
334.771	1382.06
334.999	381.06
335.227	179.06
335.455	117.06
335.684	123.06
335.912	105.06
336.14	109.06
336.369	93.06
336.597	115.06
336.825	95.06
337.053	92.06
337.281	96.06
337.51	96.06
337.738	95.06
337.966	90.06
338.194	107.06
338.422	118.06
338.65	106.06
338.878	96.06
339.106	96.06
339.334	98.06
339.562	92.06
339.79	92.06
340.018	96.06
340.246	101.06
340.474	109.06
340.702	106.06
340.93	91.06
341.158	93.06
341.386	90.06
341.614	112.06
341.842	110.06
342.07	91.06
342.298	108.06
342.526	91.06
342.754	89.06
342.981	92.06
343.209	93.06
343.437	97.06
343.665	83.06
343.893	87.06
344.12	91.06
344.348	97.06
344.576	93.06
344.804	92.06
345.031	103.06
345.259	92.06
345.487	104.06
345.714	101.06
345.942	99.06
346.17	85.06
346.397	80.06
346.625	105.06
346.853	118.06
347.08	88.06
347.308	117.06
347.535	104.06
347.763	119.06
347.99	117.06
348.218	105.06
348.445	94.06
348.673	114.06
348.9	107.06
349.128	104.06
349.355	88.06
349.583	88.06
349.81	98.06
350.037	98.06
350.265	90.06
350.492	98.06
350.72	111.06
350.947	119.06
351.174	106.06
351.402	123.06
351.629	117.06
351.856	127.06
352.083	112.06
352.311	104.06
352.538	127.06
352.765	131.06
352.992	119.06
353.22	115.06
353.447	113.06
353.674	111.06
353.901	104.06
354.128	99.06
354.355	94.06
354.583	98.06
354.81	103.06
355.037	97.06
355.264	98.06
355.491	94.06
355.718	106.06
355.945	96.06
356.172	98.06
356.399	103.06
356.626	80.06
356.853	93.06
357.08	93.06
357.307	93.06
357.534	90.06
357.761	92.06
357.988	107.06
358.215	101.06
358.441	83.06
358.668	111.06
358.895	100.06
359.122	88.06
359.349	89.06
359.576	98.06
359.802	118.06
360.029	131.06
360.256	149.06
360.483	116.06
360.709	110.06
360.936	98.06
361.163	99.06
361.39	102.06
361.616	105.06
361.843	95.06
362.07	99.06
362.296	107.06
362.523	105.06
362.749	97.06
362.976	97.06
363.203	88.06
363.429	102.06
363.656	109.06
363.882	87.06
364.109	93.06
364.335	103.06
364.562	105.06
364.788	98.06
365.015	104.06
365.241	127.06
365.468	112.06
365.694	123.06
365.92	106.06
366.147	103.06
366.373	85.06
366.599	92.06
366.826	80.06
367.052	90.06
367.278	106.06
367.505	107.06
367.731	103.06
367.957	96.06
368.184	101.06
368.41	116.06
368.636	129.06
368.862	121.06
369.089	124.06
369.315	99.06
369.541	95.06
369.767	101.06
369.993	95.06
370.219	98.06
370.445	91.06
370.672	73.06
370.898	76.06
371.124	87.06
371.35	91.06
371.576	80.06
371.802	88.06
372.028	90.06
372.254	83.06
372.48	95.06
372.706	108.06
372.932	83.06
373.158	100.06
373.384	89.06
373.61	92.06
373.835	87.06
374.061	103.06
374.287	109.06
374.513	98.06
374.739	95.06
374.965	94.06
375.191	83.06
375.416	81.06
375.642	81.06
375.868	92.06
376.094	90.06
376.319	76.06
376.545	100.06
376.771	92.06
376.997	107.06
377.222	99.06
377.448	116.06
377.674	98.06
377.899	83.06
378.125	89.06
378.35	89.06
378.576	81.06
378.802	87.06
379.027	90.06
379.253	101.06
379.478	107.06
379.704	92.06
379.929	91.06
380.155	100.06
380.38	96.06
380.606	91.06
380.831	97.06
381.057	103.06
381.282	108.06
381.507	111.06
381.733	94.06
381.958	94.06
382.184	90.06
382.409	95.06
382.634	99.06
382.86	114.06
383.085	109.06
383.31	91.06
383.535	100.06
383.761	98.06
383.986	92.06
384.211	93.06
384.436	96.06
384.662	92.06
384.887	96.06
385.112	101.06
385.337	113.06
385.562	109.06
385.787	107.06
386.013	115.06
386.238	124.06
386.463	108.06
386.688	114.06
386.913	103.06
387.138	99.06
387.363	98.06
387.588	91.06
387.813	103.06
388.038	101.06
388.263	91.06
388.488	111.06
388.713	96.06
388.938	96.06
389.163	101.06
389.387	95.06
389.612	99.06
389.837	102.06
390.062	90.06
390.287	97.06
390.512	96.06
390.736	86.06
390.961	89.06
391.186	81.06
391.411	96.06
391.636	90.06
391.86	83.06
392.085	90.06
392.31	101.06
392.534	68.06
392.759	83.06
392.984	95.06
393.208	90.06
393.433	96.06
393.658	104.06
393.882	84.06
394.107	77.06
394.331	95.06
394.556	88.06
394.78	74.06
395.005	95.06
395.229	88.06
395.454	86.06
395.678	99.06
395.903	101.06
396.127	98.06
396.352	84.06
396.576	73.06
396.801	95.06
397.025	89.06
397.249	81.06
397.474	97.06
397.698	85.06
397.922	89.06
398.147	86.06
398.371	109.06
398.595	91.06
398.82	81.06
399.044	87.06
399.268	95.06
399.492	96.06
399.717	89.06
399.941	93.06
400.165	88.06
400.389	91.06
400.613	101.06
400.837	85.06
401.062	103.06
401.286	104.06
401.51	86.06
401.734	98.06
401.958	108.06
402.182	146.06
402.406	211.06
402.63	165.06
402.854	119.06
403.078	100.06
403.302	101.06
403.526	83.06
403.75	99.06
403.974	85.06
404.198	90.06
404.422	76.06
404.645	106.06
404.869	115.06
405.093	126.06
405.317	151.06
405.541	135.06
405.765	122.06
405.988	134.06
406.212	222.06
406.436	312.06
406.66	195.06
406.883	124.06
407.107	104.06
407.331	113.06
407.555	108.06
407.778	99.06
408.002	102.06
408.226	95.06
408.449	97.06
408.673	98.06
408.896	87.06
409.12	107.06
409.344	87.06
409.567	113.06
409.791	84.06
410.014	103.06
410.238	95.06
410.461	77.06
410.685	95.06
410.908	91.06
411.132	100.06
411.355	114.06
411.578	80.06
411.802	80.06
412.025	96.06
412.249	109.06
412.472	114.06
412.695	140.06
412.919	107.06
413.142	95.06
413.365	92.06
413.589	91.06
413.812	94.06
414.035	87.06
414.258	85.06
414.482	95.06
414.705	107.06
414.928	116.06
415.151	104.06
415.374	74.06
415.597	96.06
415.821	88.06
416.044	80.06
416.267	89.06
416.49	89.06
416.713	95.06
416.936	92.06
417.159	90.06
417.382	83.06
417.605	118.06
417.828	115.06
418.051	100.06
418.274	85.06
418.497	79.06
418.72	82.06
418.943	102.06
419.166	98.06
419.389	105.06
419.611	99.06
419.834	93.06
420.057	101.06
420.28	108.06
420.503	97.06
420.726	97.06
420.948	100.06
421.171	97.06
421.394	102.06
421.617	93.06
421.839	83.06
422.062	92.06
422.285	93.06
422.507	107.06
422.73	123.06
422.953	104.06
423.175	89.06
423.398	98.06
423.621	98.06
423.843	85.06
424.066	93.06
424.288	108.06
424.511	101.06
424.733	115.06
424.956	121.06
425.178	99.06
425.401	112.06
425.623	95.06
425.846	90.06
426.068	99.06
426.291	113.06
426.513	101.06
426.735	103.06
426.958	100.06
427.18	114.06
427.402	167.06
427.625	243.06
427.847	229.06
428.069	222.06
428.292	117.06
428.514	101.06
428.736	107.06
428.958	92.06
429.181	88.06
429.403	79.06
429.625	82.06
429.847	116.06
430.069	112.06
430.292	98.06
430.514	75.06
430.736	92.06
430.958	93.06
431.18	79.06
431.402	90.06
431.624	81.06
431.846	98.06
432.068	83.06
432.29	84.06
432.512	93.06
432.734	99.06
432.956	91.06
433.178	107.06
433.4	108.06
433.622	107.06
433.844	98.06
434.066	88.06
434.287	86.06
434.509	77.06
434.731	111.06
434.953	100.06
435.175	113.06
435.397	96.06
435.618	113.06
435.84	117.06
436.062	139.06
436.284	148.06
436.505	121.06
436.727	110.06
436.949	110.06
437.17	82.06
437.392	90.06
437.614	107.06
437.835	121.06
438.057	148.06
438.278	121.06
438.5	117.06
438.721	128.06
438.943	115.06
439.165	108.06
439.386	92.06
439.608	86.06
439.829	113.06
440.05	153.06
440.272	168.06
440.493	122.06
440.715	107.06
440.936	103.06
441.158	93.06
441.379	94.06
441.6	107.06
441.822	98.06
442.043	90.06
442.264	113.06
442.486	115.06
442.707	120.06
442.928	127.06
443.149	148.06
443.371	170.06
443.592	143.06
443.813	131.06
444.034	127.06
444.255	99.06
444.476	99.06
444.698	95.06
444.919	91.06
445.14	129.06
445.361	118.06
445.582	131.06
445.803	202.06
446.024	185.06
446.245	167.06
446.466	127.06
446.687	103.06
446.908	111.06
447.129	87.06
447.35	98.06
447.571	98.06
447.792	92.06
448.013	97.06
448.234	123.06
448.455	114.06
448.675	139.06
448.896	145.06
449.117	113.06
449.338	112.06
449.559	147.06
449.779	148.06
450	91.06
450.221	83.06
450.442	105.06
450.662	110.06
450.883	117.06
451.104	140.06
451.324	113.06
451.545	88.06
451.766	91.06
451.986	88.06
452.207	93.06
452.428	91.06
452.648	108.06
452.869	117.06
453.089	138.06
453.31	147.06
453.53	107.06
453.751	100.06
453.971	118.06
454.192	129.06
454.412	95.06
454.633	76.06
454.853	89.06
455.073	62.06
455.294	87.06
455.514	113.06
455.734	105.06
455.955	98.06
456.175	95.06
456.395	94.06
456.616	81.06
456.836	87.06
457.056	90.06
457.276	87.06
457.497	79.06
457.717	96.06
457.937	83.06
458.157	97.06
458.377	95.06
458.598	120.06
458.818	211.06
459.038	224.06
459.258	151.06
459.478	101.06
459.698	83.06
459.918	92.06
460.138	102.06
460.358	103.06
460.578	92.06
460.798	93.06
461.018	112.06
461.238	97.06
461.458	90.06
461.678	106.06
461.898	97.06
462.118	98.06
462.338	97.06
462.558	96.06
462.777	85.06
462.997	85.06
463.217	104.06
463.437	96.06
463.657	86.06
463.876	84.06
464.096	83.06
464.316	100.06
464.536	105.06
464.755	101.06
464.975	119.06
465.195	242.06
465.414	235.06
465.634	103.06
465.854	89.06
466.073	96.06
466.293	91.06
466.512	96.06
466.732	97.06
466.951	90.06
467.171	96.06
467.391	88.06
467.61	144.06
467.829	187.06
468.049	433.06
468.268	640.06
468.488	182.06
468.707	109.06
468.927	92.06
469.146	98.06
469.365	96.06
469.585	100.06
469.804	113.06
470.023	121.06
470.243	95.06
470.462	110.06
470.681	126.06
470.901	95.06
471.12	107.06
471.339	99.06
471.558	122.06
471.777	144.06
471.997	247.06
472.216	863.06
472.435	1951.06
472.654	484.06
472.873	146.06
473.092	117.06
473.311	106.06
473.53	93.06
473.749	101.06
473.968	106.06
474.187	132.06
474.406	111.06
474.625	100.06
474.844	98.06
475.063	90.06
475.282	102.06
475.501	90.06
475.72	93.06
475.939	86.06
476.158	93.06
476.377	100.06
476.596	92.06
476.814	103.06
477.033	125.06
477.252	82.06
477.471	85.06
477.69	93.06
477.908	95.06
478.127	97.06
478.346	103.06
478.564	104.06
478.783	103.06
479.002	89.06
479.22	96.06
479.439	124.06
479.658	147.06
479.876	115.06
480.095	116.06
480.313	130.06
480.532	140.06
480.751	234.06
480.969	753.06
481.188	3346.06
481.406	1994.06
481.624	326.06
481.843	121.06
482.061	101.06
482.28	103.06
482.498	88.06
482.717	110.06
482.935	92.06
483.153	91.06
483.372	88.06
483.59	89.06
483.808	103.06
484.027	108.06
484.245	105.06
484.463	93.06
484.681	99.06
484.9	106.06
485.118	110.06
485.336	95.06
485.554	112.06
485.772	91.06
485.99	115.06
486.209	109.06
486.427	122.06
486.645	119.06
486.863	125.06
487.081	103.06
487.299	107.06
487.517	110.06
487.735	100.06
487.953	102.06
488.171	99.06
488.389	95.06
488.607	97.06
488.825	101.06
489.043	101.06
489.261	97.06
489.479	90.06
489.696	87.06
489.914	98.06
490.132	111.06
490.35	91.06
490.568	89.06
490.786	105.06
491.003	90.06
491.221	112.06
491.439	87.06
491.657	84.06
491.874	104.06
492.092	93.06
492.31	95.06
492.527	91.06
492.745	101.06
492.963	100.06
493.18	96.06
493.398	108.06
493.615	83.06
493.833	90.06
494.05	88.06
494.268	101.06
494.485	123.06
494.703	107.06
494.92	81.06
495.138	100.06
495.355	94.06
495.573	108.06
495.79	92.06
496.008	108.06
496.225	88.06
496.442	100.06
496.66	95.06
496.877	104.06
497.094	103.06
497.312	94.06
497.529	88.06
497.746	96.06
497.963	95.06
498.181	98.06
498.398	95.06
498.615	109.06
498.832	118.06
499.049	100.06
499.267	103.06
499.484	86.06
499.701	104.06
499.918	103.06
500.135	94.06
500.352	95.06
500.569	97.06
500.786	94.06
501.003	95.06
501.22	99.06
501.437	93.06
501.654	110.06
501.871	120.06
502.088	98.06
502.305	95.06
502.522	86.06
502.739	74.06
502.956	94.06
503.172	99.06
503.389	92.06
503.606	122.06
503.823	113.06
504.04	98.06
504.256	90.06
504.473	98.06
504.69	95.06
504.907	97.06
505.123	97.06
505.34	96.06
505.557	96.06
505.773	99.06
505.99	100.06
506.207	99.06
506.423	101.06
506.64	87.06
506.856	94.06
507.073	84.06
507.289	88.06
507.506	115.06
507.722	141.06
507.939	122.06
508.155	93.06
508.372	95.06
508.588	100.06
508.805	119.06
509.021	98.06
509.238	97.06
509.454	98.06
509.67	97.06
509.887	122.06
510.103	133.06
510.319	253.06
510.536	901.06
510.752	3091.06
510.968	816.06
511.184	172.06
511.401	120.06
511.617	102.06
511.833	116.06
512.049	109.06
