Data from Circ_1987_H10_HRD10591_00037.txt Node
Date: Wed Jan 03 12:10:40 EST 2024
User: Yrep
Spectrometer: HR+D1059
Trigger mode: 1
Integration Time (sec): 1.000000E-1
Scans to average: 1
Electric dark correction enabled: true
Nonlinearity correction enabled: false
Boxcar width: 0
XAxis mode: Wavelengths
Number of Pixels in Spectrum: 2048
>>>>>Begin Spectral Data<<<<<
223.165	-14.44
223.4	-14.44
223.635	-14.44
223.869	-23.44
224.104	-21.44
224.338	-6.44
224.573	-10.44
224.808	-13.44
225.042	0.56
225.277	6.56
225.511	1.56
225.746	8.56
225.98	-5.44
226.215	-2.44
226.449	7.56
226.683	7.56
226.918	32.56
227.152	32.56
227.387	38.56
227.621	50.56
227.856	53.56
228.09	46.56
228.324	50.56
228.559	56.56
228.793	59.56
229.027	72.56
229.262	69.56
229.496	75.56
229.73	116.56
229.964	100.56
230.199	80.56
230.433	83.56
230.667	102.56
230.901	77.56
231.136	82.56
231.37	78.56
231.604	82.56
231.838	78.56
232.072	97.56
232.306	102.56
232.541	89.56
232.775	86.56
233.009	86.56
233.243	80.56
233.477	90.56
233.711	78.56
233.945	99.56
234.179	77.56
234.413	90.56
234.647	90.56
234.881	90.56
235.115	91.56
235.349	80.56
235.583	86.56
235.817	91.56
236.051	81.56
236.285	84.56
236.519	80.56
236.753	77.56
236.987	96.56
237.221	92.56
237.455	100.56
237.689	94.56
237.922	87.56
238.156	80.56
238.39	90.56
238.624	74.56
238.858	83.56
239.091	89.56
239.325	68.56
239.559	82.56
239.793	70.56
240.027	86.56
240.26	83.56
240.494	85.56
240.728	89.56
240.961	71.56
241.195	80.56
241.429	74.56
241.662	78.56
241.896	90.56
242.13	75.56
242.363	83.56
242.597	72.56
242.83	84.56
243.064	76.56
243.298	81.56
243.531	92.56
243.765	83.56
243.998	88.56
244.232	82.56
244.465	89.56
244.699	78.56
244.932	75.56
245.166	97.56
245.399	82.56
245.633	80.56
245.866	70.56
246.099	89.56
246.333	91.56
246.566	78.56
246.8	83.56
247.033	84.56
247.266	82.56
247.5	91.56
247.733	96.56
247.966	90.56
248.2	94.56
248.433	86.56
248.666	87.56
248.899	84.56
249.133	106.56
249.366	114.56
249.599	105.56
249.832	94.56
250.066	80.56
250.299	89.56
250.532	89.56
250.765	85.56
250.998	76.56
251.231	86.56
251.465	98.56
251.698	87.56
251.931	80.56
252.164	93.56
252.397	90.56
252.63	80.56
252.863	69.56
253.096	82.56
253.329	89.56
253.562	83.56
253.795	105.56
254.028	90.56
254.261	86.56
254.494	87.56
254.727	91.56
254.96	81.56
255.193	78.56
255.426	94.56
255.659	74.56
255.892	89.56
256.124	94.56
256.357	105.56
256.59	89.56
256.823	88.56
257.056	81.56
257.289	99.56
257.521	82.56
257.754	88.56
257.987	86.56
258.22	101.56
258.452	108.56
258.685	99.56
258.918	88.56
259.151	83.56
259.383	92.56
259.616	90.56
259.849	78.56
260.081	82.56
260.314	92.56
260.547	82.56
260.779	92.56
261.012	100.56
261.244	112.56
261.477	101.56
261.71	123.56
261.942	118.56
262.175	145.56
262.407	101.56
262.64	91.56
262.872	102.56
263.105	96.56
263.337	98.56
263.57	89.56
263.802	89.56
264.035	94.56
264.267	80.56
264.499	80.56
264.732	99.56
264.964	89.56
265.197	96.56
265.429	93.56
265.661	95.56
265.894	86.56
266.126	80.56
266.358	90.56
266.591	91.56
266.823	83.56
267.055	76.56
267.287	73.56
267.52	81.56
267.752	82.56
267.984	86.56
268.216	96.56
268.448	97.56
268.681	83.56
268.913	96.56
269.145	88.56
269.377	96.56
269.609	107.56
269.841	74.56
270.073	88.56
270.306	99.56
270.538	88.56
270.77	95.56
271.002	89.56
271.234	88.56
271.466	111.56
271.698	69.56
271.93	81.56
272.162	99.56
272.394	108.56
272.626	75.56
272.858	70.56
273.09	71.56
273.322	98.56
273.553	95.56
273.785	98.56
274.017	86.56
274.249	80.56
274.481	97.56
274.713	89.56
274.945	96.56
275.176	99.56
275.408	82.56
275.64	103.56
275.872	122.56
276.104	108.56
276.335	112.56
276.567	121.56
276.799	156.56
277.031	164.56
277.262	183.56
277.494	136.56
277.726	117.56
277.957	96.56
278.189	86.56
278.421	101.56
278.652	99.56
278.884	108.56
279.115	83.56
279.347	86.56
279.579	102.56
279.81	122.56
280.042	188.56
280.273	253.56
280.505	173.56
280.736	95.56
280.968	92.56
281.199	89.56
281.431	90.56
281.662	94.56
281.894	109.56
282.125	118.56
282.356	136.56
282.588	173.56
282.819	136.56
283.051	102.56
283.282	91.56
283.513	108.56
283.745	88.56
283.976	85.56
284.207	99.56
284.439	106.56
284.67	98.56
284.901	94.56
285.132	88.56
285.364	99.56
285.595	94.56
285.826	85.56
286.057	94.56
286.288	108.56
286.52	96.56
286.751	95.56
286.982	100.56
287.213	91.56
287.444	90.56
287.675	95.56
287.906	104.56
288.138	94.56
288.369	94.56
288.6	106.56
288.831	80.56
289.062	88.56
289.293	81.56
289.524	90.56
289.755	88.56
289.986	97.56
290.217	96.56
290.448	94.56
290.679	97.56
290.91	96.56
291.141	89.56
291.371	95.56
291.602	82.56
291.833	91.56
292.064	108.56
292.295	88.56
292.526	105.56
292.757	76.56
292.987	96.56
293.218	89.56
293.449	89.56
293.68	94.56
293.91	92.56
294.141	91.56
294.372	108.56
294.603	102.56
294.833	83.56
295.064	106.56
295.295	97.56
295.525	91.56
295.756	112.56
295.987	134.56
296.217	179.56
296.448	161.56
296.679	110.56
296.909	98.56
297.14	83.56
297.37	71.56
297.601	108.56
297.831	80.56
298.062	89.56
298.292	95.56
298.523	84.56
298.753	98.56
298.984	98.56
299.214	81.56
299.445	87.56
299.675	111.56
299.905	91.56
300.136	100.56
300.366	96.56
300.597	93.56
300.827	97.56
301.057	116.56
301.288	127.56
301.518	109.56
301.748	113.56
301.979	115.56
302.209	107.56
302.439	116.56
302.669	112.56
302.9	108.56
303.13	124.56
303.36	107.56
303.59	140.56
303.82	143.56
304.051	118.56
304.281	92.56
304.511	94.56
304.741	96.56
304.971	98.56
305.201	86.56
305.431	94.56
305.661	102.56
305.891	98.56
306.121	97.56
306.352	116.56
306.582	108.56
306.812	119.56
307.042	138.56
307.272	158.56
307.502	177.56
307.731	168.56
307.961	126.56
308.191	111.56
308.421	98.56
308.651	106.56
308.881	108.56
309.111	88.56
309.341	101.56
309.571	113.56
309.8	108.56
310.03	120.56
310.26	117.56
310.49	111.56
310.72	117.56
310.949	128.56
311.179	129.56
311.409	97.56
311.639	91.56
311.868	103.56
312.098	104.56
312.328	110.56
312.557	120.56
312.787	124.56
313.017	116.56
313.246	101.56
313.476	93.56
313.706	92.56
313.935	105.56
314.165	119.56
314.394	121.56
314.624	103.56
314.853	117.56
315.083	116.56
315.312	100.56
315.542	93.56
315.771	107.56
316.001	97.56
316.23	91.56
316.46	83.56
316.689	89.56
316.919	99.56
317.148	114.56
317.377	90.56
317.607	116.56
317.836	99.56
318.065	94.56
318.295	104.56
318.524	107.56
318.753	88.56
318.983	95.56
319.212	111.56
319.441	133.56
319.67	127.56
319.9	105.56
320.129	102.56
320.358	106.56
320.587	100.56
320.816	105.56
321.046	122.56
321.275	116.56
321.504	94.56
321.733	101.56
321.962	106.56
322.191	114.56
322.42	111.56
322.649	120.56
322.878	116.56
323.108	125.56
323.337	132.56
323.566	164.56
323.795	182.56
324.024	235.56
324.253	449.56
324.482	908.56
324.71	1841.56
324.939	2428.56
325.168	905.56
325.397	278.56
325.626	166.56
325.855	145.56
326.084	146.56
326.313	146.56
326.542	169.56
326.77	264.56
326.999	462.56
327.228	940.56
327.457	1760.56
327.686	1408.56
327.914	527.56
328.143	495.56
328.372	618.56
328.6	356.56
328.829	200.56
329.058	208.56
329.287	196.56
329.515	178.56
329.744	227.56
329.972	424.56
330.201	856.56
330.43	1262.56
330.658	594.56
330.887	288.56
331.115	201.56
331.344	136.56
331.572	129.56
331.801	137.56
332.03	148.56
332.258	114.56
332.486	122.56
332.715	99.56
332.943	109.56
333.172	120.56
333.4	134.56
333.629	166.56
333.857	229.56
334.085	392.56
334.314	809.56
334.542	1507.56
334.771	1460.56
334.999	396.56
335.227	186.56
335.455	114.56
335.684	128.56
335.912	120.56
336.14	117.56
336.369	120.56
336.597	128.56
336.825	130.56
337.053	109.56
337.281	106.56
337.51	113.56
337.738	108.56
337.966	99.56
338.194	102.56
338.422	106.56
338.65	100.56
338.878	100.56
339.106	108.56
339.334	108.56
339.562	89.56
339.79	98.56
340.018	96.56
340.246	101.56
340.474	113.56
340.702	110.56
340.93	98.56
341.158	101.56
341.386	112.56
341.614	100.56
341.842	106.56
342.07	91.56
342.298	101.56
342.526	104.56
342.754	98.56
342.981	93.56
343.209	93.56
343.437	116.56
343.665	101.56
343.893	101.56
344.12	89.56
344.348	109.56
344.576	102.56
344.804	103.56
345.031	113.56
345.259	115.56
345.487	113.56
345.714	107.56
345.942	95.56
346.17	83.56
346.397	92.56
346.625	90.56
346.853	101.56
347.08	94.56
347.308	113.56
347.535	113.56
347.763	112.56
347.99	114.56
348.218	110.56
348.445	138.56
348.673	115.56
348.9	119.56
349.128	106.56
349.355	100.56
349.583	105.56
349.81	98.56
350.037	86.56
350.265	106.56
350.492	93.56
350.72	106.56
350.947	113.56
351.174	125.56
351.402	125.56
351.629	108.56
351.856	107.56
352.083	108.56
352.311	127.56
352.538	129.56
352.765	123.56
352.992	131.56
353.22	124.56
353.447	115.56
353.674	108.56
353.901	105.56
354.128	107.56
354.355	98.56
354.583	105.56
354.81	103.56
355.037	109.56
355.264	93.56
355.491	92.56
355.718	104.56
355.945	99.56
356.172	87.56
356.399	99.56
356.626	96.56
356.853	96.56
357.08	94.56
357.307	88.56
357.534	91.56
357.761	80.56
357.988	91.56
358.215	102.56
358.441	84.56
358.668	97.56
358.895	105.56
359.122	89.56
359.349	113.56
359.576	102.56
359.802	120.56
360.029	151.56
360.256	138.56
360.483	115.56
360.709	100.56
360.936	109.56
361.163	106.56
361.39	106.56
361.616	106.56
361.843	101.56
362.07	108.56
362.296	114.56
362.523	110.56
362.749	104.56
362.976	91.56
363.203	94.56
363.429	97.56
363.656	108.56
363.882	105.56
364.109	96.56
364.335	95.56
364.562	105.56
364.788	96.56
365.015	102.56
365.241	112.56
365.468	125.56
365.694	120.56
365.92	120.56
366.147	101.56
366.373	115.56
366.599	107.56
366.826	96.56
367.052	102.56
367.278	102.56
367.505	106.56
367.731	102.56
367.957	112.56
368.184	102.56
368.41	120.56
368.636	121.56
368.862	132.56
369.089	116.56
369.315	106.56
369.541	90.56
369.767	90.56
369.993	107.56
370.219	102.56
370.445	90.56
370.672	94.56
370.898	97.56
371.124	89.56
371.35	98.56
371.576	96.56
371.802	95.56
372.028	93.56
372.254	82.56
372.48	94.56
372.706	91.56
372.932	99.56
373.158	91.56
373.384	92.56
373.61	99.56
373.835	84.56
374.061	98.56
374.287	97.56
374.513	113.56
374.739	88.56
374.965	102.56
375.191	102.56
375.416	90.56
375.642	101.56
375.868	91.56
376.094	92.56
376.319	71.56
376.545	103.56
376.771	110.56
376.997	96.56
377.222	105.56
377.448	89.56
377.674	95.56
377.899	101.56
378.125	98.56
378.35	100.56
378.576	88.56
378.802	97.56
379.027	84.56
379.253	98.56
379.478	89.56
379.704	99.56
379.929	89.56
380.155	102.56
380.38	106.56
380.606	100.56
380.831	90.56
381.057	109.56
381.282	105.56
381.507	118.56
381.733	109.56
381.958	99.56
382.184	99.56
382.409	102.56
382.634	104.56
382.86	105.56
383.085	101.56
383.31	89.56
383.535	92.56
383.761	98.56
383.986	105.56
384.211	94.56
384.436	107.56
384.662	101.56
384.887	118.56
385.112	105.56
385.337	117.56
385.562	118.56
385.787	109.56
386.013	131.56
386.238	124.56
386.463	120.56
386.688	111.56
386.913	102.56
387.138	119.56
387.363	114.56
387.588	109.56
387.813	84.56
388.038	106.56
388.263	107.56
388.488	114.56
388.713	101.56
388.938	104.56
389.163	99.56
389.387	97.56
389.612	107.56
389.837	94.56
390.062	95.56
390.287	86.56
390.512	96.56
390.736	86.56
390.961	94.56
391.186	104.56
391.411	96.56
391.636	101.56
391.86	82.56
392.085	108.56
392.31	93.56
392.534	100.56
392.759	108.56
392.984	99.56
393.208	99.56
393.433	105.56
393.658	109.56
393.882	97.56
394.107	90.56
394.331	96.56
394.556	97.56
394.78	109.56
395.005	90.56
395.229	97.56
395.454	113.56
395.678	91.56
395.903	99.56
396.127	96.56
396.352	92.56
396.576	93.56
396.801	94.56
397.025	107.56
397.249	90.56
397.474	98.56
397.698	96.56
397.922	96.56
398.147	93.56
398.371	91.56
398.595	92.56
398.82	96.56
399.044	77.56
399.268	101.56
399.492	104.56
399.717	96.56
399.941	82.56
400.165	104.56
400.389	94.56
400.613	94.56
400.837	97.56
401.062	98.56
401.286	94.56
401.51	111.56
401.734	105.56
401.958	104.56
402.182	154.56
402.406	208.56
402.63	170.56
402.854	96.56
403.078	107.56
403.302	98.56
403.526	99.56
403.75	102.56
403.974	69.56
404.198	99.56
404.422	96.56
404.645	102.56
404.869	109.56
405.093	115.56
405.317	166.56
405.541	134.56
405.765	120.56
405.988	128.56
406.212	227.56
406.436	336.56
406.66	227.56
406.883	126.56
407.107	109.56
407.331	109.56
407.555	123.56
407.778	103.56
408.002	108.56
408.226	104.56
408.449	103.56
408.673	102.56
408.896	85.56
409.12	98.56
409.344	94.56
409.567	99.56
409.791	105.56
410.014	103.56
410.238	89.56
410.461	89.56
410.685	110.56
410.908	119.56
411.132	117.56
411.355	106.56
411.578	91.56
411.802	104.56
412.025	100.56
412.249	100.56
412.472	122.56
412.695	138.56
412.919	124.56
413.142	109.56
413.365	99.56
413.589	94.56
413.812	98.56
414.035	100.56
414.258	100.56
414.482	117.56
414.705	94.56
414.928	88.56
415.151	94.56
415.374	94.56
415.597	88.56
415.821	103.56
416.044	92.56
416.267	96.56
416.49	72.56
416.713	85.56
416.936	101.56
417.159	107.56
417.382	99.56
417.605	106.56
417.828	116.56
418.051	112.56
418.274	97.56
418.497	92.56
418.72	94.56
418.943	87.56
419.166	96.56
419.389	86.56
419.611	108.56
419.834	89.56
420.057	98.56
420.28	111.56
420.503	104.56
420.726	104.56
420.948	86.56
421.171	100.56
421.394	105.56
421.617	88.56
421.839	82.56
422.062	88.56
422.285	90.56
422.507	99.56
422.73	128.56
422.953	90.56
423.175	96.56
423.398	88.56
423.621	88.56
423.843	101.56
424.066	99.56
424.288	90.56
424.511	83.56
424.733	117.56
424.956	141.56
425.178	116.56
425.401	116.56
425.623	109.56
425.846	88.56
426.068	103.56
426.291	97.56
426.513	104.56
426.735	100.56
426.958	107.56
427.18	119.56
427.402	179.56
427.625	261.56
427.847	212.56
428.069	198.56
428.292	106.56
428.514	97.56
428.736	103.56
428.958	109.56
429.181	94.56
429.403	96.56
429.625	82.56
429.847	105.56
430.069	114.56
430.292	99.56
430.514	95.56
430.736	83.56
430.958	78.56
431.18	91.56
431.402	95.56
431.624	93.56
431.846	90.56
432.068	98.56
432.29	89.56
432.512	99.56
432.734	94.56
432.956	96.56
433.178	112.56
433.4	113.56
433.622	94.56
433.844	95.56
434.066	100.56
434.287	90.56
434.509	93.56
434.731	98.56
434.953	100.56
435.175	106.56
435.397	106.56
435.618	113.56
435.84	119.56
436.062	130.56
436.284	126.56
436.505	122.56
436.727	121.56
436.949	100.56
437.17	99.56
437.392	96.56
437.614	96.56
437.835	124.56
438.057	153.56
438.278	129.56
438.5	122.56
438.721	140.56
438.943	115.56
439.165	84.56
439.386	94.56
439.608	97.56
439.829	120.56
440.05	140.56
440.272	193.56
440.493	105.56
440.715	90.56
440.936	96.56
441.158	100.56
441.379	94.56
441.6	92.56
441.822	106.56
442.043	104.56
442.264	122.56
442.486	128.56
442.707	114.56
442.928	133.56
443.149	180.56
443.371	171.56
443.592	126.56
443.813	137.56
444.034	120.56
444.255	107.56
444.476	89.56
444.698	100.56
444.919	96.56
445.14	126.56
445.361	123.56
445.582	139.56
445.803	164.56
446.024	176.56
446.245	164.56
446.466	135.56
446.687	94.56
446.908	88.56
447.129	95.56
447.35	103.56
447.571	114.56
447.792	113.56
448.013	119.56
448.234	149.56
448.455	122.56
448.675	139.56
448.896	156.56
449.117	117.56
449.338	125.56
449.559	164.56
449.779	155.56
450	107.56
450.221	82.56
450.442	105.56
450.662	99.56
450.883	129.56
451.104	148.56
451.324	106.56
451.545	110.56
451.766	102.56
451.986	101.56
452.207	99.56
452.428	106.56
452.648	93.56
452.869	132.56
453.089	142.56
453.31	146.56
453.53	114.56
453.751	118.56
453.971	120.56
454.192	130.56
454.412	90.56
454.633	99.56
454.853	88.56
455.073	84.56
455.294	104.56
455.514	108.56
455.734	95.56
455.955	81.56
456.175	84.56
456.395	92.56
456.616	83.56
456.836	90.56
457.056	103.56
457.276	107.56
457.497	98.56
457.717	95.56
457.937	90.56
458.157	102.56
458.377	107.56
458.598	132.56
458.818	211.56
459.038	233.56
459.258	164.56
459.478	91.56
459.698	90.56
459.918	104.56
460.138	90.56
460.358	100.56
460.578	89.56
460.798	80.56
461.018	101.56
461.238	82.56
461.458	91.56
461.678	91.56
461.898	87.56
462.118	93.56
462.338	90.56
462.558	101.56
462.777	89.56
462.997	104.56
463.217	117.56
463.437	94.56
463.657	95.56
463.876	104.56
464.096	99.56
464.316	96.56
464.536	109.56
464.755	105.56
464.975	138.56
465.195	257.56
465.414	270.56
465.634	111.56
465.854	104.56
466.073	101.56
466.293	103.56
466.512	97.56
466.732	98.56
466.951	98.56
467.171	108.56
467.391	108.56
467.61	160.56
467.829	210.56
468.049	477.56
468.268	741.56
468.488	218.56
468.707	104.56
468.927	97.56
469.146	98.56
469.365	86.56
469.585	93.56
469.804	103.56
470.023	119.56
470.243	114.56
470.462	115.56
470.681	141.56
470.901	113.56
471.12	108.56
471.339	104.56
471.558	137.56
471.777	161.56
471.997	269.56
472.216	941.56
472.435	2204.56
472.654	526.56
472.873	170.56
473.092	109.56
473.311	99.56
473.53	99.56
473.749	94.56
473.968	110.56
474.187	126.56
474.406	115.56
474.625	109.56
474.844	91.56
475.063	100.56
475.282	115.56
475.501	96.56
475.72	89.56
475.939	73.56
476.158	97.56
476.377	86.56
476.596	88.56
476.814	106.56
477.033	105.56
477.252	106.56
477.471	90.56
477.69	96.56
477.908	80.56
478.127	92.56
478.346	89.56
478.564	102.56
478.783	117.56
479.002	106.56
479.22	137.56
479.439	121.56
479.658	133.56
479.876	119.56
480.095	136.56
480.313	126.56
480.532	161.56
480.751	251.56
480.969	856.56
481.188	3700.56
481.406	2124.56
481.624	326.56
481.843	136.56
482.061	115.56
482.28	110.56
482.498	89.56
482.717	94.56
482.935	96.56
483.153	105.56
483.372	88.56
483.59	99.56
483.808	104.56
484.027	107.56
484.245	98.56
484.463	98.56
484.681	94.56
484.9	106.56
485.118	99.56
485.336	110.56
485.554	108.56
485.772	119.56
485.99	121.56
486.209	117.56
486.427	108.56
486.645	121.56
486.863	128.56
487.081	105.56
487.299	103.56
487.517	104.56
487.735	89.56
487.953	81.56
488.171	106.56
488.389	96.56
488.607	113.56
488.825	96.56
489.043	93.56
489.261	82.56
489.479	101.56
489.696	85.56
489.914	123.56
490.132	93.56
490.35	104.56
490.568	93.56
490.786	99.56
491.003	106.56
491.221	88.56
491.439	105.56
491.657	112.56
491.874	98.56
492.092	107.56
492.31	98.56
492.527	96.56
492.745	99.56
492.963	108.56
493.18	96.56
493.398	105.56
493.615	119.56
493.833	104.56
494.05	101.56
494.268	101.56
494.485	94.56
494.703	101.56
494.92	78.56
495.138	70.56
495.355	96.56
495.573	104.56
495.79	105.56
496.008	106.56
496.225	85.56
496.442	90.56
496.66	86.56
496.877	105.56
497.094	87.56
497.312	105.56
497.529	97.56
497.746	94.56
497.963	100.56
498.181	102.56
498.398	111.56
498.615	125.56
498.832	105.56
499.049	103.56
499.267	111.56
499.484	106.56
499.701	92.56
499.918	91.56
500.135	97.56
500.352	91.56
500.569	108.56
500.786	104.56
501.003	94.56
501.22	102.56
501.437	105.56
501.654	114.56
501.871	135.56
502.088	113.56
502.305	91.56
502.522	91.56
502.739	104.56
502.956	100.56
503.172	107.56
503.389	117.56
503.606	128.56
503.823	135.56
504.04	110.56
504.256	104.56
504.473	90.56
504.69	96.56
504.907	104.56
505.123	88.56
505.34	101.56
505.557	98.56
505.773	86.56
505.99	108.56
506.207	107.56
506.423	97.56
506.64	99.56
506.856	100.56
507.073	117.56
507.289	112.56
507.506	114.56
507.722	121.56
507.939	145.56
508.155	98.56
508.372	94.56
508.588	107.56
508.805	98.56
509.021	104.56
509.238	106.56
509.454	108.56
509.67	109.56
509.887	125.56
510.103	150.56
510.319	254.56
510.536	998.56
