Data from Circ_1987_H10_HRD10591_00083.txt Node
Date: Wed Jan 03 12:10:49 EST 2024
User: Yrep
Spectrometer: HR+D1059
Trigger mode: 1
Integration Time (sec): 1.000000E-1
Scans to average: 1
Electric dark correction enabled: true
Nonlinearity correction enabled: false
Boxcar width: 0
XAxis mode: Wavelengths
Number of Pixels in Spectrum: 2048
>>>>>Begin Spectral Data<<<<<
223.165	-25.81
223.4	-25.81
223.635	-25.81
223.869	-23.81
224.104	-15.81
224.338	-20.81
224.573	-0.81
224.808	-1.81
225.042	-4.81
225.277	-7.81
225.511	-2.81
225.746	0.19
225.98	3.19
226.215	21.19
226.449	9.19
226.683	8.19
226.918	29.19
227.152	33.19
227.387	35.19
227.621	40.19
227.856	42.19
228.09	33.19
228.324	45.19
228.559	55.19
228.793	65.19
229.027	78.19
229.262	72.19
229.496	73.19
229.73	82.19
229.964	98.19
230.199	73.19
230.433	73.19
230.667	88.19
230.901	74.19
231.136	84.19
231.37	84.19
231.604	94.19
231.838	92.19
232.072	85.19
232.306	70.19
232.541	72.19
232.775	80.19
233.009	85.19
233.243	76.19
233.477	89.19
233.711	84.19
233.945	85.19
234.179	84.19
234.413	94.19
234.647	87.19
234.881	88.19
235.115	88.19
235.349	85.19
235.583	83.19
235.817	80.19
236.051	80.19
236.285	64.19
236.519	77.19
236.753	66.19
236.987	94.19
237.221	84.19
237.455	100.19
237.689	81.19
237.922	74.19
238.156	84.19
238.39	86.19
238.624	80.19
238.858	85.19
239.091	82.19
239.325	76.19
239.559	68.19
239.793	69.19
240.027	88.19
240.26	76.19
240.494	78.19
240.728	80.19
240.961	70.19
241.195	73.19
241.429	81.19
241.662	69.19
241.896	70.19
242.13	67.19
242.363	84.19
242.597	82.19
242.83	71.19
243.064	64.19
243.298	87.19
243.531	82.19
243.765	78.19
243.998	78.19
244.232	65.19
244.465	80.19
244.699	87.19
244.932	79.19
245.166	87.19
245.399	83.19
245.633	83.19
245.866	81.19
246.099	83.19
246.333	88.19
246.566	62.19
246.8	86.19
247.033	80.19
247.266	79.19
247.5	92.19
247.733	82.19
247.966	87.19
248.2	99.19
248.433	79.19
248.666	87.19
248.899	71.19
249.133	86.19
249.366	104.19
249.599	92.19
249.832	84.19
250.066	85.19
250.299	70.19
250.532	88.19
250.765	70.19
250.998	94.19
251.231	78.19
251.465	86.19
251.698	94.19
251.931	85.19
252.164	82.19
252.397	82.19
252.63	91.19
252.863	79.19
253.096	71.19
253.329	65.19
253.562	78.19
253.795	81.19
254.028	82.19
254.261	88.19
254.494	72.19
254.727	69.19
254.96	71.19
255.193	76.19
255.426	99.19
255.659	84.19
255.892	105.19
256.124	94.19
256.357	98.19
256.59	95.19
256.823	94.19
257.056	80.19
257.289	92.19
257.521	89.19
257.754	89.19
257.987	83.19
258.22	81.19
258.452	90.19
258.685	91.19
258.918	92.19
259.151	74.19
259.383	83.19
259.616	89.19
259.849	77.19
260.081	96.19
260.314	88.19
260.547	88.19
260.779	91.19
261.012	93.19
261.244	114.19
261.477	99.19
261.71	109.19
261.942	121.19
262.175	124.19
262.407	99.19
262.64	87.19
262.872	82.19
263.105	84.19
263.337	88.19
263.57	88.19
263.802	88.19
264.035	89.19
264.267	92.19
264.499	92.19
264.732	89.19
264.964	93.19
265.197	82.19
265.429	90.19
265.661	81.19
265.894	78.19
266.126	86.19
266.358	81.19
266.591	90.19
266.823	94.19
267.055	92.19
267.287	81.19
267.52	85.19
267.752	83.19
267.984	81.19
268.216	96.19
268.448	88.19
268.681	82.19
268.913	72.19
269.145	70.19
269.377	93.19
269.609	93.19
269.841	76.19
270.073	82.19
270.306	82.19
270.538	88.19
270.77	83.19
271.002	87.19
271.234	78.19
271.466	87.19
271.698	89.19
271.93	85.19
272.162	83.19
272.394	84.19
272.626	89.19
272.858	68.19
273.09	85.19
273.322	71.19
273.553	85.19
273.785	82.19
274.017	80.19
274.249	89.19
274.481	89.19
274.713	113.19
274.945	92.19
275.176	95.19
275.408	101.19
275.64	112.19
275.872	117.19
276.104	109.19
276.335	105.19
276.567	114.19
276.799	125.19
277.031	161.19
277.262	170.19
277.494	132.19
277.726	103.19
277.957	83.19
278.189	91.19
278.421	83.19
278.652	107.19
278.884	92.19
279.115	94.19
279.347	97.19
279.579	99.19
279.81	106.19
280.042	166.19
280.273	238.19
280.505	177.19
280.736	120.19
280.968	96.19
281.199	80.19
281.431	91.19
281.662	96.19
281.894	93.19
282.125	93.19
282.356	132.19
282.588	163.19
282.819	120.19
283.051	102.19
283.282	84.19
283.513	91.19
283.745	92.19
283.976	91.19
284.207	89.19
284.439	91.19
284.67	93.19
284.901	80.19
285.132	92.19
285.364	87.19
285.595	90.19
285.826	84.19
286.057	94.19
286.288	86.19
286.52	90.19
286.751	85.19
286.982	94.19
287.213	80.19
287.444	84.19
287.675	86.19
287.906	86.19
288.138	100.19
288.369	101.19
288.6	87.19
288.831	76.19
289.062	100.19
289.293	94.19
289.524	72.19
289.755	98.19
289.986	78.19
290.217	84.19
290.448	82.19
290.679	82.19
290.91	76.19
291.141	88.19
291.371	95.19
291.602	68.19
291.833	81.19
292.064	86.19
292.295	93.19
292.526	98.19
292.757	88.19
292.987	90.19
293.218	90.19
293.449	88.19
293.68	78.19
293.91	79.19
294.141	93.19
294.372	94.19
294.603	88.19
294.833	82.19
295.064	93.19
295.295	94.19
295.525	101.19
295.756	102.19
295.987	126.19
296.217	164.19
296.448	156.19
296.679	102.19
296.909	99.19
297.14	83.19
297.37	98.19
297.601	76.19
297.831	76.19
298.062	99.19
298.292	95.19
298.523	71.19
298.753	88.19
298.984	88.19
299.214	96.19
299.445	91.19
299.675	93.19
299.905	99.19
300.136	93.19
300.366	105.19
300.597	93.19
300.827	94.19
301.057	98.19
301.288	112.19
301.518	106.19
301.748	115.19
301.979	102.19
302.209	111.19
302.439	92.19
302.669	94.19
302.9	98.19
303.13	96.19
303.36	95.19
303.59	131.19
303.82	145.19
304.051	105.19
304.281	97.19
304.511	97.19
304.741	106.19
304.971	86.19
305.201	85.19
305.431	89.19
305.661	84.19
305.891	84.19
306.121	102.19
306.352	112.19
306.582	105.19
306.812	98.19
307.042	106.19
307.272	140.19
307.502	158.19
307.731	136.19
307.961	105.19
308.191	94.19
308.421	88.19
308.651	96.19
308.881	96.19
309.111	112.19
309.341	94.19
309.571	113.19
309.8	78.19
310.03	105.19
310.26	103.19
310.49	95.19
310.72	104.19
310.949	117.19
311.179	100.19
311.409	96.19
311.639	103.19
311.868	93.19
312.098	100.19
312.328	111.19
312.557	112.19
312.787	117.19
313.017	98.19
313.246	98.19
313.476	88.19
313.706	103.19
313.935	90.19
314.165	98.19
314.394	96.19
314.624	101.19
314.853	97.19
315.083	99.19
315.312	94.19
315.542	97.19
315.771	104.19
316.001	80.19
316.23	89.19
316.46	81.19
316.689	88.19
316.919	100.19
317.148	98.19
317.377	99.19
317.607	105.19
317.836	93.19
318.065	93.19
318.295	86.19
318.524	81.19
318.753	97.19
318.983	93.19
319.212	98.19
319.441	106.19
319.67	98.19
319.9	87.19
320.129	91.19
320.358	100.19
320.587	104.19
320.816	99.19
321.046	96.19
321.275	99.19
321.504	96.19
321.733	102.19
321.962	107.19
322.191	96.19
322.42	108.19
322.649	128.19
322.878	112.19
323.108	129.19
323.337	139.19
323.566	146.19
323.795	168.19
324.024	210.19
324.253	409.19
324.482	869.19
324.71	1807.19
324.939	2379.19
325.168	846.19
325.397	274.19
325.626	157.19
325.855	136.19
326.084	113.19
326.313	134.19
326.542	168.19
326.77	242.19
326.999	466.19
327.228	932.19
327.457	1765.19
327.686	1380.19
327.914	478.19
328.143	479.19
328.372	588.19
328.6	332.19
328.829	176.19
329.058	158.19
329.287	185.19
329.515	170.19
329.744	233.19
329.972	429.19
330.201	850.19
330.43	1283.19
330.658	596.19
330.887	253.19
331.115	179.19
331.344	106.19
331.572	114.19
331.801	142.19
332.03	110.19
332.258	106.19
332.486	109.19
332.715	110.19
332.943	108.19
333.172	127.19
333.4	140.19
333.629	159.19
333.857	216.19
334.085	391.19
334.314	850.19
334.542	1637.19
334.771	1499.19
334.999	410.19
335.227	185.19
335.455	126.19
335.684	123.19
335.912	115.19
336.14	112.19
336.369	101.19
336.597	109.19
336.825	115.19
337.053	87.19
337.281	96.19
337.51	78.19
337.738	88.19
337.966	102.19
338.194	101.19
338.422	100.19
338.65	98.19
338.878	102.19
339.106	100.19
339.334	88.19
339.562	91.19
339.79	82.19
340.018	97.19
340.246	100.19
340.474	89.19
340.702	103.19
340.93	88.19
341.158	96.19
341.386	106.19
341.614	105.19
341.842	95.19
342.07	96.19
342.298	89.19
342.526	82.19
342.754	80.19
342.981	94.19
343.209	80.19
343.437	96.19
343.665	83.19
343.893	86.19
344.12	92.19
344.348	103.19
344.576	85.19
344.804	97.19
345.031	107.19
345.259	110.19
345.487	110.19
345.714	100.19
345.942	88.19
346.17	104.19
346.397	97.19
346.625	95.19
346.853	103.19
347.08	84.19
347.308	87.19
347.535	88.19
347.763	83.19
347.99	102.19
348.218	111.19
348.445	112.19
348.673	101.19
348.9	99.19
349.128	107.19
349.355	86.19
349.583	101.19
349.81	98.19
350.037	93.19
350.265	97.19
350.492	87.19
350.72	81.19
350.947	94.19
351.174	121.19
351.402	108.19
351.629	115.19
351.856	107.19
352.083	104.19
352.311	113.19
352.538	121.19
352.765	107.19
352.992	109.19
353.22	110.19
353.447	104.19
353.674	94.19
353.901	101.19
354.128	85.19
354.355	104.19
354.583	103.19
354.81	109.19
355.037	105.19
355.264	87.19
355.491	92.19
355.718	95.19
355.945	83.19
356.172	93.19
356.399	94.19
356.626	88.19
356.853	103.19
357.08	95.19
357.307	88.19
357.534	98.19
357.761	88.19
357.988	101.19
358.215	94.19
358.441	88.19
358.668	92.19
358.895	88.19
359.122	97.19
359.349	81.19
359.576	97.19
359.802	104.19
360.029	132.19
360.256	120.19
360.483	104.19
360.709	120.19
360.936	110.19
361.163	95.19
361.39	105.19
361.616	105.19
361.843	103.19
362.07	109.19
362.296	99.19
362.523	100.19
362.749	100.19
362.976	102.19
363.203	92.19
363.429	104.19
363.656	95.19
363.882	90.19
364.109	98.19
364.335	90.19
364.562	91.19
364.788	71.19
365.015	92.19
365.241	101.19
365.468	116.19
365.694	109.19
365.92	105.19
366.147	104.19
366.373	82.19
366.599	95.19
366.826	93.19
367.052	96.19
367.278	85.19
367.505	98.19
367.731	101.19
367.957	94.19
368.184	96.19
368.41	92.19
368.636	109.19
368.862	126.19
369.089	113.19
369.315	86.19
369.541	86.19
369.767	85.19
369.993	91.19
370.219	98.19
370.445	93.19
370.672	94.19
370.898	79.19
371.124	90.19
371.35	87.19
371.576	80.19
371.802	80.19
372.028	74.19
372.254	86.19
372.48	94.19
372.706	93.19
372.932	93.19
373.158	80.19
373.384	86.19
373.61	76.19
373.835	84.19
374.061	103.19
374.287	80.19
374.513	78.19
374.739	94.19
374.965	76.19
375.191	88.19
375.416	93.19
375.642	88.19
375.868	97.19
376.094	98.19
376.319	84.19
376.545	85.19
376.771	91.19
376.997	100.19
377.222	96.19
377.448	92.19
377.674	101.19
377.899	89.19
378.125	97.19
378.35	89.19
378.576	92.19
378.802	96.19
379.027	100.19
379.253	97.19
379.478	97.19
379.704	78.19
379.929	92.19
380.155	97.19
380.38	90.19
380.606	99.19
380.831	92.19
381.057	112.19
381.282	86.19
381.507	90.19
381.733	81.19
381.958	79.19
382.184	101.19
382.409	98.19
382.634	92.19
382.86	91.19
383.085	80.19
383.31	80.19
383.535	98.19
383.761	101.19
383.986	83.19
384.211	89.19
384.436	101.19
384.662	86.19
384.887	101.19
385.112	96.19
385.337	84.19
385.562	90.19
385.787	111.19
386.013	108.19
386.238	110.19
386.463	114.19
386.688	106.19
386.913	87.19
387.138	97.19
387.363	108.19
387.588	92.19
387.813	92.19
388.038	89.19
388.263	116.19
388.488	94.19
388.713	95.19
388.938	100.19
389.163	86.19
389.387	103.19
389.612	96.19
389.837	88.19
390.062	92.19
390.287	91.19
390.512	79.19
390.736	99.19
390.961	87.19
391.186	83.19
391.411	86.19
391.636	84.19
391.86	87.19
392.085	80.19
392.31	81.19
392.534	84.19
392.759	83.19
392.984	77.19
393.208	86.19
393.433	98.19
393.658	94.19
393.882	88.19
394.107	90.19
394.331	81.19
394.556	87.19
394.78	92.19
395.005	71.19
395.229	84.19
395.454	80.19
395.678	88.19
395.903	100.19
396.127	84.19
396.352	82.19
396.576	78.19
396.801	84.19
397.025	100.19
397.249	85.19
397.474	99.19
397.698	102.19
397.922	101.19
398.147	89.19
398.371	83.19
398.595	86.19
398.82	81.19
399.044	96.19
399.268	93.19
399.492	77.19
399.717	85.19
399.941	93.19
400.165	99.19
400.389	78.19
400.613	90.19
400.837	84.19
401.062	87.19
401.286	80.19
401.51	86.19
401.734	96.19
401.958	105.19
402.182	125.19
402.406	180.19
402.63	130.19
402.854	92.19
403.078	110.19
403.302	88.19
403.526	83.19
403.75	89.19
403.974	85.19
404.198	89.19
404.422	99.19
404.645	92.19
404.869	96.19
405.093	124.19
405.317	139.19
405.541	147.19
405.765	109.19
405.988	137.19
406.212	180.19
406.436	261.19
406.66	177.19
406.883	113.19
407.107	106.19
407.331	105.19
407.555	87.19
407.778	98.19
408.002	91.19
408.226	102.19
408.449	100.19
408.673	90.19
408.896	94.19
409.12	105.19
409.344	97.19
409.567	82.19
409.791	92.19
410.014	89.19
410.238	91.19
410.461	81.19
410.685	111.19
410.908	103.19
411.132	90.19
411.355	101.19
411.578	97.19
411.802	88.19
412.025	100.19
412.249	104.19
412.472	126.19
412.695	134.19
412.919	103.19
413.142	111.19
413.365	92.19
413.589	101.19
413.812	83.19
414.035	92.19
414.258	76.19
414.482	78.19
414.705	76.19
414.928	88.19
415.151	82.19
415.374	100.19
415.597	85.19
415.821	93.19
416.044	97.19
416.267	93.19
416.49	87.19
416.713	90.19
416.936	86.19
417.159	79.19
417.382	90.19
417.605	92.19
417.828	125.19
418.051	102.19
418.274	92.19
418.497	84.19
418.72	78.19
418.943	94.19
419.166	88.19
419.389	89.19
419.611	101.19
419.834	96.19
420.057	93.19
420.28	90.19
420.503	95.19
420.726	92.19
420.948	93.19
421.171	113.19
421.394	94.19
421.617	102.19
421.839	93.19
422.062	83.19
422.285	100.19
422.507	104.19
422.73	111.19
422.953	93.19
423.175	77.19
423.398	101.19
423.621	84.19
423.843	89.19
424.066	83.19
424.288	93.19
424.511	108.19
424.733	96.19
424.956	101.19
425.178	108.19
425.401	95.19
425.623	101.19
425.846	96.19
426.068	104.19
426.291	110.19
426.513	90.19
426.735	110.19
426.958	106.19
427.18	108.19
427.402	175.19
427.625	234.19
427.847	217.19
428.069	208.19
428.292	118.19
428.514	99.19
428.736	100.19
428.958	87.19
429.181	82.19
429.403	87.19
429.625	93.19
429.847	83.19
430.069	110.19
430.292	107.19
430.514	81.19
430.736	82.19
430.958	91.19
431.18	98.19
431.402	92.19
431.624	74.19
431.846	87.19
432.068	89.19
432.29	85.19
432.512	97.19
432.734	85.19
432.956	94.19
433.178	93.19
433.4	83.19
433.622	92.19
433.844	92.19
434.066	100.19
434.287	92.19
434.509	92.19
434.731	91.19
434.953	94.19
435.175	92.19
435.397	99.19
435.618	108.19
435.84	110.19
436.062	122.19
436.284	138.19
436.505	113.19
436.727	92.19
436.949	88.19
437.17	95.19
437.392	75.19
437.614	115.19
437.835	121.19
438.057	140.19
438.278	134.19
438.5	112.19
438.721	135.19
438.943	108.19
439.165	89.19
439.386	79.19
439.608	97.19
439.829	111.19
440.05	153.19
440.272	170.19
440.493	106.19
440.715	90.19
440.936	92.19
441.158	98.19
441.379	93.19
441.6	104.19
441.822	86.19
442.043	105.19
442.264	110.19
442.486	116.19
442.707	89.19
442.928	103.19
443.149	155.19
443.371	163.19
443.592	135.19
443.813	125.19
444.034	107.19
444.255	102.19
444.476	82.19
444.698	100.19
444.919	88.19
445.14	131.19
445.361	124.19
445.582	122.19
445.803	162.19
446.024	172.19
446.245	160.19
446.466	132.19
446.687	79.19
446.908	83.19
447.129	86.19
447.35	100.19
447.571	96.19
447.792	104.19
448.013	98.19
448.234	119.19
448.455	99.19
448.675	129.19
448.896	148.19
449.117	111.19
449.338	118.19
449.559	148.19
449.779	137.19
450	105.19
450.221	94.19
450.442	95.19
450.662	107.19
450.883	120.19
451.104	123.19
451.324	99.19
451.545	98.19
451.766	108.19
451.986	83.19
452.207	90.19
452.428	101.19
452.648	98.19
452.869	132.19
453.089	135.19
453.31	122.19
453.53	94.19
453.751	109.19
453.971	106.19
454.192	131.19
454.412	104.19
454.633	99.19
454.853	95.19
455.073	88.19
455.294	99.19
455.514	117.19
455.734	99.19
455.955	100.19
456.175	89.19
456.395	102.19
456.616	92.19
456.836	90.19
457.056	102.19
457.276	82.19
457.497	83.19
457.717	90.19
457.937	85.19
458.157	84.19
458.377	93.19
458.598	118.19
458.818	176.19
459.038	218.19
459.258	142.19
459.478	96.19
459.698	86.19
459.918	94.19
460.138	88.19
460.358	88.19
460.578	107.19
460.798	83.19
461.018	101.19
461.238	90.19
461.458	90.19
461.678	80.19
461.898	77.19
462.118	93.19
462.338	82.19
462.558	89.19
462.777	96.19
462.997	99.19
463.217	104.19
463.437	102.19
463.657	89.19
463.876	88.19
464.096	81.19
464.316	95.19
464.536	103.19
464.755	93.19
464.975	115.19
465.195	224.19
465.414	196.19
465.634	106.19
465.854	95.19
466.073	93.19
466.293	98.19
466.512	106.19
466.732	80.19
466.951	89.19
467.171	87.19
467.391	116.19
467.61	142.19
467.829	195.19
468.049	516.19
468.268	761.19
468.488	217.19
468.707	112.19
468.927	100.19
469.146	91.19
469.365	92.19
469.585	93.19
469.804	108.19
470.023	99.19
470.243	115.19
470.462	120.19
470.681	125.19
470.901	94.19
471.12	102.19
471.339	105.19
471.558	124.19
471.777	157.19
471.997	284.19
472.216	1001.19
472.435	2221.19
472.654	528.19
472.873	162.19
473.092	107.19
473.311	88.19
473.53	89.19
473.749	87.19
473.968	104.19
474.187	115.19
474.406	114.19
474.625	105.19
474.844	96.19
475.063	89.19
475.282	94.19
475.501	87.19
475.72	94.19
475.939	82.19
476.158	81.19
476.377	78.19
476.596	89.19
476.814	93.19
477.033	93.19
477.252	90.19
477.471	88.19
477.69	88.19
477.908	84.19
478.127	104.19
478.346	102.19
478.564	101.19
478.783	96.19
479.002	101.19
479.22	101.19
479.439	130.19
479.658	136.19
479.876	117.19
480.095	121.19
480.313	141.19
480.532	165.19
480.751	261.19
480.969	857.19
481.188	3817.19
481.406	2166.19
481.624	340.19
481.843	133.19
482.061	104.19
482.28	101.19
482.498	94.19
482.717	85.19
482.935	102.19
483.153	99.19
483.372	88.19
483.59	89.19
483.808	103.19
484.027	96.19
484.245	106.19
484.463	89.19
484.681	109.19
484.9	103.19
485.118	113.19
485.336	88.19
485.554	99.19
485.772	99.19
485.99	111.19
486.209	93.19
486.427	88.19
486.645	116.19
486.863	117.19
487.081	103.19
487.299	86.19
487.517	103.19
487.735	82.19
487.953	93.19
488.171	101.19
488.389	98.19
488.607	93.19
488.825	96.19
489.043	91.19
489.261	96.19
489.479	85.19
489.696	96.19
489.914	94.19
490.132	88.19
490.35	93.19
490.568	93.19
490.786	90.19
491.003	98.19
491.221	85.19
491.439	90.19
491.657	100.19
491.874	98.19
492.092	91.19
492.31	93.19
492.527	82.19
492.745	99.19
492.963	96.19
493.18	94.19
493.398	87.19
493.615	84.19
493.833	100.19
494.05	84.19
494.268	89.19
494.485	110.19
494.703	109.19
494.92	93.19
495.138	87.19
495.355	84.19
495.573	92.19
495.79	98.19
496.008	95.19
496.225	89.19
496.442	94.19
496.66	87.19
496.877	101.19
497.094	93.19
497.312	89.19
497.529	103.19
497.746	98.19
497.963	90.19
498.181	96.19
498.398	74.19
498.615	107.19
498.832	96.19
499.049	90.19
499.267	97.19
499.484	95.19
499.701	99.19
499.918	88.19
500.135	86.19
500.352	71.19
500.569	100.19
500.786	98.19
501.003	94.19
501.22	93.19
501.437	105.19
501.654	96.19
501.871	100.19
502.088	83.19
502.305	77.19
502.522	74.19
502.739	98.19
502.956	88.19
503.172	85.19
503.389	109.19
503.606	111.19
503.823	97.19
504.04	103.19
504.256	95.19
504.473	91.19
504.69	77.19
504.907	99.19
505.123	86.19
505.34	112.19
505.557	87.19
505.773	95.19
505.99	93.19
506.207	79.19
506.423	96.19
506.64	80.19
506.856	83.19
507.073	89.19
507.289	93.19
507.506	97.19
507.722	131.19
507.939	119.19
508.155	96.19
508.372	87.19
508.588	95.19
508.805	96.19
509.021	100.19
509.238	109.19
509.454	106.19
509.67	97.19
509.887	116.19
510.103	137.19
510.319	239.19
510.536	831.19
510.752	2866.19
510.968	755.19
511.184	173.19
511.401	125.19
511.617	110.19
511.833	122.19
512.049	101.19
512.265	107.19
512.481	100.19
512.698	90.19
512.914	88.19
513.13	102.19
513.346	111.19
513.562	106.19
