Data from Uncirc_2000_H10_HRD10591_00039.txt Node
Date: Wed Jan 03 10:48:25 EST 2024
User: Yrep
Spectrometer: HR+D1059
Trigger mode: 1
Integration Time (sec): 1.000000E-1
Scans to average: 1
Electric dark correction enabled: true
Nonlinearity correction enabled: false
Boxcar width: 0
XAxis mode: Wavelengths
Number of Pixels in Spectrum: 2048
>>>>>Begin Spectral Data<<<<<
223.165	-14.5
223.4	-14.5
223.635	-14.5
223.869	-24.5
224.104	-19.5
224.338	-17.5
224.573	-5.5
224.808	-14.5
225.042	2.5
225.277	-2.5
225.511	2.5
225.746	-9.5
225.98	15.5
226.215	4.5
226.449	12.5
226.683	23.5
226.918	18.5
227.152	28.5
227.387	40.5
227.621	38.5
227.856	43.5
228.09	54.5
228.324	51.5
228.559	59.5
228.793	66.5
229.027	70.5
229.262	73.5
229.496	81.5
229.73	79.5
229.964	85.5
230.199	82.5
230.433	74.5
230.667	74.5
230.901	80.5
231.136	71.5
231.37	87.5
231.604	79.5
231.838	72.5
232.072	93.5
232.306	89.5
232.541	84.5
232.775	73.5
233.009	89.5
233.243	83.5
233.477	76.5
233.711	86.5
233.945	71.5
234.179	78.5
234.413	87.5
234.647	93.5
234.881	89.5
235.115	84.5
235.349	87.5
235.583	86.5
235.817	75.5
236.051	79.5
236.285	86.5
236.519	84.5
236.753	77.5
236.987	79.5
237.221	90.5
237.455	84.5
237.689	73.5
237.922	87.5
238.156	82.5
238.39	74.5
238.624	59.5
238.858	67.5
239.091	85.5
239.325	74.5
239.559	80.5
239.793	96.5
240.027	96.5
240.26	79.5
240.494	79.5
240.728	69.5
240.961	73.5
241.195	76.5
241.429	84.5
241.662	77.5
241.896	78.5
242.13	90.5
242.363	86.5
242.597	71.5
242.83	99.5
243.064	94.5
243.298	76.5
243.531	84.5
243.765	84.5
243.998	85.5
244.232	84.5
244.465	95.5
244.699	80.5
244.932	85.5
245.166	76.5
245.399	69.5
245.633	99.5
245.866	86.5
246.099	83.5
246.333	87.5
246.566	86.5
246.8	64.5
247.033	62.5
247.266	76.5
247.5	75.5
247.733	71.5
247.966	68.5
248.2	90.5
248.433	86.5
248.666	77.5
248.899	78.5
249.133	88.5
249.366	88.5
249.599	100.5
249.832	88.5
250.066	87.5
250.299	77.5
250.532	77.5
250.765	76.5
250.998	80.5
251.231	85.5
251.465	77.5
251.698	87.5
251.931	76.5
252.164	79.5
252.397	86.5
252.63	85.5
252.863	83.5
253.096	89.5
253.329	87.5
253.562	89.5
253.795	86.5
254.028	94.5
254.261	90.5
254.494	86.5
254.727	83.5
254.96	86.5
255.193	94.5
255.426	91.5
255.659	87.5
255.892	91.5
256.124	75.5
256.357	89.5
256.59	69.5
256.823	92.5
257.056	99.5
257.289	91.5
257.521	84.5
257.754	85.5
257.987	81.5
258.22	74.5
258.452	86.5
258.685	75.5
258.918	81.5
259.151	79.5
259.383	95.5
259.616	77.5
259.849	72.5
260.081	80.5
260.314	85.5
260.547	70.5
260.779	79.5
261.012	80.5
261.244	90.5
261.477	86.5
261.71	96.5
261.942	108.5
262.175	111.5
262.407	84.5
262.64	76.5
262.872	70.5
263.105	86.5
263.337	79.5
263.57	77.5
263.802	94.5
264.035	76.5
264.267	77.5
264.499	85.5
264.732	87.5
264.964	73.5
265.197	76.5
265.429	90.5
265.661	73.5
265.894	95.5
266.126	81.5
266.358	93.5
266.591	76.5
266.823	81.5
267.055	77.5
267.287	79.5
267.52	76.5
267.752	78.5
267.984	88.5
268.216	82.5
268.448	87.5
268.681	99.5
268.913	83.5
269.145	82.5
269.377	97.5
269.609	89.5
269.841	83.5
270.073	78.5
270.306	83.5
270.538	93.5
270.77	102.5
271.002	89.5
271.234	90.5
271.466	84.5
271.698	82.5
271.93	88.5
272.162	84.5
272.394	79.5
272.626	93.5
272.858	80.5
273.09	98.5
273.322	101.5
273.553	88.5
273.785	99.5
274.017	88.5
274.249	99.5
274.481	92.5
274.713	100.5
274.945	70.5
275.176	95.5
275.408	91.5
275.64	88.5
275.872	90.5
276.104	85.5
276.335	88.5
276.567	106.5
276.799	115.5
277.031	105.5
277.262	70.5
277.494	85.5
277.726	88.5
277.957	80.5
278.189	84.5
278.421	89.5
278.652	78.5
278.884	84.5
279.115	104.5
279.347	87.5
279.579	93.5
279.81	88.5
280.042	89.5
280.273	88.5
280.505	87.5
280.736	78.5
280.968	80.5
281.199	83.5
281.431	93.5
281.662	93.5
281.894	88.5
282.125	98.5
282.356	122.5
282.588	135.5
282.819	122.5
283.051	87.5
283.282	86.5
283.513	94.5
283.745	81.5
283.976	90.5
284.207	97.5
284.439	90.5
284.67	100.5
284.901	92.5
285.132	92.5
285.364	92.5
285.595	83.5
285.826	88.5
286.057	88.5
286.288	95.5
286.52	83.5
286.751	83.5
286.982	76.5
287.213	82.5
287.444	87.5
287.675	83.5
287.906	91.5
288.138	89.5
288.369	106.5
288.6	95.5
288.831	86.5
289.062	85.5
289.293	97.5
289.524	78.5
289.755	100.5
289.986	75.5
290.217	83.5
290.448	95.5
290.679	86.5
290.91	99.5
291.141	81.5
291.371	85.5
291.602	89.5
291.833	79.5
292.064	89.5
292.295	91.5
292.526	98.5
292.757	95.5
292.987	77.5
293.218	92.5
293.449	89.5
293.68	79.5
293.91	95.5
294.141	100.5
294.372	74.5
294.603	74.5
294.833	93.5
295.064	83.5
295.295	88.5
295.525	82.5
295.756	96.5
295.987	116.5
296.217	135.5
296.448	118.5
296.679	96.5
296.909	105.5
297.14	100.5
297.37	80.5
297.601	89.5
297.831	89.5
298.062	102.5
298.292	82.5
298.523	94.5
298.753	94.5
298.984	97.5
299.214	86.5
299.445	95.5
299.675	79.5
299.905	102.5
300.136	99.5
300.366	89.5
300.597	72.5
300.827	87.5
301.057	101.5
301.288	102.5
301.518	90.5
301.748	109.5
301.979	98.5
302.209	96.5
302.439	85.5
302.669	75.5
302.9	90.5
303.13	102.5
303.36	94.5
303.59	89.5
303.82	104.5
304.051	90.5
304.281	99.5
304.511	90.5
304.741	99.5
304.971	72.5
305.201	97.5
305.431	95.5
305.661	108.5
305.891	106.5
306.121	89.5
306.352	105.5
306.582	98.5
306.812	86.5
307.042	96.5
307.272	89.5
307.502	104.5
307.731	85.5
307.961	90.5
308.191	88.5
308.421	89.5
308.651	109.5
308.881	86.5
309.111	98.5
309.341	87.5
309.571	100.5
309.8	91.5
310.03	102.5
310.26	96.5
310.49	86.5
310.72	102.5
310.949	94.5
311.179	92.5
311.409	87.5
311.639	112.5
311.868	100.5
312.098	110.5
312.328	88.5
312.557	107.5
312.787	116.5
313.017	102.5
313.246	93.5
313.476	90.5
313.706	98.5
313.935	100.5
314.165	96.5
314.394	102.5
314.624	87.5
314.853	94.5
315.083	100.5
315.312	93.5
315.542	102.5
315.771	98.5
316.001	100.5
316.23	88.5
316.46	103.5
316.689	87.5
316.919	90.5
317.148	89.5
317.377	83.5
317.607	92.5
317.836	83.5
318.065	101.5
318.295	87.5
318.524	85.5
318.753	86.5
318.983	70.5
319.212	99.5
319.441	108.5
319.67	115.5
319.9	101.5
320.129	96.5
320.358	89.5
320.587	95.5
320.816	106.5
321.046	100.5
321.275	106.5
321.504	91.5
321.733	95.5
321.962	104.5
322.191	108.5
322.42	111.5
322.649	104.5
322.878	106.5
323.108	107.5
323.337	142.5
323.566	124.5
323.795	150.5
324.024	214.5
324.253	373.5
324.482	770.5
324.71	1612.5
324.939	2064.5
325.168	795.5
325.397	238.5
325.626	148.5
325.855	136.5
326.084	134.5
326.313	136.5
326.542	154.5
326.77	214.5
326.999	450.5
327.228	899.5
327.457	1635.5
327.686	1291.5
327.914	385.5
328.143	194.5
328.372	138.5
328.6	118.5
328.829	116.5
329.058	131.5
329.287	122.5
329.515	111.5
329.744	117.5
329.972	90.5
330.201	101.5
330.43	120.5
330.658	107.5
330.887	136.5
331.115	127.5
331.344	102.5
331.572	101.5
331.801	110.5
332.03	107.5
332.258	87.5
332.486	87.5
332.715	85.5
332.943	84.5
333.172	84.5
333.4	82.5
333.629	105.5
333.857	112.5
334.085	106.5
334.314	87.5
334.542	90.5
334.771	86.5
334.999	80.5
335.227	89.5
335.455	90.5
335.684	94.5
335.912	104.5
336.14	104.5
336.369	96.5
336.597	102.5
336.825	105.5
337.053	94.5
337.281	94.5
337.51	104.5
337.738	85.5
337.966	96.5
338.194	90.5
338.422	94.5
338.65	90.5
338.878	96.5
339.106	86.5
339.334	97.5
339.562	89.5
339.79	72.5
340.018	94.5
340.246	100.5
340.474	90.5
340.702	111.5
340.93	97.5
341.158	115.5
341.386	72.5
341.614	90.5
341.842	96.5
342.07	93.5
342.298	91.5
342.526	86.5
342.754	86.5
342.981	116.5
343.209	86.5
343.437	92.5
343.665	102.5
343.893	93.5
344.12	97.5
344.348	91.5
344.576	91.5
344.804	97.5
345.031	95.5
345.259	101.5
345.487	102.5
345.714	94.5
345.942	98.5
346.17	103.5
346.397	90.5
346.625	96.5
346.853	77.5
347.08	100.5
347.308	102.5
347.535	101.5
347.763	98.5
347.99	102.5
348.218	110.5
348.445	113.5
348.673	101.5
348.9	97.5
349.128	92.5
349.355	110.5
349.583	92.5
349.81	101.5
350.037	93.5
350.265	95.5
350.492	101.5
350.72	97.5
350.947	101.5
351.174	124.5
351.402	103.5
351.629	94.5
351.856	116.5
352.083	108.5
352.311	115.5
352.538	92.5
352.765	101.5
352.992	101.5
353.22	103.5
353.447	99.5
353.674	108.5
353.901	108.5
354.128	83.5
354.355	96.5
354.583	93.5
354.81	102.5
355.037	103.5
355.264	95.5
355.491	87.5
355.718	89.5
355.945	79.5
356.172	92.5
356.399	94.5
356.626	105.5
356.853	96.5
357.08	99.5
357.307	73.5
357.534	90.5
357.761	104.5
357.988	88.5
358.215	93.5
358.441	98.5
358.668	120.5
358.895	95.5
359.122	85.5
359.349	84.5
359.576	82.5
359.802	95.5
360.029	99.5
360.256	117.5
360.483	93.5
360.709	88.5
360.936	95.5
361.163	89.5
361.39	112.5
361.616	90.5
361.843	93.5
362.07	90.5
362.296	114.5
362.523	86.5
362.749	84.5
362.976	86.5
363.203	99.5
363.429	91.5
363.656	92.5
363.882	84.5
364.109	93.5
364.335	86.5
364.562	93.5
364.788	89.5
365.015	97.5
365.241	100.5
365.468	106.5
365.694	96.5
365.92	98.5
366.147	87.5
366.373	85.5
366.599	107.5
366.826	90.5
367.052	112.5
367.278	103.5
367.505	83.5
367.731	104.5
367.957	97.5
368.184	89.5
368.41	95.5
368.636	107.5
368.862	108.5
369.089	119.5
369.315	105.5
369.541	104.5
369.767	93.5
369.993	112.5
370.219	91.5
370.445	84.5
370.672	89.5
370.898	92.5
371.124	95.5
371.35	97.5
371.576	89.5
371.802	91.5
372.028	83.5
372.254	79.5
372.48	85.5
372.706	83.5
372.932	93.5
373.158	95.5
373.384	91.5
373.61	96.5
373.835	97.5
374.061	81.5
374.287	101.5
374.513	89.5
374.739	91.5
374.965	92.5
375.191	91.5
375.416	79.5
375.642	91.5
375.868	100.5
376.094	98.5
376.319	77.5
376.545	81.5
376.771	82.5
376.997	97.5
377.222	100.5
377.448	85.5
377.674	95.5
377.899	95.5
378.125	87.5
378.35	78.5
378.576	86.5
378.802	89.5
379.027	86.5
379.253	86.5
379.478	98.5
379.704	96.5
379.929	93.5
380.155	87.5
380.38	93.5
380.606	92.5
380.831	110.5
381.057	102.5
381.282	104.5
381.507	95.5
381.733	105.5
381.958	91.5
382.184	101.5
382.409	91.5
382.634	93.5
382.86	103.5
383.085	92.5
383.31	88.5
383.535	114.5
383.761	105.5
383.986	110.5
384.211	113.5
384.436	92.5
384.662	90.5
384.887	108.5
385.112	113.5
385.337	103.5
385.562	112.5
385.787	102.5
386.013	109.5
386.238	102.5
386.463	101.5
386.688	115.5
386.913	97.5
387.138	107.5
387.363	106.5
387.588	112.5
387.813	95.5
388.038	104.5
388.263	106.5
388.488	114.5
388.713	101.5
388.938	107.5
389.163	89.5
389.387	103.5
389.612	99.5
389.837	104.5
390.062	99.5
390.287	90.5
390.512	80.5
390.736	96.5
390.961	96.5
391.186	98.5
391.411	100.5
391.636	84.5
391.86	90.5
392.085	104.5
392.31	98.5
392.534	88.5
392.759	99.5
392.984	96.5
393.208	93.5
393.433	100.5
393.658	94.5
393.882	89.5
394.107	85.5
394.331	79.5
394.556	99.5
394.78	103.5
395.005	87.5
395.229	89.5
395.454	90.5
395.678	91.5
395.903	90.5
396.127	89.5
396.352	99.5
396.576	88.5
396.801	92.5
397.025	106.5
397.249	98.5
397.474	87.5
397.698	98.5
397.922	80.5
398.147	94.5
398.371	86.5
398.595	104.5
398.82	104.5
399.044	96.5
399.268	85.5
399.492	80.5
399.717	90.5
399.941	85.5
400.165	94.5
400.389	95.5
400.613	90.5
400.837	100.5
401.062	82.5
401.286	95.5
401.51	92.5
401.734	106.5
401.958	101.5
402.182	125.5
402.406	138.5
402.63	117.5
402.854	99.5
403.078	102.5
403.302	75.5
403.526	95.5
403.75	95.5
403.974	98.5
404.198	93.5
404.422	100.5
404.645	88.5
404.869	88.5
405.093	97.5
405.317	84.5
405.541	108.5
405.765	86.5
405.988	109.5
406.212	159.5
406.436	212.5
406.66	147.5
406.883	109.5
407.107	90.5
407.331	82.5
407.555	95.5
407.778	85.5
408.002	97.5
408.226	102.5
408.449	88.5
408.673	89.5
408.896	95.5
409.12	96.5
409.344	95.5
409.567	97.5
409.791	85.5
410.014	98.5
410.238	82.5
410.461	96.5
410.685	101.5
410.908	106.5
411.132	113.5
411.355	88.5
411.578	104.5
411.802	96.5
412.025	83.5
412.249	84.5
412.472	92.5
412.695	88.5
412.919	85.5
413.142	103.5
413.365	88.5
413.589	100.5
413.812	87.5
414.035	93.5
414.258	106.5
414.482	105.5
414.705	85.5
414.928	79.5
415.151	86.5
415.374	92.5
415.597	94.5
415.821	95.5
416.044	102.5
416.267	92.5
416.49	92.5
416.713	84.5
416.936	82.5
417.159	85.5
417.382	90.5
417.605	88.5
417.828	93.5
418.051	86.5
418.274	95.5
418.497	89.5
418.72	93.5
418.943	75.5
419.166	88.5
419.389	83.5
419.611	86.5
419.834	79.5
420.057	94.5
420.28	88.5
420.503	82.5
420.726	91.5
420.948	79.5
421.171	97.5
421.394	89.5
421.617	98.5
421.839	86.5
422.062	92.5
422.285	91.5
422.507	93.5
422.73	115.5
422.953	97.5
423.175	93.5
423.398	88.5
423.621	92.5
423.843	83.5
424.066	90.5
424.288	79.5
424.511	82.5
424.733	101.5
424.956	109.5
425.178	89.5
425.401	108.5
425.623	100.5
425.846	89.5
426.068	91.5
426.291	80.5
426.513	96.5
426.735	82.5
426.958	86.5
427.18	99.5
427.402	139.5
427.625	161.5
427.847	126.5
428.069	103.5
428.292	96.5
428.514	85.5
428.736	94.5
428.958	99.5
429.181	86.5
429.403	83.5
429.625	84.5
429.847	111.5
430.069	94.5
430.292	104.5
430.514	75.5
430.736	95.5
430.958	85.5
431.18	86.5
431.402	98.5
431.624	80.5
431.846	83.5
432.068	77.5
432.29	94.5
432.512	76.5
432.734	91.5
432.956	102.5
433.178	92.5
433.4	102.5
433.622	95.5
433.844	79.5
434.066	95.5
434.287	99.5
434.509	103.5
434.731	76.5
434.953	77.5
435.175	92.5
435.397	87.5
435.618	96.5
435.84	92.5
436.062	119.5
436.284	114.5
436.505	104.5
436.727	97.5
436.949	90.5
437.17	92.5
437.392	78.5
437.614	96.5
437.835	109.5
438.057	103.5
438.278	107.5
438.5	102.5
438.721	125.5
438.943	100.5
439.165	94.5
439.386	98.5
439.608	97.5
439.829	107.5
440.05	105.5
440.272	151.5
440.493	96.5
440.715	99.5
440.936	96.5
441.158	94.5
441.379	93.5
441.6	105.5
441.822	115.5
442.043	102.5
442.264	101.5
442.486	95.5
442.707	94.5
442.928	107.5
443.149	116.5
443.371	132.5
443.592	120.5
443.813	115.5
444.034	99.5
444.255	84.5
444.476	80.5
444.698	88.5
444.919	93.5
445.14	142.5
445.361	116.5
445.582	118.5
445.803	139.5
446.024	128.5
446.245	130.5
446.466	120.5
446.687	102.5
446.908	105.5
447.129	96.5
447.35	107.5
447.571	83.5
447.792	80.5
448.013	103.5
448.234	109.5
448.455	102.5
448.675	95.5
448.896	108.5
449.117	106.5
449.338	99.5
449.559	119.5
449.779	124.5
450	108.5
450.221	93.5
450.442	89.5
450.662	89.5
450.883	97.5
451.104	105.5
451.324	80.5
451.545	79.5
451.766	94.5
451.986	104.5
452.207	101.5
452.428	96.5
452.648	105.5
452.869	97.5
453.089	114.5
453.31	118.5
453.53	93.5
453.751	91.5
453.971	95.5
454.192	103.5
454.412	109.5
454.633	95.5
454.853	78.5
455.073	95.5
455.294	95.5
455.514	94.5
455.734	89.5
455.955	91.5
456.175	92.5
456.395	85.5
456.616	86.5
456.836	83.5
457.056	88.5
457.276	88.5
457.497	74.5
457.717	78.5
457.937	95.5
458.157	89.5
458.377	88.5
458.598	103.5
458.818	131.5
459.038	150.5
459.258	125.5
459.478	104.5
459.698	88.5
459.918	71.5
460.138	86.5
460.358	88.5
460.578	85.5
460.798	99.5
461.018	76.5
461.238	85.5
461.458	75.5
461.678	78.5
461.898	93.5
462.118	89.5
462.338	92.5
462.558	88.5
462.777	79.5
462.997	83.5
463.217	94.5
463.437	91.5
463.657	100.5
463.876	84.5
464.096	100.5
464.316	78.5
464.536	94.5
464.755	99.5
464.975	101.5
465.195	146.5
465.414	151.5
465.634	79.5
465.854	99.5
466.073	91.5
466.293	70.5
466.512	99.5
466.732	95.5
466.951	77.5
467.171	84.5
467.391	91.5
467.61	92.5
467.829	94.5
468.049	91.5
468.268	74.5
468.488	93.5
468.707	97.5
468.927	91.5
469.146	90.5
469.365	101.5
469.585	103.5
469.804	81.5
470.023	104.5
470.243	89.5
470.462	101.5
470.681	111.5
470.901	71.5
471.12	80.5
471.339	87.5
471.558	98.5
471.777	93.5
471.997	94.5
472.216	71.5
472.435	86.5
472.654	90.5
472.873	105.5
473.092	98.5
473.311	102.5
473.53	91.5
473.749	93.5
473.968	95.5
474.187	98.5
474.406	86.5
474.625	104.5
474.844	92.5
475.063	97.5
475.282	99.5
475.501	96.5
475.72	92.5
475.939	78.5
476.158	83.5
476.377	79.5
476.596	92.5
476.814	84.5
477.033	83.5
477.252	93.5
477.471	91.5
477.69	100.5
477.908	89.5
478.127	94.5
478.346	68.5
478.564	95.5
478.783	101.5
479.002	94.5
479.22	94.5
479.439	99.5
479.658	108.5
479.876	98.5
480.095	99.5
480.313	90.5
480.532	93.5
480.751	88.5
480.969	103.5
481.188	108.5
481.406	101.5
481.624	104.5
481.843	88.5
482.061	99.5
482.28	98.5
482.498	92.5
482.717	91.5
482.935	100.5
483.153	85.5
483.372	85.5
483.59	99.5
483.808	106.5
484.027	91.5
484.245	87.5
484.463	97.5
484.681	91.5
484.9	95.5
485.118	95.5
485.336	87.5
485.554	91.5
485.772	104.5
485.99	114.5
486.209	111.5
486.427	105.5
486.645	117.5
486.863	106.5
487.081	97.5
487.299	93.5
487.517	91.5
487.735	86.5
487.953	103.5
488.171	103.5
488.389	101.5
488.607	90.5
488.825	95.5
489.043	110.5
489.261	84.5
489.479	80.5
489.696	94.5
489.914	97.5
490.132	96.5
490.35	92.5
490.568	82.5
490.786	89.5
491.003	92.5
491.221	92.5
491.439	96.5
491.657	86.5
491.874	103.5
492.092	93.5
492.31	95.5
492.527	85.5
492.745	95.5
492.963	95.5
493.18	88.5
493.398	91.5
493.615	83.5
493.833	100.5
494.05	82.5
494.268	86.5
494.485	96.5
494.703	94.5
494.92	102.5
495.138	88.5
495.355	89.5
495.573	98.5
495.79	95.5
496.008	82.5
496.225	83.5
496.442	86.5
496.66	92.5
496.877	98.5
497.094	93.5
497.312	84.5
497.529	103.5
497.746	106.5
497.963	98.5
498.181	94.5
498.398	120.5
498.615	125.5
498.832	112.5
499.049	91.5
499.267	93.5
499.484	108.5
499.701	82.5
499.918	102.5
500.135	83.5
500.352	84.5
500.569	109.5
500.786	96.5
501.003	99.5
501.22	89.5
501.437	82.5
501.654	97.5
501.871	107.5
502.088	93.5
502.305	110.5
502.522	107.5
502.739	83.5
502.956	90.5
503.172	95.5
503.389	93.5
503.606	107.5
503.823	99.5
504.04	91.5
504.256	99.5
504.473	94.5
504.69	92.5
504.907	102.5
505.123	94.5
505.34	88.5
505.557	85.5
505.773	102.5
505.99	111.5
506.207	88.5
506.423	87.5
506.64	78.5
506.856	84.5
507.073	102.5
507.289	84.5
507.506	101.5
507.722	112.5
507.939	110.5
508.155	85.5
508.372	94.5
508.588	100.5
508.805	99.5
509.021	102.5
509.238	103.5
509.454	108.5
509.67	112.5
509.887	115.5
510.103	145.5
510.319	231.5
510.536	721.5
510.752	2379.5
510.968	675.5
511.184	172.5
511.401	118.5
511.617	97.5
511.833	92.5
512.049	93.5
512.265	94.5
512.481	99.5
512.698	86.5
512.914	91.5
513.13	90.5
513.346	99.5
513.562	105.5
513.778	100.5
513.994	107.5
514.21	120.5
514.426	120.5
514.642	131.5
514.858	119.5
515.074	160.5
515.29	426.5
515.506	1394.5
515.721	520.5
515.937	159.5
516.153	106.5
516.369	98.5
516.585	111.5
516.801	94.5
517.016	118.5
517.232	95.5
517.448	100.5
517.664	91.5
517.879	90.5
518.095	94.5
518.311	104.5
518.527	95.5
518.742	94.5
518.958	104.5
519.173	95.5
519.389	91.5
519.605	111.5
519.82	96.5
520.036	102.5
520.251	108.5
520.467	105.5
520.682	110.5
520.898	107.5
521.113	131.5
521.329	139.5
521.544	204.5
521.76	534.5
521.975	2240.5
522.19	1375.5
522.406	315.5
522.621	122.5
522.836	101.5
523.052	94.5
523.267	85.5
523.482	79.5
523.698	85.5
523.913	123.5
524.128	108.5
524.343	105.5
524.559	84.5
524.774	103.5
524.989	97.5
525.204	99.5
525.419	105.5
525.634	88.5
525.849	100.5
526.064	103.5
526.28	88.5
526.495	89.5
526.71	89.5
526.925	101.5
527.14	100.5
527.355	87.5
527.57	95.5
527.785	92.5
527.999	85.5
528.214	96.5
528.429	103.5
528.644	96.5
528.859	105.5
529.074	108.5
529.289	122.5
529.503	164.5
529.718	115.5
529.933	92.5
530.148	96.5
530.363	82.5
530.577	87.5
530.792	110.5
531.007	102.5
531.221	100.5
531.436	79.5
531.651	100.5
531.865	76.5
532.08	81.5
532.295	91.5
532.509	100.5
532.724	99.5
532.938	103.5
533.153	99.5
533.367	102.5
533.582	96.5
533.796	103.5
534.011	110.5
534.225	91.5
