Data from Uncirc_2000_H10_HRD10591_00008.txt Node
Date: Wed Jan 03 10:48:18 EST 2024
User: Yrep
Spectrometer: HR+D1059
Trigger mode: 1
Integration Time (sec): 1.000000E-1
Scans to average: 1
Electric dark correction enabled: true
Nonlinearity correction enabled: false
Boxcar width: 0
XAxis mode: Wavelengths
Number of Pixels in Spectrum: 2048
>>>>>Begin Spectral Data<<<<<
223.165	-18.31
223.4	-18.31
223.635	-18.31
223.869	-10.31
224.104	-29.31
224.338	-10.31
224.573	-8.31
224.808	-24.31
225.042	7.69
225.277	-12.31
225.511	-15.31
225.746	-2.31
225.98	8.69
226.215	19.69
226.449	16.69
226.683	18.69
226.918	15.69
227.152	43.69
227.387	38.69
227.621	44.69
227.856	46.69
228.09	39.69
228.324	43.69
228.559	36.69
228.793	58.69
229.027	44.69
229.262	70.69
229.496	63.69
229.73	68.69
229.964	78.69
230.199	76.69
230.433	61.69
230.667	86.69
230.901	74.69
231.136	67.69
231.37	54.69
231.604	83.69
231.838	84.69
232.072	78.69
232.306	74.69
232.541	67.69
232.775	75.69
233.009	73.69
233.243	85.69
233.477	85.69
233.711	91.69
233.945	59.69
234.179	68.69
234.413	80.69
234.647	73.69
234.881	76.69
235.115	73.69
235.349	73.69
235.583	73.69
235.817	73.69
236.051	78.69
236.285	82.69
236.519	83.69
236.753	64.69
236.987	81.69
237.221	74.69
237.455	89.69
237.689	93.69
237.922	70.69
238.156	74.69
238.39	67.69
238.624	74.69
238.858	75.69
239.091	81.69
239.325	69.69
239.559	75.69
239.793	70.69
240.027	84.69
240.26	66.69
240.494	80.69
240.728	78.69
240.961	74.69
241.195	82.69
241.429	71.69
241.662	73.69
241.896	76.69
242.13	75.69
242.363	73.69
242.597	56.69
242.83	76.69
243.064	72.69
243.298	79.69
243.531	81.69
243.765	71.69
243.998	83.69
244.232	82.69
244.465	69.69
244.699	68.69
244.932	81.69
245.166	79.69
245.399	62.69
245.633	85.69
245.866	70.69
246.099	74.69
246.333	70.69
246.566	76.69
246.8	73.69
247.033	71.69
247.266	78.69
247.5	77.69
247.733	86.69
247.966	77.69
248.2	67.69
248.433	82.69
248.666	82.69
248.899	78.69
249.133	84.69
249.366	90.69
249.599	89.69
249.832	66.69
250.066	79.69
250.299	84.69
250.532	97.69
250.765	79.69
250.998	88.69
251.231	75.69
251.465	73.69
251.698	70.69
251.931	73.69
252.164	83.69
252.397	73.69
252.63	76.69
252.863	101.69
253.096	74.69
253.329	66.69
253.562	78.69
253.795	59.69
254.028	70.69
254.261	55.69
254.494	82.69
254.727	82.69
254.96	69.69
255.193	86.69
255.426	72.69
255.659	71.69
255.892	78.69
256.124	80.69
256.357	83.69
256.59	83.69
256.823	87.69
257.056	75.69
257.289	75.69
257.521	75.69
257.754	74.69
257.987	76.69
258.22	78.69
258.452	75.69
258.685	68.69
258.918	81.69
259.151	84.69
259.383	83.69
259.616	80.69
259.849	81.69
260.081	86.69
260.314	59.69
260.547	68.69
260.779	71.69
261.012	77.69
261.244	72.69
261.477	91.69
261.71	92.69
261.942	96.69
262.175	99.69
262.407	77.69
262.64	88.69
262.872	84.69
263.105	65.69
263.337	78.69
263.57	75.69
263.802	76.69
264.035	75.69
264.267	84.69
264.499	94.69
264.732	77.69
264.964	73.69
265.197	85.69
265.429	89.69
265.661	83.69
265.894	75.69
266.126	82.69
266.358	82.69
266.591	71.69
266.823	89.69
267.055	98.69
267.287	94.69
267.52	87.69
267.752	78.69
267.984	79.69
268.216	78.69
268.448	81.69
268.681	87.69
268.913	90.69
269.145	78.69
269.377	66.69
269.609	82.69
269.841	72.69
270.073	83.69
270.306	90.69
270.538	82.69
270.77	87.69
271.002	73.69
271.234	84.69
271.466	89.69
271.698	75.69
271.93	83.69
272.162	88.69
272.394	82.69
272.626	81.69
272.858	82.69
273.09	79.69
273.322	79.69
273.553	72.69
273.785	68.69
274.017	81.69
274.249	89.69
274.481	90.69
274.713	93.69
274.945	80.69
275.176	83.69
275.408	79.69
275.64	63.69
275.872	81.69
276.104	76.69
276.335	72.69
276.567	106.69
276.799	84.69
277.031	85.69
277.262	81.69
277.494	79.69
277.726	75.69
277.957	79.69
278.189	75.69
278.421	80.69
278.652	81.69
278.884	86.69
279.115	76.69
279.347	78.69
279.579	87.69
279.81	76.69
280.042	88.69
280.273	83.69
280.505	87.69
280.736	94.69
280.968	82.69
281.199	84.69
281.431	85.69
281.662	62.69
281.894	82.69
282.125	77.69
282.356	91.69
282.588	108.69
282.819	87.69
283.051	91.69
283.282	89.69
283.513	99.69
283.745	91.69
283.976	81.69
284.207	73.69
284.439	81.69
284.67	89.69
284.901	80.69
285.132	91.69
285.364	94.69
285.595	78.69
285.826	87.69
286.057	103.69
286.288	96.69
286.52	76.69
286.751	98.69
286.982	78.69
287.213	81.69
287.444	77.69
287.675	84.69
287.906	101.69
288.138	73.69
288.369	88.69
288.6	89.69
288.831	89.69
289.062	95.69
289.293	84.69
289.524	73.69
289.755	85.69
289.986	91.69
290.217	81.69
290.448	89.69
290.679	88.69
290.91	87.69
291.141	82.69
291.371	82.69
291.602	78.69
291.833	78.69
292.064	90.69
292.295	78.69
292.526	81.69
292.757	90.69
292.987	86.69
293.218	81.69
293.449	75.69
293.68	80.69
293.91	72.69
294.141	88.69
294.372	86.69
294.603	98.69
294.833	87.69
295.064	75.69
295.295	89.69
295.525	100.69
295.756	97.69
295.987	113.69
296.217	97.69
296.448	98.69
296.679	81.69
296.909	64.69
297.14	83.69
297.37	90.69
297.601	88.69
297.831	87.69
298.062	87.69
298.292	101.69
298.523	89.69
298.753	85.69
298.984	87.69
299.214	74.69
299.445	82.69
299.675	97.69
299.905	84.69
300.136	80.69
300.366	91.69
300.597	85.69
300.827	77.69
301.057	91.69
301.288	85.69
301.518	78.69
301.748	90.69
301.979	91.69
302.209	76.69
302.439	79.69
302.669	91.69
302.9	89.69
303.13	104.69
303.36	98.69
303.59	95.69
303.82	93.69
304.051	80.69
304.281	88.69
304.511	82.69
304.741	78.69
304.971	106.69
305.201	94.69
305.431	89.69
305.661	98.69
305.891	85.69
306.121	102.69
306.352	99.69
306.582	92.69
306.812	82.69
307.042	78.69
307.272	97.69
307.502	94.69
307.731	89.69
307.961	85.69
308.191	82.69
308.421	92.69
308.651	90.69
308.881	97.69
309.111	81.69
309.341	95.69
309.571	96.69
309.8	95.69
310.03	88.69
310.26	95.69
310.49	71.69
310.72	93.69
310.949	82.69
311.179	92.69
311.409	82.69
311.639	76.69
311.868	88.69
312.098	76.69
312.328	83.69
312.557	88.69
312.787	99.69
313.017	108.69
313.246	88.69
313.476	88.69
313.706	86.69
313.935	92.69
314.165	97.69
314.394	102.69
314.624	99.69
314.853	92.69
315.083	84.69
315.312	99.69
315.542	85.69
315.771	81.69
316.001	94.69
316.23	89.69
316.46	95.69
316.689	99.69
316.919	97.69
317.148	90.69
317.377	96.69
317.607	82.69
317.836	99.69
318.065	90.69
318.295	87.69
318.524	99.69
318.753	90.69
318.983	99.69
319.212	100.69
319.441	96.69
319.67	98.69
319.9	88.69
320.129	92.69
320.358	84.69
320.587	88.69
320.816	86.69
321.046	90.69
321.275	103.69
321.504	96.69
321.733	95.69
321.962	92.69
322.191	90.69
322.42	87.69
322.649	107.69
322.878	89.69
323.108	104.69
323.337	118.69
323.566	131.69
323.795	130.69
324.024	186.69
324.253	313.69
324.482	646.69
324.71	1327.69
324.939	1687.69
325.168	633.69
325.397	207.69
325.626	118.69
325.855	106.69
326.084	109.69
326.313	128.69
326.542	134.69
326.77	199.69
326.999	386.69
327.228	779.69
327.457	1364.69
327.686	1049.69
327.914	297.69
328.143	160.69
328.372	119.69
328.6	105.69
328.829	92.69
329.058	104.69
329.287	114.69
329.515	103.69
329.744	97.69
329.972	106.69
330.201	95.69
330.43	95.69
330.658	106.69
330.887	117.69
331.115	110.69
331.344	99.69
331.572	92.69
331.801	98.69
332.03	92.69
332.258	92.69
332.486	92.69
332.715	90.69
332.943	92.69
333.172	100.69
333.4	92.69
333.629	96.69
333.857	101.69
334.085	89.69
334.314	94.69
334.542	92.69
334.771	92.69
334.999	86.69
335.227	96.69
335.455	86.69
335.684	99.69
335.912	95.69
336.14	93.69
336.369	84.69
336.597	95.69
336.825	96.69
337.053	82.69
337.281	93.69
337.51	95.69
337.738	86.69
337.966	94.69
338.194	91.69
338.422	92.69
338.65	86.69
338.878	102.69
339.106	94.69
339.334	92.69
339.562	87.69
339.79	79.69
340.018	89.69
340.246	102.69
340.474	90.69
340.702	85.69
340.93	95.69
341.158	89.69
341.386	105.69
341.614	100.69
341.842	98.69
342.07	100.69
342.298	95.69
342.526	92.69
342.754	81.69
342.981	81.69
343.209	83.69
343.437	92.69
343.665	102.69
343.893	81.69
344.12	88.69
344.348	94.69
344.576	90.69
344.804	88.69
345.031	81.69
345.259	88.69
345.487	92.69
345.714	72.69
345.942	104.69
346.17	92.69
346.397	91.69
346.625	107.69
346.853	89.69
347.08	83.69
347.308	97.69
347.535	93.69
347.763	78.69
347.99	96.69
348.218	96.69
348.445	73.69
348.673	88.69
348.9	90.69
349.128	71.69
349.355	91.69
349.583	93.69
349.81	88.69
350.037	87.69
350.265	79.69
350.492	96.69
350.72	107.69
350.947	90.69
351.174	101.69
351.402	102.69
351.629	90.69
351.856	97.69
352.083	90.69
352.311	103.69
352.538	96.69
352.765	96.69
352.992	102.69
353.22	99.69
353.447	98.69
353.674	88.69
353.901	88.69
354.128	102.69
354.355	84.69
354.583	99.69
354.81	91.69
355.037	97.69
355.264	88.69
355.491	98.69
355.718	103.69
355.945	86.69
356.172	94.69
356.399	93.69
356.626	88.69
356.853	100.69
357.08	98.69
357.307	83.69
357.534	75.69
357.761	85.69
357.988	87.69
358.215	100.69
358.441	89.69
358.668	106.69
358.895	92.69
359.122	104.69
359.349	77.69
359.576	89.69
359.802	101.69
360.029	104.69
360.256	82.69
360.483	88.69
360.709	79.69
360.936	76.69
361.163	94.69
361.39	93.69
361.616	88.69
361.843	90.69
362.07	92.69
362.296	83.69
362.523	95.69
362.749	94.69
362.976	87.69
363.203	78.69
363.429	78.69
363.656	74.69
363.882	94.69
364.109	87.69
364.335	99.69
364.562	87.69
364.788	86.69
365.015	94.69
365.241	92.69
365.468	91.69
365.694	98.69
365.92	91.69
366.147	82.69
366.373	79.69
366.599	74.69
366.826	86.69
367.052	78.69
367.278	84.69
367.505	86.69
367.731	80.69
367.957	90.69
368.184	90.69
368.41	88.69
368.636	94.69
368.862	86.69
369.089	80.69
369.315	94.69
369.541	97.69
369.767	74.69
369.993	90.69
370.219	84.69
370.445	74.69
370.672	80.69
370.898	77.69
371.124	91.69
371.35	90.69
371.576	92.69
371.802	83.69
372.028	68.69
372.254	92.69
372.48	95.69
372.706	89.69
372.932	91.69
373.158	95.69
373.384	63.69
373.61	90.69
373.835	100.69
374.061	79.69
374.287	77.69
374.513	84.69
374.739	74.69
374.965	76.69
375.191	91.69
375.416	95.69
375.642	78.69
375.868	80.69
376.094	87.69
376.319	87.69
376.545	87.69
376.771	89.69
376.997	79.69
377.222	75.69
377.448	86.69
377.674	91.69
377.899	87.69
378.125	91.69
378.35	93.69
378.576	78.69
378.802	91.69
379.027	81.69
379.253	94.69
379.478	92.69
379.704	84.69
379.929	84.69
380.155	90.69
380.38	108.69
380.606	86.69
380.831	100.69
381.057	88.69
381.282	97.69
381.507	101.69
381.733	112.69
381.958	100.69
382.184	94.69
382.409	95.69
382.634	108.69
382.86	102.69
383.085	112.69
383.31	116.69
383.535	97.69
383.761	92.69
383.986	96.69
384.211	85.69
384.436	102.69
384.662	97.69
384.887	112.69
385.112	95.69
385.337	107.69
385.562	102.69
385.787	105.69
386.013	122.69
386.238	120.69
386.463	110.69
386.688	131.69
386.913	105.69
387.138	89.69
387.363	101.69
387.588	107.69
387.813	87.69
388.038	94.69
388.263	114.69
388.488	115.69
388.713	95.69
388.938	97.69
389.163	95.69
389.387	92.69
389.612	94.69
389.837	86.69
390.062	108.69
390.287	97.69
390.512	90.69
390.736	88.69
390.961	93.69
391.186	91.69
391.411	98.69
391.636	95.69
391.86	101.69
392.085	91.69
392.31	82.69
392.534	85.69
392.759	67.69
392.984	100.69
393.208	99.69
393.433	106.69
393.658	83.69
393.882	71.69
394.107	67.69
394.331	81.69
394.556	91.69
394.78	89.69
395.005	88.69
395.229	102.69
395.454	84.69
395.678	89.69
395.903	75.69
396.127	83.69
396.352	83.69
396.576	90.69
396.801	88.69
397.025	91.69
397.249	98.69
397.474	100.69
397.698	80.69
397.922	74.69
398.147	74.69
398.371	87.69
398.595	90.69
398.82	82.69
399.044	86.69
399.268	84.69
399.492	85.69
399.717	97.69
399.941	84.69
400.165	80.69
400.389	88.69
400.613	88.69
400.837	98.69
401.062	95.69
401.286	73.69
401.51	83.69
401.734	92.69
401.958	104.69
402.182	105.69
402.406	137.69
402.63	105.69
402.854	101.69
403.078	85.69
403.302	83.69
403.526	98.69
403.75	91.69
403.974	72.69
404.198	86.69
404.422	89.69
404.645	85.69
404.869	98.69
405.093	91.69
405.317	82.69
405.541	85.69
405.765	99.69
405.988	94.69
406.212	127.69
406.436	155.69
406.66	109.69
406.883	92.69
407.107	80.69
407.331	92.69
407.555	85.69
407.778	80.69
408.002	86.69
408.226	76.69
408.449	91.69
408.673	86.69
408.896	89.69
409.12	86.69
409.344	87.69
409.567	90.69
409.791	92.69
410.014	96.69
410.238	83.69
410.461	92.69
410.685	86.69
410.908	107.69
411.132	101.69
411.355	91.69
411.578	88.69
411.802	76.69
412.025	87.69
412.249	96.69
412.472	89.69
412.695	96.69
412.919	90.69
413.142	94.69
413.365	82.69
413.589	79.69
413.812	87.69
414.035	81.69
414.258	94.69
414.482	91.69
414.705	76.69
414.928	95.69
415.151	95.69
415.374	88.69
415.597	98.69
415.821	85.69
416.044	77.69
416.267	83.69
416.49	84.69
416.713	84.69
416.936	83.69
417.159	92.69
417.382	87.69
417.605	88.69
417.828	81.69
418.051	91.69
418.274	83.69
418.497	79.69
418.72	91.69
418.943	84.69
419.166	92.69
419.389	87.69
419.611	85.69
419.834	88.69
420.057	87.69
420.28	89.69
420.503	94.69
420.726	83.69
420.948	100.69
421.171	95.69
421.394	86.69
421.617	98.69
421.839	102.69
422.062	80.69
422.285	87.69
422.507	103.69
422.73	103.69
422.953	104.69
423.175	74.69
423.398	92.69
423.621	79.69
423.843	80.69
424.066	82.69
424.288	87.69
424.511	93.69
424.733	86.69
424.956	100.69
425.178	79.69
425.401	100.69
425.623	103.69
425.846	92.69
426.068	79.69
426.291	90.69
426.513	75.69
426.735	91.69
426.958	72.69
427.18	91.69
427.402	102.69
427.625	130.69
427.847	110.69
428.069	98.69
428.292	71.69
428.514	82.69
428.736	84.69
428.958	76.69
429.181	80.69
429.403	101.69
429.625	91.69
429.847	91.69
430.069	93.69
430.292	84.69
430.514	82.69
430.736	79.69
430.958	84.69
431.18	90.69
431.402	95.69
431.624	94.69
431.846	80.69
432.068	75.69
432.29	97.69
432.512	75.69
432.734	75.69
432.956	75.69
433.178	84.69
433.4	106.69
433.622	91.69
433.844	81.69
434.066	102.69
434.287	89.69
434.509	90.69
434.731	89.69
434.953	83.69
435.175	98.69
435.397	87.69
435.618	85.69
435.84	99.69
436.062	113.69
436.284	100.69
436.505	103.69
436.727	80.69
436.949	96.69
437.17	88.69
437.392	87.69
437.614	79.69
437.835	107.69
438.057	96.69
438.278	103.69
438.5	91.69
438.721	89.69
438.943	91.69
439.165	95.69
439.386	94.69
439.608	89.69
439.829	86.69
440.05	111.69
440.272	124.69
440.493	89.69
440.715	88.69
440.936	75.69
441.158	82.69
441.379	79.69
441.6	89.69
441.822	87.69
442.043	96.69
442.264	85.69
442.486	92.69
442.707	86.69
442.928	102.69
443.149	119.69
443.371	119.69
443.592	87.69
443.813	105.69
444.034	85.69
444.255	89.69
444.476	96.69
444.698	97.69
444.919	97.69
445.14	135.69
445.361	113.69
445.582	95.69
445.803	107.69
446.024	112.69
446.245	110.69
446.466	95.69
446.687	100.69
446.908	81.69
447.129	69.69
447.35	103.69
447.571	85.69
447.792	80.69
448.013	96.69
448.234	85.69
448.455	83.69
448.675	91.69
448.896	105.69
449.117	81.69
449.338	94.69
449.559	108.69
449.779	112.69
450	100.69
450.221	86.69
450.442	98.69
450.662	86.69
450.883	102.69
451.104	111.69
451.324	87.69
451.545	85.69
451.766	80.69
451.986	84.69
452.207	68.69
452.428	86.69
452.648	86.69
452.869	88.69
453.089	105.69
453.31	104.69
453.53	86.69
453.751	76.69
453.971	97.69
454.192	100.69
454.412	82.69
454.633	97.69
454.853	75.69
455.073	90.69
455.294	100.69
455.514	91.69
455.734	86.69
455.955	86.69
456.175	81.69
456.395	103.69
456.616	86.69
456.836	89.69
457.056	91.69
457.276	89.69
457.497	81.69
457.717	90.69
457.937	82.69
458.157	91.69
458.377	86.69
458.598	91.69
458.818	112.69
459.038	105.69
459.258	103.69
459.478	91.69
459.698	87.69
459.918	97.69
460.138	83.69
460.358	81.69
460.578	79.69
460.798	87.69
461.018	92.69
461.238	87.69
461.458	75.69
461.678	81.69
461.898	87.69
462.118	88.69
462.338	90.69
462.558	86.69
462.777	79.69
462.997	88.69
463.217	80.69
463.437	83.69
463.657	83.69
463.876	82.69
464.096	83.69
464.316	82.69
464.536	95.69
464.755	84.69
464.975	83.69
465.195	127.69
465.414	118.69
465.634	84.69
465.854	84.69
466.073	88.69
466.293	90.69
466.512	87.69
466.732	96.69
466.951	80.69
467.171	94.69
467.391	103.69
467.61	84.69
467.829	85.69
468.049	85.69
468.268	75.69
468.488	64.69
468.707	95.69
468.927	89.69
469.146	77.69
469.365	89.69
469.585	76.69
469.804	92.69
470.023	85.69
470.243	89.69
470.462	99.69
470.681	104.69
470.901	90.69
471.12	80.69
471.339	81.69
471.558	80.69
471.777	92.69
471.997	97.69
472.216	86.69
472.435	72.69
472.654	90.69
472.873	94.69
473.092	67.69
473.311	85.69
473.53	89.69
473.749	88.69
473.968	72.69
474.187	110.69
474.406	91.69
474.625	94.69
474.844	84.69
475.063	79.69
475.282	74.69
475.501	91.69
475.72	99.69
475.939	93.69
476.158	78.69
476.377	88.69
476.596	71.69
476.814	85.69
477.033	89.69
477.252	96.69
477.471	78.69
477.69	87.69
477.908	94.69
478.127	81.69
478.346	96.69
478.564	95.69
478.783	87.69
479.002	93.69
479.22	72.69
479.439	98.69
479.658	95.69
479.876	94.69
480.095	85.69
480.313	78.69
480.532	87.69
480.751	74.69
480.969	80.69
481.188	91.69
481.406	97.69
481.624	87.69
481.843	86.69
482.061	91.69
482.28	96.69
482.498	75.69
482.717	84.69
482.935	102.69
483.153	84.69
483.372	82.69
483.59	87.69
483.808	83.69
484.027	73.69
484.245	79.69
484.463	80.69
484.681	100.69
484.9	69.69
485.118	81.69
485.336	88.69
485.554	92.69
485.772	105.69
485.99	105.69
486.209	92.69
486.427	93.69
486.645	90.69
486.863	103.69
487.081	93.69
487.299	94.69
487.517	106.69
487.735	80.69
487.953	100.69
488.171	98.69
488.389	90.69
488.607	114.69
488.825	99.69
489.043	83.69
489.261	97.69
489.479	82.69
489.696	86.69
489.914	75.69
490.132	86.69
490.35	78.69
490.568	98.69
490.786	77.69
491.003	80.69
491.221	100.69
491.439	94.69
491.657	105.69
491.874	89.69
492.092	82.69
492.31	98.69
492.527	89.69
492.745	93.69
492.963	94.69
493.18	96.69
493.398	97.69
493.615	85.69
493.833	98.69
494.05	83.69
494.268	83.69
494.485	85.69
494.703	99.69
494.92	98.69
495.138	83.69
495.355	81.69
495.573	89.69
495.79	97.69
496.008	89.69
496.225	84.69
496.442	96.69
496.66	99.69
496.877	88.69
497.094	104.69
497.312	85.69
497.529	81.69
497.746	85.69
497.963	96.69
498.181	95.69
498.398	87.69
498.615	100.69
498.832	91.69
499.049	79.69
499.267	79.69
499.484	100.69
499.701	92.69
499.918	89.69
500.135	84.69
500.352	79.69
500.569	97.69
500.786	104.69
501.003	94.69
501.22	84.69
501.437	100.69
501.654	94.69
501.871	93.69
502.088	95.69
502.305	90.69
502.522	88.69
502.739	87.69
502.956	95.69
503.172	84.69
503.389	82.69
503.606	92.69
503.823	92.69
504.04	94.69
504.256	102.69
504.473	71.69
504.69	80.69
504.907	92.69
505.123	82.69
505.34	72.69
505.557	84.69
505.773	94.69
505.99	94.69
506.207	74.69
506.423	92.69
506.64	96.69
506.856	85.69
507.073	80.69
507.289	89.69
507.506	91.69
507.722	96.69
507.939	115.69
508.155	89.69
508.372	86.69
508.588	91.69
508.805	101.69
509.021	74.69
509.238	82.69
509.454	98.69
509.67	89.69
509.887	91.69
510.103	119.69
510.319	174.69
510.536	523.69
510.752	1540.69
510.968	468.69
511.184	120.69
511.401	95.69
511.617	84.69
511.833	84.69
512.049	93.69
512.265	94.69
512.481	79.69
512.698	106.69
512.914	96.69
513.13	86.69
513.346	87.69
513.562	94.69
513.778	88.69
513.994	97.69
514.21	105.69
514.426	102.69
514.642	111.69
514.858	115.69
515.074	136.69
515.29	288.69
515.506	850.69
515.721	339.69
515.937	120.69
516.153	90.69
516.369	83.69
516.585	78.69
516.801	90.69
517.016	97.69
517.232	82.69
