Data from Uncirc_2000_H10_HRD10591_00012.txt Node
Date: Wed Jan 03 10:48:19 EST 2024
User: Yrep
Spectrometer: HR+D1059
Trigger mode: 1
Integration Time (sec): 1.000000E-1
Scans to average: 1
Electric dark correction enabled: true
Nonlinearity correction enabled: false
Boxcar width: 0
XAxis mode: Wavelengths
Number of Pixels in Spectrum: 2048
>>>>>Begin Spectral Data<<<<<
223.165	-15.31
223.4	-15.31
223.635	-15.31
223.869	-26.31
224.104	-20.31
224.338	-23.31
224.573	-9.31
224.808	-13.31
225.042	3.69
225.277	-6.31
225.511	2.69
225.746	8.69
225.98	7.69
226.215	11.69
226.449	18.69
226.683	20.69
226.918	12.69
227.152	27.69
227.387	34.69
227.621	50.69
227.856	50.69
228.09	63.69
228.324	36.69
228.559	50.69
228.793	62.69
229.027	66.69
229.262	59.69
229.496	62.69
229.73	76.69
229.964	85.69
230.199	70.69
230.433	85.69
230.667	75.69
230.901	76.69
231.136	78.69
231.37	80.69
231.604	84.69
231.838	74.69
232.072	79.69
232.306	73.69
232.541	88.69
232.775	94.69
233.009	70.69
233.243	81.69
233.477	79.69
233.711	87.69
233.945	79.69
234.179	82.69
234.413	88.69
234.647	86.69
234.881	87.69
235.115	92.69
235.349	77.69
235.583	77.69
235.817	85.69
236.051	83.69
236.285	86.69
236.519	79.69
236.753	77.69
236.987	71.69
237.221	86.69
237.455	81.69
237.689	77.69
237.922	87.69
238.156	80.69
238.39	80.69
238.624	91.69
238.858	85.69
239.091	89.69
239.325	71.69
239.559	80.69
239.793	80.69
240.027	77.69
240.26	84.69
240.494	73.69
240.728	77.69
240.961	82.69
241.195	75.69
241.429	82.69
241.662	66.69
241.896	88.69
242.13	88.69
242.363	86.69
242.597	75.69
242.83	73.69
243.064	86.69
243.298	86.69
243.531	70.69
243.765	83.69
243.998	90.69
244.232	72.69
244.465	78.69
244.699	96.69
244.932	81.69
245.166	83.69
245.399	85.69
245.633	88.69
245.866	81.69
246.099	66.69
246.333	78.69
246.566	89.69
246.8	78.69
247.033	71.69
247.266	83.69
247.5	85.69
247.733	87.69
247.966	90.69
248.2	84.69
248.433	72.69
248.666	86.69
248.899	91.69
249.133	79.69
249.366	89.69
249.599	88.69
249.832	77.69
250.066	75.69
250.299	83.69
250.532	83.69
250.765	76.69
250.998	75.69
251.231	69.69
251.465	75.69
251.698	86.69
251.931	91.69
252.164	92.69
252.397	89.69
252.63	95.69
252.863	85.69
253.096	79.69
253.329	75.69
253.562	71.69
253.795	73.69
254.028	92.69
254.261	99.69
254.494	75.69
254.727	70.69
254.96	77.69
255.193	93.69
255.426	78.69
255.659	94.69
255.892	87.69
256.124	79.69
256.357	88.69
256.59	86.69
256.823	86.69
257.056	84.69
257.289	79.69
257.521	81.69
257.754	75.69
257.987	89.69
258.22	96.69
258.452	96.69
258.685	83.69
258.918	90.69
259.151	80.69
259.383	69.69
259.616	84.69
259.849	85.69
260.081	93.69
260.314	81.69
260.547	90.69
260.779	76.69
261.012	83.69
261.244	74.69
261.477	93.69
261.71	95.69
261.942	106.69
262.175	104.69
262.407	102.69
262.64	90.69
262.872	96.69
263.105	93.69
263.337	91.69
263.57	80.69
263.802	78.69
264.035	81.69
264.267	78.69
264.499	90.69
264.732	96.69
264.964	89.69
265.197	84.69
265.429	82.69
265.661	86.69
265.894	82.69
266.126	83.69
266.358	72.69
266.591	94.69
266.823	88.69
267.055	86.69
267.287	78.69
267.52	93.69
267.752	84.69
267.984	94.69
268.216	71.69
268.448	98.69
268.681	87.69
268.913	97.69
269.145	93.69
269.377	93.69
269.609	75.69
269.841	79.69
270.073	81.69
270.306	82.69
270.538	91.69
270.77	85.69
271.002	86.69
271.234	84.69
271.466	90.69
271.698	76.69
271.93	85.69
272.162	86.69
272.394	68.69
272.626	85.69
272.858	84.69
273.09	87.69
273.322	91.69
273.553	93.69
273.785	86.69
274.017	69.69
274.249	98.69
274.481	94.69
274.713	88.69
274.945	84.69
275.176	104.69
275.408	83.69
275.64	70.69
275.872	90.69
276.104	94.69
276.335	100.69
276.567	101.69
276.799	92.69
277.031	95.69
277.262	78.69
277.494	87.69
277.726	105.69
277.957	75.69
278.189	100.69
278.421	85.69
278.652	86.69
278.884	98.69
279.115	84.69
279.347	87.69
279.579	80.69
279.81	91.69
280.042	90.69
280.273	82.69
280.505	80.69
280.736	88.69
280.968	107.69
281.199	94.69
281.431	83.69
281.662	91.69
281.894	100.69
282.125	95.69
282.356	103.69
282.588	120.69
282.819	106.69
283.051	90.69
283.282	85.69
283.513	92.69
283.745	90.69
283.976	93.69
284.207	92.69
284.439	86.69
284.67	90.69
284.901	82.69
285.132	84.69
285.364	79.69
285.595	85.69
285.826	83.69
286.057	84.69
286.288	77.69
286.52	80.69
286.751	93.69
286.982	74.69
287.213	82.69
287.444	93.69
287.675	83.69
287.906	87.69
288.138	92.69
288.369	87.69
288.6	105.69
288.831	94.69
289.062	95.69
289.293	86.69
289.524	95.69
289.755	77.69
289.986	106.69
290.217	91.69
290.448	82.69
290.679	103.69
290.91	93.69
291.141	83.69
291.371	91.69
291.602	73.69
291.833	89.69
292.064	101.69
292.295	88.69
292.526	89.69
292.757	88.69
292.987	83.69
293.218	84.69
293.449	94.69
293.68	84.69
293.91	103.69
294.141	100.69
294.372	96.69
294.603	83.69
294.833	86.69
295.064	96.69
295.295	100.69
295.525	88.69
295.756	93.69
295.987	121.69
296.217	111.69
296.448	119.69
296.679	78.69
296.909	103.69
297.14	97.69
297.37	96.69
297.601	92.69
297.831	87.69
298.062	91.69
298.292	98.69
298.523	93.69
298.753	77.69
298.984	83.69
299.214	86.69
299.445	82.69
299.675	90.69
299.905	87.69
300.136	86.69
300.366	74.69
300.597	82.69
300.827	88.69
301.057	91.69
301.288	95.69
301.518	88.69
301.748	90.69
301.979	100.69
302.209	85.69
302.439	86.69
302.669	87.69
302.9	83.69
303.13	93.69
303.36	80.69
303.59	94.69
303.82	98.69
304.051	99.69
304.281	107.69
304.511	100.69
304.741	77.69
304.971	78.69
305.201	98.69
305.431	98.69
305.661	94.69
305.891	88.69
306.121	88.69
306.352	105.69
306.582	95.69
306.812	91.69
307.042	94.69
307.272	89.69
307.502	102.69
307.731	92.69
307.961	86.69
308.191	107.69
308.421	103.69
308.651	105.69
308.881	100.69
309.111	88.69
309.341	99.69
309.571	87.69
309.8	88.69
310.03	93.69
310.26	101.69
310.49	98.69
310.72	86.69
310.949	102.69
311.179	101.69
311.409	104.69
311.639	98.69
311.868	107.69
312.098	100.69
312.328	90.69
312.557	89.69
312.787	102.69
313.017	98.69
313.246	105.69
313.476	78.69
313.706	76.69
313.935	91.69
314.165	84.69
314.394	88.69
314.624	95.69
314.853	106.69
315.083	99.69
315.312	90.69
315.542	86.69
315.771	92.69
316.001	115.69
316.23	88.69
316.46	93.69
316.689	84.69
316.919	93.69
317.148	81.69
317.377	86.69
317.607	93.69
317.836	95.69
318.065	80.69
318.295	107.69
318.524	85.69
318.753	96.69
318.983	84.69
319.212	105.69
319.441	100.69
319.67	89.69
319.9	95.69
320.129	100.69
320.358	90.69
320.587	95.69
320.816	92.69
321.046	96.69
321.275	105.69
321.504	91.69
321.733	92.69
321.962	98.69
322.191	114.69
322.42	105.69
322.649	104.69
322.878	107.69
323.108	105.69
323.337	111.69
323.566	119.69
323.795	151.69
324.024	190.69
324.253	348.69
324.482	707.69
324.71	1422.69
324.939	1844.69
325.168	678.69
325.397	212.69
325.626	134.69
325.855	118.69
326.084	119.69
326.313	126.69
326.542	143.69
326.77	206.69
326.999	410.69
327.228	820.69
327.457	1460.69
327.686	1152.69
327.914	315.69
328.143	166.69
328.372	127.69
328.6	103.69
328.829	94.69
329.058	115.69
329.287	102.69
329.515	107.69
329.744	93.69
329.972	107.69
330.201	97.69
330.43	85.69
330.658	106.69
330.887	114.69
331.115	102.69
331.344	107.69
331.572	79.69
331.801	103.69
332.03	96.69
332.258	112.69
332.486	103.69
332.715	92.69
332.943	86.69
333.172	75.69
333.4	90.69
333.629	121.69
333.857	106.69
334.085	96.69
334.314	99.69
334.542	98.69
334.771	87.69
334.999	102.69
335.227	89.69
335.455	118.69
335.684	97.69
335.912	100.69
336.14	115.69
336.369	108.69
336.597	102.69
336.825	91.69
337.053	88.69
337.281	98.69
337.51	89.69
337.738	92.69
337.966	94.69
338.194	100.69
338.422	110.69
338.65	88.69
338.878	106.69
339.106	100.69
339.334	101.69
339.562	107.69
339.79	96.69
340.018	99.69
340.246	91.69
340.474	100.69
340.702	92.69
340.93	94.69
341.158	85.69
341.386	87.69
341.614	99.69
341.842	88.69
342.07	100.69
342.298	94.69
342.526	93.69
342.754	79.69
342.981	92.69
343.209	99.69
343.437	101.69
343.665	83.69
343.893	96.69
344.12	99.69
344.348	80.69
344.576	92.69
344.804	93.69
345.031	108.69
345.259	103.69
345.487	94.69
345.714	96.69
345.942	88.69
346.17	96.69
346.397	79.69
346.625	102.69
346.853	96.69
347.08	91.69
347.308	103.69
347.535	95.69
347.763	106.69
347.99	102.69
348.218	96.69
348.445	114.69
348.673	86.69
348.9	87.69
349.128	95.69
349.355	98.69
349.583	90.69
349.81	86.69
350.037	106.69
350.265	93.69
350.492	84.69
350.72	98.69
350.947	103.69
351.174	91.69
351.402	98.69
351.629	102.69
351.856	92.69
352.083	99.69
352.311	115.69
352.538	94.69
352.765	103.69
352.992	112.69
353.22	102.69
353.447	103.69
353.674	88.69
353.901	93.69
354.128	96.69
354.355	104.69
354.583	86.69
354.81	102.69
355.037	104.69
355.264	98.69
355.491	104.69
355.718	102.69
355.945	100.69
356.172	102.69
356.399	76.69
356.626	94.69
356.853	96.69
357.08	92.69
357.307	88.69
357.534	99.69
357.761	89.69
357.988	88.69
358.215	116.69
358.441	102.69
358.668	91.69
358.895	90.69
359.122	97.69
359.349	75.69
359.576	94.69
359.802	93.69
360.029	97.69
360.256	87.69
360.483	103.69
360.709	98.69
360.936	80.69
361.163	88.69
361.39	96.69
361.616	84.69
361.843	92.69
362.07	90.69
362.296	99.69
362.523	95.69
362.749	87.69
362.976	85.69
363.203	82.69
363.429	88.69
363.656	98.69
363.882	91.69
364.109	96.69
364.335	93.69
364.562	90.69
364.788	96.69
365.015	98.69
365.241	104.69
365.468	95.69
365.694	108.69
365.92	98.69
366.147	86.69
366.373	86.69
366.599	91.69
366.826	90.69
367.052	94.69
367.278	100.69
367.505	91.69
367.731	99.69
367.957	97.69
368.184	96.69
368.41	100.69
368.636	105.69
368.862	117.69
369.089	98.69
369.315	85.69
369.541	86.69
369.767	92.69
369.993	99.69
370.219	87.69
370.445	94.69
370.672	88.69
370.898	83.69
371.124	80.69
371.35	88.69
371.576	89.69
371.802	80.69
372.028	91.69
372.254	97.69
372.48	93.69
372.706	78.69
372.932	95.69
373.158	87.69
373.384	101.69
373.61	88.69
373.835	91.69
374.061	90.69
374.287	112.69
374.513	99.69
374.739	96.69
374.965	95.69
375.191	87.69
375.416	83.69
375.642	94.69
375.868	106.69
376.094	99.69
376.319	102.69
376.545	90.69
376.771	86.69
376.997	90.69
377.222	85.69
377.448	89.69
377.674	91.69
377.899	99.69
378.125	95.69
378.35	95.69
378.576	101.69
378.802	88.69
379.027	100.69
379.253	99.69
379.478	102.69
379.704	92.69
379.929	107.69
380.155	93.69
380.38	105.69
380.606	97.69
380.831	94.69
381.057	102.69
381.282	103.69
381.507	102.69
381.733	103.69
381.958	99.69
382.184	87.69
382.409	96.69
382.634	102.69
382.86	104.69
383.085	107.69
383.31	111.69
383.535	111.69
383.761	107.69
383.986	110.69
384.211	104.69
384.436	95.69
384.662	97.69
384.887	101.69
385.112	109.69
385.337	106.69
385.562	94.69
385.787	112.69
386.013	104.69
386.238	111.69
386.463	125.69
386.688	110.69
386.913	105.69
387.138	115.69
387.363	103.69
387.588	110.69
387.813	105.69
388.038	99.69
388.263	132.69
388.488	120.69
388.713	107.69
388.938	106.69
389.163	90.69
389.387	104.69
389.612	101.69
389.837	96.69
390.062	87.69
390.287	99.69
390.512	99.69
390.736	86.69
390.961	97.69
391.186	98.69
391.411	96.69
391.636	91.69
391.86	92.69
392.085	92.69
392.31	87.69
392.534	96.69
392.759	98.69
392.984	97.69
393.208	102.69
393.433	124.69
393.658	106.69
393.882	89.69
394.107	103.69
394.331	93.69
394.556	88.69
394.78	101.69
395.005	97.69
395.229	96.69
395.454	93.69
395.678	76.69
395.903	95.69
396.127	87.69
396.352	105.69
396.576	86.69
396.801	95.69
397.025	94.69
397.249	117.69
397.474	82.69
397.698	86.69
397.922	89.69
398.147	93.69
398.371	102.69
398.595	82.69
398.82	91.69
399.044	95.69
399.268	90.69
399.492	90.69
399.717	91.69
399.941	94.69
400.165	87.69
400.389	95.69
400.613	103.69
400.837	84.69
401.062	107.69
401.286	83.69
401.51	104.69
401.734	93.69
401.958	100.69
402.182	113.69
402.406	127.69
402.63	116.69
402.854	84.69
403.078	101.69
403.302	93.69
403.526	91.69
403.75	90.69
403.974	86.69
404.198	94.69
404.422	91.69
404.645	91.69
404.869	80.69
405.093	94.69
405.317	96.69
405.541	91.69
405.765	110.69
405.988	115.69
406.212	154.69
406.436	168.69
406.66	129.69
406.883	110.69
407.107	96.69
407.331	102.69
407.555	92.69
407.778	92.69
408.002	99.69
408.226	89.69
408.449	84.69
408.673	74.69
408.896	86.69
409.12	87.69
409.344	80.69
409.567	86.69
409.791	115.69
410.014	100.69
410.238	82.69
410.461	97.69
410.685	83.69
410.908	95.69
411.132	107.69
411.355	87.69
411.578	90.69
411.802	85.69
412.025	82.69
412.249	96.69
412.472	101.69
412.695	90.69
412.919	83.69
413.142	94.69
413.365	76.69
413.589	84.69
413.812	75.69
414.035	101.69
414.258	105.69
414.482	98.69
414.705	92.69
414.928	109.69
415.151	97.69
415.374	102.69
415.597	100.69
415.821	85.69
416.044	95.69
416.267	90.69
416.49	103.69
416.713	98.69
416.936	87.69
417.159	86.69
417.382	81.69
417.605	98.69
417.828	91.69
418.051	102.69
418.274	86.69
418.497	100.69
418.72	84.69
418.943	84.69
419.166	96.69
419.389	88.69
419.611	88.69
419.834	83.69
420.057	102.69
420.28	100.69
420.503	111.69
420.726	93.69
420.948	87.69
421.171	92.69
421.394	92.69
421.617	87.69
421.839	89.69
422.062	83.69
422.285	94.69
422.507	94.69
422.73	106.69
422.953	102.69
423.175	97.69
423.398	96.69
423.621	90.69
423.843	83.69
424.066	85.69
424.288	96.69
424.511	106.69
424.733	99.69
424.956	103.69
425.178	102.69
425.401	86.69
425.623	94.69
425.846	80.69
426.068	104.69
426.291	97.69
426.513	95.69
426.735	102.69
426.958	95.69
427.18	102.69
427.402	121.69
427.625	140.69
427.847	124.69
428.069	112.69
428.292	99.69
428.514	84.69
428.736	87.69
428.958	91.69
429.181	104.69
429.403	77.69
429.625	74.69
429.847	79.69
430.069	97.69
430.292	88.69
430.514	96.69
430.736	81.69
430.958	92.69
431.18	78.69
431.402	91.69
431.624	95.69
431.846	75.69
432.068	85.69
432.29	71.69
432.512	87.69
432.734	87.69
432.956	80.69
433.178	82.69
433.4	90.69
433.622	102.69
433.844	94.69
434.066	95.69
434.287	103.69
434.509	103.69
434.731	90.69
434.953	78.69
435.175	100.69
435.397	99.69
435.618	96.69
435.84	110.69
436.062	114.69
436.284	119.69
436.505	112.69
436.727	94.69
436.949	90.69
437.17	89.69
437.392	94.69
437.614	100.69
437.835	99.69
438.057	111.69
438.278	103.69
438.5	99.69
438.721	106.69
438.943	90.69
439.165	99.69
439.386	83.69
439.608	99.69
439.829	94.69
440.05	108.69
440.272	131.69
440.493	104.69
440.715	94.69
440.936	95.69
441.158	88.69
441.379	95.69
441.6	80.69
441.822	95.69
442.043	113.69
442.264	108.69
442.486	86.69
442.707	93.69
442.928	93.69
443.149	119.69
443.371	127.69
443.592	106.69
443.813	106.69
444.034	101.69
444.255	87.69
444.476	97.69
444.698	80.69
444.919	93.69
445.14	132.69
445.361	109.69
445.582	110.69
445.803	118.69
446.024	127.69
446.245	116.69
446.466	101.69
446.687	100.69
446.908	95.69
447.129	91.69
447.35	82.69
447.571	91.69
447.792	92.69
448.013	104.69
448.234	86.69
448.455	95.69
448.675	102.69
448.896	119.69
449.117	92.69
449.338	101.69
449.559	118.69
449.779	123.69
450	103.69
450.221	82.69
450.442	95.69
450.662	91.69
450.883	84.69
451.104	104.69
451.324	96.69
451.545	95.69
451.766	91.69
451.986	93.69
452.207	97.69
452.428	101.69
452.648	73.69
452.869	101.69
453.089	112.69
453.31	119.69
453.53	88.69
453.751	88.69
453.971	102.69
454.192	101.69
454.412	91.69
454.633	91.69
454.853	83.69
455.073	82.69
455.294	78.69
455.514	107.69
455.734	94.69
455.955	78.69
456.175	93.69
456.395	92.69
456.616	77.69
456.836	93.69
457.056	90.69
457.276	84.69
457.497	83.69
457.717	89.69
457.937	86.69
458.157	105.69
458.377	86.69
458.598	92.69
458.818	121.69
459.038	141.69
459.258	114.69
459.478	89.69
459.698	86.69
459.918	72.69
460.138	83.69
460.358	85.69
460.578	90.69
460.798	89.69
461.018	92.69
461.238	90.69
461.458	87.69
461.678	78.69
461.898	70.69
462.118	88.69
462.338	87.69
462.558	77.69
462.777	88.69
462.997	95.69
463.217	94.69
463.437	95.69
463.657	80.69
463.876	74.69
464.096	92.69
464.316	86.69
464.536	111.69
464.755	94.69
464.975	94.69
465.195	159.69
465.414	127.69
465.634	93.69
465.854	76.69
466.073	80.69
466.293	82.69
466.512	78.69
466.732	76.69
466.951	77.69
467.171	92.69
467.391	90.69
467.61	104.69
467.829	102.69
468.049	86.69
468.268	102.69
468.488	101.69
468.707	82.69
468.927	82.69
469.146	83.69
469.365	81.69
469.585	86.69
469.804	82.69
470.023	88.69
470.243	79.69
470.462	104.69
470.681	97.69
470.901	86.69
471.12	83.69
471.339	91.69
471.558	98.69
471.777	80.69
471.997	82.69
472.216	82.69
472.435	100.69
472.654	95.69
472.873	94.69
473.092	84.69
473.311	94.69
473.53	84.69
473.749	85.69
473.968	93.69
474.187	107.69
474.406	97.69
474.625	84.69
474.844	104.69
475.063	86.69
475.282	76.69
475.501	79.69
475.72	80.69
475.939	88.69
476.158	98.69
476.377	92.69
476.596	82.69
476.814	97.69
477.033	98.69
477.252	82.69
477.471	86.69
477.69	101.69
477.908	86.69
478.127	77.69
478.346	104.69
478.564	86.69
478.783	96.69
479.002	89.69
479.22	87.69
479.439	108.69
479.658	98.69
479.876	103.69
480.095	95.69
480.313	92.69
480.532	78.69
480.751	79.69
480.969	95.69
481.188	94.69
481.406	79.69
481.624	93.69
481.843	85.69
482.061	85.69
482.28	106.69
482.498	93.69
482.717	87.69
482.935	99.69
483.153	86.69
483.372	84.69
483.59	94.69
483.808	90.69
484.027	81.69
484.245	99.69
484.463	95.69
484.681	100.69
484.9	89.69
485.118	91.69
485.336	97.69
485.554	103.69
485.772	91.69
485.99	84.69
486.209	105.69
486.427	111.69
486.645	107.69
486.863	100.69
487.081	85.69
487.299	102.69
487.517	107.69
487.735	80.69
487.953	92.69
488.171	101.69
488.389	103.69
488.607	97.69
488.825	94.69
489.043	97.69
489.261	86.69
489.479	86.69
489.696	106.69
489.914	86.69
490.132	83.69
490.35	92.69
490.568	92.69
490.786	92.69
491.003	84.69
491.221	88.69
491.439	87.69
491.657	97.69
491.874	83.69
492.092	90.69
492.31	85.69
492.527	86.69
492.745	99.69
492.963	100.69
493.18	102.69
493.398	93.69
493.615	93.69
493.833	119.69
494.05	84.69
494.268	98.69
494.485	99.69
494.703	97.69
494.92	108.69
495.138	92.69
495.355	89.69
495.573	84.69
495.79	98.69
496.008	117.69
496.225	99.69
496.442	90.69
496.66	95.69
496.877	90.69
497.094	102.69
497.312	100.69
497.529	106.69
497.746	100.69
497.963	85.69
498.181	83.69
498.398	99.69
498.615	106.69
498.832	101.69
499.049	100.69
499.267	77.69
499.484	103.69
499.701	77.69
499.918	100.69
500.135	84.69
500.352	88.69
500.569	78.69
500.786	91.69
501.003	93.69
501.22	92.69
501.437	89.69
501.654	92.69
501.871	85.69
502.088	87.69
502.305	87.69
502.522	100.69
502.739	94.69
502.956	105.69
503.172	93.69
503.389	95.69
503.606	98.69
503.823	109.69
504.04	107.69
504.256	92.69
504.473	98.69
504.69	86.69
504.907	98.69
505.123	105.69
505.34	107.69
505.557	92.69
505.773	83.69
505.99	86.69
506.207	84.69
506.423	88.69
506.64	86.69
506.856	85.69
507.073	82.69
507.289	76.69
507.506	98.69
507.722	105.69
507.939	109.69
508.155	96.69
508.372	92.69
508.588	101.69
508.805	103.69
509.021	87.69
509.238	105.69
509.454	99.69
509.67	90.69
509.887	107.69
510.103	123.69
510.319	206.69
510.536	639.69
510.752	1840.69
510.968	522.69
511.184	153.69
511.401	110.69
511.617	87.69
511.833	108.69
512.049	93.69
512.265	96.69
512.481	92.69
512.698	94.69
512.914	109.69
513.13	95.69
513.346	90.69
513.562	98.69
513.778	98.69
513.994	92.69
514.21	99.69
514.426	112.69
514.642	112.69
514.858	126.69
515.074	123.69
515.29	332.69
