Data from Uncirc_2000_H10_HRD10591_00040.txt Node
Date: Wed Jan 03 10:48:25 EST 2024
User: Yrep
Spectrometer: HR+D1059
Trigger mode: 1
Integration Time (sec): 1.000000E-1
Scans to average: 1
Electric dark correction enabled: true
Nonlinearity correction enabled: false
Boxcar width: 0
XAxis mode: Wavelengths
Number of Pixels in Spectrum: 2048
>>>>>Begin Spectral Data<<<<<
223.165	-11.62
223.4	-11.62
223.635	-11.62
223.869	-18.62
224.104	-23.62
224.338	-18.62
224.573	-19.62
224.808	-14.62
225.042	-8.62
225.277	6.38
225.511	-2.62
225.746	12.38
225.98	6.38
226.215	12.38
226.449	-3.62
226.683	22.38
226.918	28.38
227.152	33.38
227.387	33.38
227.621	43.38
227.856	60.38
228.09	50.38
228.324	44.38
228.559	50.38
228.793	60.38
229.027	55.38
229.262	64.38
229.496	76.38
229.73	75.38
229.964	82.38
230.199	63.38
230.433	71.38
230.667	78.38
230.901	86.38
231.136	73.38
231.37	84.38
231.604	71.38
231.838	78.38
232.072	73.38
232.306	82.38
232.541	79.38
232.775	69.38
233.009	86.38
233.243	75.38
233.477	83.38
233.711	86.38
233.945	75.38
234.179	66.38
234.413	74.38
234.647	80.38
234.881	89.38
235.115	83.38
235.349	85.38
235.583	87.38
235.817	84.38
236.051	65.38
236.285	69.38
236.519	84.38
236.753	89.38
236.987	81.38
237.221	95.38
237.455	95.38
237.689	79.38
237.922	69.38
238.156	77.38
238.39	64.38
238.624	82.38
238.858	88.38
239.091	81.38
239.325	82.38
239.559	79.38
239.793	88.38
240.027	94.38
240.26	77.38
240.494	75.38
240.728	84.38
240.961	93.38
241.195	87.38
241.429	69.38
241.662	75.38
241.896	76.38
242.13	85.38
242.363	66.38
242.597	86.38
242.83	72.38
243.064	75.38
243.298	75.38
243.531	78.38
243.765	81.38
243.998	64.38
244.232	92.38
244.465	78.38
244.699	80.38
244.932	81.38
245.166	80.38
245.399	73.38
245.633	95.38
245.866	84.38
246.099	64.38
246.333	72.38
246.566	57.38
246.8	80.38
247.033	64.38
247.266	74.38
247.5	82.38
247.733	89.38
247.966	84.38
248.2	72.38
248.433	86.38
248.666	74.38
248.899	76.38
249.133	84.38
249.366	89.38
249.599	101.38
249.832	80.38
250.066	77.38
250.299	69.38
250.532	72.38
250.765	80.38
250.998	85.38
251.231	83.38
251.465	86.38
251.698	85.38
251.931	83.38
252.164	83.38
252.397	87.38
252.63	77.38
252.863	97.38
253.096	81.38
253.329	70.38
253.562	85.38
253.795	85.38
254.028	80.38
254.261	108.38
254.494	59.38
254.727	72.38
254.96	76.38
255.193	84.38
255.426	74.38
255.659	79.38
255.892	71.38
256.124	77.38
256.357	76.38
256.59	80.38
256.823	85.38
257.056	84.38
257.289	81.38
257.521	80.38
257.754	85.38
257.987	79.38
258.22	78.38
258.452	90.38
258.685	78.38
258.918	70.38
259.151	71.38
259.383	84.38
259.616	91.38
259.849	93.38
260.081	98.38
260.314	92.38
260.547	77.38
260.779	83.38
261.012	99.38
261.244	85.38
261.477	82.38
261.71	97.38
261.942	109.38
262.175	116.38
262.407	83.38
262.64	83.38
262.872	86.38
263.105	80.38
263.337	69.38
263.57	102.38
263.802	77.38
264.035	86.38
264.267	85.38
264.499	81.38
264.732	83.38
264.964	94.38
265.197	82.38
265.429	85.38
265.661	74.38
265.894	77.38
266.126	95.38
266.358	88.38
266.591	82.38
266.823	81.38
267.055	91.38
267.287	86.38
267.52	80.38
267.752	99.38
267.984	79.38
268.216	79.38
268.448	94.38
268.681	72.38
268.913	90.38
269.145	95.38
269.377	93.38
269.609	86.38
269.841	68.38
270.073	90.38
270.306	89.38
270.538	83.38
270.77	81.38
271.002	87.38
271.234	85.38
271.466	98.38
271.698	72.38
271.93	84.38
272.162	88.38
272.394	86.38
272.626	82.38
272.858	82.38
273.09	76.38
273.322	85.38
273.553	93.38
273.785	88.38
274.017	93.38
274.249	91.38
274.481	94.38
274.713	86.38
274.945	85.38
275.176	83.38
275.408	85.38
275.64	89.38
275.872	81.38
276.104	97.38
276.335	91.38
276.567	88.38
276.799	92.38
277.031	81.38
277.262	89.38
277.494	89.38
277.726	104.38
277.957	93.38
278.189	84.38
278.421	88.38
278.652	85.38
278.884	92.38
279.115	83.38
279.347	87.38
279.579	87.38
279.81	93.38
280.042	83.38
280.273	91.38
280.505	76.38
280.736	91.38
280.968	84.38
281.199	84.38
281.431	84.38
281.662	85.38
281.894	93.38
282.125	97.38
282.356	125.38
282.588	137.38
282.819	99.38
283.051	85.38
283.282	78.38
283.513	80.38
283.745	85.38
283.976	79.38
284.207	88.38
284.439	88.38
284.67	78.38
284.901	81.38
285.132	92.38
285.364	96.38
285.595	85.38
285.826	95.38
286.057	97.38
286.288	101.38
286.52	85.38
286.751	97.38
286.982	105.38
287.213	86.38
287.444	100.38
287.675	88.38
287.906	81.38
288.138	91.38
288.369	84.38
288.6	85.38
288.831	91.38
289.062	89.38
289.293	98.38
289.524	80.38
289.755	95.38
289.986	94.38
290.217	86.38
290.448	82.38
290.679	86.38
290.91	94.38
291.141	80.38
291.371	85.38
291.602	79.38
291.833	99.38
292.064	102.38
292.295	75.38
292.526	92.38
292.757	86.38
292.987	90.38
293.218	75.38
293.449	83.38
293.68	89.38
293.91	83.38
294.141	92.38
294.372	76.38
294.603	91.38
294.833	90.38
295.064	88.38
295.295	77.38
295.525	85.38
295.756	89.38
295.987	106.38
296.217	150.38
296.448	128.38
296.679	95.38
296.909	85.38
297.14	74.38
297.37	91.38
297.601	86.38
297.831	97.38
298.062	92.38
298.292	84.38
298.523	96.38
298.753	92.38
298.984	90.38
299.214	91.38
299.445	96.38
299.675	92.38
299.905	109.38
300.136	95.38
300.366	84.38
300.597	96.38
300.827	101.38
301.057	105.38
301.288	112.38
301.518	93.38
301.748	101.38
301.979	100.38
302.209	90.38
302.439	85.38
302.669	85.38
302.9	85.38
303.13	83.38
303.36	97.38
303.59	101.38
303.82	111.38
304.051	90.38
304.281	93.38
304.511	92.38
304.741	98.38
304.971	94.38
305.201	105.38
305.431	84.38
305.661	92.38
305.891	89.38
306.121	88.38
306.352	110.38
306.582	105.38
306.812	93.38
307.042	101.38
307.272	84.38
307.502	82.38
307.731	93.38
307.961	87.38
308.191	92.38
308.421	90.38
308.651	78.38
308.881	91.38
309.111	98.38
309.341	91.38
309.571	84.38
309.8	84.38
310.03	97.38
310.26	100.38
310.49	91.38
310.72	98.38
310.949	104.38
311.179	94.38
311.409	98.38
311.639	106.38
311.868	110.38
312.098	94.38
312.328	91.38
312.557	96.38
312.787	102.38
313.017	95.38
313.246	94.38
313.476	93.38
313.706	83.38
313.935	96.38
314.165	101.38
314.394	90.38
314.624	106.38
314.853	110.38
315.083	99.38
315.312	86.38
315.542	100.38
315.771	101.38
316.001	97.38
316.23	100.38
316.46	88.38
316.689	88.38
316.919	91.38
317.148	92.38
317.377	76.38
317.607	92.38
317.836	94.38
318.065	81.38
318.295	92.38
318.524	88.38
318.753	107.38
318.983	98.38
319.212	88.38
319.441	102.38
319.67	107.38
319.9	93.38
320.129	89.38
320.358	86.38
320.587	97.38
320.816	83.38
321.046	89.38
321.275	109.38
321.504	87.38
321.733	94.38
321.962	91.38
322.191	98.38
322.42	104.38
322.649	117.38
322.878	106.38
323.108	125.38
323.337	123.38
323.566	143.38
323.795	135.38
324.024	203.38
324.253	383.38
324.482	792.38
324.71	1631.38
324.939	2102.38
325.168	792.38
325.397	225.38
325.626	147.38
325.855	119.38
326.084	132.38
326.313	129.38
326.542	143.38
326.77	234.38
326.999	453.38
327.228	920.38
327.457	1652.38
327.686	1287.38
327.914	371.38
328.143	203.38
328.372	154.38
328.6	119.38
328.829	122.38
329.058	131.38
329.287	118.38
329.515	105.38
329.744	104.38
329.972	104.38
330.201	98.38
330.43	124.38
330.658	127.38
330.887	124.38
331.115	104.38
331.344	100.38
331.572	99.38
331.801	92.38
332.03	104.38
332.258	99.38
332.486	89.38
332.715	82.38
332.943	86.38
333.172	97.38
333.4	99.38
333.629	95.38
333.857	104.38
334.085	102.38
334.314	87.38
334.542	86.38
334.771	83.38
334.999	94.38
335.227	80.38
335.455	92.38
335.684	94.38
335.912	96.38
336.14	102.38
336.369	103.38
336.597	106.38
336.825	92.38
337.053	83.38
337.281	85.38
337.51	90.38
337.738	93.38
337.966	89.38
338.194	102.38
338.422	96.38
338.65	97.38
338.878	96.38
339.106	83.38
339.334	82.38
339.562	100.38
339.79	102.38
340.018	100.38
340.246	95.38
340.474	90.38
340.702	105.38
340.93	91.38
341.158	100.38
341.386	106.38
341.614	89.38
341.842	80.38
342.07	94.38
342.298	84.38
342.526	75.38
342.754	101.38
342.981	101.38
343.209	78.38
343.437	106.38
343.665	102.38
343.893	100.38
344.12	105.38
344.348	103.38
344.576	101.38
344.804	89.38
345.031	89.38
345.259	101.38
345.487	101.38
345.714	90.38
345.942	98.38
346.17	100.38
346.397	85.38
346.625	88.38
346.853	86.38
347.08	79.38
347.308	86.38
347.535	94.38
347.763	106.38
347.99	101.38
348.218	84.38
348.445	105.38
348.673	96.38
348.9	97.38
349.128	106.38
349.355	88.38
349.583	89.38
349.81	93.38
350.037	95.38
350.265	89.38
350.492	82.38
350.72	95.38
350.947	104.38
351.174	103.38
351.402	110.38
351.629	93.38
351.856	106.38
352.083	98.38
352.311	101.38
352.538	106.38
352.765	112.38
352.992	116.38
353.22	120.38
353.447	99.38
353.674	100.38
353.901	96.38
354.128	84.38
354.355	88.38
354.583	101.38
354.81	93.38
355.037	85.38
355.264	85.38
355.491	94.38
355.718	88.38
355.945	83.38
356.172	87.38
356.399	89.38
356.626	93.38
356.853	103.38
357.08	97.38
357.307	89.38
357.534	95.38
357.761	96.38
357.988	109.38
358.215	99.38
358.441	74.38
358.668	78.38
358.895	102.38
359.122	86.38
359.349	89.38
359.576	92.38
359.802	84.38
360.029	112.38
360.256	104.38
360.483	103.38
360.709	95.38
360.936	92.38
361.163	80.38
361.39	85.38
361.616	90.38
361.843	78.38
362.07	87.38
362.296	89.38
362.523	106.38
362.749	97.38
362.976	81.38
363.203	84.38
363.429	99.38
363.656	86.38
363.882	97.38
364.109	88.38
364.335	92.38
364.562	92.38
364.788	90.38
365.015	90.38
365.241	92.38
365.468	102.38
365.694	94.38
365.92	102.38
366.147	92.38
366.373	91.38
366.599	89.38
366.826	86.38
367.052	96.38
367.278	89.38
367.505	94.38
367.731	92.38
367.957	98.38
368.184	90.38
368.41	92.38
368.636	118.38
368.862	108.38
369.089	113.38
369.315	102.38
369.541	81.38
369.767	92.38
369.993	94.38
370.219	89.38
370.445	106.38
370.672	80.38
370.898	79.38
371.124	96.38
371.35	102.38
371.576	103.38
371.802	93.38
372.028	93.38
372.254	83.38
372.48	93.38
372.706	81.38
372.932	98.38
373.158	83.38
373.384	95.38
373.61	81.38
373.835	88.38
374.061	95.38
374.287	99.38
374.513	94.38
374.739	89.38
374.965	89.38
375.191	95.38
375.416	83.38
375.642	92.38
375.868	86.38
376.094	87.38
376.319	98.38
376.545	104.38
376.771	82.38
376.997	84.38
377.222	90.38
377.448	83.38
377.674	78.38
377.899	85.38
378.125	82.38
378.35	92.38
378.576	93.38
378.802	85.38
379.027	85.38
379.253	77.38
379.478	90.38
379.704	83.38
379.929	83.38
380.155	104.38
380.38	106.38
380.606	104.38
380.831	100.38
381.057	98.38
381.282	92.38
381.507	92.38
381.733	72.38
381.958	89.38
382.184	93.38
382.409	85.38
382.634	107.38
382.86	88.38
383.085	122.38
383.31	95.38
383.535	102.38
383.761	101.38
383.986	103.38
384.211	92.38
384.436	107.38
384.662	109.38
384.887	81.38
385.112	91.38
385.337	108.38
385.562	102.38
385.787	87.38
386.013	92.38
386.238	107.38
386.463	94.38
386.688	112.38
386.913	92.38
387.138	109.38
387.363	98.38
387.588	86.38
387.813	107.38
388.038	94.38
388.263	115.38
388.488	98.38
388.713	101.38
388.938	94.38
389.163	90.38
389.387	112.38
389.612	96.38
389.837	89.38
390.062	96.38
390.287	93.38
390.512	99.38
390.736	101.38
390.961	90.38
391.186	94.38
391.411	98.38
391.636	86.38
391.86	89.38
392.085	93.38
392.31	93.38
392.534	90.38
392.759	80.38
392.984	93.38
393.208	89.38
393.433	88.38
393.658	98.38
393.882	94.38
394.107	84.38
394.331	77.38
394.556	101.38
394.78	86.38
395.005	80.38
395.229	88.38
395.454	86.38
395.678	89.38
395.903	86.38
396.127	96.38
396.352	91.38
396.576	90.38
396.801	85.38
397.025	94.38
397.249	86.38
397.474	104.38
397.698	98.38
397.922	85.38
398.147	94.38
398.371	83.38
398.595	92.38
398.82	88.38
399.044	85.38
399.268	88.38
399.492	99.38
399.717	79.38
399.941	75.38
400.165	95.38
400.389	99.38
400.613	87.38
400.837	90.38
401.062	77.38
401.286	78.38
401.51	91.38
401.734	108.38
401.958	93.38
402.182	119.38
402.406	140.38
402.63	115.38
402.854	89.38
403.078	89.38
403.302	85.38
403.526	81.38
403.75	88.38
403.974	87.38
404.198	86.38
404.422	96.38
404.645	80.38
404.869	91.38
405.093	100.38
405.317	100.38
405.541	109.38
405.765	103.38
405.988	115.38
406.212	169.38
406.436	205.38
406.66	141.38
406.883	101.38
407.107	98.38
407.331	94.38
407.555	92.38
407.778	88.38
408.002	91.38
408.226	91.38
408.449	92.38
408.673	74.38
408.896	79.38
409.12	91.38
409.344	97.38
409.567	93.38
409.791	74.38
410.014	102.38
410.238	89.38
410.461	86.38
410.685	109.38
410.908	116.38
411.132	109.38
411.355	95.38
411.578	100.38
411.802	104.38
412.025	88.38
412.249	85.38
412.472	91.38
412.695	96.38
412.919	95.38
413.142	97.38
413.365	73.38
413.589	92.38
413.812	83.38
414.035	91.38
414.258	98.38
414.482	100.38
414.705	91.38
414.928	72.38
415.151	77.38
415.374	76.38
415.597	100.38
415.821	103.38
416.044	85.38
416.267	90.38
416.49	91.38
416.713	83.38
416.936	99.38
417.159	105.38
417.382	91.38
417.605	94.38
417.828	84.38
418.051	85.38
418.274	86.38
418.497	106.38
418.72	88.38
418.943	96.38
419.166	83.38
419.389	95.38
419.611	93.38
419.834	97.38
420.057	90.38
420.28	84.38
420.503	83.38
420.726	90.38
420.948	85.38
421.171	93.38
421.394	109.38
421.617	90.38
421.839	94.38
422.062	86.38
422.285	92.38
422.507	105.38
422.73	104.38
422.953	90.38
423.175	88.38
423.398	97.38
423.621	85.38
423.843	90.38
424.066	103.38
424.288	84.38
424.511	86.38
424.733	102.38
424.956	100.38
425.178	99.38
425.401	89.38
425.623	97.38
425.846	88.38
426.068	110.38
426.291	101.38
426.513	90.38
426.735	94.38
426.958	90.38
427.18	97.38
427.402	120.38
427.625	149.38
427.847	119.38
428.069	92.38
428.292	78.38
428.514	82.38
428.736	83.38
428.958	85.38
429.181	79.38
429.403	83.38
429.625	87.38
429.847	107.38
430.069	101.38
430.292	92.38
430.514	83.38
430.736	78.38
430.958	67.38
431.18	82.38
431.402	95.38
431.624	95.38
431.846	87.38
432.068	89.38
432.29	90.38
432.512	91.38
432.734	85.38
432.956	91.38
433.178	105.38
433.4	112.38
433.622	105.38
433.844	98.38
434.066	96.38
434.287	99.38
434.509	83.38
434.731	87.38
434.953	89.38
435.175	96.38
435.397	98.38
435.618	108.38
435.84	112.38
436.062	128.38
436.284	121.38
436.505	80.38
436.727	98.38
436.949	86.38
437.17	90.38
437.392	85.38
437.614	104.38
437.835	102.38
438.057	101.38
438.278	112.38
438.5	100.38
438.721	124.38
438.943	99.38
439.165	89.38
439.386	88.38
439.608	90.38
439.829	102.38
440.05	112.38
440.272	125.38
440.493	99.38
440.715	80.38
440.936	84.38
441.158	98.38
441.379	93.38
441.6	91.38
441.822	98.38
442.043	79.38
442.264	98.38
442.486	93.38
442.707	91.38
442.928	93.38
443.149	129.38
443.371	130.38
443.592	104.38
443.813	101.38
444.034	105.38
444.255	77.38
444.476	93.38
444.698	82.38
444.919	86.38
445.14	111.38
445.361	93.38
445.582	114.38
445.803	118.38
446.024	117.38
446.245	123.38
446.466	120.38
446.687	76.38
446.908	88.38
447.129	77.38
447.35	96.38
447.571	106.38
447.792	92.38
448.013	96.38
448.234	112.38
448.455	88.38
448.675	103.38
448.896	109.38
449.117	99.38
449.338	114.38
449.559	113.38
449.779	119.38
450	88.38
450.221	88.38
450.442	87.38
450.662	90.38
450.883	98.38
451.104	104.38
451.324	97.38
451.545	86.38
451.766	90.38
451.986	76.38
452.207	86.38
452.428	77.38
452.648	103.38
452.869	91.38
453.089	100.38
453.31	105.38
453.53	83.38
453.751	85.38
453.971	106.38
454.192	101.38
454.412	94.38
454.633	90.38
454.853	97.38
455.073	106.38
455.294	81.38
455.514	83.38
455.734	83.38
455.955	82.38
456.175	85.38
456.395	92.38
456.616	82.38
456.836	72.38
457.056	103.38
457.276	83.38
457.497	70.38
457.717	90.38
457.937	79.38
458.157	83.38
458.377	89.38
458.598	100.38
458.818	151.38
459.038	158.38
459.258	105.38
459.478	88.38
459.698	92.38
459.918	69.38
460.138	81.38
460.358	104.38
460.578	89.38
460.798	88.38
461.018	94.38
461.238	80.38
461.458	102.38
461.678	84.38
461.898	86.38
462.118	75.38
462.338	72.38
462.558	82.38
462.777	89.38
462.997	93.38
463.217	97.38
463.437	92.38
463.657	84.38
463.876	88.38
464.096	82.38
464.316	89.38
464.536	88.38
464.755	92.38
464.975	100.38
465.195	150.38
465.414	152.38
465.634	85.38
465.854	90.38
466.073	80.38
466.293	80.38
466.512	89.38
466.732	92.38
466.951	76.38
467.171	89.38
467.391	80.38
467.61	101.38
467.829	89.38
468.049	88.38
468.268	88.38
468.488	79.38
468.707	89.38
468.927	89.38
469.146	88.38
469.365	86.38
469.585	94.38
469.804	97.38
470.023	98.38
470.243	85.38
470.462	104.38
470.681	108.38
470.901	85.38
471.12	88.38
471.339	80.38
471.558	75.38
471.777	101.38
471.997	94.38
472.216	87.38
472.435	77.38
472.654	91.38
472.873	90.38
473.092	82.38
473.311	91.38
473.53	89.38
473.749	97.38
473.968	96.38
474.187	99.38
474.406	76.38
474.625	80.38
474.844	90.38
475.063	90.38
475.282	89.38
475.501	78.38
475.72	97.38
475.939	93.38
476.158	82.38
476.377	80.38
476.596	81.38
476.814	85.38
477.033	82.38
477.252	84.38
477.471	84.38
477.69	87.38
477.908	96.38
478.127	70.38
478.346	78.38
478.564	87.38
478.783	91.38
479.002	76.38
479.22	87.38
479.439	98.38
479.658	104.38
479.876	86.38
480.095	78.38
480.313	73.38
480.532	82.38
480.751	78.38
480.969	81.38
481.188	108.38
481.406	93.38
481.624	101.38
481.843	93.38
482.061	94.38
482.28	91.38
482.498	96.38
482.717	93.38
482.935	91.38
483.153	83.38
483.372	77.38
483.59	68.38
483.808	101.38
484.027	97.38
484.245	97.38
484.463	81.38
484.681	99.38
484.9	93.38
485.118	86.38
485.336	99.38
485.554	87.38
485.772	104.38
485.99	105.38
486.209	87.38
486.427	105.38
486.645	109.38
486.863	110.38
487.081	89.38
487.299	98.38
487.517	91.38
487.735	101.38
487.953	89.38
488.171	89.38
488.389	98.38
488.607	91.38
488.825	84.38
489.043	88.38
489.261	101.38
489.479	101.38
489.696	99.38
489.914	96.38
490.132	94.38
490.35	93.38
490.568	102.38
490.786	98.38
491.003	89.38
491.221	88.38
491.439	66.38
491.657	82.38
491.874	84.38
492.092	74.38
492.31	80.38
492.527	102.38
492.745	103.38
492.963	94.38
493.18	88.38
493.398	98.38
493.615	93.38
493.833	106.38
494.05	80.38
494.268	96.38
494.485	87.38
494.703	97.38
494.92	98.38
495.138	93.38
495.355	97.38
495.573	94.38
495.79	94.38
496.008	95.38
496.225	100.38
496.442	87.38
496.66	91.38
496.877	89.38
497.094	91.38
497.312	86.38
497.529	97.38
497.746	95.38
497.963	95.38
498.181	92.38
498.398	106.38
498.615	104.38
498.832	113.38
499.049	82.38
499.267	93.38
499.484	69.38
499.701	86.38
499.918	99.38
500.135	80.38
500.352	80.38
500.569	99.38
500.786	92.38
501.003	89.38
501.22	90.38
501.437	87.38
501.654	96.38
501.871	94.38
502.088	101.38
502.305	102.38
502.522	99.38
502.739	99.38
502.956	86.38
503.172	90.38
503.389	99.38
503.606	90.38
503.823	99.38
504.04	90.38
504.256	103.38
504.473	104.38
504.69	97.38
504.907	84.38
505.123	79.38
505.34	89.38
505.557	86.38
505.773	90.38
505.99	90.38
506.207	105.38
506.423	99.38
506.64	87.38
506.856	87.38
507.073	83.38
507.289	77.38
507.506	99.38
507.722	102.38
507.939	112.38
508.155	80.38
508.372	100.38
508.588	86.38
508.805	87.38
509.021	94.38
509.238	103.38
509.454	107.38
509.67	106.38
509.887	94.38
510.103	119.38
510.319	205.38
510.536	755.38
510.752	2321.38
510.968	640.38
511.184	148.38
511.401	108.38
511.617	105.38
511.833	93.38
512.049	102.38
512.265	100.38
512.481	93.38
512.698	89.38
512.914	94.38
513.13	94.38
513.346	103.38
513.562	104.38
513.778	99.38
513.994	97.38
514.21	111.38
514.426	111.38
514.642	117.38
514.858	121.38
515.074	157.38
515.29	403.38
515.506	1335.38
515.721	492.38
