Data from Uncirc_2000_H10_HRD10591_00055.txt Node
Date: Wed Jan 03 10:48:28 EST 2024
User: Yrep
Spectrometer: HR+D1059
Trigger mode: 1
Integration Time (sec): 1.000000E-1
Scans to average: 1
Electric dark correction enabled: true
Nonlinearity correction enabled: false
Boxcar width: 0
XAxis mode: Wavelengths
Number of Pixels in Spectrum: 2048
>>>>>Begin Spectral Data<<<<<
223.165	-21
223.4	-21
223.635	-21
223.869	-19
224.104	-15
224.338	-10
224.573	-11
224.808	-17
225.042	-16
225.277	-11
225.511	7
225.746	11
225.98	9
226.215	10
226.449	15
226.683	11
226.918	18
227.152	39
227.387	24
227.621	39
227.856	34
228.09	51
228.324	45
228.559	60
228.793	171
229.027	437
229.262	491
229.496	567
229.73	747
229.964	775
230.199	524
230.433	455
230.667	451
230.901	444
231.136	422
231.37	411
231.604	419
231.838	432
232.072	410
232.306	459
232.541	457
232.775	437
233.009	445
233.243	449
233.477	465
233.711	475
233.945	458
234.179	496
234.413	482
234.647	482
234.881	485
235.115	501
235.349	533
235.583	534
235.817	561
236.051	599
236.285	586
236.519	598
236.753	665
236.987	860
237.221	1347
237.455	1449
237.689	833
237.922	691
238.156	669
238.39	641
238.624	618
238.858	619
239.091	622
239.325	621
239.559	669
239.793	667
240.027	729
240.26	881
240.494	920
240.728	922
240.961	909
241.195	805
241.429	750
241.662	722
241.896	742
242.13	760
242.363	749
242.597	743
242.83	772
243.064	789
243.298	792
243.531	794
243.765	772
243.998	829
244.232	821
244.465	830
244.699	871
244.932	921
245.166	873
245.399	863
245.633	850
245.866	870
246.099	889
246.333	893
246.566	901
246.8	918
247.033	983
247.266	1001
247.5	1066
247.733	1116
247.966	1090
248.2	1095
248.433	1105
248.666	1159
248.899	1258
249.133	1365
249.366	1339
249.599	1244
249.832	1132
250.066	1139
250.299	1194
250.532	1299
250.765	1447
250.998	1622
251.231	1575
251.465	1470
251.698	1346
251.931	1325
252.164	1301
252.397	1357
252.63	1397
252.863	1474
253.096	1614
253.329	1660
253.562	1515
253.795	1485
254.028	1479
254.261	1521
254.494	1699
254.727	2057
254.96	2138
255.193	1844
255.426	1655
255.659	1518
255.892	1517
256.124	1458
256.357	1463
256.59	1435
256.823	1445
257.056	1421
257.289	1503
257.521	1436
257.754	1461
257.987	1460
258.22	1429
258.452	1455
258.685	1467
258.918	1478
259.151	1548
259.383	1587
259.616	1641
259.849	1700
260.081	1890
260.314	1982
260.547	1960
260.779	1795
261.012	1718
261.244	1661
261.477	1599
261.71	1644
261.942	1646
262.175	1688
262.407	1592
262.64	1574
262.872	1591
263.105	1579
263.337	1559
263.57	1602
263.802	1588
264.035	1583
264.267	1622
264.499	1615
264.732	1628
264.964	1609
265.197	1610
265.429	1637
265.661	1658
265.894	1684
266.126	1672
266.358	1676
266.591	1754
266.823	1788
267.055	1779
267.287	1783
267.52	1763
267.752	1773
267.984	1819
268.216	1810
268.448	1881
268.681	1910
268.913	2055
269.145	2260
269.377	2284
269.609	2220
269.841	2213
270.073	2314
270.306	2621
270.538	2731
270.77	2535
271.002	2408
271.234	2387
271.466	2487
271.698	2689
271.93	2675
272.162	2658
272.394	2566
272.626	2438
272.858	2293
273.09	2226
273.322	2162
273.553	2141
273.785	2150
274.017	2126
274.249	2168
274.481	2174
274.713	2167
274.945	2229
275.176	2252
275.408	2179
275.64	2160
275.872	2156
276.104	2233
276.335	2231
276.567	2342
276.799	2456
277.031	2677
277.262	2776
277.494	2660
277.726	2513
277.957	2424
278.189	2349
278.421	2295
278.652	2279
278.884	2293
279.115	2236
279.347	2245
279.579	2305
279.81	2297
280.042	2280
280.273	2263
280.505	2305
280.736	2309
280.968	2335
281.199	2313
281.431	2359
281.662	2377
281.894	2394
282.125	2475
282.356	2577
282.588	2702
282.819	2608
283.051	2433
283.282	2487
283.513	2488
283.745	2484
283.976	2611
284.207	2586
284.439	2541
284.67	2577
284.901	2567
285.132	2522
285.364	2511
285.595	2549
285.826	2554
286.057	2586
286.288	2521
286.52	2603
286.751	2578
286.982	2588
287.213	2663
287.444	2629
287.675	2714
287.906	2761
288.138	2870
288.369	2813
288.6	2803
288.831	2768
289.062	2762
289.293	2748
289.524	2721
289.755	2731
289.986	2742
290.217	2689
290.448	2788
290.679	2727
290.91	2719
291.141	2700
291.371	2723
291.602	2759
291.833	2763
292.064	2732
292.295	2717
292.526	2728
292.757	2700
292.987	2680
293.218	2767
293.449	2797
293.68	2762
293.91	2765
294.141	2792
294.372	2792
294.603	2810
294.833	2790
295.064	2837
295.295	2816
295.525	2847
295.756	2839
295.987	2942
296.217	3089
296.448	3013
296.679	2903
296.909	2892
297.14	2889
297.37	2918
297.601	2978
297.831	2947
298.062	2968
298.292	3030
298.523	2987
298.753	3038
298.984	3028
299.214	3030
299.445	3036
299.675	3014
299.905	3039
300.136	3075
300.366	3054
300.597	3162
300.827	3189
301.057	3248
301.288	3292
301.518	3238
301.748	3273
301.979	3302
302.209	3319
302.439	3255
302.669	3238
302.9	3205
303.13	3213
303.36	3205
303.59	3277
303.82	3310
304.051	3281
304.281	3245
304.511	3224
304.741	3230
304.971	3202
305.201	3189
305.431	3183
305.661	3159
305.891	3221
306.121	3225
306.352	3287
306.582	3197
306.812	3117
307.042	3204
307.272	3230
307.502	3217
307.731	3208
307.961	3170
308.191	3207
308.421	3157
308.651	3286
308.881	3211
309.111	3267
309.341	3314
309.571	3333
309.8	3471
310.03	3458
310.26	3509
310.49	3523
310.72	3589
310.949	3663
311.179	3624
311.409	3570
311.639	3557
311.868	3541
312.098	3590
312.328	3651
312.557	3767
312.787	3845
313.017	3745
313.246	3658
313.476	3599
313.706	3709
313.935	3760
314.165	3813
314.394	3819
314.624	3786
314.853	3690
315.083	3676
315.312	3674
315.542	3569
315.771	3564
316.001	3557
316.23	3543
316.46	3618
316.689	3653
316.919	3658
317.148	3661
317.377	3667
317.607	3667
317.836	3605
318.065	3583
318.295	3574
318.524	3591
318.753	3597
318.983	3558
319.212	3608
319.441	3645
319.67	3627
319.9	3615
320.129	3638
320.358	3672
320.587	3640
320.816	3719
321.046	3687
321.275	3768
321.504	3712
321.733	3717
321.962	3806
322.191	3932
322.42	3991
322.649	4046
322.878	4094
323.108	4161
323.337	4393
323.566	4549
323.795	4776
324.024	5288
324.253	6929
324.482	10205
324.71	14647
324.939	15615
325.168	11643
325.397	6293
325.626	5078
325.855	4679
326.084	4523
326.313	4618
326.542	4750
326.77	5352
326.999	6614
327.228	9539
327.457	13664
327.686	12922
327.914	6856
328.143	5525
328.372	5139
328.6	4990
328.829	4961
329.058	5053
329.287	5073
329.515	4865
329.744	4552
329.972	4588
330.201	4719
330.43	4886
330.658	5134
330.887	5469
331.115	5116
331.344	4770
331.572	4794
331.801	4830
332.03	4841
332.258	4816
332.486	4893
332.715	4938
332.943	5075
333.172	5103
333.4	5298
333.629	5450
333.857	5486
334.085	5341
334.314	5283
334.542	5209
334.771	5247
334.999	5123
335.227	5109
335.455	5029
335.684	4884
335.912	4920
336.14	4848
336.369	4842
336.597	4875
336.825	4780
337.053	4735
337.281	4682
337.51	4603
337.738	4570
337.966	4596
338.194	4517
338.422	4457
338.65	4379
338.878	4394
339.106	4415
339.334	4439
339.562	4367
339.79	4270
340.018	4284
340.246	4294
340.474	4289
340.702	4342
340.93	4373
341.158	4357
341.386	4260
341.614	4325
341.842	4275
342.07	4219
342.298	4190
342.526	4166
342.754	4240
342.981	4319
343.209	4369
343.437	4537
343.665	4891
343.893	5088
344.12	5144
344.348	4910
344.576	4670
344.804	4606
345.031	4573
345.259	4444
345.487	4379
345.714	4240
345.942	4176
346.17	4150
346.397	4071
346.625	4130
346.853	4105
347.08	4083
347.308	4140
347.535	4210
347.763	4243
347.99	4117
348.218	4187
348.445	4193
348.673	4106
348.9	4081
349.128	4075
349.355	3995
349.583	4005
349.81	3965
350.037	3947
350.265	3983
350.492	3970
350.72	4026
350.947	4050
351.174	4113
351.402	4164
351.629	4077
351.856	4099
352.083	4161
352.311	4121
352.538	4158
352.765	4094
352.992	4014
353.22	3977
353.447	3973
353.674	3925
353.901	3927
354.128	3947
354.355	3977
354.583	3827
354.81	3883
355.037	3947
355.264	3859
355.491	3912
355.718	3953
355.945	3907
356.172	3915
356.399	3897
356.626	3924
356.853	3892
357.08	3839
357.307	3836
357.534	3895
357.761	3905
357.988	3846
358.215	3872
358.441	3901
358.668	3929
358.895	4038
359.122	4037
359.349	4026
359.576	4148
359.802	4349
360.029	4433
360.256	4463
360.483	4238
360.709	4159
360.936	4101
361.163	4118
361.39	4090
361.616	4138
361.843	4056
362.07	4117
362.296	4093
362.523	4095
362.749	4098
362.976	4015
363.203	4000
363.429	3991
363.656	4017
363.882	3993
364.109	3992
364.335	3955
364.562	3943
364.788	3916
365.015	3990
365.241	4008
365.468	3990
365.694	4043
365.92	3984
366.147	4062
366.373	3944
366.599	3909
366.826	3946
367.052	3905
367.278	3964
367.505	3997
367.731	3975
367.957	3949
368.184	4043
368.41	4038
368.636	4107
368.862	4189
369.089	4108
369.315	4060
369.541	4086
369.767	4090
369.993	4108
370.219	4129
370.445	4139
370.672	4100
370.898	4161
371.124	4199
371.35	4230
371.576	4245
371.802	4261
372.028	4196
372.254	4204
372.48	4257
372.706	4317
372.932	4369
373.158	4369
373.384	4292
373.61	4240
373.835	4247
374.061	4311
374.287	4378
374.513	4469
374.739	4556
374.965	4657
375.191	4587
375.416	4577
375.642	4507
375.868	4414
376.094	4309
376.319	4321
376.545	4308
376.771	4308
376.997	4262
377.222	4308
377.448	4223
377.674	4234
377.899	4250
378.125	4205
378.35	4175
378.576	4205
378.802	4182
379.027	4244
379.253	4235
379.478	4191
379.704	4235
379.929	4300
380.155	4194
380.38	4194
380.606	4309
380.831	4285
381.057	4237
381.282	4332
381.507	4283
381.733	4322
381.958	4395
382.184	4405
382.409	4508
382.634	4504
382.86	4495
383.085	4561
383.31	4617
383.535	4698
383.761	4683
383.986	4784
384.211	4889
384.436	4984
384.662	5005
384.887	5147
385.112	5161
385.337	5123
385.562	5168
385.787	5180
386.013	5218
386.238	5264
386.463	5291
386.688	5194
386.913	5059
387.138	5118
387.363	5137
387.588	5020
387.813	5027
388.038	5044
388.263	5071
388.488	5142
388.713	5099
388.938	5036
389.163	5077
389.387	5041
389.612	4949
389.837	5034
390.062	5005
390.287	5001
390.512	5040
390.736	5080
390.961	5119
391.186	5287
391.411	5433
391.636	5505
391.86	5713
392.085	5785
392.31	5653
392.534	5562
392.759	5452
392.984	5325
393.208	5304
393.433	5272
393.658	5355
393.882	5304
394.107	5269
394.331	5407
394.556	5315
394.78	5475
395.005	5470
395.229	5461
395.454	5705
395.678	5736
395.903	5741
396.127	5823
396.352	5618
396.576	5361
396.801	5308
397.025	5415
397.249	5608
397.474	5697
397.698	5739
397.922	5819
398.147	6031
398.371	6096
398.595	6254
398.82	6495
399.044	7067
399.268	7876
399.492	8917
399.717	9550
399.941	9251
400.165	8669
400.389	7890
400.613	7139
400.837	6729
401.062	6541
401.286	6488
401.51	6375
401.734	6349
401.958	6564
402.182	6600
402.406	6750
402.63	6822
402.854	6917
403.078	7071
403.302	7127
403.526	7291
403.75	7310
403.974	7425
404.198	7325
404.422	7415
404.645	7255
404.869	7256
405.093	7292
405.317	7405
405.541	7393
405.765	7222
405.988	7109
406.212	7277
406.436	7570
406.66	7583
406.883	7638
407.107	8274
407.331	8731
407.555	9242
407.778	8922
408.002	8143
408.226	7727
408.449	7626
408.673	7587
408.896	7710
409.12	7882
409.344	7461
409.567	7096
409.791	6994
410.014	6961
410.238	6878
410.461	6953
410.685	6943
410.908	7029
411.132	7403
411.355	7295
411.578	6886
411.802	6648
412.025	6641
412.249	6779
412.472	6671
412.695	6491
412.919	6390
413.142	6392
413.365	6403
413.589	6305
413.812	6257
414.035	6217
414.258	6298
414.482	6250
414.705	6324
414.928	6306
415.151	6367
415.374	6263
415.597	6285
415.821	6059
416.044	6171
416.267	6099
416.49	6091
416.713	6107
416.936	6149
417.159	6208
417.382	6265
417.605	6268
417.828	6424
418.051	6545
418.274	6458
418.497	6310
418.72	6515
418.943	6460
419.166	6727
419.389	7232
419.611	6979
419.834	6774
420.057	6669
420.28	6478
420.503	6260
420.726	6283
420.948	6650
421.171	6932
421.394	6895
421.617	6458
421.839	6430
422.062	6511
422.285	6790
422.507	7271
422.73	7833
422.953	7260
423.175	6890
423.398	6922
423.621	6879
423.843	7155
424.066	7156
424.288	7048
424.511	7249
424.733	7823
424.956	8089
425.178	7656
425.401	7778
425.623	7650
425.846	6656
426.068	6535
426.291	6445
426.513	6414
426.735	6556
426.958	7045
427.18	7884
427.402	8967
427.625	8779
427.847	7379
428.069	6621
428.292	6336
428.514	5998
428.736	5964
428.958	5907
429.181	5748
429.403	5707
429.625	5993
429.847	6235
430.069	6712
430.292	6334
430.514	5761
430.736	5747
430.958	5683
431.18	5580
431.402	5614
431.624	5597
431.846	5604
432.068	5598
432.29	5805
432.512	5667
432.734	5779
432.956	5601
433.178	5768
433.4	5694
433.622	5657
433.844	5654
434.066	5740
434.287	5771
434.509	5959
434.731	6183
434.953	6409
435.175	6515
435.397	6594
435.618	6492
435.84	6986
436.062	7685
436.284	7693
436.505	6432
436.727	6079
436.949	5873
437.17	5720
437.392	5761
437.614	5859
437.835	6335
438.057	7237
438.278	7837
438.5	7935
438.721	8710
438.943	7545
439.165	6289
439.386	6145
439.608	6188
439.829	6294
440.05	6560
440.272	6863
440.493	6333
440.715	6096
440.936	6081
441.158	6094
441.379	6202
441.6	6537
441.822	6743
442.043	7150
442.264	7944
442.486	7684
442.707	6846
442.928	6652
443.149	6801
443.371	7004
443.592	7648
443.813	8607
444.034	8533
444.255	7393
444.476	7259
444.698	7462
444.919	7540
445.14	7405
445.361	7167
445.582	7348
445.803	7791
446.024	8461
446.245	8064
446.466	7394
446.687	6351
446.908	5993
447.129	5789
447.35	5602
447.571	5547
447.792	5520
448.013	5594
448.234	5808
448.455	6396
448.675	7617
448.896	8164
449.117	6674
449.338	6828
449.559	8190
449.779	8334
450	6455
450.221	5711
450.442	5438
450.662	5355
450.883	5487
451.104	5502
451.324	5435
451.545	5252
451.766	5146
451.986	5057
452.207	4967
452.428	4984
452.648	5046
452.869	5029
453.089	5046
453.31	5173
453.53	5054
453.751	4937
453.971	4971
454.192	5116
454.412	4865
454.633	4856
454.853	4795
455.073	4879
455.294	5297
455.514	5783
455.734	5305
455.955	4761
456.175	4624
456.395	4602
456.616	4537
456.836	4544
457.056	4579
457.276	4513
457.497	4649
457.717	4705
457.937	4731
458.157	4729
458.377	4851
458.598	5149
458.818	5801
459.038	6570
459.258	6547
459.478	5793
459.698	5675
459.918	5859
460.138	5973
460.358	6170
460.578	6229
460.798	6342
461.018	6359
461.238	6205
461.458	6144
461.678	6127
461.898	6281
462.118	6363
462.338	6676
462.558	6859
462.777	7098
462.997	7657
463.217	8131
463.437	7866
463.657	7302
463.876	7144
464.096	7082
464.316	7127
464.536	7144
464.755	6814
464.975	6830
465.195	6786
465.414	6836
465.634	6167
465.854	5800
466.073	5560
466.293	5410
466.512	5203
466.732	5193
466.951	5164
467.171	5161
467.391	5291
467.61	5269
467.829	5221
468.049	5146
468.268	4937
468.488	4918
468.707	4873
468.927	4985
469.146	4961
469.365	5014
469.585	5117
469.804	5206
470.023	5420
470.243	5319
470.462	5362
470.681	5560
470.901	5403
471.12	5272
471.339	5222
471.558	5191
471.777	5114
471.997	4989
472.216	4963
472.435	4943
472.654	4937
472.873	4826
473.092	4877
473.311	4925
473.53	4901
473.749	5040
473.968	5554
474.187	6589
474.406	6081
474.625	5203
474.844	4980
475.063	4884
475.282	4952
475.501	5010
475.72	5005
475.939	5128
476.158	5100
476.377	5140
476.596	5108
476.814	5323
477.033	5293
477.252	5353
477.471	5464
477.69	5605
477.908	5708
478.127	5895
478.346	5889
478.564	6017
478.783	6119
479.002	6231
479.22	6214
479.439	6304
479.658	6414
479.876	6425
480.095	6684
480.313	7075
480.532	6972
480.751	6835
480.969	6714
481.188	6598
481.406	6303
481.624	6154
481.843	5896
482.061	5978
482.28	5839
482.498	5715
482.717	5709
482.935	5735
483.153	5793
483.372	5815
483.59	5752
483.808	5833
484.027	5699
484.245	5889
484.463	5867
484.681	5937
484.9	5988
485.118	5988
485.336	6045
485.554	6121
485.772	6209
485.99	6171
486.209	6229
486.427	6230
486.645	6274
486.863	6382
487.081	6295
487.299	6229
487.517	6257
487.735	6138
487.953	6190
488.171	6150
488.389	6218
488.607	6153
488.825	6211
489.043	6237
489.261	6318
489.479	6293
489.696	6337
489.914	6406
490.132	6460
490.35	6537
490.568	6561
490.786	6720
491.003	6699
491.221	6808
491.439	6892
491.657	6913
491.874	7078
492.092	6977
492.31	6992
492.527	7049
492.745	7117
492.963	7132
493.18	7201
493.398	7253
493.615	7348
493.833	7438
494.05	7417
494.268	7385
494.485	7372
494.703	7363
494.92	7280
495.138	7380
495.355	7390
495.573	7335
495.79	7388
496.008	7347
496.225	7372
496.442	7446
496.66	7553
496.877	7573
497.094	7590
497.312	7784
497.529	7985
497.746	8214
497.963	8393
498.181	8837
498.398	9037
498.615	9423
498.832	9970
499.049	10389
499.267	10975
499.484	11772
499.701	12649
499.918	13339
500.135	14182
500.352	14854
500.569	14978
500.786	14703
501.003	14310
501.22	13717
501.437	12855
501.654	12042
501.871	11397
502.088	10679
502.305	10123
502.522	9630
502.739	9374
502.956	8812
503.172	8509
503.389	8213
503.606	8166
503.823	8022
504.04	8017
504.256	8065
504.473	8182
504.69	8274
504.907	7957
505.123	7558
505.34	7373
505.557	7150
505.773	7099
505.99	7008
506.207	6936
506.423	6918
506.64	6789
506.856	6689
507.073	6594
507.289	6545
507.506	6580
507.722	6561
507.939	6581
508.155	6339
508.372	6378
508.588	6227
508.805	6253
509.021	6372
509.238	6503
509.454	6445
509.67	6453
509.887	6251
510.103	6144
510.319	6254
510.536	7366
510.752	10598
510.968	7305
511.184	5997
511.401	5905
511.617	5881
511.833	5770
512.049	5675
512.265	5727
512.481	5774
512.698	5724
512.914	5728
513.13	5782
513.346	5753
513.562	5713
513.778	5765
513.994	5788
514.21	5927
514.426	6089
514.642	6321
514.858	6510
515.074	6846
515.29	7919
515.506	10148
515.721	7715
515.937	6636
516.153	6611
516.369	6453
516.585	6586
516.801	6691
517.016	6776
517.232	7162
517.448	7344
517.664	7491
517.879	7438
518.095	7403
518.311	7281
518.527	6940
518.742	6810
518.958	6601
519.173	6502
519.389	6309
519.605	6047
519.82	6037
520.036	6117
520.251	6198
520.467	6263
520.682	6244
520.898	6216
521.113	6273
521.329	6483
521.544	6941
521.76	8591
521.975	12705
522.19	9946
522.406	6631
522.621	5866
522.836	5572
523.052	5406
523.267	5262
523.482	5123
523.698	5204
523.913	5180
524.128	5109
524.343	5080
524.559	5013
524.774	4896
524.989	4861
525.204	4954
525.419	4853
525.634	4824
525.849	4765
526.064	4756
526.28	4754
526.495	4777
526.71	4690
526.925	4707
527.14	4742
527.355	4735
527.57	4701
527.785	4683
527.999	4634
528.214	4702
528.429	4691
528.644	4733
528.859	4642
529.074	4665
529.289	4882
529.503	5255
529.718	5065
529.933	4875
530.148	4769
530.363	4742
530.577	4653
530.792	4693
531.007	4646
531.221	4719
531.436	4643
531.651	4685
531.865	4601
532.08	4634
532.295	4577
532.509	4580
532.724	4599
532.938	4607
533.153	4587
533.367	4543
533.582	4532
533.796	4507
534.011	4539
534.225	4510
534.44	4396
534.654	4521
534.868	4450
535.083	4434
535.297	4517
535.511	4465
535.726	4510
535.94	4496
536.154	4438
536.369	4346
536.583	4311
536.797	4333
537.011	4291
537.225	4301
537.44	4228
537.654	4322
537.868	4245
538.082	4252
538.296	4268
538.51	4311
538.724	4291
538.938	4270
539.153	4167
539.367	4257
539.581	4216
539.795	4127
540.009	4134
540.222	4159
540.436	4257
540.65	4223
540.864	4193
541.078	4244
541.292	4179
541.506	4076
541.72	4110
541.934	4046
542.147	4098
