Data from Uncirc_2000_H10_HRD10591_00046.txt Node
Date: Wed Jan 03 10:48:26 EST 2024
User: Yrep
Spectrometer: HR+D1059
Trigger mode: 1
Integration Time (sec): 1.000000E-1
Scans to average: 1
Electric dark correction enabled: true
Nonlinearity correction enabled: false
Boxcar width: 0
XAxis mode: Wavelengths
Number of Pixels in Spectrum: 2048
>>>>>Begin Spectral Data<<<<<
223.165	-33.25
223.4	-33.25
223.635	-33.25
223.869	-19.25
224.104	-25.25
224.338	-25.25
224.573	-16.25
224.808	-10.25
225.042	-5.25
225.277	3.75
225.511	-0.25
225.746	0.75
225.98	5.75
226.215	13.75
226.449	17.75
226.683	35.75
226.918	22.75
227.152	34.75
227.387	39.75
227.621	29.75
227.856	44.75
228.09	45.75
228.324	56.75
228.559	55.75
228.793	39.75
229.027	67.75
229.262	75.75
229.496	73.75
229.73	91.75
229.964	74.75
230.199	62.75
230.433	77.75
230.667	84.75
230.901	74.75
231.136	77.75
231.37	80.75
231.604	72.75
231.838	67.75
232.072	94.75
232.306	74.75
232.541	78.75
232.775	91.75
233.009	84.75
233.243	86.75
233.477	79.75
233.711	89.75
233.945	79.75
234.179	90.75
234.413	86.75
234.647	68.75
234.881	82.75
235.115	74.75
235.349	84.75
235.583	86.75
235.817	72.75
236.051	76.75
236.285	74.75
236.519	82.75
236.753	86.75
236.987	72.75
237.221	84.75
237.455	70.75
237.689	78.75
237.922	72.75
238.156	82.75
238.39	76.75
238.624	79.75
238.858	77.75
239.091	85.75
239.325	76.75
239.559	85.75
239.793	77.75
240.027	84.75
240.26	91.75
240.494	82.75
240.728	82.75
240.961	77.75
241.195	80.75
241.429	73.75
241.662	84.75
241.896	84.75
242.13	85.75
242.363	93.75
242.597	84.75
242.83	80.75
243.064	76.75
243.298	71.75
243.531	86.75
243.765	78.75
243.998	74.75
244.232	74.75
244.465	81.75
244.699	92.75
244.932	78.75
245.166	86.75
245.399	72.75
245.633	77.75
245.866	83.75
246.099	66.75
246.333	95.75
246.566	85.75
246.8	75.75
247.033	74.75
247.266	78.75
247.5	88.75
247.733	74.75
247.966	99.75
248.2	87.75
248.433	88.75
248.666	77.75
248.899	83.75
249.133	93.75
249.366	88.75
249.599	93.75
249.832	78.75
250.066	86.75
250.299	73.75
250.532	78.75
250.765	82.75
250.998	82.75
251.231	86.75
251.465	77.75
251.698	81.75
251.931	88.75
252.164	80.75
252.397	83.75
252.63	77.75
252.863	69.75
253.096	63.75
253.329	81.75
253.562	88.75
253.795	85.75
254.028	97.75
254.261	92.75
254.494	79.75
254.727	92.75
254.96	87.75
255.193	78.75
255.426	87.75
255.659	89.75
255.892	94.75
256.124	92.75
256.357	88.75
256.59	78.75
256.823	92.75
257.056	91.75
257.289	88.75
257.521	95.75
257.754	91.75
257.987	84.75
258.22	77.75
258.452	91.75
258.685	92.75
258.918	81.75
259.151	77.75
259.383	91.75
259.616	91.75
259.849	81.75
260.081	97.75
260.314	78.75
260.547	91.75
260.779	82.75
261.012	80.75
261.244	102.75
261.477	86.75
261.71	95.75
261.942	105.75
262.175	114.75
262.407	82.75
262.64	99.75
262.872	81.75
263.105	77.75
263.337	84.75
263.57	82.75
263.802	81.75
264.035	89.75
264.267	80.75
264.499	80.75
264.732	90.75
264.964	101.75
265.197	97.75
265.429	83.75
265.661	100.75
265.894	79.75
266.126	100.75
266.358	90.75
266.591	87.75
266.823	90.75
267.055	92.75
267.287	81.75
267.52	86.75
267.752	83.75
267.984	82.75
268.216	87.75
268.448	95.75
268.681	101.75
268.913	87.75
269.145	92.75
269.377	90.75
269.609	90.75
269.841	96.75
270.073	86.75
270.306	73.75
270.538	83.75
270.77	84.75
271.002	77.75
271.234	84.75
271.466	82.75
271.698	78.75
271.93	72.75
272.162	94.75
272.394	97.75
272.626	85.75
272.858	80.75
273.09	84.75
273.322	70.75
273.553	81.75
273.785	87.75
274.017	87.75
274.249	76.75
274.481	87.75
274.713	76.75
274.945	78.75
275.176	79.75
275.408	78.75
275.64	77.75
275.872	82.75
276.104	98.75
276.335	106.75
276.567	109.75
276.799	98.75
277.031	98.75
277.262	85.75
277.494	79.75
277.726	79.75
277.957	80.75
278.189	84.75
278.421	76.75
278.652	75.75
278.884	82.75
279.115	89.75
279.347	70.75
279.579	86.75
279.81	79.75
280.042	95.75
280.273	91.75
280.505	76.75
280.736	87.75
280.968	89.75
281.199	96.75
281.431	85.75
281.662	85.75
281.894	82.75
282.125	105.75
282.356	113.75
282.588	126.75
282.819	115.75
283.051	89.75
283.282	90.75
283.513	92.75
283.745	84.75
283.976	95.75
284.207	94.75
284.439	82.75
284.67	90.75
284.901	81.75
285.132	74.75
285.364	73.75
285.595	75.75
285.826	72.75
286.057	105.75
286.288	79.75
286.52	89.75
286.751	88.75
286.982	86.75
287.213	89.75
287.444	75.75
287.675	88.75
287.906	81.75
288.138	86.75
288.369	88.75
288.6	80.75
288.831	80.75
289.062	101.75
289.293	94.75
289.524	106.75
289.755	82.75
289.986	97.75
290.217	80.75
290.448	97.75
290.679	88.75
290.91	82.75
291.141	76.75
291.371	93.75
291.602	86.75
291.833	92.75
292.064	85.75
292.295	86.75
292.526	90.75
292.757	83.75
292.987	89.75
293.218	78.75
293.449	96.75
293.68	91.75
293.91	75.75
294.141	83.75
294.372	80.75
294.603	99.75
294.833	85.75
295.064	95.75
295.295	75.75
295.525	78.75
295.756	102.75
295.987	109.75
296.217	121.75
296.448	114.75
296.679	95.75
296.909	88.75
297.14	92.75
297.37	92.75
297.601	94.75
297.831	91.75
298.062	98.75
298.292	95.75
298.523	82.75
298.753	94.75
298.984	82.75
299.214	82.75
299.445	95.75
299.675	86.75
299.905	109.75
300.136	84.75
300.366	85.75
300.597	91.75
300.827	80.75
301.057	105.75
301.288	103.75
301.518	76.75
301.748	77.75
301.979	93.75
302.209	89.75
302.439	91.75
302.669	84.75
302.9	87.75
303.13	115.75
303.36	94.75
303.59	111.75
303.82	96.75
304.051	94.75
304.281	90.75
304.511	92.75
304.741	98.75
304.971	91.75
305.201	92.75
305.431	87.75
305.661	98.75
305.891	102.75
306.121	85.75
306.352	95.75
306.582	92.75
306.812	93.75
307.042	95.75
307.272	97.75
307.502	102.75
307.731	91.75
307.961	93.75
308.191	94.75
308.421	95.75
308.651	97.75
308.881	107.75
309.111	87.75
309.341	100.75
309.571	95.75
309.8	95.75
310.03	95.75
310.26	85.75
310.49	104.75
310.72	87.75
310.949	103.75
311.179	95.75
311.409	110.75
311.639	89.75
311.868	88.75
312.098	112.75
312.328	100.75
312.557	107.75
312.787	108.75
313.017	101.75
313.246	95.75
313.476	86.75
313.706	90.75
313.935	101.75
314.165	94.75
314.394	107.75
314.624	100.75
314.853	95.75
315.083	91.75
315.312	84.75
315.542	84.75
315.771	96.75
316.001	96.75
316.23	96.75
316.46	82.75
316.689	74.75
316.919	97.75
317.148	99.75
317.377	106.75
317.607	110.75
317.836	97.75
318.065	86.75
318.295	96.75
318.524	100.75
318.753	97.75
318.983	85.75
319.212	99.75
319.441	126.75
319.67	113.75
319.9	102.75
320.129	99.75
320.358	96.75
320.587	104.75
320.816	90.75
321.046	95.75
321.275	101.75
321.504	107.75
321.733	100.75
321.962	93.75
322.191	113.75
322.42	108.75
322.649	115.75
322.878	111.75
323.108	125.75
323.337	113.75
323.566	133.75
323.795	157.75
324.024	211.75
324.253	384.75
324.482	781.75
324.71	1670.75
324.939	2090.75
325.168	790.75
325.397	240.75
325.626	155.75
325.855	127.75
326.084	139.75
326.313	143.75
326.542	152.75
326.77	213.75
326.999	450.75
327.228	925.75
327.457	1682.75
327.686	1334.75
327.914	345.75
328.143	176.75
328.372	122.75
328.6	116.75
328.829	117.75
329.058	107.75
329.287	119.75
329.515	118.75
329.744	113.75
329.972	96.75
330.201	89.75
330.43	96.75
330.658	102.75
330.887	144.75
331.115	112.75
331.344	111.75
331.572	107.75
331.801	110.75
332.03	91.75
332.258	88.75
332.486	92.75
332.715	89.75
332.943	102.75
333.172	94.75
333.4	87.75
333.629	105.75
333.857	101.75
334.085	103.75
334.314	101.75
334.542	103.75
334.771	108.75
334.999	109.75
335.227	94.75
335.455	100.75
335.684	93.75
335.912	96.75
336.14	93.75
336.369	87.75
336.597	103.75
336.825	94.75
337.053	97.75
337.281	104.75
337.51	85.75
337.738	116.75
337.966	95.75
338.194	99.75
338.422	95.75
338.65	96.75
338.878	93.75
339.106	98.75
339.334	86.75
339.562	88.75
339.79	85.75
340.018	100.75
340.246	103.75
340.474	99.75
340.702	90.75
340.93	74.75
341.158	99.75
341.386	105.75
341.614	87.75
341.842	100.75
342.07	114.75
342.298	87.75
342.526	97.75
342.754	114.75
342.981	94.75
343.209	93.75
343.437	102.75
343.665	95.75
343.893	106.75
344.12	86.75
344.348	102.75
344.576	89.75
344.804	91.75
345.031	89.75
345.259	99.75
345.487	93.75
345.714	107.75
345.942	92.75
346.17	103.75
346.397	99.75
346.625	94.75
346.853	102.75
347.08	94.75
347.308	72.75
347.535	114.75
347.763	92.75
347.99	106.75
348.218	99.75
348.445	107.75
348.673	109.75
348.9	119.75
349.128	92.75
349.355	82.75
349.583	85.75
349.81	97.75
350.037	96.75
350.265	93.75
350.492	98.75
350.72	94.75
350.947	98.75
351.174	106.75
351.402	118.75
351.629	103.75
351.856	108.75
352.083	90.75
352.311	110.75
352.538	106.75
352.765	94.75
352.992	107.75
353.22	106.75
353.447	112.75
353.674	103.75
353.901	111.75
354.128	100.75
354.355	109.75
354.583	112.75
354.81	110.75
355.037	93.75
355.264	100.75
355.491	94.75
355.718	92.75
355.945	108.75
356.172	93.75
356.399	90.75
356.626	102.75
356.853	96.75
357.08	77.75
357.307	98.75
357.534	93.75
357.761	106.75
357.988	94.75
358.215	104.75
358.441	98.75
358.668	77.75
358.895	108.75
359.122	99.75
359.349	86.75
359.576	96.75
359.802	85.75
360.029	116.75
360.256	98.75
360.483	94.75
360.709	98.75
360.936	99.75
361.163	80.75
361.39	99.75
361.616	93.75
361.843	99.75
362.07	100.75
362.296	84.75
362.523	106.75
362.749	93.75
362.976	85.75
363.203	95.75
363.429	97.75
363.656	90.75
363.882	91.75
364.109	89.75
364.335	92.75
364.562	89.75
364.788	77.75
365.015	119.75
365.241	74.75
365.468	103.75
365.694	94.75
365.92	104.75
366.147	92.75
366.373	90.75
366.599	95.75
366.826	90.75
367.052	94.75
367.278	103.75
367.505	108.75
367.731	95.75
367.957	95.75
368.184	85.75
368.41	107.75
368.636	112.75
368.862	131.75
369.089	97.75
369.315	95.75
369.541	100.75
369.767	85.75
369.993	96.75
370.219	89.75
370.445	83.75
370.672	85.75
370.898	91.75
371.124	84.75
371.35	96.75
371.576	77.75
371.802	79.75
372.028	91.75
372.254	82.75
372.48	93.75
372.706	101.75
372.932	90.75
373.158	83.75
373.384	93.75
373.61	108.75
373.835	99.75
374.061	103.75
374.287	111.75
374.513	96.75
374.739	88.75
374.965	76.75
375.191	90.75
375.416	92.75
375.642	89.75
375.868	103.75
376.094	108.75
376.319	80.75
376.545	83.75
376.771	82.75
376.997	85.75
377.222	97.75
377.448	98.75
377.674	91.75
377.899	95.75
378.125	94.75
378.35	93.75
378.576	92.75
378.802	87.75
379.027	92.75
379.253	96.75
379.478	98.75
379.704	94.75
379.929	79.75
380.155	90.75
380.38	90.75
380.606	84.75
380.831	96.75
381.057	111.75
381.282	109.75
381.507	101.75
381.733	95.75
381.958	92.75
382.184	90.75
382.409	104.75
382.634	100.75
382.86	101.75
383.085	102.75
383.31	97.75
383.535	115.75
383.761	106.75
383.986	114.75
384.211	98.75
384.436	103.75
384.662	113.75
384.887	105.75
385.112	90.75
385.337	86.75
385.562	110.75
385.787	108.75
386.013	101.75
386.238	96.75
386.463	106.75
386.688	103.75
386.913	99.75
387.138	117.75
387.363	100.75
387.588	112.75
387.813	107.75
388.038	109.75
388.263	113.75
388.488	119.75
388.713	113.75
388.938	98.75
389.163	95.75
389.387	102.75
389.612	109.75
389.837	96.75
390.062	94.75
390.287	86.75
390.512	95.75
390.736	93.75
390.961	95.75
391.186	104.75
391.411	93.75
391.636	80.75
391.86	90.75
392.085	92.75
392.31	96.75
392.534	95.75
392.759	88.75
392.984	79.75
393.208	90.75
393.433	88.75
393.658	98.75
393.882	95.75
394.107	98.75
394.331	92.75
394.556	92.75
394.78	104.75
395.005	87.75
395.229	88.75
395.454	83.75
395.678	89.75
395.903	93.75
396.127	92.75
396.352	88.75
396.576	93.75
396.801	84.75
397.025	86.75
397.249	76.75
397.474	99.75
397.698	104.75
397.922	93.75
398.147	91.75
398.371	92.75
398.595	90.75
398.82	94.75
399.044	84.75
399.268	95.75
399.492	95.75
399.717	88.75
399.941	95.75
400.165	92.75
400.389	106.75
400.613	83.75
400.837	88.75
401.062	78.75
401.286	93.75
401.51	96.75
401.734	83.75
401.958	94.75
402.182	123.75
402.406	146.75
402.63	122.75
402.854	102.75
403.078	88.75
403.302	96.75
403.526	91.75
403.75	95.75
403.974	91.75
404.198	103.75
404.422	73.75
404.645	91.75
404.869	89.75
405.093	100.75
405.317	96.75
405.541	97.75
405.765	98.75
405.988	112.75
406.212	158.75
406.436	201.75
406.66	120.75
406.883	113.75
407.107	87.75
407.331	77.75
407.555	100.75
407.778	94.75
408.002	85.75
408.226	83.75
408.449	95.75
408.673	86.75
408.896	95.75
409.12	91.75
409.344	103.75
409.567	79.75
409.791	90.75
410.014	101.75
410.238	92.75
410.461	97.75
410.685	100.75
410.908	101.75
411.132	109.75
411.355	105.75
411.578	86.75
411.802	83.75
412.025	93.75
412.249	85.75
412.472	85.75
412.695	102.75
412.919	103.75
413.142	85.75
413.365	98.75
413.589	82.75
413.812	94.75
414.035	93.75
414.258	99.75
414.482	82.75
414.705	81.75
414.928	80.75
415.151	93.75
415.374	100.75
415.597	97.75
415.821	80.75
416.044	92.75
416.267	93.75
416.49	102.75
416.713	95.75
416.936	99.75
417.159	100.75
417.382	96.75
417.605	82.75
417.828	109.75
418.051	86.75
418.274	108.75
418.497	99.75
418.72	88.75
418.943	84.75
419.166	95.75
419.389	87.75
419.611	85.75
419.834	95.75
420.057	92.75
420.28	93.75
420.503	73.75
420.726	85.75
420.948	91.75
421.171	100.75
421.394	93.75
421.617	97.75
421.839	111.75
422.062	109.75
422.285	88.75
422.507	100.75
422.73	96.75
422.953	101.75
423.175	87.75
423.398	84.75
423.621	103.75
423.843	83.75
424.066	96.75
424.288	91.75
424.511	110.75
424.733	98.75
424.956	101.75
425.178	96.75
425.401	95.75
425.623	93.75
425.846	88.75
426.068	96.75
426.291	88.75
426.513	80.75
426.735	93.75
426.958	83.75
427.18	99.75
427.402	113.75
427.625	137.75
427.847	110.75
428.069	106.75
428.292	85.75
428.514	90.75
428.736	89.75
428.958	104.75
429.181	85.75
429.403	96.75
429.625	83.75
429.847	84.75
430.069	96.75
430.292	95.75
430.514	92.75
430.736	85.75
430.958	79.75
431.18	74.75
431.402	87.75
431.624	89.75
431.846	87.75
432.068	77.75
432.29	91.75
432.512	83.75
432.734	94.75
432.956	91.75
433.178	105.75
433.4	105.75
433.622	102.75
433.844	91.75
434.066	99.75
434.287	107.75
434.509	103.75
434.731	88.75
434.953	89.75
435.175	91.75
435.397	82.75
435.618	93.75
435.84	98.75
436.062	111.75
436.284	121.75
436.505	94.75
436.727	107.75
436.949	88.75
437.17	95.75
437.392	105.75
437.614	100.75
437.835	102.75
438.057	115.75
438.278	103.75
438.5	87.75
438.721	107.75
438.943	86.75
439.165	80.75
439.386	88.75
439.608	89.75
439.829	87.75
440.05	105.75
440.272	132.75
440.493	98.75
440.715	82.75
440.936	90.75
441.158	90.75
441.379	88.75
441.6	86.75
441.822	79.75
442.043	93.75
442.264	90.75
442.486	100.75
442.707	103.75
442.928	106.75
443.149	129.75
443.371	117.75
443.592	102.75
443.813	124.75
444.034	111.75
444.255	89.75
444.476	90.75
444.698	93.75
444.919	95.75
445.14	128.75
445.361	110.75
445.582	126.75
445.803	115.75
446.024	123.75
446.245	123.75
446.466	103.75
446.687	97.75
446.908	92.75
447.129	87.75
447.35	93.75
447.571	91.75
447.792	86.75
448.013	108.75
448.234	95.75
448.455	95.75
448.675	99.75
448.896	109.75
449.117	101.75
449.338	98.75
449.559	119.75
449.779	122.75
450	105.75
450.221	82.75
450.442	83.75
450.662	94.75
450.883	105.75
451.104	117.75
451.324	89.75
451.545	89.75
451.766	91.75
451.986	80.75
452.207	91.75
452.428	82.75
452.648	90.75
452.869	93.75
453.089	100.75
453.31	120.75
453.53	95.75
453.751	101.75
453.971	102.75
454.192	104.75
454.412	82.75
454.633	91.75
454.853	90.75
455.073	79.75
455.294	85.75
455.514	95.75
455.734	92.75
455.955	96.75
456.175	71.75
456.395	70.75
456.616	83.75
456.836	91.75
457.056	94.75
457.276	94.75
457.497	87.75
457.717	97.75
457.937	87.75
458.157	93.75
458.377	104.75
458.598	90.75
458.818	134.75
459.038	150.75
459.258	105.75
459.478	99.75
459.698	82.75
459.918	86.75
460.138	91.75
460.358	74.75
460.578	85.75
460.798	96.75
461.018	94.75
461.238	83.75
461.458	71.75
461.678	104.75
461.898	88.75
462.118	87.75
462.338	97.75
462.558	65.75
462.777	102.75
462.997	96.75
463.217	87.75
463.437	84.75
463.657	84.75
463.876	85.75
464.096	86.75
464.316	99.75
464.536	97.75
464.755	107.75
464.975	102.75
465.195	168.75
465.414	148.75
465.634	103.75
465.854	94.75
466.073	91.75
466.293	84.75
466.512	87.75
466.732	85.75
466.951	83.75
467.171	98.75
467.391	92.75
467.61	106.75
467.829	94.75
468.049	99.75
468.268	108.75
468.488	94.75
468.707	99.75
468.927	86.75
469.146	93.75
469.365	89.75
469.585	78.75
469.804	95.75
470.023	94.75
470.243	77.75
470.462	99.75
470.681	100.75
470.901	91.75
471.12	88.75
471.339	90.75
471.558	79.75
471.777	90.75
471.997	100.75
472.216	89.75
472.435	83.75
472.654	101.75
472.873	90.75
473.092	78.75
473.311	79.75
473.53	79.75
473.749	94.75
473.968	91.75
474.187	99.75
474.406	89.75
474.625	100.75
474.844	87.75
475.063	87.75
475.282	88.75
475.501	97.75
475.72	98.75
475.939	88.75
476.158	91.75
476.377	98.75
476.596	99.75
476.814	93.75
477.033	91.75
477.252	83.75
477.471	97.75
477.69	76.75
477.908	82.75
478.127	92.75
478.346	87.75
478.564	90.75
478.783	86.75
479.002	86.75
479.22	87.75
479.439	115.75
479.658	100.75
479.876	101.75
480.095	93.75
480.313	88.75
480.532	101.75
480.751	102.75
480.969	91.75
481.188	96.75
481.406	83.75
481.624	100.75
481.843	92.75
482.061	94.75
482.28	98.75
482.498	95.75
482.717	115.75
482.935	85.75
483.153	103.75
483.372	100.75
483.59	82.75
483.808	84.75
484.027	91.75
484.245	93.75
484.463	93.75
484.681	95.75
484.9	104.75
485.118	93.75
485.336	103.75
485.554	111.75
485.772	107.75
485.99	102.75
486.209	113.75
486.427	110.75
486.645	114.75
486.863	99.75
487.081	107.75
487.299	106.75
487.517	96.75
487.735	86.75
487.953	91.75
488.171	83.75
488.389	89.75
488.607	90.75
488.825	95.75
489.043	106.75
489.261	93.75
489.479	92.75
489.696	84.75
489.914	105.75
490.132	86.75
490.35	96.75
490.568	88.75
490.786	86.75
491.003	82.75
491.221	100.75
491.439	94.75
491.657	96.75
491.874	91.75
492.092	83.75
492.31	84.75
492.527	93.75
492.745	85.75
492.963	99.75
493.18	94.75
493.398	104.75
493.615	100.75
493.833	110.75
494.05	87.75
494.268	83.75
494.485	93.75
494.703	86.75
494.92	93.75
495.138	92.75
495.355	95.75
495.573	88.75
495.79	84.75
496.008	99.75
496.225	86.75
496.442	88.75
496.66	88.75
496.877	95.75
497.094	105.75
497.312	89.75
497.529	92.75
497.746	92.75
497.963	93.75
498.181	92.75
498.398	99.75
498.615	114.75
498.832	108.75
499.049	106.75
499.267	92.75
499.484	85.75
499.701	103.75
499.918	89.75
500.135	84.75
500.352	81.75
500.569	83.75
500.786	90.75
501.003	91.75
501.22	91.75
501.437	98.75
501.654	83.75
501.871	104.75
502.088	92.75
502.305	103.75
502.522	84.75
502.739	82.75
502.956	103.75
503.172	84.75
503.389	86.75
503.606	100.75
503.823	87.75
504.04	88.75
504.256	94.75
504.473	80.75
504.69	88.75
504.907	86.75
505.123	92.75
505.34	97.75
505.557	99.75
505.773	95.75
505.99	91.75
506.207	108.75
506.423	94.75
506.64	87.75
506.856	94.75
507.073	85.75
507.289	95.75
507.506	91.75
507.722	115.75
507.939	123.75
508.155	90.75
508.372	104.75
508.588	92.75
508.805	102.75
509.021	99.75
509.238	80.75
509.454	95.75
509.67	123.75
509.887	103.75
510.103	127.75
510.319	205.75
510.536	716.75
510.752	2258.75
510.968	635.75
511.184	154.75
511.401	123.75
511.617	90.75
511.833	94.75
512.049	84.75
512.265	94.75
512.481	82.75
512.698	92.75
512.914	88.75
513.13	94.75
513.346	96.75
513.562	98.75
513.778	99.75
513.994	96.75
514.21	96.75
514.426	112.75
514.642	116.75
514.858	127.75
515.074	146.75
515.29	390.75
