Data from Uncirc_2000_H10_HRD10591_00032.txt Node
Date: Wed Jan 03 10:48:23 EST 2024
User: Yrep
Spectrometer: HR+D1059
Trigger mode: 1
Integration Time (sec): 1.000000E-1
Scans to average: 1
Electric dark correction enabled: true
Nonlinearity correction enabled: false
Boxcar width: 0
XAxis mode: Wavelengths
Number of Pixels in Spectrum: 2048
>>>>>Begin Spectral Data<<<<<
223.165	-25.56
223.4	-25.56
223.635	-25.56
223.869	-14.56
224.104	-25.56
224.338	-38.56
224.573	2.44
224.808	-16.56
225.042	-6.56
225.277	4.44
225.511	2.44
225.746	2.44
225.98	3.44
226.215	14.44
226.449	16.44
226.683	36.44
226.918	17.44
227.152	27.44
227.387	31.44
227.621	33.44
227.856	42.44
228.09	46.44
228.324	47.44
228.559	42.44
228.793	41.44
229.027	43.44
229.262	65.44
229.496	64.44
229.73	76.44
229.964	86.44
230.199	65.44
230.433	65.44
230.667	74.44
230.901	69.44
231.136	78.44
231.37	74.44
231.604	71.44
231.838	81.44
232.072	82.44
232.306	83.44
232.541	89.44
232.775	86.44
233.009	74.44
233.243	79.44
233.477	89.44
233.711	73.44
233.945	72.44
234.179	66.44
234.413	81.44
234.647	83.44
234.881	81.44
235.115	71.44
235.349	86.44
235.583	74.44
235.817	79.44
236.051	64.44
236.285	84.44
236.519	88.44
236.753	74.44
236.987	72.44
237.221	78.44
237.455	75.44
237.689	84.44
237.922	63.44
238.156	76.44
238.39	62.44
238.624	73.44
238.858	66.44
239.091	67.44
239.325	85.44
239.559	86.44
239.793	69.44
240.027	74.44
240.26	64.44
240.494	69.44
240.728	56.44
240.961	77.44
241.195	64.44
241.429	63.44
241.662	81.44
241.896	79.44
242.13	75.44
242.363	77.44
242.597	84.44
242.83	81.44
243.064	75.44
243.298	80.44
243.531	72.44
243.765	66.44
243.998	66.44
244.232	85.44
244.465	86.44
244.699	70.44
244.932	87.44
245.166	69.44
245.399	85.44
245.633	74.44
245.866	58.44
246.099	76.44
246.333	74.44
246.566	72.44
246.8	69.44
247.033	72.44
247.266	58.44
247.5	82.44
247.733	72.44
247.966	87.44
248.2	72.44
248.433	76.44
248.666	65.44
248.899	73.44
249.133	88.44
249.366	75.44
249.599	79.44
249.832	84.44
250.066	72.44
250.299	75.44
250.532	72.44
250.765	86.44
250.998	74.44
251.231	73.44
251.465	69.44
251.698	66.44
251.931	77.44
252.164	75.44
252.397	78.44
252.63	79.44
252.863	71.44
253.096	58.44
253.329	86.44
253.562	82.44
253.795	98.44
254.028	75.44
254.261	80.44
254.494	78.44
254.727	82.44
254.96	83.44
255.193	59.44
255.426	66.44
255.659	72.44
255.892	71.44
256.124	85.44
256.357	67.44
256.59	61.44
256.823	75.44
257.056	75.44
257.289	77.44
257.521	82.44
257.754	85.44
257.987	100.44
258.22	85.44
258.452	85.44
258.685	96.44
258.918	73.44
259.151	86.44
259.383	75.44
259.616	88.44
259.849	90.44
260.081	74.44
260.314	80.44
260.547	76.44
260.779	85.44
261.012	75.44
261.244	84.44
261.477	87.44
261.71	96.44
261.942	99.44
262.175	99.44
262.407	87.44
262.64	69.44
262.872	66.44
263.105	87.44
263.337	73.44
263.57	90.44
263.802	74.44
264.035	57.44
264.267	73.44
264.499	67.44
264.732	81.44
264.964	74.44
265.197	80.44
265.429	83.44
265.661	85.44
265.894	77.44
266.126	80.44
266.358	85.44
266.591	88.44
266.823	76.44
267.055	81.44
267.287	89.44
267.52	79.44
267.752	81.44
267.984	87.44
268.216	75.44
268.448	78.44
268.681	81.44
268.913	81.44
269.145	77.44
269.377	89.44
269.609	73.44
269.841	78.44
270.073	79.44
270.306	81.44
270.538	74.44
270.77	73.44
271.002	67.44
271.234	76.44
271.466	88.44
271.698	76.44
271.93	77.44
272.162	86.44
272.394	79.44
272.626	90.44
272.858	66.44
273.09	82.44
273.322	85.44
273.553	70.44
273.785	87.44
274.017	84.44
274.249	91.44
274.481	97.44
274.713	81.44
274.945	81.44
275.176	76.44
275.408	80.44
275.64	70.44
275.872	89.44
276.104	78.44
276.335	74.44
276.567	96.44
276.799	86.44
277.031	79.44
277.262	101.44
277.494	86.44
277.726	90.44
277.957	91.44
278.189	77.44
278.421	81.44
278.652	88.44
278.884	73.44
279.115	77.44
279.347	97.44
279.579	82.44
279.81	77.44
280.042	93.44
280.273	94.44
280.505	99.44
280.736	82.44
280.968	85.44
281.199	92.44
281.431	99.44
281.662	91.44
281.894	87.44
282.125	75.44
282.356	99.44
282.588	123.44
282.819	113.44
283.051	89.44
283.282	70.44
283.513	81.44
283.745	93.44
283.976	69.44
284.207	74.44
284.439	84.44
284.67	79.44
284.901	86.44
285.132	86.44
285.364	72.44
285.595	96.44
285.826	80.44
286.057	79.44
286.288	90.44
286.52	81.44
286.751	79.44
286.982	91.44
287.213	84.44
287.444	87.44
287.675	81.44
287.906	84.44
288.138	93.44
288.369	94.44
288.6	92.44
288.831	91.44
289.062	95.44
289.293	93.44
289.524	78.44
289.755	86.44
289.986	91.44
290.217	98.44
290.448	90.44
290.679	92.44
290.91	91.44
291.141	65.44
291.371	78.44
291.602	87.44
291.833	103.44
292.064	79.44
292.295	83.44
292.526	77.44
292.757	90.44
292.987	84.44
293.218	84.44
293.449	80.44
293.68	71.44
293.91	87.44
294.141	81.44
294.372	70.44
294.603	90.44
294.833	99.44
295.064	75.44
295.295	87.44
295.525	82.44
295.756	92.44
295.987	97.44
296.217	119.44
296.448	113.44
296.679	86.44
296.909	96.44
297.14	83.44
297.37	86.44
297.601	86.44
297.831	84.44
298.062	83.44
298.292	98.44
298.523	88.44
298.753	84.44
298.984	93.44
299.214	87.44
299.445	97.44
299.675	80.44
299.905	101.44
300.136	88.44
300.366	84.44
300.597	89.44
300.827	93.44
301.057	94.44
301.288	72.44
301.518	100.44
301.748	79.44
301.979	104.44
302.209	93.44
302.439	93.44
302.669	78.44
302.9	72.44
303.13	89.44
303.36	82.44
303.59	95.44
303.82	90.44
304.051	93.44
304.281	93.44
304.511	90.44
304.741	80.44
304.971	90.44
305.201	94.44
305.431	83.44
305.661	81.44
305.891	98.44
306.121	93.44
306.352	87.44
306.582	84.44
306.812	91.44
307.042	83.44
307.272	88.44
307.502	84.44
307.731	71.44
307.961	77.44
308.191	80.44
308.421	81.44
308.651	85.44
308.881	99.44
309.111	109.44
309.341	88.44
309.571	90.44
309.8	87.44
310.03	101.44
310.26	85.44
310.49	87.44
310.72	80.44
310.949	89.44
311.179	98.44
311.409	83.44
311.639	94.44
311.868	89.44
312.098	95.44
312.328	100.44
312.557	92.44
312.787	94.44
313.017	91.44
313.246	79.44
313.476	80.44
313.706	95.44
313.935	96.44
314.165	94.44
314.394	98.44
314.624	94.44
314.853	97.44
315.083	86.44
315.312	95.44
315.542	87.44
315.771	98.44
316.001	80.44
316.23	87.44
316.46	89.44
316.689	92.44
316.919	84.44
317.148	91.44
317.377	87.44
317.607	82.44
317.836	75.44
318.065	86.44
318.295	94.44
318.524	72.44
318.753	80.44
318.983	95.44
319.212	89.44
319.441	98.44
319.67	113.44
319.9	95.44
320.129	91.44
320.358	91.44
320.587	113.44
320.816	91.44
321.046	80.44
321.275	89.44
321.504	105.44
321.733	106.44
321.962	102.44
322.191	91.44
322.42	102.44
322.649	111.44
322.878	107.44
323.108	100.44
323.337	117.44
323.566	129.44
323.795	143.44
324.024	191.44
324.253	330.44
324.482	696.44
324.71	1398.44
324.939	1817.44
325.168	697.44
325.397	213.44
325.626	129.44
325.855	126.44
326.084	118.44
326.313	118.44
326.542	121.44
326.77	198.44
326.999	403.44
327.228	818.44
327.457	1490.44
327.686	1167.44
327.914	327.44
328.143	179.44
328.372	147.44
328.6	114.44
328.829	113.44
329.058	112.44
329.287	101.44
329.515	91.44
329.744	88.44
329.972	87.44
330.201	107.44
330.43	112.44
330.658	112.44
330.887	118.44
331.115	97.44
331.344	106.44
331.572	98.44
331.801	95.44
332.03	96.44
332.258	104.44
332.486	104.44
332.715	101.44
332.943	90.44
333.172	76.44
333.4	95.44
333.629	107.44
333.857	103.44
334.085	91.44
334.314	97.44
334.542	91.44
334.771	97.44
334.999	79.44
335.227	97.44
335.455	82.44
335.684	89.44
335.912	83.44
336.14	102.44
336.369	102.44
336.597	87.44
336.825	84.44
337.053	81.44
337.281	90.44
337.51	90.44
337.738	105.44
337.966	82.44
338.194	84.44
338.422	88.44
338.65	72.44
338.878	84.44
339.106	85.44
339.334	73.44
339.562	75.44
339.79	86.44
340.018	87.44
340.246	88.44
340.474	77.44
340.702	82.44
340.93	81.44
341.158	90.44
341.386	78.44
341.614	96.44
341.842	86.44
342.07	87.44
342.298	86.44
342.526	75.44
342.754	85.44
342.981	83.44
343.209	66.44
343.437	94.44
343.665	91.44
343.893	99.44
344.12	87.44
344.348	81.44
344.576	86.44
344.804	86.44
345.031	101.44
345.259	90.44
345.487	76.44
345.714	86.44
345.942	85.44
346.17	79.44
346.397	71.44
346.625	86.44
346.853	95.44
347.08	83.44
347.308	99.44
347.535	89.44
347.763	105.44
347.99	92.44
348.218	94.44
348.445	103.44
348.673	104.44
348.9	77.44
349.128	91.44
349.355	87.44
349.583	99.44
349.81	93.44
350.037	89.44
350.265	90.44
350.492	83.44
350.72	92.44
350.947	98.44
351.174	91.44
351.402	98.44
351.629	97.44
351.856	102.44
352.083	97.44
352.311	97.44
352.538	98.44
352.765	116.44
352.992	111.44
353.22	101.44
353.447	107.44
353.674	101.44
353.901	96.44
354.128	89.44
354.355	92.44
354.583	97.44
354.81	98.44
355.037	92.44
355.264	94.44
355.491	92.44
355.718	93.44
355.945	94.44
356.172	86.44
356.399	103.44
356.626	84.44
356.853	78.44
357.08	106.44
357.307	90.44
357.534	91.44
357.761	86.44
357.988	87.44
358.215	90.44
358.441	94.44
358.668	82.44
358.895	98.44
359.122	91.44
359.349	86.44
359.576	77.44
359.802	103.44
360.029	105.44
360.256	95.44
360.483	82.44
360.709	73.44
360.936	95.44
361.163	79.44
361.39	82.44
361.616	89.44
361.843	106.44
362.07	108.44
362.296	93.44
362.523	76.44
362.749	99.44
362.976	71.44
363.203	90.44
363.429	90.44
363.656	73.44
363.882	78.44
364.109	91.44
364.335	84.44
364.562	96.44
364.788	85.44
365.015	98.44
365.241	89.44
365.468	104.44
365.694	103.44
365.92	101.44
366.147	81.44
366.373	85.44
366.599	78.44
366.826	77.44
367.052	92.44
367.278	109.44
367.505	86.44
367.731	81.44
367.957	85.44
368.184	77.44
368.41	91.44
368.636	87.44
368.862	109.44
369.089	104.44
369.315	97.44
369.541	98.44
369.767	101.44
369.993	78.44
370.219	80.44
370.445	77.44
370.672	82.44
370.898	74.44
371.124	88.44
371.35	69.44
371.576	90.44
371.802	81.44
372.028	93.44
372.254	82.44
372.48	85.44
372.706	81.44
372.932	82.44
373.158	85.44
373.384	95.44
373.61	81.44
373.835	98.44
374.061	83.44
374.287	77.44
374.513	86.44
374.739	77.44
374.965	80.44
375.191	74.44
375.416	89.44
375.642	89.44
375.868	85.44
376.094	93.44
376.319	77.44
376.545	84.44
376.771	86.44
376.997	81.44
377.222	83.44
377.448	87.44
377.674	95.44
377.899	97.44
378.125	88.44
378.35	83.44
378.576	83.44
378.802	94.44
379.027	80.44
379.253	96.44
379.478	80.44
379.704	85.44
379.929	88.44
380.155	91.44
380.38	78.44
380.606	93.44
380.831	96.44
381.057	98.44
381.282	95.44
381.507	98.44
381.733	105.44
381.958	97.44
382.184	89.44
382.409	106.44
382.634	99.44
382.86	86.44
383.085	87.44
383.31	99.44
383.535	96.44
383.761	106.44
383.986	79.44
384.211	82.44
384.436	96.44
384.662	97.44
384.887	91.44
385.112	95.44
385.337	101.44
385.562	83.44
385.787	96.44
386.013	100.44
386.238	111.44
386.463	101.44
386.688	98.44
386.913	101.44
387.138	98.44
387.363	87.44
387.588	93.44
387.813	91.44
388.038	103.44
388.263	101.44
388.488	100.44
388.713	95.44
388.938	78.44
389.163	91.44
389.387	98.44
389.612	80.44
389.837	93.44
390.062	89.44
390.287	102.44
390.512	83.44
390.736	82.44
390.961	79.44
391.186	99.44
391.411	94.44
391.636	89.44
391.86	73.44
392.085	72.44
392.31	67.44
392.534	86.44
392.759	97.44
392.984	88.44
393.208	91.44
393.433	78.44
393.658	99.44
393.882	82.44
394.107	75.44
394.331	87.44
394.556	83.44
394.78	104.44
395.005	81.44
395.229	94.44
395.454	78.44
395.678	89.44
395.903	88.44
396.127	82.44
396.352	91.44
396.576	78.44
396.801	88.44
397.025	84.44
397.249	88.44
397.474	89.44
397.698	84.44
397.922	93.44
398.147	81.44
398.371	80.44
398.595	89.44
398.82	87.44
399.044	77.44
399.268	94.44
399.492	97.44
399.717	82.44
399.941	91.44
400.165	80.44
400.389	83.44
400.613	82.44
400.837	88.44
401.062	90.44
401.286	89.44
401.51	81.44
401.734	95.44
401.958	99.44
402.182	115.44
402.406	131.44
402.63	104.44
402.854	88.44
403.078	85.44
403.302	91.44
403.526	86.44
403.75	81.44
403.974	76.44
404.198	81.44
404.422	97.44
404.645	89.44
404.869	85.44
405.093	78.44
405.317	72.44
405.541	90.44
405.765	104.44
405.988	98.44
406.212	150.44
406.436	183.44
406.66	130.44
406.883	93.44
407.107	86.44
407.331	73.44
407.555	98.44
407.778	89.44
408.002	81.44
408.226	75.44
408.449	89.44
408.673	91.44
408.896	92.44
409.12	79.44
409.344	89.44
409.567	96.44
409.791	87.44
410.014	80.44
410.238	98.44
410.461	107.44
410.685	98.44
410.908	95.44
411.132	92.44
411.355	96.44
411.578	90.44
411.802	91.44
412.025	78.44
412.249	83.44
412.472	86.44
412.695	94.44
412.919	85.44
413.142	77.44
413.365	89.44
413.589	73.44
413.812	70.44
414.035	100.44
414.258	91.44
414.482	78.44
414.705	86.44
414.928	95.44
415.151	97.44
415.374	91.44
415.597	85.44
415.821	90.44
416.044	85.44
416.267	104.44
416.49	89.44
416.713	74.44
416.936	87.44
417.159	77.44
417.382	78.44
417.605	84.44
417.828	100.44
418.051	90.44
418.274	91.44
418.497	91.44
418.72	90.44
418.943	103.44
419.166	89.44
419.389	85.44
419.611	90.44
419.834	75.44
420.057	82.44
420.28	83.44
420.503	80.44
420.726	91.44
420.948	81.44
421.171	79.44
421.394	95.44
421.617	79.44
421.839	86.44
422.062	96.44
422.285	86.44
422.507	106.44
422.73	91.44
422.953	79.44
423.175	88.44
423.398	94.44
423.621	85.44
423.843	79.44
424.066	81.44
424.288	98.44
424.511	92.44
424.733	100.44
424.956	93.44
425.178	99.44
425.401	99.44
425.623	90.44
425.846	80.44
426.068	85.44
426.291	112.44
426.513	83.44
426.735	86.44
426.958	83.44
427.18	100.44
427.402	123.44
427.625	137.44
427.847	99.44
428.069	93.44
428.292	82.44
428.514	77.44
428.736	79.44
428.958	93.44
429.181	82.44
429.403	89.44
429.625	86.44
429.847	98.44
430.069	97.44
430.292	94.44
430.514	72.44
430.736	80.44
430.958	82.44
431.18	91.44
431.402	72.44
431.624	80.44
431.846	86.44
432.068	86.44
432.29	82.44
432.512	97.44
432.734	90.44
432.956	95.44
433.178	101.44
433.4	89.44
433.622	91.44
433.844	95.44
434.066	89.44
434.287	98.44
434.509	83.44
434.731	86.44
434.953	70.44
435.175	91.44
435.397	90.44
435.618	98.44
435.84	112.44
436.062	102.44
436.284	108.44
436.505	102.44
436.727	101.44
436.949	89.44
437.17	87.44
437.392	75.44
437.614	93.44
437.835	88.44
438.057	106.44
438.278	104.44
438.5	81.44
438.721	115.44
438.943	93.44
439.165	76.44
439.386	87.44
439.608	90.44
439.829	87.44
440.05	114.44
440.272	121.44
440.493	94.44
440.715	87.44
440.936	91.44
441.158	82.44
441.379	74.44
441.6	91.44
441.822	104.44
442.043	77.44
442.264	87.44
442.486	81.44
442.707	99.44
442.928	96.44
443.149	103.44
443.371	109.44
443.592	97.44
443.813	98.44
444.034	97.44
444.255	79.44
444.476	67.44
444.698	77.44
444.919	75.44
445.14	129.44
445.361	106.44
445.582	95.44
445.803	100.44
446.024	112.44
446.245	128.44
446.466	97.44
446.687	80.44
446.908	91.44
447.129	89.44
447.35	93.44
447.571	95.44
447.792	94.44
448.013	89.44
448.234	90.44
448.455	91.44
448.675	94.44
448.896	106.44
449.117	99.44
449.338	99.44
449.559	118.44
449.779	119.44
450	95.44
450.221	90.44
450.442	76.44
450.662	80.44
450.883	100.44
451.104	99.44
451.324	96.44
451.545	89.44
451.766	80.44
451.986	89.44
452.207	82.44
452.428	87.44
452.648	87.44
452.869	100.44
453.089	104.44
453.31	121.44
453.53	90.44
453.751	88.44
453.971	84.44
454.192	102.44
454.412	73.44
454.633	95.44
454.853	83.44
455.073	82.44
455.294	91.44
455.514	81.44
455.734	79.44
455.955	82.44
456.175	86.44
456.395	100.44
456.616	87.44
456.836	78.44
457.056	86.44
457.276	83.44
457.497	90.44
457.717	73.44
457.937	82.44
458.157	65.44
458.377	96.44
458.598	102.44
458.818	121.44
459.038	143.44
459.258	102.44
459.478	94.44
459.698	96.44
459.918	92.44
460.138	83.44
460.358	80.44
460.578	83.44
460.798	83.44
461.018	99.44
461.238	89.44
461.458	83.44
461.678	77.44
461.898	80.44
462.118	69.44
462.338	73.44
462.558	88.44
462.777	81.44
462.997	76.44
463.217	98.44
463.437	74.44
463.657	82.44
463.876	84.44
464.096	83.44
464.316	96.44
464.536	98.44
464.755	99.44
464.975	104.44
465.195	136.44
465.414	129.44
465.634	77.44
465.854	73.44
466.073	72.44
466.293	87.44
466.512	88.44
466.732	84.44
466.951	94.44
467.171	98.44
467.391	103.44
467.61	104.44
467.829	80.44
468.049	86.44
468.268	83.44
468.488	79.44
468.707	76.44
468.927	81.44
469.146	86.44
469.365	76.44
469.585	87.44
469.804	90.44
470.023	91.44
470.243	78.44
470.462	94.44
470.681	99.44
470.901	88.44
471.12	76.44
471.339	93.44
471.558	85.44
471.777	83.44
471.997	97.44
472.216	99.44
472.435	90.44
472.654	90.44
472.873	87.44
473.092	72.44
473.311	84.44
473.53	75.44
473.749	90.44
473.968	91.44
474.187	95.44
474.406	86.44
474.625	80.44
474.844	81.44
475.063	87.44
475.282	73.44
475.501	77.44
475.72	80.44
475.939	92.44
476.158	88.44
476.377	88.44
476.596	95.44
476.814	88.44
477.033	95.44
477.252	88.44
477.471	77.44
477.69	85.44
477.908	83.44
478.127	95.44
478.346	83.44
478.564	77.44
478.783	106.44
479.002	88.44
479.22	94.44
479.439	95.44
479.658	93.44
479.876	102.44
480.095	96.44
480.313	94.44
480.532	94.44
480.751	80.44
480.969	72.44
481.188	95.44
481.406	108.44
481.624	75.44
481.843	77.44
482.061	87.44
482.28	94.44
482.498	73.44
482.717	90.44
482.935	93.44
483.153	104.44
483.372	79.44
483.59	93.44
483.808	86.44
484.027	86.44
484.245	87.44
484.463	87.44
484.681	96.44
484.9	95.44
485.118	89.44
485.336	91.44
485.554	91.44
485.772	87.44
485.99	94.44
486.209	112.44
486.427	101.44
486.645	107.44
486.863	108.44
487.081	102.44
487.299	97.44
487.517	80.44
487.735	86.44
487.953	94.44
488.171	91.44
488.389	95.44
488.607	92.44
488.825	92.44
489.043	100.44
489.261	98.44
489.479	83.44
489.696	88.44
489.914	74.44
490.132	74.44
490.35	78.44
490.568	81.44
490.786	77.44
491.003	90.44
491.221	89.44
491.439	92.44
491.657	101.44
491.874	97.44
492.092	95.44
492.31	96.44
492.527	99.44
492.745	73.44
492.963	83.44
493.18	104.44
493.398	82.44
493.615	87.44
493.833	94.44
494.05	81.44
494.268	93.44
494.485	89.44
494.703	77.44
494.92	81.44
495.138	82.44
495.355	87.44
495.573	87.44
495.79	96.44
496.008	82.44
496.225	89.44
496.442	91.44
496.66	86.44
496.877	95.44
497.094	88.44
497.312	98.44
497.529	88.44
497.746	93.44
497.963	94.44
498.181	87.44
498.398	81.44
498.615	112.44
498.832	113.44
499.049	78.44
499.267	87.44
499.484	83.44
499.701	83.44
499.918	95.44
500.135	88.44
500.352	79.44
500.569	92.44
500.786	86.44
501.003	99.44
501.22	92.44
501.437	88.44
501.654	89.44
501.871	94.44
502.088	91.44
502.305	96.44
502.522	105.44
502.739	96.44
502.956	96.44
503.172	101.44
503.389	91.44
503.606	97.44
503.823	85.44
504.04	88.44
504.256	80.44
504.473	85.44
504.69	91.44
504.907	96.44
505.123	97.44
505.34	82.44
505.557	86.44
505.773	95.44
505.99	77.44
506.207	85.44
506.423	88.44
506.64	96.44
506.856	97.44
507.073	99.44
507.289	77.44
507.506	85.44
507.722	103.44
507.939	105.44
508.155	97.44
508.372	104.44
508.588	104.44
508.805	99.44
509.021	88.44
509.238	91.44
509.454	84.44
509.67	111.44
509.887	109.44
510.103	124.44
510.319	191.44
510.536	645.44
510.752	1972.44
510.968	567.44
511.184	128.44
511.401	105.44
511.617	98.44
511.833	97.44
512.049	91.44
512.265	89.44
512.481	80.44
512.698	97.44
512.914	101.44
513.13	100.44
513.346	105.44
513.562	93.44
513.778	100.44
513.994	91.44
514.21	86.44
514.426	107.44
514.642	100.44
514.858	118.44
515.074	151.44
515.29	371.44
515.506	1171.44
515.721	437.44
515.937	134.44
516.153	104.44
516.369	95.44
516.585	93.44
516.801	83.44
517.016	91.44
517.232	84.44
517.448	87.44
