Data from Uncirc_2000_H10_HRD10591_00026.txt Node
Date: Wed Jan 03 10:48:22 EST 2024
User: Yrep
Spectrometer: HR+D1059
Trigger mode: 1
Integration Time (sec): 1.000000E-1
Scans to average: 1
Electric dark correction enabled: true
Nonlinearity correction enabled: false
Boxcar width: 0
XAxis mode: Wavelengths
Number of Pixels in Spectrum: 2048
>>>>>Begin Spectral Data<<<<<
223.165	-13.75
223.4	-13.75
223.635	-13.75
223.869	-30.75
224.104	-24.75
224.338	-10.75
224.573	-12.75
224.808	-12.75
225.042	-6.75
225.277	-15.75
225.511	-11.75
225.746	7.25
225.98	9.25
226.215	25.25
226.449	9.25
226.683	21.25
226.918	32.25
227.152	35.25
227.387	42.25
227.621	48.25
227.856	23.25
228.09	37.25
228.324	48.25
228.559	50.25
228.793	151.25
229.027	403.25
229.262	492.25
229.496	558.25
229.73	734.25
229.964	733.25
230.199	501.25
230.433	449.25
230.667	433.25
230.901	423.25
231.136	403.25
231.37	425.25
231.604	449.25
231.838	427.25
232.072	431.25
232.306	427.25
232.541	436.25
232.775	449.25
233.009	436.25
233.243	455.25
233.477	449.25
233.711	450.25
233.945	468.25
234.179	488.25
234.413	489.25
234.647	465.25
234.881	482.25
235.115	502.25
235.349	506.25
235.583	519.25
235.817	561.25
236.051	598.25
236.285	567.25
236.519	591.25
236.753	655.25
236.987	829.25
237.221	1277.25
237.455	1379.25
237.689	817.25
237.922	706.25
238.156	669.25
238.39	641.25
238.624	619.25
238.858	600.25
239.091	625.25
239.325	611.25
239.559	623.25
239.793	648.25
240.027	727.25
240.26	842.25
240.494	878.25
240.728	884.25
240.961	821.25
241.195	763.25
241.429	757.25
241.662	712.25
241.896	713.25
242.13	719.25
242.363	711.25
242.597	734.25
242.83	768.25
243.064	765.25
243.298	806.25
243.531	772.25
243.765	791.25
243.998	783.25
244.232	780.25
244.465	810.25
244.699	863.25
244.932	837.25
245.166	844.25
245.399	817.25
245.633	848.25
245.866	861.25
246.099	859.25
246.333	884.25
246.566	899.25
246.8	921.25
247.033	929.25
247.266	992.25
247.5	1005.25
247.733	1085.25
247.966	1058.25
248.2	1066.25
248.433	1073.25
248.666	1171.25
248.899	1241.25
249.133	1305.25
249.366	1313.25
249.599	1206.25
249.832	1121.25
250.066	1133.25
250.299	1164.25
250.532	1219.25
250.765	1365.25
250.998	1561.25
251.231	1499.25
251.465	1372.25
251.698	1321.25
251.931	1281.25
252.164	1314.25
252.397	1312.25
252.63	1344.25
252.863	1427.25
253.096	1574.25
253.329	1625.25
253.562	1506.25
253.795	1445.25
254.028	1459.25
254.261	1504.25
254.494	1671.25
254.727	1950.25
254.96	2071.25
255.193	1822.25
255.426	1633.25
255.659	1524.25
255.892	1480.25
256.124	1451.25
256.357	1447.25
256.59	1413.25
256.823	1373.25
257.056	1443.25
257.289	1407.25
257.521	1447.25
257.754	1430.25
257.987	1433.25
258.22	1411.25
258.452	1424.25
258.685	1445.25
258.918	1445.25
259.151	1524.25
259.383	1577.25
259.616	1587.25
259.849	1663.25
260.081	1846.25
260.314	1957.25
260.547	1886.25
260.779	1777.25
261.012	1695.25
261.244	1612.25
261.477	1597.25
261.71	1567.25
261.942	1631.25
262.175	1662.25
262.407	1593.25
262.64	1553.25
262.872	1533.25
263.105	1526.25
263.337	1572.25
263.57	1592.25
263.802	1599.25
264.035	1569.25
264.267	1543.25
264.499	1595.25
264.732	1599.25
264.964	1624.25
265.197	1589.25
265.429	1622.25
265.661	1579.25
265.894	1619.25
266.126	1607.25
266.358	1653.25
266.591	1668.25
266.823	1753.25
267.055	1767.25
267.287	1786.25
267.52	1725.25
267.752	1759.25
267.984	1765.25
268.216	1800.25
268.448	1853.25
268.681	1894.25
268.913	2006.25
269.145	2202.25
269.377	2243.25
269.609	2155.25
269.841	2109.25
270.073	2209.25
270.306	2491.25
270.538	2644.25
270.77	2517.25
271.002	2372.25
271.234	2336.25
271.466	2470.25
271.698	2596.25
271.93	2528.25
272.162	2550.25
272.394	2474.25
272.626	2330.25
272.858	2298.25
273.09	2190.25
273.322	2157.25
273.553	2083.25
273.785	2101.25
274.017	2103.25
274.249	2115.25
274.481	2103.25
274.713	2138.25
274.945	2194.25
275.176	2141.25
275.408	2145.25
275.64	2128.25
275.872	2132.25
276.104	2191.25
276.335	2162.25
276.567	2277.25
276.799	2385.25
277.031	2605.25
277.262	2722.25
277.494	2581.25
277.726	2482.25
277.957	2318.25
278.189	2274.25
278.421	2260.25
278.652	2267.25
278.884	2231.25
279.115	2223.25
279.347	2294.25
279.579	2234.25
279.81	2238.25
280.042	2246.25
280.273	2273.25
280.505	2291.25
280.736	2285.25
280.968	2309.25
281.199	2279.25
281.431	2345.25
281.662	2342.25
281.894	2349.25
282.125	2414.25
282.356	2535.25
282.588	2647.25
282.819	2537.25
283.051	2438.25
283.282	2373.25
283.513	2411.25
283.745	2434.25
283.976	2494.25
284.207	2500.25
284.439	2511.25
284.67	2503.25
284.901	2469.25
285.132	2503.25
285.364	2521.25
285.595	2455.25
285.826	2534.25
286.057	2554.25
286.288	2529.25
286.52	2573.25
286.751	2543.25
286.982	2570.25
287.213	2548.25
287.444	2618.25
287.675	2645.25
287.906	2758.25
288.138	2791.25
288.369	2749.25
288.6	2810.25
288.831	2675.25
289.062	2705.25
289.293	2714.25
289.524	2679.25
289.755	2635.25
289.986	2673.25
290.217	2655.25
290.448	2751.25
290.679	2712.25
290.91	2727.25
291.141	2687.25
291.371	2705.25
291.602	2731.25
291.833	2662.25
292.064	2654.25
292.295	2703.25
292.526	2693.25
292.757	2666.25
292.987	2675.25
293.218	2693.25
293.449	2725.25
293.68	2710.25
293.91	2704.25
294.141	2730.25
294.372	2715.25
294.603	2751.25
294.833	2761.25
295.064	2784.25
295.295	2751.25
295.525	2783.25
295.756	2798.25
295.987	2860.25
296.217	3032.25
296.448	2969.25
296.679	2822.25
296.909	2813.25
297.14	2809.25
297.37	2872.25
297.601	2874.25
297.831	2883.25
298.062	2961.25
298.292	2955.25
298.523	2970.25
298.753	2947.25
298.984	2986.25
299.214	3006.25
299.445	2948.25
299.675	2977.25
299.905	2983.25
300.136	3019.25
300.366	3019.25
300.597	3059.25
300.827	3137.25
301.057	3216.25
301.288	3193.25
301.518	3167.25
301.748	3159.25
301.979	3236.25
302.209	3253.25
302.439	3227.25
302.669	3198.25
302.9	3199.25
303.13	3168.25
303.36	3247.25
303.59	3188.25
303.82	3189.25
304.051	3223.25
304.281	3186.25
304.511	3114.25
304.741	3152.25
304.971	3147.25
305.201	3158.25
305.431	3149.25
305.661	3093.25
305.891	3170.25
306.121	3136.25
306.352	3180.25
306.582	3197.25
306.812	3135.25
307.042	3153.25
307.272	3146.25
307.502	3148.25
307.731	3119.25
307.961	3092.25
308.191	3112.25
308.421	3138.25
308.651	3196.25
308.881	3193.25
309.111	3184.25
309.341	3240.25
309.571	3287.25
309.8	3307.25
310.03	3365.25
310.26	3431.25
310.49	3382.25
310.72	3531.25
310.949	3562.25
311.179	3588.25
311.409	3467.25
311.639	3497.25
311.868	3418.25
312.098	3482.25
312.328	3567.25
312.557	3689.25
312.787	3738.25
313.017	3730.25
313.246	3589.25
313.476	3509.25
313.706	3616.25
313.935	3700.25
314.165	3765.25
314.394	3714.25
314.624	3702.25
314.853	3659.25
315.083	3559.25
315.312	3627.25
315.542	3563.25
315.771	3540.25
316.001	3557.25
316.23	3553.25
316.46	3515.25
316.689	3553.25
316.919	3622.25
317.148	3594.25
317.377	3541.25
317.607	3599.25
317.836	3548.25
318.065	3491.25
318.295	3517.25
318.524	3486.25
318.753	3507.25
318.983	3551.25
319.212	3489.25
319.441	3584.25
319.67	3577.25
319.9	3577.25
320.129	3557.25
320.358	3579.25
320.587	3654.25
320.816	3669.25
321.046	3639.25
321.275	3662.25
321.504	3643.25
321.733	3722.25
321.962	3702.25
322.191	3855.25
322.42	3901.25
322.649	3972.25
322.878	3949.25
323.108	3999.25
323.337	4240.25
323.566	4413.25
323.795	4625.25
324.024	5125.25
324.253	6613.25
324.482	9723.25
324.71	14176.25
324.939	15611.25
325.168	10712.25
325.397	6045.25
325.626	4945.25
325.855	4554.25
326.084	4498.25
326.313	4511.25
326.542	4676.25
326.77	5111.25
326.999	6389.25
327.228	9190.25
327.457	13209.25
327.686	12253.25
327.914	6611.25
328.143	5336.25
328.372	4994.25
328.6	4875.25
328.829	4855.25
329.058	5050.25
329.287	4883.25
329.515	4626.25
329.744	4518.25
329.972	4522.25
330.201	4561.25
330.43	4768.25
330.658	4995.25
330.887	5277.25
331.115	5018.25
331.344	4703.25
331.572	4697.25
331.801	4679.25
332.03	4699.25
332.258	4672.25
332.486	4778.25
332.715	4799.25
332.943	4945.25
333.172	5147.25
333.4	5247.25
333.629	5276.25
333.857	5351.25
334.085	5297.25
334.314	5167.25
334.542	5104.25
334.771	5067.25
334.999	5023.25
335.227	4974.25
335.455	4874.25
335.684	4855.25
335.912	4765.25
336.14	4729.25
336.369	4796.25
336.597	4843.25
336.825	4707.25
337.053	4658.25
337.281	4557.25
337.51	4568.25
337.738	4525.25
337.966	4437.25
338.194	4509.25
338.422	4455.25
338.65	4333.25
338.878	4373.25
339.106	4375.25
339.334	4322.25
339.562	4294.25
339.79	4204.25
340.018	4190.25
340.246	4160.25
340.474	4252.25
340.702	4278.25
340.93	4203.25
341.158	4208.25
341.386	4127.25
341.614	4251.25
341.842	4128.25
342.07	4134.25
342.298	4150.25
342.526	4174.25
342.754	4092.25
342.981	4203.25
343.209	4283.25
343.437	4513.25
343.665	4857.25
343.893	4985.25
344.12	4984.25
344.348	4747.25
344.576	4632.25
344.804	4570.25
345.031	4447.25
345.259	4413.25
345.487	4198.25
345.714	4163.25
345.942	4107.25
346.17	4095.25
346.397	4077.25
346.625	4020.25
346.853	4006.25
347.08	3975.25
347.308	3986.25
347.535	4043.25
347.763	4123.25
347.99	4102.25
348.218	4116.25
348.445	4115.25
348.673	4042.25
348.9	4020.25
349.128	3915.25
349.355	3923.25
349.583	3918.25
349.81	3926.25
350.037	3923.25
350.265	3804.25
350.492	3948.25
350.72	3891.25
350.947	3915.25
351.174	4005.25
351.402	4043.25
351.629	3925.25
351.856	3971.25
352.083	4067.25
352.311	4041.25
352.538	4024.25
352.765	4017.25
352.992	3912.25
353.22	3930.25
353.447	3903.25
353.674	3893.25
353.901	3839.25
354.128	3854.25
354.355	3785.25
354.583	3843.25
354.81	3787.25
355.037	3816.25
355.264	3767.25
355.491	3808.25
355.718	3818.25
355.945	3805.25
356.172	3861.25
356.399	3781.25
356.626	3850.25
356.853	3827.25
357.08	3787.25
357.307	3787.25
357.534	3812.25
357.761	3814.25
357.988	3863.25
358.215	3802.25
358.441	3841.25
358.668	3826.25
358.895	3871.25
359.122	3865.25
359.349	3952.25
359.576	4028.25
359.802	4258.25
360.029	4411.25
360.256	4337.25
360.483	4208.25
360.709	3998.25
360.936	4063.25
361.163	3964.25
361.39	4025.25
361.616	4053.25
361.843	4052.25
362.07	3972.25
362.296	4024.25
362.523	3969.25
362.749	4019.25
362.976	3961.25
363.203	3878.25
363.429	3868.25
363.656	3943.25
363.882	3917.25
364.109	3826.25
364.335	3864.25
364.562	3885.25
364.788	3878.25
365.015	3967.25
365.241	3898.25
365.468	3916.25
365.694	3932.25
365.92	3940.25
366.147	3882.25
366.373	3857.25
366.599	3862.25
366.826	3863.25
367.052	3839.25
367.278	3901.25
367.505	3915.25
367.731	3946.25
367.957	3936.25
368.184	3980.25
368.41	4022.25
368.636	4110.25
368.862	4091.25
369.089	4048.25
369.315	4024.25
369.541	3998.25
369.767	4010.25
369.993	4017.25
370.219	4020.25
370.445	4086.25
370.672	4081.25
370.898	4084.25
371.124	4073.25
371.35	4159.25
371.576	4133.25
371.802	4153.25
372.028	4143.25
372.254	4159.25
372.48	4239.25
372.706	4297.25
372.932	4380.25
373.158	4248.25
373.384	4282.25
373.61	4201.25
373.835	4239.25
374.061	4206.25
374.287	4289.25
374.513	4352.25
374.739	4483.25
374.965	4591.25
375.191	4506.25
375.416	4468.25
375.642	4398.25
375.868	4338.25
376.094	4281.25
376.319	4264.25
376.545	4260.25
376.771	4196.25
376.997	4179.25
377.222	4183.25
377.448	4186.25
377.674	4193.25
377.899	4147.25
378.125	4134.25
378.35	4170.25
378.576	4113.25
378.802	4127.25
379.027	4127.25
379.253	4158.25
379.478	4153.25
379.704	4186.25
379.929	4141.25
380.155	4178.25
380.38	4115.25
380.606	4182.25
380.831	4227.25
381.057	4159.25
381.282	4191.25
381.507	4256.25
381.733	4302.25
381.958	4237.25
382.184	4299.25
382.409	4418.25
382.634	4378.25
382.86	4406.25
383.085	4448.25
383.31	4501.25
383.535	4655.25
383.761	4673.25
383.986	4725.25
384.211	4778.25
384.436	4870.25
384.662	4950.25
384.887	5014.25
385.112	5005.25
385.337	5082.25
385.562	5060.25
385.787	5079.25
386.013	5219.25
386.238	5119.25
386.463	5151.25
386.688	5065.25
386.913	4959.25
387.138	4973.25
387.363	4920.25
387.588	4918.25
387.813	4902.25
388.038	4997.25
388.263	5015.25
388.488	5055.25
388.713	4965.25
388.938	4969.25
389.163	4991.25
389.387	4979.25
389.612	4917.25
389.837	4997.25
390.062	4886.25
390.287	4909.25
390.512	4955.25
390.736	4959.25
390.961	5128.25
391.186	5197.25
391.411	5267.25
391.636	5509.25
391.86	5626.25
392.085	5590.25
392.31	5527.25
392.534	5407.25
392.759	5339.25
392.984	5289.25
393.208	5224.25
393.433	5188.25
393.658	5213.25
393.882	5204.25
394.107	5232.25
394.331	5229.25
394.556	5294.25
394.78	5348.25
395.005	5302.25
395.229	5410.25
395.454	5491.25
395.678	5686.25
395.903	5616.25
396.127	5721.25
396.352	5554.25
396.576	5357.25
396.801	5287.25
397.025	5440.25
397.249	5549.25
397.474	5608.25
397.698	5652.25
397.922	5730.25
398.147	5837.25
398.371	5990.25
398.595	6155.25
398.82	6414.25
399.044	6911.25
399.268	7597.25
399.492	8889.25
399.717	9463.25
399.941	9070.25
400.165	8467.25
400.389	7816.25
400.613	7045.25
400.837	6541.25
401.062	6477.25
401.286	6387.25
401.51	6324.25
401.734	6275.25
401.958	6426.25
402.182	6516.25
402.406	6599.25
402.63	6673.25
402.854	6795.25
403.078	6872.25
403.302	6965.25
403.526	7174.25
403.75	7179.25
403.974	7181.25
404.198	7171.25
404.422	7297.25
404.645	7153.25
404.869	7115.25
405.093	7219.25
405.317	7311.25
405.541	7331.25
405.765	6918.25
405.988	6945.25
406.212	7114.25
406.436	7267.25
406.66	7481.25
406.883	7495.25
407.107	8061.25
407.331	8561.25
407.555	9057.25
407.778	8779.25
408.002	7975.25
408.226	7630.25
408.449	7566.25
408.673	7459.25
408.896	7592.25
409.12	7656.25
409.344	7269.25
409.567	6903.25
409.791	6914.25
410.014	6791.25
410.238	6779.25
410.461	6741.25
410.685	6814.25
410.908	6983.25
411.132	7089.25
411.355	7105.25
411.578	6749.25
411.802	6550.25
412.025	6566.25
412.249	6551.25
412.472	6526.25
412.695	6438.25
412.919	6340.25
413.142	6265.25
413.365	6189.25
413.589	6225.25
413.812	6098.25
414.035	6102.25
414.258	6158.25
414.482	6188.25
414.705	6279.25
414.928	6216.25
415.151	6192.25
415.374	6179.25
415.597	6211.25
415.821	6086.25
416.044	6089.25
416.267	6118.25
416.49	6041.25
416.713	6014.25
416.936	6107.25
417.159	6056.25
417.382	6157.25
417.605	6157.25
417.828	6147.25
418.051	6543.25
418.274	6303.25
418.497	6206.25
418.72	6404.25
418.943	6388.25
419.166	6714.25
419.389	7078.25
419.611	6841.25
419.834	6671.25
420.057	6533.25
420.28	6353.25
420.503	6217.25
420.726	6242.25
420.948	6436.25
421.171	6760.25
421.394	6781.25
421.617	6357.25
421.839	6333.25
422.062	6464.25
422.285	6549.25
422.507	7161.25
422.73	7683.25
422.953	7072.25
423.175	6719.25
423.398	6828.25
423.621	6819.25
423.843	6983.25
424.066	7009.25
424.288	6868.25
424.511	7169.25
424.733	7595.25
424.956	7919.25
425.178	7445.25
425.401	7599.25
425.623	7449.25
425.846	6555.25
426.068	6437.25
426.291	6298.25
426.513	6301.25
426.735	6375.25
426.958	6856.25
427.18	7561.25
427.402	8663.25
427.625	8439.25
427.847	7155.25
428.069	6385.25
428.292	6151.25
428.514	5872.25
428.736	5742.25
428.958	5833.25
429.181	5639.25
429.403	5618.25
429.625	5805.25
429.847	6140.25
430.069	6586.25
430.292	6087.25
430.514	5675.25
430.736	5607.25
430.958	5559.25
431.18	5483.25
431.402	5542.25
431.624	5491.25
431.846	5562.25
432.068	5524.25
432.29	5680.25
432.512	5552.25
432.734	5646.25
432.956	5620.25
433.178	5602.25
433.4	5627.25
433.622	5603.25
433.844	5577.25
434.066	5600.25
434.287	5683.25
434.509	5969.25
434.731	6219.25
434.953	6252.25
435.175	6483.25
435.397	6505.25
435.618	6369.25
435.84	6754.25
436.062	7443.25
436.284	7341.25
436.505	6231.25
436.727	6048.25
436.949	5737.25
437.17	5569.25
437.392	5597.25
437.614	5744.25
437.835	6056.25
438.057	7001.25
438.278	7536.25
438.5	7521.25
438.721	8271.25
438.943	7212.25
439.165	6184.25
439.386	6052.25
439.608	6033.25
439.829	6105.25
440.05	6406.25
440.272	6751.25
440.493	6103.25
440.715	5934.25
440.936	5895.25
441.158	5960.25
441.379	6085.25
441.6	6395.25
441.822	6642.25
442.043	7011.25
442.264	7716.25
442.486	7443.25
442.707	6662.25
442.928	6453.25
443.149	6614.25
443.371	6905.25
443.592	7440.25
443.813	8322.25
444.034	8272.25
444.255	7248.25
444.476	7174.25
444.698	7432.25
444.919	7381.25
445.14	7185.25
445.361	7018.25
445.582	7097.25
445.803	7614.25
446.024	8192.25
446.245	7831.25
446.466	6986.25
446.687	6191.25
446.908	5875.25
447.129	5672.25
447.35	5421.25
447.571	5536.25
447.792	5354.25
448.013	5484.25
448.234	5716.25
448.455	6202.25
448.675	7332.25
448.896	7695.25
449.117	6472.25
449.338	6659.25
449.559	7878.25
449.779	7945.25
450	6151.25
450.221	5516.25
450.442	5322.25
450.662	5247.25
450.883	5332.25
451.104	5370.25
451.324	5232.25
451.545	5134.25
451.766	5040.25
451.986	4940.25
452.207	4850.25
452.428	4856.25
452.648	4872.25
452.869	4911.25
453.089	4994.25
453.31	4984.25
453.53	4874.25
453.751	4901.25
453.971	4920.25
454.192	4992.25
454.412	4774.25
454.633	4777.25
454.853	4741.25
455.073	4820.25
455.294	5178.25
455.514	5502.25
455.734	5069.25
455.955	4597.25
456.175	4534.25
456.395	4505.25
456.616	4555.25
456.836	4506.25
457.056	4494.25
457.276	4435.25
457.497	4560.25
457.717	4566.25
457.937	4673.25
458.157	4737.25
458.377	4794.25
458.598	5125.25
458.818	5647.25
459.038	6477.25
459.258	6381.25
459.478	5781.25
459.698	5600.25
459.918	5707.25
460.138	5901.25
460.358	6136.25
460.578	6145.25
460.798	6126.25
461.018	6194.25
461.238	6102.25
461.458	5966.25
461.678	5968.25
461.898	6246.25
462.118	6257.25
462.338	6507.25
462.558	6688.25
462.777	7022.25
462.997	7617.25
463.217	7953.25
463.437	7695.25
463.657	7249.25
463.876	7011.25
464.096	7041.25
464.316	6984.25
464.536	6981.25
464.755	6791.25
464.975	6672.25
465.195	6753.25
465.414	6653.25
465.634	5979.25
465.854	5660.25
466.073	5429.25
466.293	5346.25
466.512	5209.25
466.732	5121.25
466.951	5045.25
467.171	5121.25
467.391	5114.25
467.61	5153.25
467.829	5080.25
468.049	4961.25
468.268	4877.25
468.488	4873.25
468.707	4817.25
468.927	4888.25
469.146	4867.25
469.365	4974.25
469.585	4988.25
469.804	5157.25
470.023	5228.25
470.243	5202.25
470.462	5273.25
470.681	5374.25
470.901	5313.25
471.12	5155.25
471.339	5160.25
471.558	5138.25
471.777	5039.25
471.997	4903.25
472.216	4794.25
472.435	4849.25
472.654	4804.25
472.873	4816.25
473.092	4845.25
473.311	4832.25
473.53	4871.25
473.749	4957.25
473.968	5445.25
474.187	6323.25
474.406	5840.25
474.625	5078.25
474.844	4895.25
475.063	4863.25
475.282	4984.25
475.501	4931.25
475.72	4957.25
475.939	5005.25
476.158	5016.25
476.377	5004.25
476.596	5048.25
476.814	5176.25
477.033	5289.25
477.252	5230.25
477.471	5333.25
477.69	5446.25
477.908	5620.25
478.127	5732.25
478.346	5781.25
478.564	5944.25
478.783	6047.25
479.002	6129.25
479.22	6100.25
479.439	6209.25
479.658	6287.25
479.876	6422.25
480.095	6510.25
480.313	6947.25
480.532	6809.25
480.751	6582.25
480.969	6558.25
481.188	6414.25
481.406	6264.25
481.624	6063.25
481.843	5853.25
482.061	5789.25
482.28	5768.25
482.498	5673.25
482.717	5634.25
482.935	5693.25
483.153	5588.25
483.372	5601.25
483.59	5637.25
483.808	5616.25
484.027	5677.25
484.245	5699.25
484.463	5757.25
484.681	5832.25
484.9	5892.25
485.118	5902.25
485.336	5870.25
485.554	6004.25
485.772	6082.25
485.99	6058.25
486.209	6049.25
486.427	6089.25
486.645	6155.25
486.863	6238.25
487.081	6141.25
487.299	6096.25
487.517	6134.25
487.735	5989.25
487.953	6029.25
