Data from Uncirc_2000_H10_HRD10591_00047.txt Node
Date: Wed Jan 03 10:48:26 EST 2024
User: Yrep
Spectrometer: HR+D1059
Trigger mode: 1
Integration Time (sec): 1.000000E-1
Scans to average: 1
Electric dark correction enabled: true
Nonlinearity correction enabled: false
Boxcar width: 0
XAxis mode: Wavelengths
Number of Pixels in Spectrum: 2048
>>>>>Begin Spectral Data<<<<<
223.165	-21.44
223.4	-21.44
223.635	-21.44
223.869	-29.44
224.104	-15.44
224.338	-6.44
224.573	-11.44
224.808	-7.44
225.042	-6.44
225.277	-13.44
225.511	-10.44
225.746	4.56
225.98	18.56
226.215	11.56
226.449	17.56
226.683	18.56
226.918	20.56
227.152	30.56
227.387	19.56
227.621	41.56
227.856	38.56
228.09	42.56
228.324	48.56
228.559	47.56
228.793	58.56
229.027	61.56
229.262	73.56
229.496	61.56
229.73	67.56
229.964	86.56
230.199	81.56
230.433	76.56
230.667	98.56
230.901	68.56
231.136	87.56
231.37	89.56
231.604	65.56
231.838	73.56
232.072	88.56
232.306	93.56
232.541	72.56
232.775	90.56
233.009	82.56
233.243	80.56
233.477	76.56
233.711	82.56
233.945	82.56
234.179	75.56
234.413	79.56
234.647	71.56
234.881	100.56
235.115	65.56
235.349	87.56
235.583	73.56
235.817	75.56
236.051	75.56
236.285	68.56
236.519	84.56
236.753	69.56
236.987	72.56
237.221	89.56
237.455	67.56
237.689	76.56
237.922	73.56
238.156	73.56
238.39	90.56
238.624	64.56
238.858	81.56
239.091	89.56
239.325	85.56
239.559	68.56
239.793	85.56
240.027	86.56
240.26	72.56
240.494	84.56
240.728	71.56
240.961	62.56
241.195	81.56
241.429	85.56
241.662	65.56
241.896	70.56
242.13	64.56
242.363	83.56
242.597	83.56
242.83	78.56
243.064	65.56
243.298	71.56
243.531	75.56
243.765	75.56
243.998	73.56
244.232	80.56
244.465	79.56
244.699	72.56
244.932	86.56
245.166	73.56
245.399	71.56
245.633	87.56
245.866	74.56
246.099	82.56
246.333	75.56
246.566	85.56
246.8	64.56
247.033	68.56
247.266	80.56
247.5	83.56
247.733	77.56
247.966	71.56
248.2	70.56
248.433	89.56
248.666	87.56
248.899	69.56
249.133	77.56
249.366	105.56
249.599	82.56
249.832	76.56
250.066	80.56
250.299	72.56
250.532	80.56
250.765	78.56
250.998	65.56
251.231	83.56
251.465	72.56
251.698	76.56
251.931	73.56
252.164	81.56
252.397	88.56
252.63	70.56
252.863	85.56
253.096	91.56
253.329	83.56
253.562	73.56
253.795	66.56
254.028	67.56
254.261	83.56
254.494	82.56
254.727	80.56
254.96	86.56
255.193	84.56
255.426	82.56
255.659	89.56
255.892	73.56
256.124	66.56
256.357	84.56
256.59	83.56
256.823	68.56
257.056	94.56
257.289	75.56
257.521	72.56
257.754	88.56
257.987	82.56
258.22	80.56
258.452	65.56
258.685	77.56
258.918	82.56
259.151	84.56
259.383	64.56
259.616	82.56
259.849	84.56
260.081	75.56
260.314	81.56
260.547	90.56
260.779	89.56
261.012	81.56
261.244	95.56
261.477	74.56
261.71	68.56
261.942	97.56
262.175	110.56
262.407	83.56
262.64	85.56
262.872	96.56
263.105	85.56
263.337	70.56
263.57	77.56
263.802	80.56
264.035	78.56
264.267	84.56
264.499	101.56
264.732	84.56
264.964	75.56
265.197	74.56
265.429	87.56
265.661	91.56
265.894	81.56
266.126	76.56
266.358	76.56
266.591	81.56
266.823	91.56
267.055	89.56
267.287	77.56
267.52	91.56
267.752	73.56
267.984	95.56
268.216	80.56
268.448	77.56
268.681	80.56
268.913	103.56
269.145	76.56
269.377	89.56
269.609	80.56
269.841	97.56
270.073	90.56
270.306	91.56
270.538	94.56
270.77	84.56
271.002	89.56
271.234	89.56
271.466	93.56
271.698	82.56
271.93	90.56
272.162	80.56
272.394	70.56
272.626	91.56
272.858	88.56
273.09	94.56
273.322	96.56
273.553	74.56
273.785	82.56
274.017	87.56
274.249	66.56
274.481	89.56
274.713	100.56
274.945	84.56
275.176	85.56
275.408	91.56
275.64	91.56
275.872	84.56
276.104	89.56
276.335	99.56
276.567	107.56
276.799	92.56
277.031	101.56
277.262	87.56
277.494	86.56
277.726	84.56
277.957	70.56
278.189	76.56
278.421	89.56
278.652	92.56
278.884	75.56
279.115	89.56
279.347	80.56
279.579	76.56
279.81	86.56
280.042	78.56
280.273	84.56
280.505	93.56
280.736	79.56
280.968	74.56
281.199	93.56
281.431	88.56
281.662	77.56
281.894	78.56
282.125	110.56
282.356	117.56
282.588	123.56
282.819	109.56
283.051	96.56
283.282	88.56
283.513	79.56
283.745	89.56
283.976	104.56
284.207	96.56
284.439	94.56
284.67	94.56
284.901	89.56
285.132	65.56
285.364	77.56
285.595	69.56
285.826	98.56
286.057	82.56
286.288	84.56
286.52	96.56
286.751	98.56
286.982	95.56
287.213	84.56
287.444	90.56
287.675	81.56
287.906	87.56
288.138	98.56
288.369	85.56
288.6	90.56
288.831	93.56
289.062	85.56
289.293	92.56
289.524	76.56
289.755	79.56
289.986	76.56
290.217	80.56
290.448	76.56
290.679	89.56
290.91	93.56
291.141	85.56
291.371	77.56
291.602	74.56
291.833	86.56
292.064	71.56
292.295	89.56
292.526	78.56
292.757	94.56
292.987	93.56
293.218	86.56
293.449	91.56
293.68	88.56
293.91	88.56
294.141	90.56
294.372	91.56
294.603	110.56
294.833	99.56
295.064	76.56
295.295	93.56
295.525	94.56
295.756	86.56
295.987	94.56
296.217	133.56
296.448	119.56
296.679	99.56
296.909	87.56
297.14	97.56
297.37	102.56
297.601	85.56
297.831	72.56
298.062	87.56
298.292	77.56
298.523	82.56
298.753	80.56
298.984	92.56
299.214	85.56
299.445	101.56
299.675	97.56
299.905	92.56
300.136	94.56
300.366	91.56
300.597	94.56
300.827	100.56
301.057	98.56
301.288	107.56
301.518	107.56
301.748	82.56
301.979	86.56
302.209	94.56
302.439	102.56
302.669	93.56
302.9	91.56
303.13	89.56
303.36	91.56
303.59	102.56
303.82	86.56
304.051	91.56
304.281	99.56
304.511	90.56
304.741	74.56
304.971	105.56
305.201	86.56
305.431	86.56
305.661	83.56
305.891	97.56
306.121	83.56
306.352	106.56
306.582	112.56
306.812	86.56
307.042	91.56
307.272	91.56
307.502	106.56
307.731	103.56
307.961	92.56
308.191	95.56
308.421	88.56
308.651	87.56
308.881	94.56
309.111	89.56
309.341	99.56
309.571	104.56
309.8	95.56
310.03	109.56
310.26	88.56
310.49	94.56
310.72	97.56
310.949	93.56
311.179	102.56
311.409	93.56
311.639	90.56
311.868	100.56
312.098	99.56
312.328	84.56
312.557	107.56
312.787	93.56
313.017	94.56
313.246	90.56
313.476	75.56
313.706	88.56
313.935	81.56
314.165	109.56
314.394	113.56
314.624	99.56
314.853	103.56
315.083	77.56
315.312	82.56
315.542	81.56
315.771	86.56
316.001	93.56
316.23	84.56
316.46	91.56
316.689	98.56
316.919	90.56
317.148	97.56
317.377	91.56
317.607	85.56
317.836	86.56
318.065	94.56
318.295	94.56
318.524	76.56
318.753	72.56
318.983	78.56
319.212	94.56
319.441	108.56
319.67	92.56
319.9	85.56
320.129	98.56
320.358	105.56
320.587	89.56
320.816	98.56
321.046	92.56
321.275	92.56
321.504	109.56
321.733	89.56
321.962	95.56
322.191	99.56
322.42	91.56
322.649	114.56
322.878	109.56
323.108	104.56
323.337	119.56
323.566	141.56
323.795	148.56
324.024	215.56
324.253	381.56
324.482	794.56
324.71	1641.56
324.939	2100.56
325.168	776.56
325.397	237.56
325.626	150.56
325.855	120.56
326.084	117.56
326.313	128.56
326.542	148.56
326.77	225.56
326.999	432.56
327.228	891.56
327.457	1652.56
327.686	1283.56
327.914	332.56
328.143	200.56
328.372	128.56
328.6	112.56
328.829	114.56
329.058	118.56
329.287	125.56
329.515	111.56
329.744	105.56
329.972	91.56
330.201	100.56
330.43	116.56
330.658	107.56
330.887	131.56
331.115	117.56
331.344	113.56
331.572	101.56
331.801	94.56
332.03	118.56
332.258	99.56
332.486	94.56
332.715	90.56
332.943	92.56
333.172	94.56
333.4	92.56
333.629	112.56
333.857	120.56
334.085	104.56
334.314	85.56
334.542	92.56
334.771	85.56
334.999	92.56
335.227	87.56
335.455	85.56
335.684	106.56
335.912	97.56
336.14	99.56
336.369	108.56
336.597	96.56
336.825	106.56
337.053	86.56
337.281	92.56
337.51	93.56
337.738	102.56
337.966	94.56
338.194	102.56
338.422	90.56
338.65	96.56
338.878	93.56
339.106	103.56
339.334	85.56
339.562	90.56
339.79	85.56
340.018	77.56
340.246	98.56
340.474	102.56
340.702	92.56
340.93	98.56
341.158	86.56
341.386	100.56
341.614	92.56
341.842	93.56
342.07	99.56
342.298	101.56
342.526	99.56
342.754	82.56
342.981	101.56
343.209	97.56
343.437	104.56
343.665	104.56
343.893	85.56
344.12	105.56
344.348	82.56
344.576	85.56
344.804	86.56
345.031	83.56
345.259	92.56
345.487	94.56
345.714	86.56
345.942	94.56
346.17	95.56
346.397	101.56
346.625	92.56
346.853	87.56
347.08	89.56
347.308	93.56
347.535	97.56
347.763	113.56
347.99	91.56
348.218	100.56
348.445	105.56
348.673	93.56
348.9	105.56
349.128	102.56
349.355	88.56
349.583	104.56
349.81	99.56
350.037	93.56
350.265	98.56
350.492	96.56
350.72	116.56
350.947	99.56
351.174	93.56
351.402	114.56
351.629	96.56
351.856	98.56
352.083	99.56
352.311	93.56
352.538	105.56
352.765	109.56
352.992	107.56
353.22	104.56
353.447	91.56
353.674	99.56
353.901	104.56
354.128	107.56
354.355	96.56
354.583	99.56
354.81	96.56
355.037	98.56
355.264	105.56
355.491	85.56
355.718	99.56
355.945	95.56
356.172	106.56
356.399	103.56
356.626	94.56
356.853	95.56
357.08	92.56
357.307	98.56
357.534	82.56
357.761	89.56
357.988	106.56
358.215	102.56
358.441	94.56
358.668	100.56
358.895	99.56
359.122	90.56
359.349	81.56
359.576	96.56
359.802	108.56
360.029	98.56
360.256	94.56
360.483	98.56
360.709	96.56
360.936	108.56
361.163	86.56
361.39	98.56
361.616	97.56
361.843	94.56
362.07	97.56
362.296	99.56
362.523	87.56
362.749	102.56
362.976	90.56
363.203	94.56
363.429	96.56
363.656	91.56
363.882	79.56
364.109	100.56
364.335	88.56
364.562	77.56
364.788	81.56
365.015	80.56
365.241	101.56
365.468	107.56
365.694	101.56
365.92	98.56
366.147	84.56
366.373	85.56
366.599	89.56
366.826	92.56
367.052	81.56
367.278	88.56
367.505	93.56
367.731	90.56
367.957	81.56
368.184	93.56
368.41	112.56
368.636	97.56
368.862	115.56
369.089	110.56
369.315	87.56
369.541	98.56
369.767	93.56
369.993	96.56
370.219	85.56
370.445	85.56
370.672	80.56
370.898	91.56
371.124	87.56
371.35	89.56
371.576	97.56
371.802	87.56
372.028	80.56
372.254	92.56
372.48	108.56
372.706	101.56
372.932	90.56
373.158	100.56
373.384	91.56
373.61	88.56
373.835	88.56
374.061	92.56
374.287	81.56
374.513	83.56
374.739	88.56
374.965	85.56
375.191	75.56
375.416	97.56
375.642	96.56
375.868	98.56
376.094	100.56
376.319	99.56
376.545	90.56
376.771	90.56
376.997	84.56
377.222	80.56
377.448	92.56
377.674	88.56
377.899	82.56
378.125	98.56
378.35	79.56
378.576	94.56
378.802	97.56
379.027	108.56
379.253	91.56
379.478	98.56
379.704	90.56
379.929	77.56
380.155	99.56
380.38	85.56
380.606	90.56
380.831	101.56
381.057	93.56
381.282	91.56
381.507	84.56
381.733	80.56
381.958	85.56
382.184	77.56
382.409	95.56
382.634	103.56
382.86	100.56
383.085	97.56
383.31	93.56
383.535	97.56
383.761	102.56
383.986	99.56
384.211	94.56
384.436	102.56
384.662	98.56
384.887	98.56
385.112	108.56
385.337	96.56
385.562	92.56
385.787	102.56
386.013	88.56
386.238	101.56
386.463	112.56
386.688	117.56
386.913	104.56
387.138	97.56
387.363	103.56
387.588	95.56
387.813	95.56
388.038	103.56
388.263	99.56
388.488	107.56
388.713	111.56
388.938	97.56
389.163	94.56
389.387	97.56
389.612	93.56
389.837	85.56
390.062	96.56
390.287	91.56
390.512	81.56
390.736	86.56
390.961	95.56
391.186	93.56
391.411	79.56
391.636	90.56
391.86	95.56
392.085	90.56
392.31	94.56
392.534	101.56
392.759	87.56
392.984	94.56
393.208	96.56
393.433	101.56
393.658	90.56
393.882	92.56
394.107	82.56
394.331	91.56
394.556	98.56
394.78	86.56
395.005	78.56
395.229	86.56
395.454	74.56
395.678	84.56
395.903	96.56
396.127	82.56
396.352	88.56
396.576	80.56
396.801	87.56
397.025	100.56
397.249	90.56
397.474	99.56
397.698	88.56
397.922	91.56
398.147	81.56
398.371	76.56
398.595	81.56
398.82	75.56
399.044	82.56
399.268	87.56
399.492	90.56
399.717	74.56
399.941	88.56
400.165	98.56
400.389	84.56
400.613	85.56
400.837	98.56
401.062	88.56
401.286	83.56
401.51	102.56
401.734	96.56
401.958	100.56
402.182	118.56
402.406	148.56
402.63	117.56
402.854	80.56
403.078	93.56
403.302	82.56
403.526	91.56
403.75	90.56
403.974	74.56
404.198	75.56
404.422	91.56
404.645	82.56
404.869	87.56
405.093	87.56
405.317	110.56
405.541	97.56
405.765	88.56
405.988	112.56
406.212	171.56
406.436	202.56
406.66	129.56
406.883	100.56
407.107	93.56
407.331	93.56
407.555	114.56
407.778	95.56
408.002	84.56
408.226	80.56
408.449	89.56
408.673	95.56
408.896	78.56
409.12	93.56
409.344	86.56
409.567	89.56
409.791	87.56
410.014	76.56
410.238	80.56
410.461	81.56
410.685	89.56
410.908	96.56
411.132	117.56
411.355	92.56
411.578	89.56
411.802	96.56
412.025	88.56
412.249	87.56
412.472	89.56
412.695	100.56
412.919	84.56
413.142	88.56
413.365	91.56
413.589	98.56
413.812	106.56
414.035	84.56
414.258	99.56
414.482	96.56
414.705	101.56
414.928	74.56
415.151	90.56
415.374	100.56
415.597	81.56
415.821	93.56
416.044	73.56
416.267	90.56
416.49	90.56
416.713	97.56
416.936	92.56
417.159	95.56
417.382	107.56
417.605	76.56
417.828	100.56
418.051	90.56
418.274	85.56
418.497	74.56
418.72	87.56
418.943	89.56
419.166	81.56
419.389	94.56
419.611	90.56
419.834	91.56
420.057	96.56
420.28	86.56
420.503	94.56
420.726	82.56
420.948	95.56
421.171	86.56
421.394	102.56
421.617	101.56
421.839	77.56
422.062	84.56
422.285	92.56
422.507	94.56
422.73	110.56
422.953	91.56
423.175	94.56
423.398	92.56
423.621	89.56
423.843	76.56
424.066	92.56
424.288	91.56
424.511	89.56
424.733	106.56
424.956	104.56
425.178	100.56
425.401	99.56
425.623	96.56
425.846	84.56
426.068	113.56
426.291	93.56
426.513	95.56
426.735	95.56
426.958	102.56
427.18	100.56
427.402	125.56
427.625	157.56
427.847	115.56
428.069	96.56
428.292	88.56
428.514	90.56
428.736	99.56
428.958	90.56
429.181	77.56
429.403	82.56
429.625	97.56
429.847	82.56
430.069	93.56
430.292	93.56
430.514	85.56
430.736	82.56
430.958	90.56
431.18	86.56
431.402	90.56
431.624	93.56
431.846	67.56
432.068	86.56
432.29	86.56
432.512	88.56
432.734	78.56
432.956	110.56
433.178	86.56
433.4	104.56
433.622	97.56
433.844	89.56
434.066	100.56
434.287	97.56
434.509	99.56
434.731	80.56
434.953	84.56
435.175	84.56
435.397	97.56
435.618	92.56
435.84	87.56
436.062	122.56
436.284	117.56
436.505	101.56
436.727	86.56
436.949	85.56
437.17	97.56
437.392	79.56
437.614	94.56
437.835	94.56
438.057	117.56
438.278	103.56
438.5	100.56
438.721	103.56
438.943	109.56
439.165	91.56
439.386	86.56
439.608	86.56
439.829	100.56
440.05	120.56
440.272	133.56
440.493	94.56
440.715	99.56
440.936	90.56
441.158	92.56
441.379	91.56
441.6	76.56
441.822	90.56
442.043	99.56
442.264	88.56
442.486	95.56
442.707	94.56
442.928	105.56
443.149	128.56
443.371	121.56
443.592	100.56
443.813	102.56
444.034	96.56
444.255	89.56
444.476	98.56
444.698	94.56
444.919	84.56
445.14	129.56
445.361	94.56
445.582	112.56
445.803	134.56
446.024	117.56
446.245	146.56
446.466	105.56
446.687	89.56
446.908	87.56
447.129	89.56
447.35	82.56
447.571	99.56
447.792	107.56
448.013	113.56
448.234	108.56
448.455	114.56
448.675	110.56
448.896	121.56
449.117	94.56
449.338	86.56
449.559	116.56
449.779	118.56
450	86.56
450.221	82.56
450.442	85.56
450.662	84.56
450.883	97.56
451.104	112.56
451.324	104.56
451.545	91.56
451.766	92.56
451.986	92.56
452.207	93.56
452.428	81.56
452.648	93.56
452.869	106.56
453.089	113.56
453.31	113.56
453.53	97.56
453.751	94.56
453.971	95.56
454.192	100.56
454.412	88.56
454.633	77.56
454.853	85.56
455.073	81.56
455.294	82.56
455.514	88.56
455.734	83.56
455.955	80.56
456.175	86.56
456.395	76.56
456.616	88.56
456.836	81.56
457.056	88.56
457.276	76.56
457.497	86.56
457.717	100.56
457.937	98.56
458.157	97.56
458.377	93.56
458.598	110.56
458.818	121.56
459.038	155.56
459.258	102.56
459.478	85.56
459.698	78.56
459.918	87.56
460.138	86.56
460.358	84.56
460.578	89.56
460.798	85.56
461.018	85.56
461.238	83.56
461.458	89.56
461.678	89.56
461.898	109.56
462.118	93.56
462.338	78.56
462.558	98.56
462.777	82.56
462.997	83.56
463.217	79.56
463.437	82.56
463.657	90.56
463.876	65.56
464.096	90.56
464.316	85.56
464.536	84.56
464.755	86.56
464.975	97.56
465.195	146.56
465.414	132.56
465.634	91.56
465.854	86.56
466.073	88.56
466.293	88.56
466.512	98.56
466.732	70.56
466.951	97.56
467.171	96.56
467.391	91.56
467.61	104.56
467.829	94.56
468.049	83.56
468.268	101.56
468.488	70.56
468.707	82.56
468.927	78.56
469.146	85.56
469.365	88.56
469.585	83.56
469.804	85.56
470.023	78.56
470.243	84.56
470.462	97.56
470.681	107.56
470.901	88.56
471.12	83.56
471.339	80.56
471.558	90.56
471.777	82.56
471.997	85.56
472.216	71.56
472.435	83.56
472.654	85.56
472.873	90.56
473.092	80.56
473.311	74.56
473.53	77.56
473.749	80.56
473.968	101.56
474.187	107.56
474.406	96.56
474.625	90.56
474.844	101.56
475.063	76.56
475.282	89.56
475.501	84.56
475.72	77.56
475.939	75.56
476.158	83.56
476.377	85.56
476.596	83.56
476.814	100.56
477.033	90.56
477.252	78.56
477.471	82.56
477.69	83.56
477.908	94.56
478.127	89.56
478.346	82.56
478.564	101.56
478.783	95.56
479.002	95.56
479.22	74.56
479.439	102.56
479.658	97.56
479.876	99.56
480.095	87.56
480.313	85.56
480.532	76.56
480.751	89.56
480.969	88.56
481.188	84.56
481.406	100.56
481.624	85.56
481.843	91.56
482.061	85.56
482.28	80.56
482.498	97.56
482.717	89.56
482.935	88.56
483.153	85.56
483.372	109.56
483.59	118.56
483.808	76.56
484.027	98.56
484.245	92.56
484.463	85.56
484.681	93.56
484.9	96.56
485.118	87.56
485.336	103.56
485.554	99.56
485.772	93.56
485.99	92.56
486.209	87.56
486.427	116.56
486.645	105.56
486.863	100.56
487.081	97.56
487.299	95.56
487.517	89.56
487.735	80.56
487.953	91.56
488.171	99.56
488.389	94.56
488.607	92.56
488.825	86.56
489.043	94.56
489.261	102.56
489.479	97.56
489.696	87.56
489.914	105.56
490.132	99.56
490.35	100.56
490.568	79.56
490.786	87.56
491.003	92.56
491.221	83.56
491.439	78.56
491.657	92.56
491.874	100.56
492.092	76.56
492.31	85.56
492.527	78.56
492.745	94.56
492.963	100.56
493.18	83.56
493.398	88.56
493.615	87.56
493.833	98.56
494.05	77.56
494.268	79.56
494.485	90.56
494.703	105.56
494.92	84.56
495.138	96.56
495.355	89.56
495.573	92.56
495.79	90.56
496.008	97.56
496.225	80.56
496.442	94.56
496.66	86.56
496.877	89.56
497.094	111.56
497.312	99.56
497.529	80.56
497.746	85.56
497.963	88.56
498.181	92.56
498.398	86.56
498.615	105.56
498.832	93.56
499.049	92.56
499.267	78.56
499.484	98.56
499.701	94.56
499.918	95.56
500.135	89.56
500.352	86.56
500.569	80.56
500.786	85.56
501.003	93.56
501.22	82.56
501.437	78.56
501.654	89.56
501.871	96.56
502.088	83.56
502.305	89.56
502.522	90.56
502.739	90.56
502.956	96.56
503.172	93.56
503.389	94.56
503.606	99.56
503.823	98.56
504.04	93.56
504.256	94.56
504.473	82.56
504.69	85.56
504.907	91.56
505.123	91.56
505.34	100.56
505.557	84.56
505.773	97.56
505.99	96.56
506.207	88.56
506.423	95.56
506.64	100.56
506.856	88.56
507.073	101.56
507.289	98.56
507.506	80.56
507.722	109.56
507.939	110.56
508.155	93.56
508.372	104.56
508.588	110.56
508.805	91.56
509.021	93.56
509.238	109.56
509.454	106.56
509.67	89.56
509.887	116.56
510.103	131.56
510.319	220.56
510.536	749.56
510.752	2290.56
510.968	632.56
511.184	147.56
511.401	109.56
511.617	97.56
511.833	88.56
512.049	99.56
512.265	104.56
512.481	90.56
512.698	92.56
512.914	94.56
513.13	96.56
513.346	78.56
513.562	91.56
513.778	98.56
513.994	71.56
514.21	100.56
514.426	112.56
514.642	109.56
514.858	115.56
515.074	166.56
515.29	422.56
515.506	1308.56
515.721	506.56
515.937	158.56
516.153	101.56
