Data from Uncirc_2000_H10_HRD10591_00063.txt Node
Date: Wed Jan 03 10:48:29 EST 2024
User: Yrep
Spectrometer: HR+D1059
Trigger mode: 1
Integration Time (sec): 1.000000E-1
Scans to average: 1
Electric dark correction enabled: true
Nonlinearity correction enabled: false
Boxcar width: 0
XAxis mode: Wavelengths
Number of Pixels in Spectrum: 2048
>>>>>Begin Spectral Data<<<<<
223.165	-11.81
223.4	-11.81
223.635	-11.81
223.869	-26.81
224.104	-18.81
224.338	-27.81
224.573	-16.81
224.808	0.19
225.042	-1.81
225.277	-12.81
225.511	-10.81
225.746	8.19
225.98	18.19
226.215	4.19
226.449	28.19
226.683	13.19
226.918	22.19
227.152	33.19
227.387	40.19
227.621	45.19
227.856	46.19
228.09	46.19
228.324	47.19
228.559	67.19
228.793	64.19
229.027	68.19
229.262	67.19
229.496	70.19
229.73	82.19
229.964	76.19
230.199	71.19
230.433	78.19
230.667	68.19
230.901	74.19
231.136	72.19
231.37	79.19
231.604	81.19
231.838	70.19
232.072	85.19
232.306	90.19
232.541	75.19
232.775	93.19
233.009	91.19
233.243	86.19
233.477	92.19
233.711	86.19
233.945	78.19
234.179	76.19
234.413	73.19
234.647	63.19
234.881	95.19
235.115	96.19
235.349	78.19
235.583	91.19
235.817	92.19
236.051	86.19
236.285	77.19
236.519	82.19
236.753	85.19
236.987	79.19
237.221	95.19
237.455	102.19
237.689	92.19
237.922	83.19
238.156	77.19
238.39	85.19
238.624	67.19
238.858	76.19
239.091	91.19
239.325	81.19
239.559	84.19
239.793	79.19
240.027	84.19
240.26	76.19
240.494	94.19
240.728	84.19
240.961	71.19
241.195	71.19
241.429	86.19
241.662	87.19
241.896	76.19
242.13	88.19
242.363	96.19
242.597	77.19
242.83	77.19
243.064	77.19
243.298	71.19
243.531	94.19
243.765	70.19
243.998	74.19
244.232	82.19
244.465	84.19
244.699	89.19
244.932	79.19
245.166	75.19
245.399	85.19
245.633	75.19
245.866	82.19
246.099	68.19
246.333	76.19
246.566	75.19
246.8	68.19
247.033	72.19
247.266	66.19
247.5	75.19
247.733	73.19
247.966	87.19
248.2	94.19
248.433	74.19
248.666	83.19
248.899	70.19
249.133	88.19
249.366	98.19
249.599	83.19
249.832	61.19
250.066	82.19
250.299	91.19
250.532	79.19
250.765	74.19
250.998	83.19
251.231	76.19
251.465	92.19
251.698	93.19
251.931	81.19
252.164	86.19
252.397	88.19
252.63	77.19
252.863	98.19
253.096	72.19
253.329	93.19
253.562	86.19
253.795	80.19
254.028	93.19
254.261	91.19
254.494	82.19
254.727	87.19
254.96	68.19
255.193	88.19
255.426	80.19
255.659	93.19
255.892	94.19
256.124	88.19
256.357	97.19
256.59	87.19
256.823	84.19
257.056	83.19
257.289	107.19
257.521	81.19
257.754	92.19
257.987	71.19
258.22	81.19
258.452	88.19
258.685	89.19
258.918	84.19
259.151	96.19
259.383	82.19
259.616	86.19
259.849	91.19
260.081	87.19
260.314	82.19
260.547	86.19
260.779	83.19
261.012	77.19
261.244	86.19
261.477	104.19
261.71	100.19
261.942	119.19
262.175	116.19
262.407	104.19
262.64	82.19
262.872	88.19
263.105	95.19
263.337	82.19
263.57	99.19
263.802	102.19
264.035	74.19
264.267	85.19
264.499	86.19
264.732	99.19
264.964	89.19
265.197	82.19
265.429	68.19
265.661	87.19
265.894	71.19
266.126	91.19
266.358	86.19
266.591	81.19
266.823	84.19
267.055	84.19
267.287	77.19
267.52	76.19
267.752	71.19
267.984	84.19
268.216	77.19
268.448	83.19
268.681	86.19
268.913	86.19
269.145	89.19
269.377	90.19
269.609	86.19
269.841	105.19
270.073	86.19
270.306	97.19
270.538	97.19
270.77	102.19
271.002	84.19
271.234	90.19
271.466	79.19
271.698	97.19
271.93	84.19
272.162	96.19
272.394	92.19
272.626	90.19
272.858	79.19
273.09	93.19
273.322	82.19
273.553	98.19
273.785	89.19
274.017	94.19
274.249	106.19
274.481	94.19
274.713	77.19
274.945	83.19
275.176	83.19
275.408	82.19
275.64	85.19
275.872	83.19
276.104	71.19
276.335	102.19
276.567	84.19
276.799	107.19
277.031	105.19
277.262	85.19
277.494	91.19
277.726	87.19
277.957	87.19
278.189	82.19
278.421	80.19
278.652	100.19
278.884	77.19
279.115	91.19
279.347	86.19
279.579	87.19
279.81	96.19
280.042	90.19
280.273	80.19
280.505	82.19
280.736	87.19
280.968	81.19
281.199	92.19
281.431	90.19
281.662	92.19
281.894	107.19
282.125	113.19
282.356	125.19
282.588	128.19
282.819	121.19
283.051	91.19
283.282	89.19
283.513	88.19
283.745	88.19
283.976	90.19
284.207	91.19
284.439	84.19
284.67	90.19
284.901	73.19
285.132	82.19
285.364	83.19
285.595	86.19
285.826	87.19
286.057	93.19
286.288	94.19
286.52	82.19
286.751	92.19
286.982	87.19
287.213	75.19
287.444	84.19
287.675	92.19
287.906	98.19
288.138	86.19
288.369	101.19
288.6	91.19
288.831	95.19
289.062	87.19
289.293	85.19
289.524	79.19
289.755	94.19
289.986	88.19
290.217	94.19
290.448	78.19
290.679	84.19
290.91	99.19
291.141	87.19
291.371	88.19
291.602	93.19
291.833	76.19
292.064	90.19
292.295	94.19
292.526	92.19
292.757	91.19
292.987	89.19
293.218	86.19
293.449	96.19
293.68	93.19
293.91	92.19
294.141	83.19
294.372	78.19
294.603	91.19
294.833	85.19
295.064	87.19
295.295	95.19
295.525	87.19
295.756	117.19
295.987	116.19
296.217	124.19
296.448	126.19
296.679	102.19
296.909	95.19
297.14	94.19
297.37	94.19
297.601	92.19
297.831	101.19
298.062	83.19
298.292	99.19
298.523	86.19
298.753	86.19
298.984	98.19
299.214	91.19
299.445	95.19
299.675	89.19
299.905	103.19
300.136	84.19
300.366	106.19
300.597	93.19
300.827	93.19
301.057	109.19
301.288	106.19
301.518	91.19
301.748	75.19
301.979	94.19
302.209	73.19
302.439	83.19
302.669	104.19
302.9	86.19
303.13	92.19
303.36	86.19
303.59	106.19
303.82	115.19
304.051	96.19
304.281	103.19
304.511	106.19
304.741	93.19
304.971	102.19
305.201	96.19
305.431	82.19
305.661	80.19
305.891	100.19
306.121	102.19
306.352	89.19
306.582	103.19
306.812	103.19
307.042	84.19
307.272	93.19
307.502	75.19
307.731	91.19
307.961	103.19
308.191	98.19
308.421	90.19
308.651	99.19
308.881	96.19
309.111	91.19
309.341	94.19
309.571	91.19
309.8	106.19
310.03	88.19
310.26	87.19
310.49	99.19
310.72	92.19
310.949	103.19
311.179	100.19
311.409	100.19
311.639	91.19
311.868	108.19
312.098	90.19
312.328	95.19
312.557	95.19
312.787	95.19
313.017	99.19
313.246	96.19
313.476	98.19
313.706	94.19
313.935	90.19
314.165	96.19
314.394	91.19
314.624	102.19
314.853	105.19
315.083	89.19
315.312	83.19
315.542	83.19
315.771	85.19
316.001	94.19
316.23	75.19
316.46	80.19
316.689	93.19
316.919	98.19
317.148	92.19
317.377	91.19
317.607	109.19
317.836	102.19
318.065	91.19
318.295	91.19
318.524	94.19
318.753	94.19
318.983	87.19
319.212	100.19
319.441	105.19
319.67	101.19
319.9	96.19
320.129	92.19
320.358	95.19
320.587	88.19
320.816	99.19
321.046	104.19
321.275	93.19
321.504	96.19
321.733	108.19
321.962	102.19
322.191	105.19
322.42	117.19
322.649	103.19
322.878	118.19
323.108	106.19
323.337	128.19
323.566	136.19
323.795	150.19
324.024	197.19
324.253	382.19
324.482	775.19
324.71	1618.19
324.939	2055.19
325.168	755.19
325.397	234.19
325.626	148.19
325.855	122.19
326.084	134.19
326.313	122.19
326.542	146.19
326.77	216.19
326.999	457.19
327.228	900.19
327.457	1624.19
327.686	1295.19
327.914	336.19
328.143	182.19
328.372	139.19
328.6	126.19
328.829	128.19
329.058	126.19
329.287	111.19
329.515	102.19
329.744	106.19
329.972	87.19
330.201	87.19
330.43	94.19
330.658	128.19
330.887	127.19
331.115	111.19
331.344	105.19
331.572	93.19
331.801	97.19
332.03	119.19
332.258	88.19
332.486	88.19
332.715	79.19
332.943	94.19
333.172	96.19
333.4	91.19
333.629	90.19
333.857	110.19
334.085	106.19
334.314	94.19
334.542	76.19
334.771	105.19
334.999	107.19
335.227	98.19
335.455	96.19
335.684	100.19
335.912	111.19
336.14	106.19
336.369	92.19
336.597	95.19
336.825	105.19
337.053	84.19
337.281	91.19
337.51	91.19
337.738	99.19
337.966	93.19
338.194	99.19
338.422	108.19
338.65	84.19
338.878	90.19
339.106	90.19
339.334	86.19
339.562	99.19
339.79	94.19
340.018	111.19
340.246	96.19
340.474	109.19
340.702	88.19
340.93	89.19
341.158	87.19
341.386	78.19
341.614	91.19
341.842	94.19
342.07	107.19
342.298	101.19
342.526	98.19
342.754	88.19
342.981	87.19
343.209	99.19
343.437	104.19
343.665	84.19
343.893	91.19
344.12	94.19
344.348	81.19
344.576	89.19
344.804	102.19
345.031	105.19
345.259	78.19
345.487	93.19
345.714	95.19
345.942	99.19
346.17	109.19
346.397	90.19
346.625	110.19
346.853	95.19
347.08	89.19
347.308	95.19
347.535	107.19
347.763	114.19
347.99	94.19
348.218	97.19
348.445	101.19
348.673	95.19
348.9	91.19
349.128	103.19
349.355	84.19
349.583	92.19
349.81	103.19
350.037	102.19
350.265	95.19
350.492	89.19
350.72	102.19
350.947	102.19
351.174	115.19
351.402	95.19
351.629	92.19
351.856	104.19
352.083	105.19
352.311	110.19
352.538	93.19
352.765	110.19
352.992	108.19
353.22	108.19
353.447	108.19
353.674	87.19
353.901	90.19
354.128	95.19
354.355	94.19
354.583	101.19
354.81	97.19
355.037	102.19
355.264	93.19
355.491	107.19
355.718	94.19
355.945	110.19
356.172	101.19
356.399	90.19
356.626	105.19
356.853	100.19
357.08	81.19
357.307	92.19
357.534	80.19
357.761	96.19
357.988	84.19
358.215	92.19
358.441	100.19
358.668	79.19
358.895	96.19
359.122	90.19
359.349	89.19
359.576	99.19
359.802	102.19
360.029	116.19
360.256	106.19
360.483	86.19
360.709	95.19
360.936	91.19
361.163	89.19
361.39	91.19
361.616	96.19
361.843	101.19
362.07	92.19
362.296	102.19
362.523	82.19
362.749	95.19
362.976	110.19
363.203	95.19
363.429	87.19
363.656	79.19
363.882	78.19
364.109	90.19
364.335	107.19
364.562	78.19
364.788	89.19
365.015	82.19
365.241	98.19
365.468	105.19
365.694	111.19
365.92	95.19
366.147	93.19
366.373	85.19
366.599	96.19
366.826	95.19
367.052	98.19
367.278	94.19
367.505	87.19
367.731	94.19
367.957	95.19
368.184	90.19
368.41	85.19
368.636	112.19
368.862	117.19
369.089	105.19
369.315	90.19
369.541	86.19
369.767	94.19
369.993	95.19
370.219	91.19
370.445	86.19
370.672	91.19
370.898	95.19
371.124	94.19
371.35	95.19
371.576	92.19
371.802	92.19
372.028	89.19
372.254	89.19
372.48	97.19
372.706	93.19
372.932	101.19
373.158	104.19
373.384	103.19
373.61	102.19
373.835	96.19
374.061	100.19
374.287	97.19
374.513	87.19
374.739	85.19
374.965	89.19
375.191	94.19
375.416	100.19
375.642	84.19
375.868	91.19
376.094	94.19
376.319	90.19
376.545	88.19
376.771	87.19
376.997	87.19
377.222	91.19
377.448	89.19
377.674	95.19
377.899	87.19
378.125	97.19
378.35	95.19
378.576	88.19
378.802	106.19
379.027	88.19
379.253	89.19
379.478	85.19
379.704	84.19
379.929	86.19
380.155	96.19
380.38	108.19
380.606	91.19
380.831	99.19
381.057	97.19
381.282	86.19
381.507	103.19
381.733	90.19
381.958	87.19
382.184	98.19
382.409	102.19
382.634	109.19
382.86	86.19
383.085	99.19
383.31	97.19
383.535	105.19
383.761	113.19
383.986	94.19
384.211	82.19
384.436	97.19
384.662	108.19
384.887	121.19
385.112	95.19
385.337	108.19
385.562	117.19
385.787	108.19
386.013	116.19
386.238	103.19
386.463	123.19
386.688	92.19
386.913	100.19
387.138	119.19
387.363	104.19
387.588	101.19
387.813	106.19
388.038	96.19
388.263	106.19
388.488	94.19
388.713	89.19
388.938	96.19
389.163	109.19
389.387	106.19
389.612	91.19
389.837	95.19
390.062	101.19
390.287	101.19
390.512	91.19
390.736	90.19
390.961	99.19
391.186	83.19
391.411	99.19
391.636	100.19
391.86	88.19
392.085	84.19
392.31	93.19
392.534	103.19
392.759	100.19
392.984	95.19
393.208	94.19
393.433	94.19
393.658	89.19
393.882	90.19
394.107	90.19
394.331	84.19
394.556	87.19
394.78	86.19
395.005	84.19
395.229	98.19
395.454	96.19
395.678	82.19
395.903	73.19
396.127	99.19
396.352	106.19
396.576	86.19
396.801	95.19
397.025	96.19
397.249	88.19
397.474	91.19
397.698	83.19
397.922	80.19
398.147	98.19
398.371	89.19
398.595	94.19
398.82	96.19
399.044	90.19
399.268	98.19
399.492	91.19
399.717	95.19
399.941	99.19
400.165	94.19
400.389	88.19
400.613	95.19
400.837	82.19
401.062	88.19
401.286	90.19
401.51	91.19
401.734	86.19
401.958	103.19
402.182	120.19
402.406	141.19
402.63	110.19
402.854	93.19
403.078	102.19
403.302	104.19
403.526	93.19
403.75	82.19
403.974	84.19
404.198	102.19
404.422	84.19
404.645	86.19
404.869	69.19
405.093	96.19
405.317	91.19
405.541	103.19
405.765	88.19
405.988	114.19
406.212	152.19
406.436	212.19
406.66	126.19
406.883	98.19
407.107	102.19
407.331	100.19
407.555	89.19
407.778	97.19
408.002	87.19
408.226	103.19
408.449	89.19
408.673	91.19
408.896	104.19
409.12	95.19
409.344	93.19
409.567	85.19
409.791	95.19
410.014	101.19
410.238	97.19
410.461	94.19
410.685	83.19
410.908	93.19
411.132	111.19
411.355	108.19
411.578	90.19
411.802	93.19
412.025	87.19
412.249	84.19
412.472	96.19
412.695	96.19
412.919	88.19
413.142	94.19
413.365	90.19
413.589	80.19
413.812	95.19
414.035	88.19
414.258	83.19
414.482	91.19
414.705	97.19
414.928	94.19
415.151	100.19
415.374	96.19
415.597	84.19
415.821	88.19
416.044	78.19
416.267	96.19
416.49	95.19
416.713	84.19
416.936	99.19
417.159	86.19
417.382	85.19
417.605	88.19
417.828	92.19
418.051	90.19
418.274	95.19
418.497	81.19
418.72	78.19
418.943	98.19
419.166	86.19
419.389	87.19
419.611	95.19
419.834	83.19
420.057	86.19
420.28	88.19
420.503	89.19
420.726	90.19
420.948	90.19
421.171	105.19
421.394	106.19
421.617	97.19
421.839	95.19
422.062	108.19
422.285	90.19
422.507	98.19
422.73	114.19
422.953	100.19
423.175	83.19
423.398	92.19
423.621	98.19
423.843	78.19
424.066	98.19
424.288	94.19
424.511	109.19
424.733	102.19
424.956	108.19
425.178	105.19
425.401	103.19
425.623	92.19
425.846	82.19
426.068	106.19
426.291	102.19
426.513	74.19
426.735	87.19
426.958	93.19
427.18	104.19
427.402	125.19
427.625	147.19
427.847	124.19
428.069	106.19
428.292	94.19
428.514	88.19
428.736	86.19
428.958	106.19
429.181	68.19
429.403	90.19
429.625	100.19
429.847	80.19
430.069	108.19
430.292	76.19
430.514	90.19
430.736	88.19
430.958	81.19
431.18	90.19
431.402	89.19
431.624	85.19
431.846	95.19
432.068	106.19
432.29	93.19
432.512	96.19
432.734	88.19
432.956	100.19
433.178	93.19
433.4	104.19
433.622	103.19
433.844	91.19
434.066	103.19
434.287	100.19
434.509	93.19
434.731	83.19
434.953	92.19
435.175	111.19
435.397	101.19
435.618	88.19
435.84	99.19
436.062	127.19
436.284	98.19
436.505	109.19
436.727	100.19
436.949	85.19
437.17	94.19
437.392	75.19
437.614	95.19
437.835	102.19
438.057	131.19
438.278	111.19
438.5	106.19
438.721	125.19
438.943	114.19
439.165	95.19
439.386	93.19
439.608	98.19
439.829	101.19
440.05	116.19
440.272	149.19
440.493	105.19
440.715	93.19
440.936	85.19
441.158	92.19
441.379	87.19
441.6	107.19
441.822	92.19
442.043	92.19
442.264	110.19
442.486	89.19
442.707	71.19
442.928	93.19
443.149	117.19
443.371	128.19
443.592	114.19
443.813	114.19
444.034	110.19
444.255	93.19
444.476	96.19
444.698	89.19
444.919	87.19
445.14	130.19
445.361	128.19
445.582	127.19
445.803	135.19
446.024	130.19
446.245	139.19
446.466	111.19
446.687	88.19
446.908	78.19
447.129	92.19
447.35	93.19
447.571	102.19
447.792	95.19
448.013	120.19
448.234	100.19
448.455	98.19
448.675	104.19
448.896	115.19
449.117	88.19
449.338	104.19
449.559	125.19
449.779	135.19
450	100.19
450.221	72.19
450.442	91.19
450.662	98.19
450.883	111.19
451.104	110.19
451.324	95.19
451.545	101.19
451.766	93.19
451.986	87.19
452.207	76.19
452.428	95.19
452.648	94.19
452.869	118.19
453.089	102.19
453.31	114.19
453.53	96.19
453.751	90.19
453.971	107.19
454.192	100.19
454.412	88.19
454.633	89.19
454.853	98.19
455.073	88.19
455.294	88.19
455.514	90.19
455.734	94.19
455.955	97.19
456.175	88.19
456.395	85.19
456.616	91.19
456.836	94.19
457.056	89.19
457.276	69.19
457.497	99.19
457.717	98.19
457.937	89.19
458.157	90.19
458.377	97.19
458.598	111.19
458.818	132.19
459.038	153.19
459.258	116.19
459.478	93.19
459.698	88.19
459.918	84.19
460.138	91.19
460.358	84.19
460.578	84.19
460.798	90.19
461.018	86.19
461.238	95.19
461.458	97.19
461.678	66.19
461.898	88.19
462.118	99.19
462.338	90.19
462.558	88.19
462.777	95.19
462.997	84.19
463.217	106.19
463.437	92.19
463.657	90.19
463.876	107.19
464.096	91.19
464.316	107.19
464.536	101.19
464.755	95.19
464.975	101.19
465.195	158.19
465.414	154.19
465.634	87.19
465.854	96.19
466.073	83.19
466.293	96.19
466.512	90.19
466.732	74.19
466.951	86.19
467.171	95.19
467.391	103.19
467.61	95.19
467.829	91.19
468.049	92.19
468.268	88.19
468.488	102.19
468.707	95.19
468.927	83.19
469.146	83.19
469.365	92.19
469.585	99.19
469.804	98.19
470.023	97.19
470.243	87.19
470.462	87.19
470.681	106.19
470.901	101.19
471.12	80.19
471.339	91.19
471.558	98.19
471.777	92.19
471.997	91.19
472.216	94.19
472.435	93.19
472.654	92.19
472.873	90.19
473.092	92.19
473.311	91.19
473.53	84.19
473.749	91.19
473.968	85.19
474.187	91.19
474.406	94.19
474.625	81.19
474.844	95.19
475.063	76.19
475.282	95.19
475.501	84.19
475.72	92.19
475.939	87.19
476.158	91.19
476.377	81.19
476.596	90.19
476.814	99.19
477.033	95.19
477.252	100.19
477.471	85.19
477.69	91.19
477.908	79.19
478.127	109.19
478.346	88.19
478.564	95.19
478.783	97.19
479.002	105.19
479.22	90.19
479.439	95.19
479.658	105.19
479.876	96.19
480.095	97.19
480.313	101.19
480.532	83.19
480.751	86.19
480.969	100.19
481.188	91.19
481.406	94.19
481.624	93.19
481.843	90.19
482.061	85.19
482.28	76.19
482.498	99.19
482.717	97.19
482.935	97.19
483.153	95.19
483.372	109.19
483.59	98.19
483.808	94.19
484.027	90.19
484.245	100.19
484.463	94.19
484.681	95.19
484.9	91.19
485.118	85.19
485.336	96.19
485.554	109.19
485.772	99.19
485.99	100.19
486.209	101.19
486.427	107.19
486.645	110.19
486.863	93.19
487.081	100.19
487.299	110.19
487.517	98.19
487.735	98.19
487.953	101.19
488.171	87.19
488.389	98.19
488.607	98.19
488.825	104.19
489.043	100.19
489.261	103.19
489.479	92.19
489.696	92.19
489.914	94.19
490.132	82.19
490.35	93.19
490.568	95.19
490.786	86.19
491.003	89.19
491.221	87.19
491.439	113.19
491.657	108.19
491.874	97.19
492.092	93.19
492.31	83.19
492.527	99.19
492.745	83.19
492.963	79.19
493.18	92.19
493.398	83.19
493.615	89.19
493.833	93.19
494.05	96.19
494.268	88.19
494.485	90.19
494.703	92.19
494.92	89.19
495.138	87.19
495.355	91.19
495.573	106.19
495.79	92.19
496.008	86.19
496.225	103.19
496.442	90.19
496.66	93.19
496.877	92.19
497.094	111.19
497.312	85.19
497.529	105.19
497.746	87.19
497.963	91.19
498.181	92.19
498.398	106.19
498.615	107.19
498.832	108.19
499.049	84.19
499.267	92.19
499.484	90.19
499.701	100.19
499.918	86.19
500.135	99.19
500.352	90.19
500.569	89.19
500.786	91.19
501.003	88.19
501.22	89.19
501.437	92.19
501.654	89.19
501.871	104.19
502.088	103.19
502.305	86.19
502.522	101.19
502.739	99.19
502.956	95.19
503.172	86.19
503.389	109.19
503.606	106.19
503.823	98.19
504.04	91.19
504.256	80.19
504.473	108.19
504.69	83.19
504.907	94.19
505.123	85.19
505.34	98.19
505.557	98.19
505.773	83.19
505.99	86.19
506.207	92.19
506.423	100.19
506.64	88.19
506.856	94.19
507.073	107.19
507.289	96.19
507.506	96.19
507.722	109.19
507.939	123.19
508.155	103.19
508.372	84.19
508.588	96.19
508.805	97.19
509.021	93.19
509.238	106.19
509.454	110.19
509.67	107.19
509.887	106.19
510.103	134.19
510.319	211.19
510.536	737.19
510.752	2258.19
510.968	635.19
511.184	156.19
511.401	116.19
511.617	103.19
511.833	90.19
512.049	98.19
512.265	95.19
512.481	104.19
512.698	100.19
512.914	89.19
513.13	99.19
513.346	88.19
513.562	97.19
513.778	101.19
513.994	108.19
514.21	122.19
514.426	110.19
514.642	127.19
514.858	119.19
515.074	171.19
