Data from Uncirc_2000_H10_HRD10591_00010.txt Node
Date: Wed Jan 03 10:48:19 EST 2024
User: Yrep
Spectrometer: HR+D1059
Trigger mode: 1
Integration Time (sec): 1.000000E-1
Scans to average: 1
Electric dark correction enabled: true
Nonlinearity correction enabled: false
Boxcar width: 0
XAxis mode: Wavelengths
Number of Pixels in Spectrum: 2048
>>>>>Begin Spectral Data<<<<<
223.165	-24.25
223.4	-24.25
223.635	-24.25
223.869	-31.25
224.104	-9.25
224.338	-23.25
224.573	-17.25
224.808	-24.25
225.042	-10.25
225.277	-2.25
225.511	3.75
225.746	9.75
225.98	13.75
226.215	10.75
226.449	17.75
226.683	22.75
226.918	27.75
227.152	35.75
227.387	44.75
227.621	36.75
227.856	49.75
228.09	45.75
228.324	57.75
228.559	52.75
228.793	62.75
229.027	55.75
229.262	64.75
229.496	74.75
229.73	94.75
229.964	76.75
230.199	75.75
230.433	85.75
230.667	81.75
230.901	71.75
231.136	85.75
231.37	74.75
231.604	85.75
231.838	85.75
232.072	89.75
232.306	80.75
232.541	75.75
232.775	86.75
233.009	81.75
233.243	76.75
233.477	83.75
233.711	79.75
233.945	81.75
234.179	89.75
234.413	81.75
234.647	80.75
234.881	75.75
235.115	87.75
235.349	92.75
235.583	75.75
235.817	81.75
236.051	69.75
236.285	90.75
236.519	79.75
236.753	77.75
236.987	80.75
237.221	79.75
237.455	87.75
237.689	82.75
237.922	70.75
238.156	77.75
238.39	81.75
238.624	77.75
238.858	71.75
239.091	79.75
239.325	88.75
239.559	86.75
239.793	76.75
240.027	88.75
240.26	80.75
240.494	90.75
240.728	86.75
240.961	84.75
241.195	83.75
241.429	71.75
241.662	84.75
241.896	68.75
242.13	71.75
242.363	70.75
242.597	89.75
242.83	82.75
243.064	69.75
243.298	81.75
243.531	84.75
243.765	70.75
243.998	94.75
244.232	93.75
244.465	85.75
244.699	69.75
244.932	78.75
245.166	70.75
245.399	69.75
245.633	84.75
245.866	83.75
246.099	71.75
246.333	86.75
246.566	80.75
246.8	83.75
247.033	87.75
247.266	71.75
247.5	83.75
247.733	89.75
247.966	83.75
248.2	90.75
248.433	79.75
248.666	75.75
248.899	82.75
249.133	85.75
249.366	84.75
249.599	89.75
249.832	91.75
250.066	83.75
250.299	85.75
250.532	86.75
250.765	82.75
250.998	79.75
251.231	75.75
251.465	88.75
251.698	85.75
251.931	71.75
252.164	95.75
252.397	100.75
252.63	90.75
252.863	79.75
253.096	81.75
253.329	72.75
253.562	69.75
253.795	86.75
254.028	74.75
254.261	81.75
254.494	86.75
254.727	88.75
254.96	87.75
255.193	81.75
255.426	75.75
255.659	92.75
255.892	75.75
256.124	86.75
256.357	93.75
256.59	76.75
256.823	83.75
257.056	78.75
257.289	80.75
257.521	81.75
257.754	89.75
257.987	73.75
258.22	93.75
258.452	78.75
258.685	79.75
258.918	83.75
259.151	74.75
259.383	85.75
259.616	80.75
259.849	72.75
260.081	92.75
260.314	95.75
260.547	83.75
260.779	84.75
261.012	81.75
261.244	74.75
261.477	93.75
261.71	96.75
261.942	105.75
262.175	112.75
262.407	96.75
262.64	94.75
262.872	63.75
263.105	78.75
263.337	80.75
263.57	74.75
263.802	93.75
264.035	88.75
264.267	80.75
264.499	87.75
264.732	89.75
264.964	88.75
265.197	86.75
265.429	93.75
265.661	79.75
265.894	75.75
266.126	83.75
266.358	87.75
266.591	72.75
266.823	73.75
267.055	71.75
267.287	77.75
267.52	86.75
267.752	79.75
267.984	73.75
268.216	90.75
268.448	101.75
268.681	88.75
268.913	63.75
269.145	85.75
269.377	86.75
269.609	72.75
269.841	83.75
270.073	75.75
270.306	83.75
270.538	86.75
270.77	75.75
271.002	91.75
271.234	85.75
271.466	75.75
271.698	96.75
271.93	84.75
272.162	80.75
272.394	75.75
272.626	96.75
272.858	81.75
273.09	84.75
273.322	92.75
273.553	76.75
273.785	83.75
274.017	78.75
274.249	85.75
274.481	91.75
274.713	88.75
274.945	85.75
275.176	82.75
275.408	96.75
275.64	81.75
275.872	100.75
276.104	83.75
276.335	97.75
276.567	104.75
276.799	95.75
277.031	104.75
277.262	90.75
277.494	92.75
277.726	111.75
277.957	94.75
278.189	86.75
278.421	81.75
278.652	82.75
278.884	71.75
279.115	86.75
279.347	79.75
279.579	89.75
279.81	87.75
280.042	89.75
280.273	87.75
280.505	85.75
280.736	88.75
280.968	82.75
281.199	90.75
281.431	96.75
281.662	97.75
281.894	80.75
282.125	89.75
282.356	102.75
282.588	128.75
282.819	103.75
283.051	91.75
283.282	91.75
283.513	74.75
283.745	75.75
283.976	84.75
284.207	91.75
284.439	92.75
284.67	76.75
284.901	85.75
285.132	79.75
285.364	87.75
285.595	83.75
285.826	88.75
286.057	86.75
286.288	85.75
286.52	83.75
286.751	101.75
286.982	89.75
287.213	87.75
287.444	80.75
287.675	96.75
287.906	79.75
288.138	89.75
288.369	91.75
288.6	94.75
288.831	74.75
289.062	99.75
289.293	84.75
289.524	96.75
289.755	97.75
289.986	100.75
290.217	103.75
290.448	83.75
290.679	91.75
290.91	84.75
291.141	75.75
291.371	104.75
291.602	103.75
291.833	99.75
292.064	85.75
292.295	91.75
292.526	85.75
292.757	96.75
292.987	86.75
293.218	93.75
293.449	103.75
293.68	99.75
293.91	86.75
294.141	79.75
294.372	91.75
294.603	91.75
294.833	78.75
295.064	94.75
295.295	91.75
295.525	94.75
295.756	100.75
295.987	110.75
296.217	119.75
296.448	103.75
296.679	79.75
296.909	88.75
297.14	91.75
297.37	87.75
297.601	79.75
297.831	92.75
298.062	96.75
298.292	97.75
298.523	86.75
298.753	102.75
298.984	92.75
299.214	83.75
299.445	98.75
299.675	102.75
299.905	105.75
300.136	101.75
300.366	79.75
300.597	91.75
300.827	101.75
301.057	96.75
301.288	95.75
301.518	92.75
301.748	83.75
301.979	98.75
302.209	101.75
302.439	84.75
302.669	91.75
302.9	77.75
303.13	96.75
303.36	88.75
303.59	108.75
303.82	102.75
304.051	95.75
304.281	97.75
304.511	98.75
304.741	83.75
304.971	87.75
305.201	93.75
305.431	81.75
305.661	93.75
305.891	105.75
306.121	101.75
306.352	100.75
306.582	88.75
306.812	115.75
307.042	81.75
307.272	95.75
307.502	96.75
307.731	101.75
307.961	94.75
308.191	89.75
308.421	92.75
308.651	91.75
308.881	89.75
309.111	93.75
309.341	88.75
309.571	87.75
309.8	97.75
310.03	111.75
310.26	83.75
310.49	103.75
310.72	108.75
310.949	101.75
311.179	97.75
311.409	95.75
311.639	91.75
311.868	102.75
312.098	98.75
312.328	81.75
312.557	86.75
312.787	94.75
313.017	102.75
313.246	87.75
313.476	107.75
313.706	92.75
313.935	92.75
314.165	95.75
314.394	100.75
314.624	85.75
314.853	94.75
315.083	80.75
315.312	90.75
315.542	97.75
315.771	95.75
316.001	89.75
316.23	108.75
316.46	112.75
316.689	89.75
316.919	75.75
317.148	82.75
317.377	82.75
317.607	99.75
317.836	96.75
318.065	96.75
318.295	87.75
318.524	88.75
318.753	92.75
318.983	101.75
319.212	88.75
319.441	109.75
319.67	93.75
319.9	89.75
320.129	81.75
320.358	101.75
320.587	84.75
320.816	95.75
321.046	93.75
321.275	112.75
321.504	99.75
321.733	85.75
321.962	105.75
322.191	100.75
322.42	87.75
322.649	121.75
322.878	109.75
323.108	112.75
323.337	97.75
323.566	116.75
323.795	139.75
324.024	199.75
324.253	349.75
324.482	721.75
324.71	1434.75
324.939	1834.75
325.168	716.75
325.397	229.75
325.626	130.75
325.855	107.75
326.084	129.75
326.313	129.75
326.542	143.75
326.77	216.75
326.999	410.75
327.228	843.75
327.457	1504.75
327.686	1149.75
327.914	306.75
328.143	167.75
328.372	139.75
328.6	92.75
328.829	121.75
329.058	102.75
329.287	112.75
329.515	115.75
329.744	104.75
329.972	93.75
330.201	110.75
330.43	95.75
330.658	114.75
330.887	121.75
331.115	103.75
331.344	95.75
331.572	102.75
331.801	111.75
332.03	95.75
332.258	88.75
332.486	105.75
332.715	99.75
332.943	101.75
333.172	103.75
333.4	105.75
333.629	110.75
333.857	107.75
334.085	116.75
334.314	89.75
334.542	97.75
334.771	95.75
334.999	95.75
335.227	98.75
335.455	91.75
335.684	99.75
335.912	103.75
336.14	96.75
336.369	104.75
336.597	96.75
336.825	94.75
337.053	88.75
337.281	89.75
337.51	111.75
337.738	92.75
337.966	95.75
338.194	95.75
338.422	95.75
338.65	100.75
338.878	105.75
339.106	93.75
339.334	112.75
339.562	89.75
339.79	88.75
340.018	94.75
340.246	86.75
340.474	80.75
340.702	94.75
340.93	79.75
341.158	95.75
341.386	95.75
341.614	103.75
341.842	93.75
342.07	92.75
342.298	101.75
342.526	97.75
342.754	92.75
342.981	91.75
343.209	106.75
343.437	97.75
343.665	98.75
343.893	84.75
344.12	95.75
344.348	82.75
344.576	85.75
344.804	85.75
345.031	100.75
345.259	84.75
345.487	104.75
345.714	95.75
345.942	87.75
346.17	93.75
346.397	87.75
346.625	84.75
346.853	94.75
347.08	101.75
347.308	90.75
347.535	93.75
347.763	110.75
347.99	99.75
348.218	95.75
348.445	94.75
348.673	85.75
348.9	104.75
349.128	88.75
349.355	103.75
349.583	97.75
349.81	104.75
350.037	99.75
350.265	90.75
350.492	99.75
350.72	92.75
350.947	103.75
351.174	121.75
351.402	93.75
351.629	91.75
351.856	113.75
352.083	110.75
352.311	98.75
352.538	105.75
352.765	112.75
352.992	125.75
353.22	105.75
353.447	116.75
353.674	101.75
353.901	106.75
354.128	104.75
354.355	109.75
354.583	91.75
354.81	103.75
355.037	95.75
355.264	94.75
355.491	88.75
355.718	104.75
355.945	104.75
356.172	95.75
356.399	74.75
356.626	103.75
356.853	88.75
357.08	94.75
357.307	110.75
357.534	102.75
357.761	90.75
357.988	93.75
358.215	97.75
358.441	105.75
358.668	83.75
358.895	76.75
359.122	102.75
359.349	88.75
359.576	96.75
359.802	95.75
360.029	100.75
360.256	104.75
360.483	93.75
360.709	97.75
360.936	78.75
361.163	86.75
361.39	95.75
361.616	95.75
361.843	85.75
362.07	86.75
362.296	79.75
362.523	80.75
362.749	94.75
362.976	102.75
363.203	90.75
363.429	94.75
363.656	104.75
363.882	95.75
364.109	86.75
364.335	83.75
364.562	93.75
364.788	88.75
365.015	98.75
365.241	87.75
365.468	97.75
365.694	92.75
365.92	79.75
366.147	83.75
366.373	77.75
366.599	94.75
366.826	94.75
367.052	93.75
367.278	87.75
367.505	89.75
367.731	90.75
367.957	95.75
368.184	99.75
368.41	101.75
368.636	102.75
368.862	107.75
369.089	107.75
369.315	97.75
369.541	91.75
369.767	94.75
369.993	100.75
370.219	85.75
370.445	102.75
370.672	93.75
370.898	103.75
371.124	87.75
371.35	100.75
371.576	90.75
371.802	89.75
372.028	78.75
372.254	93.75
372.48	99.75
372.706	96.75
372.932	85.75
373.158	98.75
373.384	97.75
373.61	99.75
373.835	87.75
374.061	86.75
374.287	88.75
374.513	84.75
374.739	77.75
374.965	85.75
375.191	91.75
375.416	99.75
375.642	81.75
375.868	94.75
376.094	98.75
376.319	101.75
376.545	96.75
376.771	94.75
376.997	88.75
377.222	92.75
377.448	91.75
377.674	105.75
377.899	100.75
378.125	101.75
378.35	102.75
378.576	103.75
378.802	95.75
379.027	80.75
379.253	101.75
379.478	96.75
379.704	94.75
379.929	95.75
380.155	98.75
380.38	104.75
380.606	88.75
380.831	97.75
381.057	110.75
381.282	94.75
381.507	94.75
381.733	94.75
381.958	95.75
382.184	106.75
382.409	95.75
382.634	111.75
382.86	101.75
383.085	116.75
383.31	101.75
383.535	110.75
383.761	106.75
383.986	102.75
384.211	106.75
384.436	95.75
384.662	125.75
384.887	118.75
385.112	132.75
385.337	102.75
385.562	101.75
385.787	116.75
386.013	117.75
386.238	121.75
386.463	111.75
386.688	116.75
386.913	107.75
387.138	113.75
387.363	96.75
387.588	99.75
387.813	109.75
388.038	111.75
388.263	111.75
388.488	104.75
388.713	91.75
388.938	100.75
389.163	111.75
389.387	107.75
389.612	106.75
389.837	94.75
390.062	99.75
390.287	82.75
390.512	92.75
390.736	96.75
390.961	107.75
391.186	85.75
391.411	99.75
391.636	97.75
391.86	92.75
392.085	83.75
392.31	93.75
392.534	89.75
392.759	94.75
392.984	97.75
393.208	112.75
393.433	104.75
393.658	101.75
393.882	83.75
394.107	96.75
394.331	96.75
394.556	96.75
394.78	90.75
395.005	93.75
395.229	79.75
395.454	91.75
395.678	80.75
395.903	79.75
396.127	101.75
396.352	90.75
396.576	93.75
396.801	90.75
397.025	105.75
397.249	89.75
397.474	81.75
397.698	85.75
397.922	90.75
398.147	87.75
398.371	78.75
398.595	86.75
398.82	72.75
399.044	88.75
399.268	93.75
399.492	90.75
399.717	93.75
399.941	93.75
400.165	88.75
400.389	88.75
400.613	92.75
400.837	86.75
401.062	83.75
401.286	102.75
401.51	90.75
401.734	97.75
401.958	96.75
402.182	118.75
402.406	134.75
402.63	115.75
402.854	97.75
403.078	84.75
403.302	86.75
403.526	97.75
403.75	87.75
403.974	91.75
404.198	85.75
404.422	79.75
404.645	92.75
404.869	95.75
405.093	79.75
405.317	92.75
405.541	92.75
405.765	91.75
405.988	107.75
406.212	144.75
406.436	181.75
406.66	140.75
406.883	88.75
407.107	85.75
407.331	91.75
407.555	86.75
407.778	103.75
408.002	94.75
408.226	99.75
408.449	104.75
408.673	84.75
408.896	91.75
409.12	101.75
409.344	93.75
409.567	85.75
409.791	87.75
410.014	93.75
410.238	94.75
410.461	91.75
410.685	109.75
410.908	88.75
411.132	95.75
411.355	84.75
411.578	75.75
411.802	90.75
412.025	102.75
412.249	92.75
412.472	103.75
412.695	89.75
412.919	92.75
413.142	90.75
413.365	88.75
413.589	88.75
413.812	101.75
414.035	83.75
414.258	91.75
414.482	94.75
414.705	92.75
414.928	90.75
415.151	99.75
415.374	99.75
415.597	91.75
415.821	94.75
416.044	89.75
416.267	86.75
416.49	98.75
416.713	97.75
416.936	91.75
417.159	78.75
417.382	71.75
417.605	97.75
417.828	89.75
418.051	93.75
418.274	101.75
418.497	92.75
418.72	90.75
418.943	80.75
419.166	79.75
419.389	95.75
419.611	86.75
419.834	92.75
420.057	103.75
420.28	94.75
420.503	93.75
420.726	81.75
420.948	89.75
421.171	98.75
421.394	111.75
421.617	103.75
421.839	92.75
422.062	96.75
422.285	88.75
422.507	88.75
422.73	90.75
422.953	99.75
423.175	98.75
423.398	96.75
423.621	88.75
423.843	78.75
424.066	96.75
424.288	87.75
424.511	89.75
424.733	91.75
424.956	97.75
425.178	109.75
425.401	94.75
425.623	87.75
425.846	105.75
426.068	105.75
426.291	86.75
426.513	83.75
426.735	94.75
426.958	94.75
427.18	110.75
427.402	134.75
427.625	134.75
427.847	119.75
428.069	108.75
428.292	100.75
428.514	84.75
428.736	86.75
428.958	71.75
429.181	79.75
429.403	89.75
429.625	91.75
429.847	92.75
430.069	95.75
430.292	84.75
430.514	91.75
430.736	95.75
430.958	82.75
431.18	91.75
431.402	71.75
431.624	100.75
431.846	86.75
432.068	94.75
432.29	88.75
432.512	96.75
432.734	90.75
432.956	79.75
433.178	87.75
433.4	91.75
433.622	86.75
433.844	83.75
434.066	94.75
434.287	85.75
434.509	76.75
434.731	97.75
434.953	92.75
435.175	84.75
435.397	98.75
435.618	76.75
435.84	115.75
436.062	118.75
436.284	107.75
436.505	94.75
436.727	106.75
436.949	96.75
437.17	94.75
437.392	93.75
437.614	89.75
437.835	104.75
438.057	110.75
438.278	91.75
438.5	89.75
438.721	120.75
438.943	94.75
439.165	98.75
439.386	85.75
439.608	79.75
439.829	79.75
440.05	93.75
440.272	124.75
440.493	95.75
440.715	97.75
440.936	83.75
441.158	89.75
441.379	77.75
441.6	86.75
441.822	96.75
442.043	94.75
442.264	97.75
442.486	94.75
442.707	87.75
442.928	92.75
443.149	115.75
443.371	105.75
443.592	102.75
443.813	111.75
444.034	90.75
444.255	96.75
444.476	95.75
444.698	89.75
444.919	102.75
445.14	129.75
445.361	124.75
445.582	111.75
445.803	115.75
446.024	111.75
446.245	115.75
446.466	94.75
446.687	83.75
446.908	92.75
447.129	99.75
447.35	101.75
447.571	93.75
447.792	112.75
448.013	103.75
448.234	104.75
448.455	101.75
448.675	108.75
448.896	109.75
449.117	106.75
449.338	99.75
449.559	110.75
449.779	124.75
450	91.75
450.221	75.75
450.442	96.75
450.662	93.75
450.883	101.75
451.104	98.75
451.324	102.75
451.545	98.75
451.766	93.75
451.986	94.75
452.207	87.75
452.428	107.75
452.648	108.75
452.869	100.75
453.089	101.75
453.31	98.75
453.53	96.75
453.751	83.75
453.971	99.75
454.192	105.75
454.412	89.75
454.633	94.75
454.853	88.75
455.073	87.75
455.294	96.75
455.514	95.75
455.734	85.75
455.955	91.75
456.175	83.75
456.395	75.75
456.616	89.75
456.836	92.75
457.056	87.75
457.276	89.75
457.497	90.75
457.717	89.75
457.937	91.75
458.157	104.75
458.377	93.75
458.598	91.75
458.818	122.75
459.038	121.75
459.258	103.75
459.478	94.75
459.698	90.75
459.918	83.75
460.138	75.75
460.358	85.75
460.578	91.75
460.798	92.75
461.018	83.75
461.238	80.75
461.458	80.75
461.678	82.75
461.898	96.75
462.118	89.75
462.338	91.75
462.558	89.75
462.777	83.75
462.997	83.75
463.217	86.75
463.437	80.75
463.657	91.75
463.876	81.75
464.096	100.75
464.316	83.75
464.536	82.75
464.755	82.75
464.975	100.75
465.195	141.75
465.414	128.75
465.634	93.75
465.854	99.75
466.073	95.75
466.293	100.75
466.512	72.75
466.732	94.75
466.951	65.75
467.171	94.75
467.391	97.75
467.61	100.75
467.829	99.75
468.049	88.75
468.268	101.75
468.488	82.75
468.707	89.75
468.927	91.75
469.146	97.75
469.365	83.75
469.585	95.75
469.804	89.75
470.023	107.75
470.243	101.75
470.462	92.75
470.681	110.75
470.901	83.75
471.12	73.75
471.339	89.75
471.558	90.75
471.777	86.75
471.997	86.75
472.216	92.75
472.435	101.75
472.654	89.75
472.873	78.75
473.092	86.75
473.311	89.75
473.53	97.75
473.749	92.75
473.968	103.75
474.187	101.75
474.406	95.75
474.625	83.75
474.844	95.75
475.063	75.75
475.282	86.75
475.501	83.75
475.72	98.75
475.939	87.75
476.158	90.75
476.377	76.75
476.596	88.75
476.814	93.75
477.033	88.75
477.252	91.75
477.471	97.75
477.69	95.75
477.908	93.75
478.127	83.75
478.346	91.75
478.564	91.75
478.783	96.75
479.002	105.75
479.22	104.75
479.439	89.75
479.658	81.75
479.876	87.75
480.095	78.75
480.313	66.75
480.532	88.75
480.751	93.75
480.969	88.75
481.188	94.75
481.406	107.75
481.624	88.75
481.843	84.75
482.061	96.75
482.28	83.75
482.498	102.75
482.717	100.75
482.935	88.75
483.153	88.75
483.372	100.75
483.59	96.75
483.808	96.75
484.027	109.75
484.245	90.75
484.463	93.75
484.681	98.75
484.9	101.75
485.118	92.75
485.336	94.75
485.554	87.75
485.772	85.75
485.99	107.75
486.209	108.75
486.427	111.75
486.645	113.75
486.863	110.75
487.081	106.75
487.299	96.75
487.517	103.75
487.735	87.75
487.953	106.75
488.171	95.75
488.389	92.75
488.607	115.75
488.825	105.75
489.043	94.75
489.261	102.75
489.479	86.75
489.696	88.75
489.914	97.75
490.132	88.75
490.35	90.75
490.568	103.75
490.786	92.75
491.003	85.75
491.221	90.75
491.439	87.75
491.657	93.75
491.874	90.75
492.092	89.75
492.31	92.75
492.527	86.75
492.745	77.75
492.963	103.75
493.18	89.75
493.398	81.75
493.615	85.75
493.833	86.75
494.05	86.75
494.268	84.75
494.485	78.75
494.703	83.75
494.92	101.75
495.138	101.75
495.355	100.75
495.573	93.75
495.79	98.75
496.008	110.75
496.225	92.75
496.442	94.75
496.66	104.75
496.877	94.75
497.094	95.75
497.312	93.75
497.529	87.75
497.746	97.75
497.963	93.75
498.181	87.75
498.398	94.75
498.615	108.75
498.832	102.75
499.049	91.75
499.267	98.75
499.484	88.75
499.701	96.75
499.918	87.75
500.135	73.75
500.352	92.75
500.569	92.75
500.786	84.75
501.003	79.75
501.22	89.75
501.437	95.75
501.654	94.75
501.871	111.75
502.088	99.75
502.305	100.75
502.522	97.75
502.739	97.75
502.956	101.75
503.172	80.75
503.389	84.75
503.606	91.75
503.823	97.75
504.04	101.75
504.256	110.75
504.473	103.75
504.69	77.75
504.907	94.75
505.123	94.75
505.34	104.75
505.557	85.75
505.773	84.75
505.99	106.75
506.207	94.75
506.423	90.75
506.64	87.75
506.856	85.75
507.073	95.75
507.289	91.75
507.506	91.75
507.722	95.75
507.939	110.75
508.155	85.75
508.372	92.75
508.588	90.75
508.805	107.75
509.021	102.75
509.238	102.75
509.454	111.75
509.67	98.75
509.887	94.75
510.103	127.75
510.319	173.75
510.536	577.75
510.752	1772.75
510.968	506.75
511.184	135.75
511.401	108.75
511.617	109.75
511.833	87.75
512.049	91.75
512.265	104.75
512.481	101.75
512.698	81.75
512.914	92.75
513.13	99.75
513.346	98.75
513.562	88.75
513.778	82.75
513.994	112.75
514.21	102.75
514.426	118.75
514.642	117.75
514.858	116.75
515.074	138.75
515.29	345.75
