Data from Uncirc_2000_H10_HRD10591_00057.txt Node
Date: Wed Jan 03 10:48:28 EST 2024
User: Yrep
Spectrometer: HR+D1059
Trigger mode: 1
Integration Time (sec): 1.000000E-1
Scans to average: 1
Electric dark correction enabled: true
Nonlinearity correction enabled: false
Boxcar width: 0
XAxis mode: Wavelengths
Number of Pixels in Spectrum: 2048
>>>>>Begin Spectral Data<<<<<
223.165	-19.31
223.4	-19.31
223.635	-19.31
223.869	-32.31
224.104	-19.31
224.338	-14.31
224.573	-23.31
224.808	-14.31
225.042	4.69
225.277	-6.31
225.511	6.69
225.746	-3.31
225.98	6.69
226.215	8.69
226.449	9.69
226.683	26.69
226.918	32.69
227.152	36.69
227.387	31.69
227.621	43.69
227.856	52.69
228.09	49.69
228.324	36.69
228.559	69.69
228.793	62.69
229.027	76.69
229.262	65.69
229.496	77.69
229.73	80.69
229.964	64.69
230.199	90.69
230.433	75.69
230.667	79.69
230.901	76.69
231.136	66.69
231.37	83.69
231.604	84.69
231.838	82.69
232.072	73.69
232.306	66.69
232.541	73.69
232.775	77.69
233.009	65.69
233.243	74.69
233.477	80.69
233.711	93.69
233.945	89.69
234.179	83.69
234.413	89.69
234.647	66.69
234.881	86.69
235.115	68.69
235.349	76.69
235.583	72.69
235.817	81.69
236.051	97.69
236.285	68.69
236.519	84.69
236.753	82.69
236.987	83.69
237.221	72.69
237.455	83.69
237.689	81.69
237.922	79.69
238.156	74.69
238.39	84.69
238.624	66.69
238.858	72.69
239.091	81.69
239.325	75.69
239.559	84.69
239.793	71.69
240.027	73.69
240.26	73.69
240.494	74.69
240.728	81.69
240.961	70.69
241.195	84.69
241.429	77.69
241.662	74.69
241.896	77.69
242.13	85.69
242.363	66.69
242.597	85.69
242.83	70.69
243.064	86.69
243.298	73.69
243.531	66.69
243.765	84.69
243.998	77.69
244.232	64.69
244.465	80.69
244.699	97.69
244.932	70.69
245.166	86.69
245.399	75.69
245.633	85.69
245.866	84.69
246.099	74.69
246.333	80.69
246.566	80.69
246.8	84.69
247.033	89.69
247.266	69.69
247.5	78.69
247.733	66.69
247.966	88.69
248.2	78.69
248.433	87.69
248.666	71.69
248.899	84.69
249.133	91.69
249.366	97.69
249.599	108.69
249.832	70.69
250.066	65.69
250.299	71.69
250.532	76.69
250.765	82.69
250.998	77.69
251.231	85.69
251.465	88.69
251.698	84.69
251.931	84.69
252.164	72.69
252.397	80.69
252.63	69.69
252.863	72.69
253.096	79.69
253.329	81.69
253.562	82.69
253.795	92.69
254.028	80.69
254.261	91.69
254.494	75.69
254.727	74.69
254.96	101.69
255.193	90.69
255.426	80.69
255.659	72.69
255.892	75.69
256.124	84.69
256.357	80.69
256.59	86.69
256.823	84.69
257.056	86.69
257.289	85.69
257.521	73.69
257.754	89.69
257.987	70.69
258.22	88.69
258.452	75.69
258.685	87.69
258.918	89.69
259.151	84.69
259.383	83.69
259.616	81.69
259.849	85.69
260.081	78.69
260.314	83.69
260.547	77.69
260.779	91.69
261.012	82.69
261.244	96.69
261.477	90.69
261.71	84.69
261.942	115.69
262.175	106.69
262.407	85.69
262.64	84.69
262.872	89.69
263.105	84.69
263.337	80.69
263.57	88.69
263.802	99.69
264.035	83.69
264.267	80.69
264.499	84.69
264.732	81.69
264.964	83.69
265.197	82.69
265.429	94.69
265.661	94.69
265.894	79.69
266.126	68.69
266.358	79.69
266.591	92.69
266.823	78.69
267.055	81.69
267.287	89.69
267.52	92.69
267.752	90.69
267.984	88.69
268.216	93.69
268.448	63.69
268.681	75.69
268.913	78.69
269.145	83.69
269.377	74.69
269.609	78.69
269.841	77.69
270.073	82.69
270.306	82.69
270.538	87.69
270.77	88.69
271.002	89.69
271.234	75.69
271.466	84.69
271.698	88.69
271.93	71.69
272.162	74.69
272.394	94.69
272.626	77.69
272.858	77.69
273.09	84.69
273.322	83.69
273.553	89.69
273.785	99.69
274.017	79.69
274.249	90.69
274.481	87.69
274.713	84.69
274.945	75.69
275.176	85.69
275.408	82.69
275.64	95.69
275.872	74.69
276.104	93.69
276.335	85.69
276.567	84.69
276.799	118.69
277.031	102.69
277.262	74.69
277.494	89.69
277.726	88.69
277.957	90.69
278.189	86.69
278.421	83.69
278.652	86.69
278.884	77.69
279.115	81.69
279.347	78.69
279.579	92.69
279.81	100.69
280.042	97.69
280.273	86.69
280.505	89.69
280.736	95.69
280.968	85.69
281.199	70.69
281.431	90.69
281.662	77.69
281.894	91.69
282.125	94.69
282.356	111.69
282.588	133.69
282.819	90.69
283.051	91.69
283.282	72.69
283.513	88.69
283.745	89.69
283.976	80.69
284.207	88.69
284.439	98.69
284.67	80.69
284.901	76.69
285.132	76.69
285.364	86.69
285.595	76.69
285.826	89.69
286.057	75.69
286.288	89.69
286.52	88.69
286.751	78.69
286.982	96.69
287.213	78.69
287.444	85.69
287.675	88.69
287.906	89.69
288.138	94.69
288.369	87.69
288.6	93.69
288.831	86.69
289.062	76.69
289.293	80.69
289.524	93.69
289.755	91.69
289.986	73.69
290.217	80.69
290.448	85.69
290.679	101.69
290.91	85.69
291.141	85.69
291.371	93.69
291.602	87.69
291.833	84.69
292.064	76.69
292.295	83.69
292.526	87.69
292.757	82.69
292.987	82.69
293.218	83.69
293.449	90.69
293.68	83.69
293.91	75.69
294.141	92.69
294.372	100.69
294.603	91.69
294.833	97.69
295.064	94.69
295.295	90.69
295.525	98.69
295.756	105.69
295.987	113.69
296.217	131.69
296.448	124.69
296.679	92.69
296.909	82.69
297.14	93.69
297.37	97.69
297.601	94.69
297.831	84.69
298.062	101.69
298.292	82.69
298.523	74.69
298.753	102.69
298.984	78.69
299.214	81.69
299.445	88.69
299.675	94.69
299.905	98.69
300.136	87.69
300.366	75.69
300.597	93.69
300.827	94.69
301.057	101.69
301.288	97.69
301.518	100.69
301.748	98.69
301.979	100.69
302.209	102.69
302.439	98.69
302.669	97.69
302.9	98.69
303.13	78.69
303.36	108.69
303.59	95.69
303.82	94.69
304.051	97.69
304.281	102.69
304.511	91.69
304.741	95.69
304.971	83.69
305.201	85.69
305.431	82.69
305.661	93.69
305.891	82.69
306.121	78.69
306.352	102.69
306.582	93.69
306.812	102.69
307.042	88.69
307.272	93.69
307.502	100.69
307.731	99.69
307.961	104.69
308.191	98.69
308.421	87.69
308.651	92.69
308.881	99.69
309.111	105.69
309.341	99.69
309.571	108.69
309.8	97.69
310.03	106.69
310.26	113.69
310.49	94.69
310.72	97.69
310.949	98.69
311.179	92.69
311.409	82.69
311.639	103.69
311.868	88.69
312.098	97.69
312.328	93.69
312.557	109.69
312.787	90.69
313.017	110.69
313.246	104.69
313.476	93.69
313.706	98.69
313.935	105.69
314.165	101.69
314.394	92.69
314.624	87.69
314.853	105.69
315.083	83.69
315.312	88.69
315.542	105.69
315.771	82.69
316.001	90.69
316.23	91.69
316.46	90.69
316.689	96.69
316.919	97.69
317.148	94.69
317.377	101.69
317.607	93.69
317.836	101.69
318.065	95.69
318.295	84.69
318.524	86.69
318.753	100.69
318.983	102.69
319.212	95.69
319.441	101.69
319.67	100.69
319.9	100.69
320.129	85.69
320.358	86.69
320.587	88.69
320.816	105.69
321.046	99.69
321.275	98.69
321.504	92.69
321.733	91.69
321.962	86.69
322.191	98.69
322.42	111.69
322.649	107.69
322.878	113.69
323.108	103.69
323.337	118.69
323.566	114.69
323.795	149.69
324.024	199.69
324.253	394.69
324.482	809.69
324.71	1610.69
324.939	2157.69
325.168	787.69
325.397	234.69
325.626	141.69
325.855	133.69
326.084	139.69
326.313	125.69
326.542	161.69
326.77	228.69
326.999	442.69
327.228	928.69
327.457	1670.69
327.686	1288.69
327.914	346.69
328.143	186.69
328.372	141.69
328.6	104.69
328.829	112.69
329.058	120.69
329.287	122.69
329.515	99.69
329.744	100.69
329.972	94.69
330.201	93.69
330.43	99.69
330.658	112.69
330.887	130.69
331.115	116.69
331.344	100.69
331.572	96.69
331.801	101.69
332.03	100.69
332.258	99.69
332.486	109.69
332.715	99.69
332.943	98.69
333.172	91.69
333.4	96.69
333.629	98.69
333.857	118.69
334.085	107.69
334.314	94.69
334.542	84.69
334.771	86.69
334.999	100.69
335.227	93.69
335.455	101.69
335.684	99.69
335.912	96.69
336.14	98.69
336.369	109.69
336.597	93.69
336.825	100.69
337.053	110.69
337.281	89.69
337.51	86.69
337.738	87.69
337.966	92.69
338.194	110.69
338.422	85.69
338.65	108.69
338.878	99.69
339.106	82.69
339.334	93.69
339.562	92.69
339.79	110.69
340.018	89.69
340.246	88.69
340.474	90.69
340.702	94.69
340.93	102.69
341.158	87.69
341.386	96.69
341.614	100.69
341.842	90.69
342.07	103.69
342.298	93.69
342.526	85.69
342.754	97.69
342.981	100.69
343.209	87.69
343.437	103.69
343.665	87.69
343.893	95.69
344.12	98.69
344.348	82.69
344.576	99.69
344.804	92.69
345.031	84.69
345.259	99.69
345.487	108.69
345.714	80.69
345.942	103.69
346.17	84.69
346.397	77.69
346.625	93.69
346.853	88.69
347.08	72.69
347.308	91.69
347.535	98.69
347.763	88.69
347.99	100.69
348.218	77.69
348.445	98.69
348.673	100.69
348.9	88.69
349.128	88.69
349.355	91.69
349.583	92.69
349.81	83.69
350.037	78.69
350.265	86.69
350.492	92.69
350.72	89.69
350.947	99.69
351.174	102.69
351.402	113.69
351.629	97.69
351.856	108.69
352.083	103.69
352.311	114.69
352.538	106.69
352.765	111.69
352.992	104.69
353.22	105.69
353.447	106.69
353.674	94.69
353.901	96.69
354.128	90.69
354.355	101.69
354.583	97.69
354.81	90.69
355.037	98.69
355.264	91.69
355.491	96.69
355.718	100.69
355.945	92.69
356.172	95.69
356.399	90.69
356.626	97.69
356.853	92.69
357.08	103.69
357.307	95.69
357.534	101.69
357.761	101.69
357.988	99.69
358.215	96.69
358.441	94.69
358.668	101.69
358.895	98.69
359.122	93.69
359.349	91.69
359.576	103.69
359.802	100.69
360.029	102.69
360.256	103.69
360.483	96.69
360.709	70.69
360.936	78.69
361.163	108.69
361.39	84.69
361.616	107.69
361.843	92.69
362.07	85.69
362.296	86.69
362.523	104.69
362.749	90.69
362.976	104.69
363.203	91.69
363.429	83.69
363.656	83.69
363.882	94.69
364.109	98.69
364.335	92.69
364.562	93.69
364.788	81.69
365.015	82.69
365.241	85.69
365.468	88.69
365.694	106.69
365.92	82.69
366.147	98.69
366.373	79.69
366.599	92.69
366.826	81.69
367.052	86.69
367.278	90.69
367.505	86.69
367.731	85.69
367.957	78.69
368.184	96.69
368.41	91.69
368.636	109.69
368.862	114.69
369.089	91.69
369.315	94.69
369.541	90.69
369.767	84.69
369.993	98.69
370.219	89.69
370.445	98.69
370.672	84.69
370.898	71.69
371.124	83.69
371.35	90.69
371.576	86.69
371.802	85.69
372.028	100.69
372.254	77.69
372.48	78.69
372.706	84.69
372.932	94.69
373.158	94.69
373.384	73.69
373.61	85.69
373.835	88.69
374.061	94.69
374.287	88.69
374.513	91.69
374.739	87.69
374.965	79.69
375.191	89.69
375.416	97.69
375.642	83.69
375.868	93.69
376.094	93.69
376.319	101.69
376.545	82.69
376.771	92.69
376.997	84.69
377.222	99.69
377.448	90.69
377.674	82.69
377.899	102.69
378.125	93.69
378.35	88.69
378.576	87.69
378.802	97.69
379.027	85.69
379.253	79.69
379.478	95.69
379.704	91.69
379.929	103.69
380.155	109.69
380.38	93.69
380.606	107.69
380.831	108.69
381.057	101.69
381.282	104.69
381.507	82.69
381.733	97.69
381.958	101.69
382.184	97.69
382.409	93.69
382.634	101.69
382.86	94.69
383.085	97.69
383.31	92.69
383.535	105.69
383.761	93.69
383.986	96.69
384.211	80.69
384.436	92.69
384.662	78.69
384.887	92.69
385.112	107.69
385.337	104.69
385.562	114.69
385.787	108.69
386.013	114.69
386.238	98.69
386.463	109.69
386.688	114.69
386.913	101.69
387.138	104.69
387.363	105.69
387.588	102.69
387.813	84.69
388.038	104.69
388.263	89.69
388.488	101.69
388.713	104.69
388.938	100.69
389.163	111.69
389.387	105.69
389.612	94.69
389.837	77.69
390.062	101.69
390.287	93.69
390.512	99.69
390.736	92.69
390.961	97.69
391.186	85.69
391.411	104.69
391.636	72.69
391.86	76.69
392.085	105.69
392.31	83.69
392.534	78.69
392.759	96.69
392.984	103.69
393.208	88.69
393.433	74.69
393.658	86.69
393.882	79.69
394.107	94.69
394.331	88.69
394.556	94.69
394.78	91.69
395.005	96.69
395.229	86.69
395.454	75.69
395.678	74.69
395.903	82.69
396.127	83.69
396.352	81.69
396.576	88.69
396.801	94.69
397.025	89.69
397.249	103.69
397.474	92.69
397.698	93.69
397.922	88.69
398.147	89.69
398.371	98.69
398.595	101.69
398.82	84.69
399.044	83.69
399.268	85.69
399.492	97.69
399.717	89.69
399.941	91.69
400.165	89.69
400.389	83.69
400.613	90.69
400.837	94.69
401.062	90.69
401.286	98.69
401.51	96.69
401.734	90.69
401.958	98.69
402.182	137.69
402.406	141.69
402.63	111.69
402.854	82.69
403.078	86.69
403.302	92.69
403.526	96.69
403.75	97.69
403.974	87.69
404.198	80.69
404.422	76.69
404.645	79.69
404.869	94.69
405.093	90.69
405.317	89.69
405.541	92.69
405.765	101.69
405.988	128.69
406.212	164.69
406.436	207.69
406.66	135.69
406.883	84.69
407.107	84.69
407.331	89.69
407.555	94.69
407.778	89.69
408.002	84.69
408.226	91.69
408.449	74.69
408.673	89.69
408.896	94.69
409.12	101.69
409.344	89.69
409.567	89.69
409.791	81.69
410.014	91.69
410.238	104.69
410.461	89.69
410.685	92.69
410.908	91.69
411.132	102.69
411.355	104.69
411.578	93.69
411.802	98.69
412.025	82.69
412.249	82.69
412.472	83.69
412.695	78.69
412.919	80.69
413.142	74.69
413.365	82.69
413.589	91.69
413.812	88.69
414.035	87.69
414.258	96.69
414.482	89.69
414.705	100.69
414.928	90.69
415.151	90.69
415.374	89.69
415.597	103.69
415.821	94.69
416.044	84.69
416.267	93.69
416.49	89.69
416.713	95.69
416.936	96.69
417.159	82.69
417.382	98.69
417.605	101.69
417.828	88.69
418.051	90.69
418.274	91.69
418.497	94.69
418.72	80.69
418.943	86.69
419.166	76.69
419.389	81.69
419.611	96.69
419.834	80.69
420.057	84.69
420.28	97.69
420.503	92.69
420.726	87.69
420.948	93.69
421.171	85.69
421.394	95.69
421.617	83.69
421.839	93.69
422.062	101.69
422.285	96.69
422.507	96.69
422.73	99.69
422.953	97.69
423.175	93.69
423.398	89.69
423.621	104.69
423.843	87.69
424.066	84.69
424.288	89.69
424.511	85.69
424.733	92.69
424.956	102.69
425.178	94.69
425.401	85.69
425.623	97.69
425.846	87.69
426.068	107.69
426.291	91.69
426.513	93.69
426.735	88.69
426.958	103.69
427.18	93.69
427.402	121.69
427.625	138.69
427.847	121.69
428.069	96.69
428.292	94.69
428.514	76.69
428.736	81.69
428.958	86.69
429.181	74.69
429.403	81.69
429.625	79.69
429.847	86.69
430.069	94.69
430.292	98.69
430.514	99.69
430.736	85.69
430.958	90.69
431.18	93.69
431.402	88.69
431.624	83.69
431.846	97.69
432.068	89.69
432.29	101.69
432.512	95.69
432.734	74.69
432.956	80.69
433.178	84.69
433.4	98.69
433.622	87.69
433.844	99.69
434.066	98.69
434.287	80.69
434.509	91.69
434.731	87.69
434.953	85.69
435.175	84.69
435.397	84.69
435.618	101.69
435.84	100.69
436.062	115.69
436.284	103.69
436.505	94.69
436.727	93.69
436.949	86.69
437.17	101.69
437.392	91.69
437.614	91.69
437.835	94.69
438.057	97.69
438.278	104.69
438.5	99.69
438.721	114.69
438.943	103.69
439.165	91.69
439.386	86.69
439.608	88.69
439.829	96.69
440.05	130.69
440.272	123.69
440.493	99.69
440.715	75.69
440.936	89.69
441.158	91.69
441.379	95.69
441.6	98.69
441.822	89.69
442.043	111.69
442.264	96.69
442.486	100.69
442.707	86.69
442.928	99.69
443.149	103.69
443.371	128.69
443.592	113.69
443.813	110.69
444.034	101.69
444.255	88.69
444.476	82.69
444.698	81.69
444.919	94.69
445.14	132.69
445.361	138.69
445.582	118.69
445.803	120.69
446.024	117.69
446.245	117.69
446.466	105.69
446.687	100.69
446.908	90.69
447.129	98.69
447.35	82.69
447.571	88.69
447.792	101.69
448.013	113.69
448.234	107.69
448.455	91.69
448.675	101.69
448.896	119.69
449.117	90.69
449.338	88.69
449.559	123.69
449.779	112.69
450	104.69
450.221	85.69
450.442	88.69
450.662	93.69
450.883	93.69
451.104	103.69
451.324	96.69
451.545	88.69
451.766	89.69
451.986	77.69
452.207	101.69
452.428	103.69
452.648	90.69
452.869	93.69
453.089	120.69
453.31	115.69
453.53	86.69
453.751	72.69
453.971	98.69
454.192	94.69
454.412	90.69
454.633	102.69
454.853	87.69
455.073	76.69
455.294	82.69
455.514	100.69
455.734	87.69
455.955	88.69
456.175	86.69
456.395	92.69
456.616	67.69
456.836	91.69
457.056	91.69
457.276	98.69
457.497	96.69
457.717	78.69
457.937	85.69
458.157	88.69
458.377	98.69
458.598	100.69
458.818	148.69
459.038	138.69
459.258	104.69
459.478	82.69
459.698	93.69
459.918	94.69
460.138	88.69
460.358	85.69
460.578	83.69
460.798	81.69
461.018	82.69
461.238	93.69
461.458	92.69
461.678	76.69
461.898	93.69
462.118	97.69
462.338	96.69
462.558	90.69
462.777	104.69
462.997	94.69
463.217	83.69
463.437	73.69
463.657	93.69
463.876	87.69
464.096	84.69
464.316	85.69
464.536	93.69
464.755	92.69
464.975	118.69
465.195	160.69
465.414	147.69
465.634	101.69
465.854	89.69
466.073	90.69
466.293	93.69
466.512	89.69
466.732	79.69
466.951	100.69
467.171	91.69
467.391	84.69
467.61	104.69
467.829	95.69
468.049	92.69
468.268	105.69
468.488	93.69
468.707	84.69
468.927	83.69
469.146	86.69
469.365	89.69
469.585	89.69
469.804	94.69
470.023	101.69
470.243	97.69
470.462	98.69
470.681	95.69
470.901	98.69
471.12	90.69
471.339	88.69
471.558	88.69
471.777	76.69
471.997	85.69
472.216	91.69
472.435	84.69
472.654	84.69
472.873	94.69
473.092	79.69
473.311	68.69
473.53	92.69
473.749	78.69
473.968	94.69
474.187	108.69
474.406	92.69
474.625	95.69
474.844	98.69
475.063	92.69
475.282	79.69
475.501	86.69
475.72	93.69
475.939	89.69
476.158	91.69
476.377	90.69
476.596	74.69
476.814	94.69
477.033	75.69
477.252	96.69
477.471	80.69
477.69	84.69
477.908	75.69
478.127	90.69
478.346	89.69
478.564	90.69
478.783	105.69
479.002	94.69
479.22	88.69
479.439	105.69
479.658	104.69
479.876	99.69
480.095	95.69
480.313	99.69
480.532	78.69
480.751	85.69
480.969	86.69
481.188	107.69
481.406	100.69
481.624	88.69
481.843	95.69
482.061	82.69
482.28	82.69
482.498	86.69
482.717	86.69
482.935	90.69
483.153	97.69
483.372	90.69
483.59	90.69
483.808	94.69
484.027	88.69
484.245	96.69
484.463	91.69
484.681	101.69
484.9	103.69
485.118	106.69
485.336	91.69
485.554	93.69
485.772	95.69
485.99	95.69
486.209	95.69
486.427	106.69
486.645	96.69
486.863	100.69
487.081	105.69
487.299	82.69
487.517	93.69
487.735	92.69
487.953	95.69
488.171	100.69
488.389	88.69
488.607	95.69
488.825	82.69
489.043	92.69
489.261	90.69
489.479	95.69
489.696	86.69
489.914	73.69
490.132	91.69
490.35	91.69
490.568	82.69
490.786	93.69
491.003	95.69
491.221	84.69
491.439	92.69
491.657	94.69
491.874	93.69
492.092	99.69
492.31	91.69
492.527	94.69
492.745	96.69
492.963	97.69
493.18	91.69
493.398	98.69
493.615	98.69
493.833	99.69
494.05	89.69
494.268	92.69
494.485	85.69
494.703	93.69
494.92	97.69
495.138	79.69
495.355	88.69
495.573	87.69
495.79	95.69
496.008	100.69
496.225	89.69
496.442	76.69
496.66	87.69
496.877	80.69
497.094	81.69
497.312	98.69
497.529	92.69
497.746	92.69
497.963	84.69
498.181	88.69
498.398	97.69
498.615	104.69
498.832	113.69
499.049	83.69
499.267	92.69
499.484	91.69
499.701	85.69
499.918	94.69
500.135	81.69
500.352	96.69
500.569	88.69
500.786	93.69
501.003	91.69
501.22	86.69
501.437	104.69
501.654	88.69
501.871	104.69
502.088	89.69
502.305	99.69
502.522	88.69
502.739	86.69
502.956	81.69
503.172	90.69
503.389	101.69
503.606	115.69
503.823	107.69
504.04	97.69
504.256	90.69
504.473	96.69
504.69	83.69
504.907	79.69
505.123	94.69
505.34	87.69
505.557	98.69
505.773	91.69
505.99	89.69
506.207	95.69
506.423	85.69
506.64	89.69
506.856	94.69
507.073	88.69
507.289	95.69
507.506	98.69
507.722	108.69
507.939	106.69
508.155	94.69
508.372	101.69
508.588	79.69
508.805	98.69
509.021	104.69
509.238	107.69
509.454	100.69
509.67	98.69
509.887	107.69
510.103	118.69
510.319	198.69
510.536	718.69
510.752	2240.69
510.968	618.69
511.184	134.69
511.401	103.69
511.617	92.69
511.833	98.69
512.049	95.69
512.265	90.69
512.481	82.69
512.698	88.69
512.914	89.69
513.13	107.69
513.346	89.69
513.562	83.69
513.778	100.69
513.994	88.69
514.21	93.69
514.426	106.69
514.642	118.69
514.858	113.69
515.074	172.69
515.29	389.69
515.506	1252.69
515.721	474.69
515.937	156.69
