Data from Uncirc_2000_H10_HRD10591_00052.txt Node
Date: Wed Jan 03 10:48:27 EST 2024
User: Yrep
Spectrometer: HR+D1059
Trigger mode: 1
Integration Time (sec): 1.000000E-1
Scans to average: 1
Electric dark correction enabled: true
Nonlinearity correction enabled: false
Boxcar width: 0
XAxis mode: Wavelengths
Number of Pixels in Spectrum: 2048
>>>>>Begin Spectral Data<<<<<
223.165	-19.81
223.4	-19.81
223.635	-19.81
223.869	-34.81
224.104	-16.81
224.338	-19.81
224.573	-11.81
224.808	-17.81
225.042	-20.81
225.277	1.19
225.511	-5.81
225.746	15.19
225.98	8.19
226.215	7.19
226.449	27.19
226.683	23.19
226.918	31.19
227.152	34.19
227.387	36.19
227.621	40.19
227.856	48.19
228.09	53.19
228.324	65.19
228.559	69.19
228.793	156.19
229.027	445.19
229.262	504.19
229.496	604.19
229.73	762.19
229.964	759.19
230.199	510.19
230.433	464.19
230.667	438.19
230.901	459.19
231.136	428.19
231.37	451.19
231.604	452.19
231.838	468.19
232.072	449.19
232.306	459.19
232.541	467.19
232.775	471.19
233.009	468.19
233.243	446.19
233.477	466.19
233.711	483.19
233.945	492.19
234.179	495.19
234.413	485.19
234.647	480.19
234.881	506.19
235.115	524.19
235.349	542.19
235.583	537.19
235.817	576.19
236.051	628.19
236.285	605.19
236.519	593.19
236.753	689.19
236.987	891.19
237.221	1323.19
237.455	1461.19
237.689	858.19
237.922	752.19
238.156	698.19
238.39	658.19
238.624	628.19
238.858	653.19
239.091	624.19
239.325	643.19
239.559	640.19
239.793	680.19
240.027	749.19
240.26	867.19
240.494	918.19
240.728	924.19
240.961	890.19
241.195	793.19
241.429	774.19
241.662	751.19
241.896	733.19
242.13	752.19
242.363	729.19
242.597	739.19
242.83	793.19
243.064	766.19
243.298	800.19
243.531	797.19
243.765	810.19
243.998	804.19
244.232	835.19
244.465	847.19
244.699	834.19
244.932	865.19
245.166	851.19
245.399	872.19
245.633	851.19
245.866	911.19
246.099	906.19
246.333	905.19
246.566	918.19
246.8	953.19
247.033	964.19
247.266	1036.19
247.5	1045.19
247.733	1125.19
247.966	1092.19
248.2	1111.19
248.433	1141.19
248.666	1193.19
248.899	1241.19
249.133	1388.19
249.366	1389.19
249.599	1247.19
249.832	1171.19
250.066	1176.19
250.299	1193.19
250.532	1307.19
250.765	1442.19
250.998	1593.19
251.231	1573.19
251.465	1426.19
251.698	1380.19
251.931	1319.19
252.164	1336.19
252.397	1369.19
252.63	1430.19
252.863	1525.19
253.096	1629.19
253.329	1683.19
253.562	1588.19
253.795	1504.19
254.028	1527.19
254.261	1578.19
254.494	1752.19
254.727	2028.19
254.96	2135.19
255.193	1867.19
255.426	1694.19
255.659	1557.19
255.892	1496.19
256.124	1499.19
256.357	1489.19
256.59	1441.19
256.823	1427.19
257.056	1454.19
257.289	1463.19
257.521	1484.19
257.754	1477.19
257.987	1463.19
258.22	1469.19
258.452	1486.19
258.685	1467.19
258.918	1543.19
259.151	1563.19
259.383	1616.19
259.616	1681.19
259.849	1688.19
260.081	1895.19
260.314	2021.19
260.547	1949.19
260.779	1774.19
261.012	1719.19
261.244	1637.19
261.477	1642.19
261.71	1622.19
261.942	1677.19
262.175	1680.19
262.407	1645.19
262.64	1641.19
262.872	1593.19
263.105	1583.19
263.337	1584.19
263.57	1598.19
263.802	1614.19
264.035	1627.19
264.267	1615.19
264.499	1615.19
264.732	1637.19
264.964	1621.19
265.197	1673.19
265.429	1679.19
265.661	1643.19
265.894	1687.19
266.126	1653.19
266.358	1690.19
266.591	1753.19
266.823	1801.19
267.055	1871.19
267.287	1815.19
267.52	1774.19
267.752	1811.19
267.984	1824.19
268.216	1848.19
268.448	1900.19
268.681	1976.19
268.913	2093.19
269.145	2257.19
269.377	2292.19
269.609	2251.19
269.841	2253.19
270.073	2320.19
270.306	2564.19
270.538	2721.19
270.77	2598.19
271.002	2415.19
271.234	2346.19
271.466	2505.19
271.698	2676.19
271.93	2691.19
272.162	2619.19
272.394	2600.19
272.626	2435.19
272.858	2343.19
273.09	2255.19
273.322	2215.19
273.553	2161.19
273.785	2176.19
274.017	2151.19
274.249	2165.19
274.481	2231.19
274.713	2202.19
274.945	2249.19
275.176	2220.19
275.408	2204.19
275.64	2174.19
275.872	2191.19
276.104	2168.19
276.335	2251.19
276.567	2315.19
276.799	2515.19
277.031	2724.19
277.262	2832.19
277.494	2685.19
277.726	2503.19
277.957	2387.19
278.189	2430.19
278.421	2329.19
278.652	2303.19
278.884	2307.19
279.115	2283.19
279.347	2303.19
279.579	2335.19
279.81	2295.19
280.042	2276.19
280.273	2326.19
280.505	2321.19
280.736	2324.19
280.968	2333.19
281.199	2351.19
281.431	2355.19
281.662	2407.19
281.894	2363.19
282.125	2430.19
282.356	2583.19
282.588	2707.19
282.819	2589.19
283.051	2485.19
283.282	2470.19
283.513	2550.19
283.745	2512.19
283.976	2594.19
284.207	2536.19
284.439	2549.19
284.67	2574.19
284.901	2530.19
285.132	2563.19
285.364	2553.19
285.595	2590.19
285.826	2569.19
286.057	2605.19
286.288	2618.19
286.52	2598.19
286.751	2664.19
286.982	2619.19
287.213	2640.19
287.444	2677.19
287.675	2721.19
287.906	2801.19
288.138	2875.19
288.369	2841.19
288.6	2821.19
288.831	2824.19
289.062	2747.19
289.293	2775.19
289.524	2718.19
289.755	2762.19
289.986	2720.19
290.217	2747.19
290.448	2742.19
290.679	2744.19
290.91	2673.19
291.141	2770.19
291.371	2790.19
291.602	2731.19
291.833	2798.19
292.064	2786.19
292.295	2733.19
292.526	2786.19
292.757	2741.19
292.987	2791.19
293.218	2733.19
293.449	2804.19
293.68	2796.19
293.91	2737.19
294.141	2784.19
294.372	2733.19
294.603	2793.19
294.833	2864.19
295.064	2822.19
295.295	2855.19
295.525	2825.19
295.756	2949.19
295.987	2955.19
296.217	3114.19
296.448	3022.19
296.679	2909.19
296.909	2880.19
297.14	2874.19
297.37	3043.19
297.601	2997.19
297.831	2977.19
298.062	2928.19
298.292	3023.19
298.523	3016.19
298.753	3058.19
298.984	3034.19
299.214	3091.19
299.445	3044.19
299.675	3075.19
299.905	3103.19
300.136	3083.19
300.366	3094.19
300.597	3141.19
300.827	3186.19
301.057	3282.19
301.288	3367.19
301.518	3272.19
301.748	3307.19
301.979	3317.19
302.209	3323.19
302.439	3306.19
302.669	3228.19
302.9	3264.19
303.13	3184.19
303.36	3292.19
303.59	3319.19
303.82	3304.19
304.051	3310.19
304.281	3253.19
304.511	3220.19
304.741	3221.19
304.971	3242.19
305.201	3256.19
305.431	3248.19
305.661	3213.19
305.891	3201.19
306.121	3210.19
306.352	3245.19
306.582	3251.19
306.812	3174.19
307.042	3210.19
307.272	3169.19
307.502	3176.19
307.731	3235.19
307.961	3223.19
308.191	3217.19
308.421	3211.19
308.651	3299.19
308.881	3244.19
309.111	3285.19
309.341	3303.19
309.571	3456.19
309.8	3441.19
310.03	3451.19
310.26	3531.19
310.49	3536.19
310.72	3640.19
310.949	3730.19
311.179	3656.19
311.409	3565.19
311.639	3611.19
311.868	3552.19
312.098	3609.19
312.328	3669.19
312.557	3821.19
312.787	3851.19
313.017	3735.19
313.246	3754.19
313.476	3654.19
313.706	3728.19
313.935	3769.19
314.165	3834.19
314.394	3866.19
314.624	3849.19
314.853	3791.19
315.083	3711.19
315.312	3670.19
315.542	3692.19
315.771	3620.19
316.001	3612.19
316.23	3597.19
316.46	3625.19
316.689	3649.19
316.919	3648.19
317.148	3744.19
317.377	3715.19
317.607	3699.19
317.836	3568.19
318.065	3601.19
318.295	3589.19
318.524	3599.19
318.753	3587.19
318.983	3587.19
319.212	3599.19
319.441	3692.19
319.67	3705.19
319.9	3611.19
320.129	3634.19
320.358	3675.19
320.587	3694.19
320.816	3753.19
321.046	3699.19
321.275	3722.19
321.504	3755.19
321.733	3734.19
321.962	3834.19
322.191	3949.19
322.42	4041.19
322.649	4060.19
322.878	4137.19
323.108	4207.19
323.337	4439.19
323.566	4595.19
323.795	4855.19
324.024	5477.19
324.253	7147.19
324.482	10720.19
324.71	14919.19
324.939	15617.19
325.168	12224.19
325.397	6364.19
325.626	5067.19
325.855	4699.19
326.084	4684.19
326.313	4662.19
326.542	4833.19
326.77	5374.19
326.999	6771.19
327.228	9903.19
327.457	14008.19
327.686	13067.19
327.914	7049.19
328.143	5552.19
328.372	5236.19
328.6	5033.19
328.829	5071.19
329.058	5168.19
329.287	5161.19
329.515	4787.19
329.744	4665.19
329.972	4659.19
330.201	4759.19
330.43	4936.19
330.658	5201.19
330.887	5523.19
331.115	5211.19
331.344	4887.19
331.572	4764.19
331.801	4891.19
332.03	4903.19
332.258	4853.19
332.486	4859.19
332.715	4959.19
332.943	5128.19
333.172	5217.19
333.4	5390.19
333.629	5483.19
333.857	5483.19
334.085	5411.19
334.314	5371.19
334.542	5213.19
334.771	5236.19
334.999	5164.19
335.227	5136.19
335.455	5061.19
335.684	5006.19
335.912	4991.19
336.14	4911.19
336.369	4867.19
336.597	4918.19
336.825	4826.19
337.053	4766.19
337.281	4717.19
337.51	4649.19
337.738	4645.19
337.966	4572.19
338.194	4614.19
338.422	4550.19
338.65	4507.19
338.878	4506.19
339.106	4406.19
339.334	4493.19
339.562	4410.19
339.79	4328.19
340.018	4337.19
340.246	4284.19
340.474	4324.19
340.702	4354.19
340.93	4343.19
341.158	4367.19
341.386	4358.19
341.614	4402.19
341.842	4308.19
342.07	4315.19
342.298	4249.19
342.526	4285.19
342.754	4266.19
342.981	4245.19
343.209	4353.19
343.437	4630.19
343.665	4911.19
343.893	5143.19
344.12	5119.19
344.348	4954.19
344.576	4754.19
344.804	4638.19
345.031	4568.19
345.259	4545.19
345.487	4303.19
345.714	4333.19
345.942	4230.19
346.17	4144.19
346.397	4141.19
346.625	4167.19
346.853	4127.19
347.08	4093.19
347.308	4157.19
347.535	4231.19
347.763	4295.19
347.99	4235.19
348.218	4248.19
348.445	4313.19
348.673	4219.19
348.9	4073.19
349.128	4063.19
349.355	4016.19
349.583	4046.19
349.81	3995.19
350.037	3986.19
350.265	3954.19
350.492	4038.19
350.72	4006.19
350.947	4078.19
351.174	4197.19
351.402	4211.19
351.629	4038.19
351.856	4119.19
352.083	4168.19
352.311	4199.19
352.538	4077.19
352.765	4130.19
352.992	4138.19
353.22	4090.19
353.447	4031.19
353.674	4006.19
353.901	3915.19
354.128	3919.19
354.355	3918.19
354.583	3948.19
354.81	3923.19
355.037	3930.19
355.264	3954.19
355.491	3863.19
355.718	3879.19
355.945	3895.19
356.172	3934.19
356.399	3960.19
356.626	3966.19
356.853	3921.19
357.08	3869.19
357.307	3898.19
357.534	3851.19
357.761	3952.19
357.988	3931.19
358.215	3952.19
358.441	3912.19
358.668	3956.19
358.895	4081.19
359.122	4033.19
359.349	4090.19
359.576	4219.19
359.802	4384.19
360.029	4548.19
360.256	4508.19
360.483	4351.19
360.709	4185.19
360.936	4116.19
361.163	4136.19
361.39	4129.19
361.616	4158.19
361.843	4125.19
362.07	4106.19
362.296	4122.19
362.523	4108.19
362.749	4152.19
362.976	4095.19
363.203	4040.19
363.429	3985.19
363.656	4043.19
363.882	3979.19
364.109	4037.19
364.335	4023.19
364.562	4001.19
364.788	3961.19
365.015	4005.19
365.241	3948.19
365.468	4037.19
365.694	4065.19
365.92	3979.19
366.147	3963.19
366.373	4024.19
366.599	4068.19
366.826	3930.19
367.052	3999.19
367.278	4038.19
367.505	4037.19
367.731	4015.19
367.957	4036.19
368.184	4101.19
368.41	4076.19
368.636	4218.19
368.862	4156.19
369.089	4116.19
369.315	4093.19
369.541	4089.19
369.767	4179.19
369.993	4097.19
370.219	4149.19
370.445	4086.19
370.672	4147.19
370.898	4151.19
371.124	4203.19
371.35	4284.19
371.576	4242.19
371.802	4212.19
372.028	4164.19
372.254	4247.19
372.48	4383.19
372.706	4340.19
372.932	4460.19
373.158	4418.19
373.384	4315.19
373.61	4283.19
373.835	4320.19
374.061	4399.19
374.287	4441.19
374.513	4464.19
374.739	4627.19
374.965	4731.19
375.191	4709.19
375.416	4662.19
375.642	4436.19
375.868	4415.19
376.094	4389.19
376.319	4343.19
376.545	4339.19
376.771	4290.19
376.997	4334.19
377.222	4320.19
377.448	4269.19
377.674	4272.19
377.899	4218.19
378.125	4215.19
378.35	4245.19
378.576	4261.19
378.802	4144.19
379.027	4249.19
379.253	4228.19
379.478	4184.19
379.704	4231.19
379.929	4274.19
380.155	4301.19
380.38	4263.19
380.606	4313.19
380.831	4279.19
381.057	4337.19
381.282	4292.19
381.507	4329.19
381.733	4420.19
381.958	4455.19
382.184	4334.19
382.409	4441.19
382.634	4505.19
382.86	4516.19
383.085	4582.19
383.31	4630.19
383.535	4645.19
383.761	4709.19
383.986	4856.19
384.211	4913.19
384.436	4956.19
384.662	5020.19
384.887	5108.19
385.112	5137.19
385.337	5131.19
385.562	5208.19
385.787	5221.19
386.013	5289.19
386.238	5300.19
386.463	5220.19
386.688	5257.19
386.913	5195.19
387.138	5213.19
387.363	5133.19
387.588	5001.19
387.813	5065.19
388.038	5072.19
388.263	5111.19
388.488	5137.19
388.713	5098.19
388.938	5073.19
389.163	5029.19
389.387	5138.19
389.612	4979.19
389.837	5085.19
390.062	5046.19
390.287	4995.19
390.512	5072.19
390.736	5115.19
390.961	5129.19
391.186	5299.19
391.411	5481.19
391.636	5580.19
391.86	5695.19
392.085	5769.19
392.31	5609.19
392.534	5532.19
392.759	5490.19
392.984	5368.19
393.208	5267.19
393.433	5352.19
393.658	5342.19
393.882	5260.19
394.107	5358.19
394.331	5434.19
394.556	5356.19
394.78	5467.19
395.005	5531.19
395.229	5468.19
395.454	5685.19
395.678	5803.19
395.903	5832.19
396.127	5841.19
396.352	5644.19
396.576	5496.19
396.801	5510.19
397.025	5543.19
397.249	5651.19
397.474	5741.19
397.698	5814.19
397.922	5970.19
398.147	6015.19
398.371	6086.19
398.595	6214.19
398.82	6507.19
399.044	7077.19
399.268	7845.19
399.492	8966.19
399.717	9625.19
399.941	9351.19
400.165	8743.19
400.389	8015.19
400.613	7275.19
400.837	6862.19
401.062	6581.19
401.286	6533.19
401.51	6412.19
401.734	6461.19
401.958	6595.19
402.182	6723.19
402.406	6784.19
402.63	6855.19
402.854	6920.19
403.078	7032.19
403.302	7173.19
403.526	7348.19
403.75	7307.19
403.974	7408.19
404.198	7365.19
404.422	7358.19
404.645	7326.19
404.869	7254.19
405.093	7364.19
405.317	7424.19
405.541	7423.19
405.765	7197.19
405.988	7131.19
406.212	7382.19
406.436	7443.19
406.66	7642.19
406.883	7647.19
407.107	8192.19
407.331	8772.19
407.555	9341.19
407.778	8938.19
408.002	8162.19
408.226	7912.19
408.449	7719.19
408.673	7693.19
408.896	7771.19
409.12	7944.19
409.344	7453.19
409.567	7006.19
409.791	7077.19
410.014	7002.19
410.238	6866.19
410.461	7023.19
410.685	6954.19
410.908	7044.19
411.132	7251.19
411.355	7237.19
411.578	6983.19
411.802	6676.19
412.025	6641.19
412.249	6671.19
412.472	6673.19
412.695	6561.19
412.919	6381.19
413.142	6395.19
413.365	6316.19
413.589	6391.19
413.812	6307.19
414.035	6224.19
414.258	6320.19
414.482	6322.19
414.705	6420.19
414.928	6362.19
415.151	6319.19
415.374	6335.19
415.597	6274.19
415.821	6208.19
416.044	6183.19
416.267	6188.19
416.49	6150.19
416.713	6209.19
416.936	6242.19
417.159	6295.19
417.382	6344.19
417.605	6348.19
417.828	6459.19
418.051	6645.19
418.274	6534.19
418.497	6376.19
418.72	6431.19
418.943	6439.19
419.166	6837.19
419.389	7150.19
419.611	7063.19
419.834	6839.19
420.057	6650.19
420.28	6516.19
420.503	6372.19
420.726	6399.19
420.948	6532.19
421.171	6998.19
421.394	6969.19
421.617	6507.19
421.839	6361.19
422.062	6509.19
422.285	6806.19
422.507	7339.19
422.73	7882.19
422.953	7401.19
423.175	6975.19
423.398	6937.19
423.621	6989.19
423.843	7205.19
424.066	7174.19
424.288	7082.19
424.511	7241.19
424.733	7738.19
424.956	8055.19
425.178	7695.19
425.401	7871.19
425.623	7664.19
425.846	6747.19
426.068	6604.19
426.291	6535.19
426.513	6470.19
426.735	6676.19
426.958	7034.19
427.18	7808.19
427.402	8910.19
427.625	8863.19
427.847	7446.19
428.069	6719.19
428.292	6405.19
428.514	5988.19
428.736	5936.19
428.958	5943.19
429.181	5713.19
429.403	5846.19
429.625	5885.19
429.847	6204.19
430.069	6732.19
430.292	6283.19
430.514	5823.19
430.736	5801.19
430.958	5764.19
431.18	5611.19
431.402	5689.19
431.624	5591.19
431.846	5651.19
432.068	5678.19
432.29	5816.19
432.512	5648.19
432.734	5831.19
432.956	5741.19
433.178	5831.19
433.4	5777.19
433.622	5711.19
433.844	5713.19
434.066	5741.19
434.287	5896.19
434.509	6158.19
434.731	6304.19
434.953	6454.19
435.175	6583.19
435.397	6647.19
435.618	6622.19
435.84	6967.19
436.062	7667.19
436.284	7591.19
436.505	6579.19
436.727	6140.19
436.949	5889.19
437.17	5821.19
437.392	5796.19
437.614	5857.19
437.835	6300.19
438.057	7230.19
438.278	7887.19
438.5	7783.19
438.721	8508.19
438.943	7536.19
439.165	6380.19
439.386	6156.19
439.608	6180.19
439.829	6310.19
440.05	6640.19
440.272	6932.19
440.493	6363.19
440.715	6127.19
440.936	6063.19
441.158	6125.19
441.379	6246.19
441.6	6575.19
441.822	6811.19
442.043	7207.19
442.264	7949.19
442.486	7706.19
442.707	6891.19
442.928	6548.19
443.149	6832.19
443.371	7103.19
443.592	7661.19
443.813	8613.19
444.034	8468.19
444.255	7507.19
444.476	7267.19
444.698	7453.19
444.919	7643.19
445.14	7409.19
445.361	7145.19
445.582	7344.19
445.803	7888.19
446.024	8524.19
446.245	8142.19
446.466	7342.19
446.687	6420.19
446.908	6107.19
447.129	5758.19
447.35	5653.19
447.571	5685.19
447.792	5461.19
448.013	5648.19
448.234	5879.19
448.455	6483.19
448.675	7655.19
448.896	7991.19
449.117	6593.19
449.338	6910.19
449.559	8231.19
449.779	8214.19
450	6411.19
450.221	5654.19
450.442	5459.19
450.662	5422.19
450.883	5494.19
451.104	5548.19
451.324	5415.19
451.545	5253.19
451.766	5227.19
451.986	5100.19
452.207	5057.19
452.428	4997.19
452.648	5047.19
452.869	5064.19
453.089	5112.19
453.31	5187.19
453.53	5020.19
453.751	5000.19
453.971	5039.19
454.192	5105.19
454.412	4927.19
454.633	4858.19
454.853	4778.19
455.073	4924.19
455.294	5267.19
455.514	5758.19
455.734	5306.19
455.955	4836.19
456.175	4655.19
456.395	4608.19
456.616	4565.19
456.836	4617.19
457.056	4606.19
457.276	4545.19
457.497	4727.19
457.717	4697.19
457.937	4762.19
458.157	4826.19
458.377	4887.19
458.598	5224.19
458.818	5861.19
459.038	6573.19
459.258	6579.19
459.478	5933.19
459.698	5736.19
459.918	5728.19
460.138	5986.19
460.358	6279.19
460.578	6331.19
460.798	6352.19
461.018	6346.19
461.238	6190.19
461.458	6208.19
461.678	6229.19
461.898	6279.19
462.118	6345.19
462.338	6705.19
462.558	6931.19
462.777	7133.19
462.997	7725.19
463.217	8201.19
463.437	7859.19
463.657	7344.19
463.876	7116.19
464.096	7181.19
464.316	7153.19
464.536	7212.19
464.755	6910.19
464.975	6771.19
465.195	6911.19
465.414	6907.19
465.634	6108.19
465.854	5848.19
466.073	5613.19
466.293	5446.19
466.512	5226.19
466.732	5168.19
466.951	5223.19
467.171	5197.19
467.391	5321.19
467.61	5304.19
467.829	5137.19
468.049	5142.19
468.268	5035.19
468.488	4883.19
468.707	4899.19
468.927	4944.19
469.146	4967.19
469.365	5002.19
469.585	5077.19
469.804	5255.19
470.023	5336.19
470.243	5363.19
470.462	5387.19
470.681	5558.19
470.901	5498.19
471.12	5348.19
471.339	5251.19
471.558	5217.19
471.777	5146.19
471.997	4948.19
472.216	5033.19
472.435	4929.19
472.654	4927.19
472.873	4875.19
473.092	4906.19
473.311	4887.19
473.53	4977.19
473.749	5092.19
473.968	5579.19
474.187	6614.19
474.406	6181.19
474.625	5274.19
474.844	5019.19
475.063	5020.19
475.282	4964.19
475.501	5115.19
475.72	5066.19
475.939	5140.19
476.158	5136.19
476.377	5202.19
476.596	5146.19
476.814	5303.19
477.033	5395.19
477.252	5372.19
477.471	5557.19
477.69	5603.19
477.908	5651.19
478.127	5772.19
478.346	5911.19
478.564	6043.19
478.783	6121.19
479.002	6253.19
479.22	6312.19
479.439	6415.19
479.658	6442.19
479.876	6468.19
480.095	6811.19
480.313	7068.19
480.532	6974.19
480.751	6878.19
480.969	6618.19
481.188	6568.19
481.406	6301.19
481.624	6106.19
481.843	6003.19
482.061	5962.19
482.28	5847.19
482.498	5837.19
482.717	5799.19
482.935	5862.19
483.153	5818.19
483.372	5780.19
483.59	5766.19
483.808	5779.19
484.027	5767.19
484.245	5814.19
484.463	5895.19
484.681	6016.19
484.9	5985.19
485.118	5989.19
485.336	6085.19
485.554	6138.19
485.772	6181.19
485.99	6219.19
486.209	6287.19
486.427	6262.19
486.645	6352.19
486.863	6347.19
487.081	6284.19
487.299	6261.19
487.517	6260.19
487.735	6215.19
487.953	6249.19
