Data from Uncirc_2000_H10_HRD10591_00038.txt Node
Date: Wed Jan 03 10:48:24 EST 2024
User: Yrep
Spectrometer: HR+D1059
Trigger mode: 1
Integration Time (sec): 1.000000E-1
Scans to average: 1
Electric dark correction enabled: true
Nonlinearity correction enabled: false
Boxcar width: 0
XAxis mode: Wavelengths
Number of Pixels in Spectrum: 2048
>>>>>Begin Spectral Data<<<<<
223.165	-9.5
223.4	-9.5
223.635	-9.5
223.869	-22.5
224.104	-6.5
224.338	-13.5
224.573	-29.5
224.808	-26.5
225.042	3.5
225.277	6.5
225.511	0.5
225.746	-7.5
225.98	8.5
226.215	11.5
226.449	14.5
226.683	12.5
226.918	29.5
227.152	28.5
227.387	46.5
227.621	44.5
227.856	39.5
228.09	56.5
228.324	43.5
228.559	63.5
228.793	58.5
229.027	72.5
229.262	66.5
229.496	86.5
229.73	82.5
229.964	73.5
230.199	74.5
230.433	81.5
230.667	77.5
230.901	75.5
231.136	76.5
231.37	84.5
231.604	71.5
231.838	84.5
232.072	72.5
232.306	81.5
232.541	72.5
232.775	83.5
233.009	75.5
233.243	73.5
233.477	94.5
233.711	58.5
233.945	90.5
234.179	64.5
234.413	82.5
234.647	87.5
234.881	71.5
235.115	77.5
235.349	81.5
235.583	91.5
235.817	87.5
236.051	84.5
236.285	82.5
236.519	85.5
236.753	79.5
236.987	75.5
237.221	79.5
237.455	83.5
237.689	82.5
237.922	75.5
238.156	88.5
238.39	78.5
238.624	80.5
238.858	89.5
239.091	80.5
239.325	73.5
239.559	78.5
239.793	89.5
240.027	77.5
240.26	89.5
240.494	71.5
240.728	60.5
240.961	75.5
241.195	87.5
241.429	80.5
241.662	82.5
241.896	80.5
242.13	88.5
242.363	71.5
242.597	69.5
242.83	85.5
243.064	75.5
243.298	72.5
243.531	76.5
243.765	80.5
243.998	78.5
244.232	67.5
244.465	93.5
244.699	77.5
244.932	78.5
245.166	86.5
245.399	75.5
245.633	80.5
245.866	74.5
246.099	67.5
246.333	73.5
246.566	82.5
246.8	70.5
247.033	84.5
247.266	84.5
247.5	72.5
247.733	74.5
247.966	75.5
248.2	72.5
248.433	70.5
248.666	72.5
248.899	75.5
249.133	74.5
249.366	88.5
249.599	80.5
249.832	80.5
250.066	99.5
250.299	86.5
250.532	74.5
250.765	74.5
250.998	82.5
251.231	71.5
251.465	76.5
251.698	85.5
251.931	78.5
252.164	80.5
252.397	82.5
252.63	93.5
252.863	90.5
253.096	85.5
253.329	74.5
253.562	85.5
253.795	79.5
254.028	78.5
254.261	82.5
254.494	79.5
254.727	86.5
254.96	73.5
255.193	72.5
255.426	70.5
255.659	82.5
255.892	90.5
256.124	102.5
256.357	90.5
256.59	80.5
256.823	77.5
257.056	88.5
257.289	84.5
257.521	72.5
257.754	64.5
257.987	81.5
258.22	83.5
258.452	72.5
258.685	91.5
258.918	81.5
259.151	58.5
259.383	78.5
259.616	81.5
259.849	84.5
260.081	82.5
260.314	92.5
260.547	73.5
260.779	84.5
261.012	81.5
261.244	87.5
261.477	81.5
261.71	74.5
261.942	89.5
262.175	106.5
262.407	82.5
262.64	80.5
262.872	63.5
263.105	84.5
263.337	86.5
263.57	86.5
263.802	85.5
264.035	90.5
264.267	86.5
264.499	83.5
264.732	88.5
264.964	87.5
265.197	86.5
265.429	70.5
265.661	71.5
265.894	89.5
266.126	76.5
266.358	89.5
266.591	88.5
266.823	87.5
267.055	83.5
267.287	78.5
267.52	74.5
267.752	92.5
267.984	82.5
268.216	78.5
268.448	99.5
268.681	77.5
268.913	83.5
269.145	78.5
269.377	85.5
269.609	85.5
269.841	87.5
270.073	94.5
270.306	81.5
270.538	83.5
270.77	78.5
271.002	74.5
271.234	70.5
271.466	92.5
271.698	92.5
271.93	86.5
272.162	76.5
272.394	82.5
272.626	75.5
272.858	86.5
273.09	57.5
273.322	74.5
273.553	82.5
273.785	82.5
274.017	80.5
274.249	86.5
274.481	77.5
274.713	71.5
274.945	68.5
275.176	94.5
275.408	76.5
275.64	91.5
275.872	83.5
276.104	82.5
276.335	92.5
276.567	102.5
276.799	94.5
277.031	102.5
277.262	90.5
277.494	78.5
277.726	94.5
277.957	93.5
278.189	89.5
278.421	82.5
278.652	97.5
278.884	89.5
279.115	81.5
279.347	78.5
279.579	66.5
279.81	81.5
280.042	74.5
280.273	75.5
280.505	80.5
280.736	86.5
280.968	73.5
281.199	77.5
281.431	80.5
281.662	92.5
281.894	80.5
282.125	91.5
282.356	110.5
282.588	118.5
282.819	120.5
283.051	84.5
283.282	74.5
283.513	70.5
283.745	82.5
283.976	84.5
284.207	88.5
284.439	74.5
284.67	82.5
284.901	80.5
285.132	93.5
285.364	90.5
285.595	86.5
285.826	79.5
286.057	92.5
286.288	79.5
286.52	94.5
286.751	88.5
286.982	83.5
287.213	82.5
287.444	75.5
287.675	83.5
287.906	79.5
288.138	95.5
288.369	82.5
288.6	91.5
288.831	82.5
289.062	84.5
289.293	73.5
289.524	76.5
289.755	89.5
289.986	83.5
290.217	81.5
290.448	97.5
290.679	99.5
290.91	89.5
291.141	97.5
291.371	71.5
291.602	83.5
291.833	86.5
292.064	83.5
292.295	78.5
292.526	84.5
292.757	103.5
292.987	86.5
293.218	87.5
293.449	85.5
293.68	93.5
293.91	86.5
294.141	74.5
294.372	74.5
294.603	98.5
294.833	98.5
295.064	89.5
295.295	84.5
295.525	80.5
295.756	98.5
295.987	102.5
296.217	115.5
296.448	98.5
296.679	90.5
296.909	98.5
297.14	107.5
297.37	94.5
297.601	80.5
297.831	81.5
298.062	87.5
298.292	97.5
298.523	82.5
298.753	82.5
298.984	87.5
299.214	87.5
299.445	78.5
299.675	88.5
299.905	94.5
300.136	82.5
300.366	87.5
300.597	85.5
300.827	80.5
301.057	102.5
301.288	72.5
301.518	83.5
301.748	86.5
301.979	92.5
302.209	91.5
302.439	92.5
302.669	94.5
302.9	76.5
303.13	99.5
303.36	87.5
303.59	89.5
303.82	103.5
304.051	95.5
304.281	86.5
304.511	96.5
304.741	94.5
304.971	95.5
305.201	95.5
305.431	76.5
305.661	102.5
305.891	83.5
306.121	94.5
306.352	103.5
306.582	93.5
306.812	95.5
307.042	89.5
307.272	87.5
307.502	82.5
307.731	93.5
307.961	87.5
308.191	89.5
308.421	83.5
308.651	96.5
308.881	96.5
309.111	91.5
309.341	92.5
309.571	86.5
309.8	88.5
310.03	85.5
310.26	91.5
310.49	96.5
310.72	91.5
310.949	91.5
311.179	100.5
311.409	91.5
311.639	83.5
311.868	93.5
312.098	97.5
312.328	106.5
312.557	96.5
312.787	99.5
313.017	96.5
313.246	103.5
313.476	89.5
313.706	90.5
313.935	98.5
314.165	94.5
314.394	89.5
314.624	72.5
314.853	84.5
315.083	87.5
315.312	101.5
315.542	91.5
315.771	90.5
316.001	88.5
316.23	91.5
316.46	87.5
316.689	95.5
316.919	100.5
317.148	101.5
317.377	89.5
317.607	94.5
317.836	100.5
318.065	83.5
318.295	81.5
318.524	75.5
318.753	86.5
318.983	91.5
319.212	81.5
319.441	100.5
319.67	98.5
319.9	95.5
320.129	97.5
320.358	87.5
320.587	92.5
320.816	92.5
321.046	98.5
321.275	83.5
321.504	94.5
321.733	90.5
321.962	91.5
322.191	99.5
322.42	99.5
322.649	106.5
322.878	108.5
323.108	107.5
323.337	102.5
323.566	119.5
323.795	136.5
324.024	199.5
324.253	359.5
324.482	764.5
324.71	1462.5
324.939	1921.5
325.168	702.5
325.397	226.5
325.626	152.5
325.855	114.5
326.084	111.5
326.313	122.5
326.542	145.5
326.77	216.5
326.999	414.5
327.228	834.5
327.457	1493.5
327.686	1210.5
327.914	331.5
328.143	190.5
328.372	117.5
328.6	113.5
328.829	110.5
329.058	104.5
329.287	105.5
329.515	98.5
329.744	96.5
329.972	90.5
330.201	105.5
330.43	99.5
330.658	108.5
330.887	118.5
331.115	110.5
331.344	99.5
331.572	113.5
331.801	99.5
332.03	106.5
332.258	92.5
332.486	87.5
332.715	82.5
332.943	88.5
333.172	87.5
333.4	98.5
333.629	106.5
333.857	101.5
334.085	104.5
334.314	91.5
334.542	99.5
334.771	114.5
334.999	93.5
335.227	80.5
335.455	83.5
335.684	97.5
335.912	97.5
336.14	85.5
336.369	96.5
336.597	90.5
336.825	84.5
337.053	87.5
337.281	93.5
337.51	85.5
337.738	110.5
337.966	95.5
338.194	93.5
338.422	99.5
338.65	103.5
338.878	102.5
339.106	84.5
339.334	83.5
339.562	86.5
339.79	82.5
340.018	89.5
340.246	96.5
340.474	82.5
340.702	91.5
340.93	105.5
341.158	92.5
341.386	81.5
341.614	101.5
341.842	97.5
342.07	92.5
342.298	84.5
342.526	102.5
342.754	94.5
342.981	93.5
343.209	88.5
343.437	86.5
343.665	97.5
343.893	83.5
344.12	94.5
344.348	83.5
344.576	94.5
344.804	74.5
345.031	92.5
345.259	98.5
345.487	92.5
345.714	81.5
345.942	101.5
346.17	104.5
346.397	91.5
346.625	88.5
346.853	85.5
347.08	79.5
347.308	103.5
347.535	93.5
347.763	89.5
347.99	90.5
348.218	96.5
348.445	96.5
348.673	102.5
348.9	92.5
349.128	87.5
349.355	86.5
349.583	77.5
349.81	89.5
350.037	105.5
350.265	90.5
350.492	89.5
350.72	96.5
350.947	84.5
351.174	115.5
351.402	105.5
351.629	94.5
351.856	108.5
352.083	103.5
352.311	90.5
352.538	100.5
352.765	94.5
352.992	103.5
353.22	97.5
353.447	96.5
353.674	96.5
353.901	87.5
354.128	92.5
354.355	94.5
354.583	81.5
354.81	112.5
355.037	88.5
355.264	95.5
355.491	90.5
355.718	82.5
355.945	98.5
356.172	89.5
356.399	98.5
356.626	100.5
356.853	97.5
357.08	79.5
357.307	97.5
357.534	75.5
357.761	89.5
357.988	98.5
358.215	95.5
358.441	93.5
358.668	90.5
358.895	82.5
359.122	91.5
359.349	91.5
359.576	100.5
359.802	75.5
360.029	98.5
360.256	100.5
360.483	96.5
360.709	97.5
360.936	88.5
361.163	94.5
361.39	82.5
361.616	86.5
361.843	90.5
362.07	80.5
362.296	90.5
362.523	88.5
362.749	82.5
362.976	86.5
363.203	90.5
363.429	89.5
363.656	99.5
363.882	87.5
364.109	92.5
364.335	82.5
364.562	92.5
364.788	83.5
365.015	87.5
365.241	92.5
365.468	93.5
365.694	99.5
365.92	83.5
366.147	94.5
366.373	81.5
366.599	95.5
366.826	86.5
367.052	63.5
367.278	87.5
367.505	99.5
367.731	99.5
367.957	99.5
368.184	101.5
368.41	95.5
368.636	94.5
368.862	116.5
369.089	104.5
369.315	76.5
369.541	89.5
369.767	84.5
369.993	86.5
370.219	83.5
370.445	84.5
370.672	82.5
370.898	90.5
371.124	88.5
371.35	81.5
371.576	91.5
371.802	89.5
372.028	93.5
372.254	95.5
372.48	75.5
372.706	84.5
372.932	91.5
373.158	92.5
373.384	100.5
373.61	107.5
373.835	87.5
374.061	78.5
374.287	88.5
374.513	89.5
374.739	97.5
374.965	88.5
375.191	68.5
375.416	80.5
375.642	95.5
375.868	86.5
376.094	92.5
376.319	88.5
376.545	87.5
376.771	78.5
376.997	93.5
377.222	77.5
377.448	100.5
377.674	99.5
377.899	80.5
378.125	87.5
378.35	99.5
378.576	84.5
378.802	91.5
379.027	96.5
379.253	86.5
379.478	93.5
379.704	96.5
379.929	83.5
380.155	86.5
380.38	89.5
380.606	82.5
380.831	91.5
381.057	95.5
381.282	93.5
381.507	81.5
381.733	98.5
381.958	91.5
382.184	96.5
382.409	97.5
382.634	86.5
382.86	91.5
383.085	98.5
383.31	106.5
383.535	72.5
383.761	86.5
383.986	90.5
384.211	92.5
384.436	88.5
384.662	91.5
384.887	97.5
385.112	110.5
385.337	100.5
385.562	95.5
385.787	95.5
386.013	91.5
386.238	112.5
386.463	84.5
386.688	106.5
386.913	101.5
387.138	83.5
387.363	95.5
387.588	96.5
387.813	105.5
388.038	102.5
388.263	97.5
388.488	99.5
388.713	92.5
388.938	92.5
389.163	97.5
389.387	107.5
389.612	108.5
389.837	101.5
390.062	89.5
390.287	66.5
390.512	87.5
390.736	98.5
390.961	87.5
391.186	83.5
391.411	103.5
391.636	94.5
391.86	89.5
392.085	90.5
392.31	93.5
392.534	75.5
392.759	78.5
392.984	86.5
393.208	84.5
393.433	90.5
393.658	88.5
393.882	83.5
394.107	82.5
394.331	78.5
394.556	76.5
394.78	90.5
395.005	84.5
395.229	72.5
395.454	76.5
395.678	86.5
395.903	84.5
396.127	78.5
396.352	89.5
396.576	86.5
396.801	89.5
397.025	85.5
397.249	72.5
397.474	95.5
397.698	85.5
397.922	88.5
398.147	88.5
398.371	78.5
398.595	78.5
398.82	75.5
399.044	84.5
399.268	91.5
399.492	91.5
399.717	72.5
399.941	88.5
400.165	87.5
400.389	95.5
400.613	75.5
400.837	66.5
401.062	85.5
401.286	82.5
401.51	86.5
401.734	86.5
401.958	99.5
402.182	112.5
402.406	155.5
402.63	113.5
402.854	72.5
403.078	91.5
403.302	87.5
403.526	78.5
403.75	85.5
403.974	84.5
404.198	87.5
404.422	92.5
404.645	98.5
404.869	89.5
405.093	89.5
405.317	92.5
405.541	94.5
405.765	92.5
405.988	103.5
406.212	154.5
406.436	205.5
406.66	149.5
406.883	89.5
407.107	81.5
407.331	83.5
407.555	109.5
407.778	98.5
408.002	92.5
408.226	82.5
408.449	76.5
408.673	91.5
408.896	108.5
409.12	106.5
409.344	90.5
409.567	91.5
409.791	96.5
410.014	102.5
410.238	86.5
410.461	88.5
410.685	97.5
410.908	91.5
411.132	100.5
411.355	90.5
411.578	90.5
411.802	89.5
412.025	95.5
412.249	91.5
412.472	84.5
412.695	94.5
412.919	75.5
413.142	89.5
413.365	89.5
413.589	86.5
413.812	81.5
414.035	85.5
414.258	83.5
414.482	82.5
414.705	109.5
414.928	74.5
415.151	77.5
415.374	92.5
415.597	84.5
415.821	84.5
416.044	97.5
416.267	95.5
416.49	87.5
416.713	87.5
416.936	78.5
417.159	94.5
417.382	76.5
417.605	80.5
417.828	84.5
418.051	99.5
418.274	89.5
418.497	88.5
418.72	98.5
418.943	64.5
419.166	96.5
419.389	84.5
419.611	75.5
419.834	74.5
420.057	82.5
420.28	80.5
420.503	94.5
420.726	74.5
420.948	93.5
421.171	98.5
421.394	91.5
421.617	80.5
421.839	77.5
422.062	75.5
422.285	85.5
422.507	98.5
422.73	89.5
422.953	102.5
423.175	70.5
423.398	82.5
423.621	92.5
423.843	76.5
424.066	84.5
424.288	87.5
424.511	90.5
424.733	87.5
424.956	98.5
425.178	86.5
425.401	97.5
425.623	104.5
425.846	86.5
426.068	100.5
426.291	106.5
426.513	89.5
426.735	91.5
426.958	103.5
427.18	98.5
427.402	115.5
427.625	138.5
427.847	110.5
428.069	79.5
428.292	89.5
428.514	91.5
428.736	76.5
428.958	85.5
429.181	81.5
429.403	81.5
429.625	86.5
429.847	92.5
430.069	96.5
430.292	72.5
430.514	83.5
430.736	95.5
430.958	81.5
431.18	88.5
431.402	83.5
431.624	94.5
431.846	77.5
432.068	75.5
432.29	89.5
432.512	88.5
432.734	88.5
432.956	91.5
433.178	95.5
433.4	91.5
433.622	77.5
433.844	84.5
434.066	94.5
434.287	78.5
434.509	96.5
434.731	88.5
434.953	72.5
435.175	83.5
435.397	103.5
435.618	86.5
435.84	97.5
436.062	108.5
436.284	102.5
436.505	90.5
436.727	107.5
436.949	67.5
437.17	80.5
437.392	84.5
437.614	87.5
437.835	98.5
438.057	112.5
438.278	97.5
438.5	100.5
438.721	99.5
438.943	84.5
439.165	98.5
439.386	76.5
439.608	96.5
439.829	90.5
440.05	117.5
440.272	117.5
440.493	107.5
440.715	82.5
440.936	108.5
441.158	88.5
441.379	83.5
441.6	78.5
441.822	91.5
442.043	89.5
442.264	93.5
442.486	108.5
442.707	87.5
442.928	93.5
443.149	124.5
443.371	121.5
443.592	89.5
443.813	95.5
444.034	98.5
444.255	90.5
444.476	91.5
444.698	75.5
444.919	77.5
445.14	119.5
445.361	107.5
445.582	115.5
445.803	118.5
446.024	111.5
446.245	113.5
446.466	87.5
446.687	93.5
446.908	72.5
447.129	67.5
447.35	89.5
447.571	67.5
447.792	81.5
448.013	92.5
448.234	96.5
448.455	94.5
448.675	101.5
448.896	104.5
449.117	94.5
449.338	103.5
449.559	122.5
449.779	115.5
450	94.5
450.221	80.5
450.442	77.5
450.662	82.5
450.883	106.5
451.104	105.5
451.324	88.5
451.545	82.5
451.766	83.5
451.986	76.5
452.207	99.5
452.428	96.5
452.648	96.5
452.869	98.5
453.089	114.5
453.31	106.5
453.53	102.5
453.751	89.5
453.971	84.5
454.192	88.5
454.412	85.5
454.633	84.5
454.853	85.5
455.073	88.5
455.294	102.5
455.514	100.5
455.734	82.5
455.955	80.5
456.175	74.5
456.395	93.5
456.616	70.5
456.836	79.5
457.056	68.5
457.276	78.5
457.497	71.5
457.717	86.5
457.937	85.5
458.157	100.5
458.377	91.5
458.598	94.5
458.818	111.5
459.038	148.5
459.258	110.5
459.478	99.5
459.698	74.5
459.918	89.5
460.138	90.5
460.358	70.5
460.578	90.5
460.798	81.5
461.018	91.5
461.238	82.5
461.458	89.5
461.678	92.5
461.898	90.5
462.118	91.5
462.338	76.5
462.558	92.5
462.777	87.5
462.997	79.5
463.217	83.5
463.437	89.5
463.657	81.5
463.876	75.5
464.096	86.5
464.316	83.5
464.536	91.5
464.755	82.5
464.975	100.5
465.195	151.5
465.414	136.5
465.634	95.5
465.854	90.5
466.073	91.5
466.293	81.5
466.512	76.5
466.732	90.5
466.951	78.5
467.171	88.5
467.391	95.5
467.61	100.5
467.829	73.5
468.049	78.5
468.268	75.5
468.488	74.5
468.707	97.5
468.927	89.5
469.146	83.5
469.365	87.5
469.585	83.5
469.804	98.5
470.023	81.5
470.243	90.5
470.462	97.5
470.681	105.5
470.901	98.5
471.12	80.5
471.339	78.5
471.558	87.5
471.777	76.5
471.997	83.5
472.216	90.5
472.435	80.5
472.654	74.5
472.873	82.5
473.092	89.5
473.311	92.5
473.53	75.5
473.749	87.5
473.968	100.5
474.187	92.5
474.406	81.5
474.625	82.5
474.844	87.5
475.063	80.5
475.282	86.5
475.501	85.5
475.72	90.5
475.939	81.5
476.158	80.5
476.377	81.5
476.596	80.5
476.814	91.5
477.033	70.5
477.252	80.5
477.471	92.5
477.69	87.5
477.908	88.5
478.127	88.5
478.346	87.5
478.564	92.5
478.783	104.5
479.002	108.5
479.22	81.5
479.439	88.5
479.658	106.5
479.876	93.5
480.095	95.5
480.313	96.5
480.532	101.5
480.751	90.5
480.969	86.5
481.188	88.5
481.406	85.5
481.624	92.5
481.843	95.5
482.061	94.5
482.28	104.5
482.498	89.5
482.717	84.5
482.935	91.5
483.153	83.5
483.372	88.5
483.59	71.5
483.808	95.5
484.027	82.5
484.245	102.5
484.463	90.5
484.681	102.5
484.9	93.5
485.118	85.5
485.336	81.5
485.554	89.5
485.772	96.5
485.99	100.5
486.209	107.5
486.427	101.5
486.645	108.5
486.863	105.5
487.081	99.5
487.299	98.5
487.517	94.5
487.735	81.5
487.953	87.5
488.171	89.5
488.389	86.5
488.607	106.5
488.825	74.5
489.043	88.5
489.261	85.5
489.479	94.5
489.696	92.5
489.914	89.5
490.132	104.5
490.35	75.5
490.568	82.5
490.786	83.5
491.003	83.5
491.221	74.5
491.439	86.5
491.657	82.5
491.874	89.5
492.092	87.5
492.31	89.5
492.527	74.5
492.745	71.5
492.963	84.5
493.18	91.5
493.398	82.5
493.615	99.5
493.833	87.5
494.05	80.5
494.268	98.5
494.485	83.5
494.703	90.5
494.92	82.5
495.138	85.5
495.355	95.5
495.573	89.5
495.79	92.5
496.008	71.5
496.225	94.5
496.442	91.5
496.66	74.5
496.877	88.5
497.094	81.5
497.312	80.5
497.529	92.5
497.746	92.5
497.963	94.5
498.181	96.5
498.398	112.5
498.615	96.5
498.832	89.5
499.049	91.5
499.267	93.5
499.484	79.5
499.701	87.5
499.918	89.5
500.135	98.5
500.352	79.5
500.569	80.5
500.786	96.5
501.003	89.5
501.22	76.5
501.437	75.5
501.654	83.5
501.871	102.5
502.088	91.5
502.305	90.5
502.522	84.5
502.739	92.5
502.956	71.5
503.172	82.5
503.389	98.5
503.606	92.5
503.823	85.5
504.04	93.5
504.256	92.5
504.473	86.5
504.69	95.5
504.907	89.5
505.123	78.5
505.34	94.5
505.557	107.5
505.773	92.5
505.99	89.5
506.207	84.5
506.423	97.5
506.64	99.5
506.856	83.5
507.073	97.5
507.289	81.5
507.506	100.5
507.722	97.5
507.939	113.5
508.155	107.5
508.372	88.5
508.588	78.5
508.805	97.5
509.021	89.5
509.238	87.5
509.454	110.5
509.67	106.5
509.887	107.5
510.103	119.5
510.319	198.5
510.536	696.5
510.752	2177.5
510.968	606.5
511.184	155.5
511.401	106.5
511.617	90.5
511.833	94.5
512.049	86.5
512.265	96.5
512.481	82.5
512.698	90.5
512.914	94.5
513.13	84.5
513.346	98.5
513.562	99.5
513.778	96.5
513.994	91.5
514.21	101.5
514.426	105.5
514.642	135.5
514.858	107.5
515.074	155.5
515.29	402.5
515.506	1250.5
515.721	470.5
515.937	144.5
516.153	103.5
516.369	99.5
516.585	91.5
516.801	82.5
517.016	85.5
517.232	88.5
517.448	83.5
517.664	84.5
517.879	95.5
518.095	86.5
518.311	84.5
518.527	88.5
518.742	90.5
518.958	83.5
519.173	91.5
519.389	84.5
519.605	103.5
519.82	93.5
520.036	113.5
520.251	114.5
520.467	104.5
520.682	98.5
520.898	98.5
521.113	106.5
521.329	119.5
521.544	181.5
521.76	481.5
521.975	2079.5
522.19	1234.5
522.406	278.5
522.621	107.5
522.836	94.5
523.052	89.5
523.267	89.5
523.482	107.5
523.698	97.5
523.913	111.5
524.128	89.5
524.343	90.5
524.559	89.5
524.774	94.5
524.989	88.5
525.204	104.5
525.419	88.5
525.634	83.5
525.849	90.5
526.064	90.5
526.28	78.5
526.495	79.5
526.71	93.5
526.925	87.5
527.14	84.5
527.355	86.5
527.57	85.5
527.785	83.5
527.999	95.5
528.214	92.5
528.429	101.5
528.644	100.5
528.859	89.5
529.074	83.5
529.289	123.5
529.503	155.5
529.718	101.5
529.933	91.5
530.148	78.5
530.363	95.5
530.577	91.5
530.792	100.5
531.007	90.5
531.221	90.5
531.436	91.5
531.651	87.5
531.865	92.5
532.08	82.5
532.295	87.5
532.509	97.5
532.724	80.5
532.938	96.5
533.153	94.5
533.367	95.5
533.582	92.5
533.796	89.5
534.011	94.5
534.225	88.5
534.44	102.5
534.654	90.5
534.868	82.5
535.083	100.5
535.297	86.5
535.511	91.5
535.726	98.5
535.94	94.5
536.154	102.5
536.369	92.5
536.583	88.5
536.797	85.5
537.011	94.5
