Data from Uncirc_2000_H10_HRD10591_00096.txt Node
Date: Wed Jan 03 10:48:36 EST 2024
User: Yrep
Spectrometer: HR+D1059
Trigger mode: 1
Integration Time (sec): 1.000000E-1
Scans to average: 1
Electric dark correction enabled: true
Nonlinearity correction enabled: false
Boxcar width: 0
XAxis mode: Wavelengths
Number of Pixels in Spectrum: 2048
>>>>>Begin Spectral Data<<<<<
223.165	-18.94
223.4	-18.94
223.635	-18.94
223.869	-14.94
224.104	-15.94
224.338	1.06
224.573	-20.94
224.808	-8.94
225.042	-7.94
225.277	-2.94
225.511	-10.94
225.746	3.06
225.98	5.06
226.215	14.06
226.449	16.06
226.683	13.06
226.918	17.06
227.152	32.06
227.387	44.06
227.621	44.06
227.856	30.06
228.09	51.06
228.324	48.06
228.559	66.06
228.793	51.06
229.027	69.06
229.262	65.06
229.496	63.06
229.73	80.06
229.964	85.06
230.199	77.06
230.433	71.06
230.667	85.06
230.901	76.06
231.136	74.06
231.37	86.06
231.604	82.06
231.838	86.06
232.072	85.06
232.306	78.06
232.541	74.06
232.775	85.06
233.009	89.06
233.243	69.06
233.477	83.06
233.711	85.06
233.945	84.06
234.179	83.06
234.413	69.06
234.647	78.06
234.881	87.06
235.115	83.06
235.349	82.06
235.583	74.06
235.817	82.06
236.051	79.06
236.285	82.06
236.519	96.06
236.753	89.06
236.987	76.06
237.221	75.06
237.455	87.06
237.689	78.06
237.922	75.06
238.156	66.06
238.39	72.06
238.624	78.06
238.858	76.06
239.091	76.06
239.325	93.06
239.559	77.06
239.793	89.06
240.027	74.06
240.26	85.06
240.494	73.06
240.728	60.06
240.961	74.06
241.195	88.06
241.429	85.06
241.662	74.06
241.896	76.06
242.13	81.06
242.363	76.06
242.597	78.06
242.83	79.06
243.064	79.06
243.298	86.06
243.531	67.06
243.765	82.06
243.998	75.06
244.232	79.06
244.465	78.06
244.699	77.06
244.932	79.06
245.166	79.06
245.399	78.06
245.633	79.06
245.866	72.06
246.099	75.06
246.333	83.06
246.566	75.06
246.8	77.06
247.033	84.06
247.266	81.06
247.5	86.06
247.733	60.06
247.966	83.06
248.2	71.06
248.433	69.06
248.666	71.06
248.899	67.06
249.133	73.06
249.366	91.06
249.599	105.06
249.832	92.06
250.066	79.06
250.299	69.06
250.532	72.06
250.765	80.06
250.998	75.06
251.231	77.06
251.465	74.06
251.698	79.06
251.931	79.06
252.164	80.06
252.397	87.06
252.63	77.06
252.863	67.06
253.096	69.06
253.329	79.06
253.562	98.06
253.795	74.06
254.028	60.06
254.261	82.06
254.494	85.06
254.727	85.06
254.96	90.06
255.193	81.06
255.426	81.06
255.659	91.06
255.892	82.06
256.124	84.06
256.357	68.06
256.59	73.06
256.823	84.06
257.056	93.06
257.289	87.06
257.521	83.06
257.754	88.06
257.987	83.06
258.22	93.06
258.452	84.06
258.685	87.06
258.918	89.06
259.151	89.06
259.383	84.06
259.616	85.06
259.849	81.06
260.081	97.06
260.314	85.06
260.547	77.06
260.779	86.06
261.012	86.06
261.244	105.06
261.477	92.06
261.71	88.06
261.942	125.06
262.175	111.06
262.407	88.06
262.64	73.06
262.872	89.06
263.105	88.06
263.337	97.06
263.57	91.06
263.802	85.06
264.035	87.06
264.267	98.06
264.499	85.06
264.732	77.06
264.964	80.06
265.197	89.06
265.429	86.06
265.661	89.06
265.894	97.06
266.126	77.06
266.358	85.06
266.591	103.06
266.823	83.06
267.055	67.06
267.287	83.06
267.52	93.06
267.752	89.06
267.984	90.06
268.216	85.06
268.448	86.06
268.681	84.06
268.913	83.06
269.145	67.06
269.377	85.06
269.609	91.06
269.841	101.06
270.073	84.06
270.306	82.06
270.538	110.06
270.77	91.06
271.002	89.06
271.234	91.06
271.466	94.06
271.698	93.06
271.93	91.06
272.162	90.06
272.394	78.06
272.626	72.06
272.858	71.06
273.09	82.06
273.322	82.06
273.553	74.06
273.785	90.06
274.017	85.06
274.249	80.06
274.481	81.06
274.713	87.06
274.945	86.06
275.176	77.06
275.408	88.06
275.64	85.06
275.872	92.06
276.104	86.06
276.335	93.06
276.567	92.06
276.799	104.06
277.031	100.06
277.262	92.06
277.494	95.06
277.726	83.06
277.957	91.06
278.189	88.06
278.421	85.06
278.652	99.06
278.884	87.06
279.115	81.06
279.347	83.06
279.579	87.06
279.81	77.06
280.042	95.06
280.273	88.06
280.505	79.06
280.736	85.06
280.968	78.06
281.199	86.06
281.431	105.06
281.662	94.06
281.894	93.06
282.125	101.06
282.356	100.06
282.588	132.06
282.819	111.06
283.051	98.06
283.282	87.06
283.513	97.06
283.745	81.06
283.976	85.06
284.207	88.06
284.439	93.06
284.67	93.06
284.901	99.06
285.132	89.06
285.364	83.06
285.595	84.06
285.826	89.06
286.057	94.06
286.288	80.06
286.52	89.06
286.751	84.06
286.982	74.06
287.213	87.06
287.444	83.06
287.675	96.06
287.906	102.06
288.138	87.06
288.369	102.06
288.6	107.06
288.831	90.06
289.062	110.06
289.293	87.06
289.524	102.06
289.755	89.06
289.986	95.06
290.217	90.06
290.448	92.06
290.679	78.06
290.91	84.06
291.141	78.06
291.371	86.06
291.602	107.06
291.833	89.06
292.064	97.06
292.295	96.06
292.526	92.06
292.757	91.06
292.987	82.06
293.218	91.06
293.449	89.06
293.68	82.06
293.91	91.06
294.141	79.06
294.372	86.06
294.603	99.06
294.833	101.06
295.064	92.06
295.295	86.06
295.525	98.06
295.756	100.06
295.987	119.06
296.217	132.06
296.448	124.06
296.679	94.06
296.909	83.06
297.14	95.06
297.37	91.06
297.601	89.06
297.831	85.06
298.062	103.06
298.292	77.06
298.523	98.06
298.753	93.06
298.984	92.06
299.214	90.06
299.445	97.06
299.675	104.06
299.905	91.06
300.136	91.06
300.366	102.06
300.597	83.06
300.827	91.06
301.057	90.06
301.288	95.06
301.518	91.06
301.748	92.06
301.979	97.06
302.209	90.06
302.439	91.06
302.669	104.06
302.9	94.06
303.13	93.06
303.36	101.06
303.59	97.06
303.82	111.06
304.051	92.06
304.281	90.06
304.511	95.06
304.741	83.06
304.971	94.06
305.201	88.06
305.431	105.06
305.661	87.06
305.891	99.06
306.121	90.06
306.352	82.06
306.582	86.06
306.812	87.06
307.042	91.06
307.272	97.06
307.502	80.06
307.731	99.06
307.961	81.06
308.191	90.06
308.421	94.06
308.651	95.06
308.881	87.06
309.111	91.06
309.341	100.06
309.571	94.06
309.8	94.06
310.03	93.06
310.26	89.06
310.49	84.06
310.72	101.06
310.949	91.06
311.179	90.06
311.409	93.06
311.639	83.06
311.868	93.06
312.098	111.06
312.328	106.06
312.557	95.06
312.787	101.06
313.017	100.06
313.246	89.06
313.476	92.06
313.706	91.06
313.935	95.06
314.165	81.06
314.394	97.06
314.624	86.06
314.853	92.06
315.083	94.06
315.312	97.06
315.542	85.06
315.771	106.06
316.001	83.06
316.23	93.06
316.46	95.06
316.689	93.06
316.919	86.06
317.148	101.06
317.377	103.06
317.607	93.06
317.836	103.06
318.065	76.06
318.295	101.06
318.524	97.06
318.753	82.06
318.983	108.06
319.212	95.06
319.441	101.06
319.67	119.06
319.9	108.06
320.129	90.06
320.358	98.06
320.587	96.06
320.816	103.06
321.046	113.06
321.275	81.06
321.504	95.06
321.733	101.06
321.962	102.06
322.191	92.06
322.42	108.06
322.649	103.06
322.878	99.06
323.108	117.06
323.337	125.06
323.566	122.06
323.795	136.06
324.024	195.06
324.253	373.06
324.482	763.06
324.71	1537.06
324.939	2035.06
325.168	746.06
325.397	243.06
325.626	137.06
325.855	128.06
326.084	133.06
326.313	119.06
326.542	144.06
326.77	232.06
326.999	422.06
327.228	867.06
327.457	1584.06
327.686	1273.06
327.914	345.06
328.143	183.06
328.372	117.06
328.6	116.06
328.829	121.06
329.058	119.06
329.287	112.06
329.515	120.06
329.744	95.06
329.972	92.06
330.201	96.06
330.43	106.06
330.658	117.06
330.887	143.06
331.115	115.06
331.344	106.06
331.572	107.06
331.801	106.06
332.03	104.06
332.258	96.06
332.486	94.06
332.715	99.06
332.943	90.06
333.172	80.06
333.4	97.06
333.629	100.06
333.857	107.06
334.085	92.06
334.314	91.06
334.542	85.06
334.771	98.06
334.999	99.06
335.227	100.06
335.455	98.06
335.684	89.06
335.912	97.06
336.14	101.06
336.369	89.06
336.597	96.06
336.825	97.06
337.053	93.06
337.281	99.06
337.51	97.06
337.738	93.06
337.966	95.06
338.194	98.06
338.422	100.06
338.65	99.06
338.878	100.06
339.106	94.06
339.334	93.06
339.562	89.06
339.79	95.06
340.018	84.06
340.246	106.06
340.474	86.06
340.702	97.06
340.93	98.06
341.158	93.06
341.386	87.06
341.614	85.06
341.842	104.06
342.07	94.06
342.298	94.06
342.526	83.06
342.754	84.06
342.981	92.06
343.209	97.06
343.437	93.06
343.665	85.06
343.893	81.06
344.12	105.06
344.348	91.06
344.576	93.06
344.804	94.06
345.031	101.06
345.259	95.06
345.487	89.06
345.714	105.06
345.942	91.06
346.17	81.06
346.397	99.06
346.625	109.06
346.853	94.06
347.08	86.06
347.308	94.06
347.535	87.06
347.763	107.06
347.99	88.06
348.218	102.06
348.445	101.06
348.673	92.06
348.9	88.06
349.128	96.06
349.355	84.06
349.583	90.06
349.81	84.06
350.037	93.06
350.265	103.06
350.492	101.06
350.72	98.06
350.947	92.06
351.174	105.06
351.402	113.06
351.629	100.06
351.856	105.06
352.083	100.06
352.311	88.06
352.538	101.06
352.765	99.06
352.992	113.06
353.22	101.06
353.447	101.06
353.674	91.06
353.901	99.06
354.128	107.06
354.355	110.06
354.583	100.06
354.81	107.06
355.037	107.06
355.264	92.06
355.491	99.06
355.718	93.06
355.945	102.06
356.172	99.06
356.399	87.06
356.626	102.06
356.853	89.06
357.08	91.06
357.307	94.06
357.534	100.06
357.761	65.06
357.988	101.06
358.215	102.06
358.441	95.06
358.668	85.06
358.895	91.06
359.122	81.06
359.349	79.06
359.576	88.06
359.802	102.06
360.029	127.06
360.256	116.06
360.483	91.06
360.709	94.06
360.936	105.06
361.163	99.06
361.39	90.06
361.616	100.06
361.843	93.06
362.07	92.06
362.296	91.06
362.523	88.06
362.749	88.06
362.976	86.06
363.203	81.06
363.429	71.06
363.656	90.06
363.882	88.06
364.109	70.06
364.335	97.06
364.562	92.06
364.788	104.06
365.015	105.06
365.241	93.06
365.468	106.06
365.694	113.06
365.92	101.06
366.147	87.06
366.373	80.06
366.599	80.06
366.826	81.06
367.052	98.06
367.278	86.06
367.505	96.06
367.731	88.06
367.957	97.06
368.184	85.06
368.41	98.06
368.636	91.06
368.862	106.06
369.089	100.06
369.315	97.06
369.541	106.06
369.767	93.06
369.993	92.06
370.219	79.06
370.445	111.06
370.672	98.06
370.898	107.06
371.124	91.06
371.35	89.06
371.576	94.06
371.802	83.06
372.028	88.06
372.254	82.06
372.48	92.06
372.706	97.06
372.932	78.06
373.158	98.06
373.384	92.06
373.61	85.06
373.835	89.06
374.061	92.06
374.287	92.06
374.513	95.06
374.739	75.06
374.965	90.06
375.191	104.06
375.416	97.06
375.642	99.06
375.868	98.06
376.094	99.06
376.319	92.06
376.545	96.06
376.771	92.06
376.997	89.06
377.222	85.06
377.448	98.06
377.674	98.06
377.899	84.06
378.125	82.06
378.35	95.06
378.576	94.06
378.802	95.06
379.027	97.06
379.253	107.06
379.478	90.06
379.704	92.06
379.929	91.06
380.155	99.06
380.38	93.06
380.606	86.06
380.831	95.06
381.057	101.06
381.282	92.06
381.507	102.06
381.733	98.06
381.958	91.06
382.184	113.06
382.409	119.06
382.634	102.06
382.86	98.06
383.085	112.06
383.31	109.06
383.535	94.06
383.761	95.06
383.986	100.06
384.211	99.06
384.436	99.06
384.662	92.06
384.887	97.06
385.112	106.06
385.337	95.06
385.562	107.06
385.787	109.06
386.013	123.06
386.238	108.06
386.463	94.06
386.688	102.06
386.913	108.06
387.138	86.06
387.363	100.06
387.588	98.06
387.813	105.06
388.038	83.06
388.263	97.06
388.488	96.06
388.713	97.06
388.938	101.06
389.163	102.06
389.387	105.06
389.612	96.06
389.837	93.06
390.062	98.06
390.287	89.06
390.512	89.06
390.736	101.06
390.961	86.06
391.186	83.06
391.411	101.06
391.636	78.06
391.86	79.06
392.085	88.06
392.31	82.06
392.534	90.06
392.759	78.06
392.984	94.06
393.208	103.06
393.433	84.06
393.658	67.06
393.882	86.06
394.107	85.06
394.331	89.06
394.556	82.06
394.78	87.06
395.005	90.06
395.229	90.06
395.454	85.06
395.678	78.06
395.903	92.06
396.127	87.06
396.352	100.06
396.576	87.06
396.801	89.06
397.025	89.06
397.249	93.06
397.474	90.06
397.698	86.06
397.922	102.06
398.147	85.06
398.371	87.06
398.595	97.06
398.82	111.06
399.044	73.06
399.268	74.06
399.492	97.06
399.717	92.06
399.941	94.06
400.165	100.06
400.389	86.06
400.613	93.06
400.837	83.06
401.062	98.06
401.286	90.06
401.51	95.06
401.734	110.06
401.958	97.06
402.182	131.06
402.406	137.06
402.63	119.06
402.854	104.06
403.078	98.06
403.302	91.06
403.526	86.06
403.75	86.06
403.974	93.06
404.198	88.06
404.422	79.06
404.645	85.06
404.869	94.06
405.093	90.06
405.317	89.06
405.541	95.06
405.765	94.06
405.988	123.06
406.212	156.06
406.436	215.06
406.66	133.06
406.883	98.06
407.107	82.06
407.331	87.06
407.555	97.06
407.778	91.06
408.002	92.06
408.226	83.06
408.449	95.06
408.673	96.06
408.896	78.06
409.12	90.06
409.344	83.06
409.567	105.06
409.791	88.06
410.014	93.06
410.238	76.06
410.461	93.06
410.685	91.06
410.908	89.06
411.132	105.06
411.355	100.06
411.578	77.06
411.802	79.06
412.025	82.06
412.249	87.06
412.472	88.06
412.695	88.06
412.919	91.06
413.142	95.06
413.365	90.06
413.589	87.06
413.812	81.06
414.035	93.06
414.258	83.06
414.482	106.06
414.705	81.06
414.928	79.06
415.151	91.06
415.374	95.06
415.597	87.06
415.821	85.06
416.044	79.06
416.267	88.06
416.49	87.06
416.713	102.06
416.936	86.06
417.159	87.06
417.382	91.06
417.605	86.06
417.828	82.06
418.051	95.06
418.274	81.06
418.497	75.06
418.72	92.06
418.943	94.06
419.166	95.06
419.389	96.06
419.611	83.06
419.834	87.06
420.057	90.06
420.28	94.06
420.503	86.06
420.726	76.06
420.948	85.06
421.171	78.06
421.394	88.06
421.617	107.06
421.839	90.06
422.062	89.06
422.285	90.06
422.507	96.06
422.73	91.06
422.953	96.06
423.175	79.06
423.398	94.06
423.621	93.06
423.843	93.06
424.066	93.06
424.288	92.06
424.511	94.06
424.733	95.06
424.956	97.06
425.178	97.06
425.401	97.06
425.623	91.06
425.846	87.06
426.068	99.06
426.291	95.06
426.513	104.06
426.735	88.06
426.958	84.06
427.18	86.06
427.402	121.06
427.625	133.06
427.847	108.06
428.069	101.06
428.292	86.06
428.514	75.06
428.736	85.06
428.958	79.06
429.181	89.06
429.403	87.06
429.625	86.06
429.847	86.06
430.069	96.06
430.292	74.06
430.514	85.06
430.736	91.06
430.958	85.06
431.18	89.06
431.402	87.06
431.624	86.06
431.846	75.06
432.068	79.06
432.29	82.06
432.512	82.06
432.734	91.06
432.956	87.06
433.178	94.06
433.4	94.06
433.622	89.06
433.844	93.06
434.066	96.06
434.287	90.06
434.509	83.06
434.731	92.06
434.953	81.06
435.175	90.06
435.397	94.06
435.618	89.06
435.84	94.06
436.062	105.06
436.284	108.06
436.505	100.06
436.727	95.06
436.949	98.06
437.17	91.06
437.392	97.06
437.614	95.06
437.835	103.06
438.057	110.06
438.278	117.06
438.5	103.06
438.721	112.06
438.943	93.06
439.165	83.06
439.386	93.06
439.608	95.06
439.829	108.06
440.05	109.06
440.272	130.06
440.493	89.06
440.715	82.06
440.936	94.06
441.158	95.06
441.379	87.06
441.6	93.06
441.822	91.06
442.043	79.06
442.264	119.06
442.486	93.06
442.707	99.06
442.928	110.06
443.149	125.06
443.371	118.06
443.592	99.06
443.813	101.06
444.034	110.06
444.255	89.06
444.476	91.06
444.698	82.06
444.919	93.06
445.14	116.06
445.361	117.06
445.582	113.06
445.803	114.06
446.024	132.06
446.245	122.06
446.466	91.06
446.687	94.06
446.908	80.06
447.129	95.06
447.35	98.06
447.571	91.06
447.792	98.06
448.013	109.06
448.234	109.06
448.455	106.06
448.675	88.06
448.896	106.06
449.117	99.06
449.338	102.06
449.559	118.06
449.779	120.06
450	99.06
450.221	77.06
450.442	93.06
450.662	99.06
450.883	102.06
451.104	131.06
451.324	107.06
451.545	92.06
451.766	84.06
451.986	94.06
452.207	89.06
452.428	95.06
452.648	112.06
452.869	113.06
453.089	116.06
453.31	103.06
453.53	91.06
453.751	83.06
453.971	91.06
454.192	110.06
454.412	92.06
454.633	90.06
454.853	93.06
455.073	87.06
455.294	98.06
455.514	81.06
455.734	96.06
455.955	83.06
456.175	86.06
456.395	93.06
456.616	87.06
456.836	79.06
457.056	82.06
457.276	94.06
457.497	87.06
457.717	90.06
457.937	82.06
458.157	93.06
458.377	81.06
458.598	107.06
458.818	144.06
459.038	159.06
459.258	119.06
459.478	80.06
459.698	78.06
459.918	91.06
460.138	74.06
460.358	84.06
460.578	92.06
460.798	72.06
461.018	93.06
461.238	75.06
461.458	73.06
461.678	86.06
461.898	86.06
462.118	76.06
462.338	104.06
462.558	84.06
462.777	92.06
462.997	93.06
463.217	86.06
463.437	87.06
463.657	87.06
463.876	93.06
464.096	91.06
464.316	105.06
464.536	100.06
464.755	97.06
464.975	110.06
465.195	148.06
465.414	151.06
465.634	98.06
465.854	91.06
466.073	82.06
466.293	79.06
466.512	87.06
466.732	87.06
466.951	87.06
467.171	90.06
467.391	106.06
467.61	91.06
467.829	99.06
468.049	87.06
468.268	85.06
468.488	84.06
468.707	76.06
468.927	95.06
469.146	92.06
469.365	84.06
469.585	96.06
469.804	109.06
470.023	87.06
470.243	90.06
470.462	93.06
470.681	107.06
470.901	97.06
471.12	86.06
471.339	73.06
471.558	78.06
471.777	75.06
471.997	89.06
472.216	88.06
472.435	93.06
472.654	93.06
472.873	90.06
473.092	88.06
473.311	91.06
473.53	83.06
473.749	87.06
473.968	112.06
474.187	97.06
474.406	94.06
474.625	90.06
474.844	86.06
475.063	101.06
475.282	101.06
475.501	104.06
475.72	86.06
475.939	67.06
476.158	87.06
476.377	96.06
476.596	93.06
476.814	94.06
477.033	101.06
477.252	100.06
477.471	80.06
477.69	85.06
477.908	98.06
478.127	76.06
478.346	86.06
478.564	112.06
478.783	102.06
479.002	96.06
479.22	85.06
479.439	81.06
479.658	107.06
479.876	93.06
480.095	87.06
480.313	74.06
480.532	87.06
480.751	89.06
480.969	79.06
481.188	85.06
481.406	93.06
481.624	98.06
481.843	106.06
482.061	99.06
482.28	96.06
482.498	93.06
482.717	87.06
482.935	84.06
483.153	87.06
483.372	91.06
483.59	90.06
483.808	91.06
484.027	87.06
484.245	94.06
484.463	79.06
484.681	104.06
484.9	106.06
485.118	97.06
485.336	101.06
485.554	93.06
485.772	108.06
485.99	93.06
486.209	104.06
486.427	110.06
486.645	121.06
486.863	109.06
487.081	100.06
487.299	105.06
487.517	99.06
487.735	102.06
487.953	83.06
488.171	93.06
488.389	96.06
488.607	91.06
488.825	89.06
489.043	77.06
489.261	94.06
489.479	82.06
489.696	81.06
489.914	94.06
490.132	86.06
490.35	94.06
490.568	90.06
490.786	84.06
491.003	99.06
491.221	90.06
491.439	81.06
491.657	95.06
491.874	100.06
492.092	88.06
492.31	92.06
492.527	101.06
492.745	81.06
492.963	87.06
493.18	79.06
493.398	91.06
493.615	91.06
493.833	101.06
494.05	85.06
494.268	91.06
494.485	95.06
494.703	88.06
494.92	81.06
495.138	86.06
495.355	101.06
495.573	94.06
495.79	94.06
496.008	84.06
496.225	79.06
496.442	97.06
496.66	94.06
496.877	97.06
497.094	94.06
497.312	82.06
497.529	91.06
497.746	88.06
497.963	97.06
498.181	101.06
498.398	105.06
498.615	113.06
498.832	106.06
499.049	86.06
499.267	95.06
499.484	81.06
499.701	99.06
499.918	98.06
500.135	86.06
500.352	94.06
500.569	77.06
500.786	102.06
501.003	85.06
501.22	92.06
501.437	91.06
501.654	108.06
501.871	94.06
502.088	95.06
502.305	108.06
502.522	102.06
502.739	78.06
502.956	87.06
503.172	85.06
503.389	96.06
503.606	97.06
503.823	95.06
504.04	103.06
504.256	89.06
504.473	79.06
504.69	89.06
504.907	104.06
505.123	91.06
505.34	90.06
505.557	81.06
505.773	93.06
505.99	83.06
506.207	88.06
506.423	91.06
506.64	88.06
506.856	91.06
507.073	99.06
507.289	100.06
507.506	103.06
507.722	111.06
507.939	105.06
508.155	91.06
508.372	80.06
508.588	92.06
508.805	89.06
509.021	102.06
509.238	110.06
509.454	109.06
509.67	123.06
509.887	108.06
510.103	122.06
510.319	211.06
510.536	725.06
510.752	2289.06
510.968	651.06
511.184	146.06
511.401	122.06
511.617	91.06
511.833	88.06
512.049	106.06
512.265	94.06
512.481	99.06
512.698	75.06
512.914	87.06
513.13	90.06
513.346	94.06
513.562	95.06
513.778	92.06
513.994	91.06
514.21	90.06
514.426	121.06
514.642	131.06
514.858	120.06
515.074	158.06
515.29	404.06
515.506	1315.06
515.721	504.06
