Data from Uncirc_2000_H10_HRD10591_00080.txt Node
Date: Wed Jan 03 10:48:33 EST 2024
User: Yrep
Spectrometer: HR+D1059
Trigger mode: 1
Integration Time (sec): 1.000000E-1
Scans to average: 1
Electric dark correction enabled: true
Nonlinearity correction enabled: false
Boxcar width: 0
XAxis mode: Wavelengths
Number of Pixels in Spectrum: 2048
>>>>>Begin Spectral Data<<<<<
223.165	-25.75
223.4	-25.75
223.635	-25.75
223.869	-22.75
224.104	-19.75
224.338	-20.75
224.573	-9.75
224.808	-8.75
225.042	-12.75
225.277	-14.75
225.511	-4.75
225.746	-2.75
225.98	15.25
226.215	18.25
226.449	14.25
226.683	21.25
226.918	41.25
227.152	32.25
227.387	32.25
227.621	52.25
227.856	58.25
228.09	54.25
228.324	53.25
228.559	58.25
228.793	74.25
229.027	79.25
229.262	58.25
229.496	74.25
229.73	96.25
229.964	96.25
230.199	67.25
230.433	67.25
230.667	85.25
230.901	87.25
231.136	77.25
231.37	79.25
231.604	76.25
231.838	74.25
232.072	73.25
232.306	84.25
232.541	85.25
232.775	91.25
233.009	77.25
233.243	89.25
233.477	82.25
233.711	82.25
233.945	82.25
234.179	87.25
234.413	92.25
234.647	70.25
234.881	91.25
235.115	75.25
235.349	77.25
235.583	68.25
235.817	72.25
236.051	72.25
236.285	87.25
236.519	89.25
236.753	66.25
236.987	88.25
237.221	91.25
237.455	82.25
237.689	84.25
237.922	80.25
238.156	79.25
238.39	87.25
238.624	79.25
238.858	66.25
239.091	68.25
239.325	72.25
239.559	83.25
239.793	90.25
240.027	74.25
240.26	71.25
240.494	92.25
240.728	78.25
240.961	79.25
241.195	80.25
241.429	78.25
241.662	70.25
241.896	76.25
242.13	75.25
242.363	74.25
242.597	79.25
242.83	101.25
243.064	62.25
243.298	78.25
243.531	79.25
243.765	81.25
243.998	75.25
244.232	91.25
244.465	93.25
244.699	74.25
244.932	78.25
245.166	88.25
245.399	80.25
245.633	90.25
245.866	81.25
246.099	96.25
246.333	82.25
246.566	70.25
246.8	79.25
247.033	85.25
247.266	73.25
247.5	76.25
247.733	90.25
247.966	71.25
248.2	96.25
248.433	95.25
248.666	75.25
248.899	83.25
249.133	87.25
249.366	89.25
249.599	96.25
249.832	70.25
250.066	91.25
250.299	80.25
250.532	67.25
250.765	75.25
250.998	80.25
251.231	89.25
251.465	89.25
251.698	80.25
251.931	71.25
252.164	61.25
252.397	77.25
252.63	94.25
252.863	78.25
253.096	79.25
253.329	79.25
253.562	90.25
253.795	87.25
254.028	94.25
254.261	96.25
254.494	88.25
254.727	85.25
254.96	79.25
255.193	85.25
255.426	85.25
255.659	82.25
255.892	67.25
256.124	83.25
256.357	89.25
256.59	81.25
256.823	88.25
257.056	96.25
257.289	69.25
257.521	82.25
257.754	73.25
257.987	98.25
258.22	77.25
258.452	85.25
258.685	88.25
258.918	64.25
259.151	80.25
259.383	74.25
259.616	82.25
259.849	75.25
260.081	85.25
260.314	81.25
260.547	84.25
260.779	89.25
261.012	84.25
261.244	83.25
261.477	86.25
261.71	91.25
261.942	106.25
262.175	110.25
262.407	110.25
262.64	83.25
262.872	88.25
263.105	86.25
263.337	101.25
263.57	104.25
263.802	89.25
264.035	87.25
264.267	99.25
264.499	87.25
264.732	88.25
264.964	86.25
265.197	88.25
265.429	93.25
265.661	88.25
265.894	86.25
266.126	83.25
266.358	78.25
266.591	81.25
266.823	93.25
267.055	91.25
267.287	73.25
267.52	83.25
267.752	81.25
267.984	81.25
268.216	94.25
268.448	90.25
268.681	78.25
268.913	91.25
269.145	88.25
269.377	82.25
269.609	88.25
269.841	74.25
270.073	66.25
270.306	89.25
270.538	80.25
270.77	83.25
271.002	89.25
271.234	87.25
271.466	90.25
271.698	86.25
271.93	95.25
272.162	92.25
272.394	94.25
272.626	90.25
272.858	83.25
273.09	83.25
273.322	75.25
273.553	91.25
273.785	92.25
274.017	82.25
274.249	85.25
274.481	86.25
274.713	92.25
274.945	88.25
275.176	95.25
275.408	86.25
275.64	100.25
275.872	99.25
276.104	84.25
276.335	91.25
276.567	92.25
276.799	114.25
277.031	105.25
277.262	90.25
277.494	95.25
277.726	90.25
277.957	93.25
278.189	92.25
278.421	104.25
278.652	87.25
278.884	106.25
279.115	104.25
279.347	84.25
279.579	83.25
279.81	83.25
280.042	83.25
280.273	83.25
280.505	99.25
280.736	98.25
280.968	107.25
281.199	101.25
281.431	100.25
281.662	96.25
281.894	93.25
282.125	99.25
282.356	123.25
282.588	137.25
282.819	106.25
283.051	89.25
283.282	85.25
283.513	104.25
283.745	88.25
283.976	85.25
284.207	78.25
284.439	79.25
284.67	99.25
284.901	80.25
285.132	94.25
285.364	90.25
285.595	80.25
285.826	88.25
286.057	97.25
286.288	84.25
286.52	94.25
286.751	79.25
286.982	83.25
287.213	100.25
287.444	83.25
287.675	90.25
287.906	80.25
288.138	96.25
288.369	93.25
288.6	88.25
288.831	79.25
289.062	93.25
289.293	97.25
289.524	92.25
289.755	79.25
289.986	82.25
290.217	83.25
290.448	83.25
290.679	85.25
290.91	93.25
291.141	109.25
291.371	85.25
291.602	101.25
291.833	85.25
292.064	75.25
292.295	84.25
292.526	101.25
292.757	85.25
292.987	96.25
293.218	87.25
293.449	86.25
293.68	97.25
293.91	96.25
294.141	93.25
294.372	90.25
294.603	93.25
294.833	90.25
295.064	84.25
295.295	78.25
295.525	99.25
295.756	95.25
295.987	119.25
296.217	137.25
296.448	104.25
296.679	86.25
296.909	79.25
297.14	101.25
297.37	97.25
297.601	80.25
297.831	90.25
298.062	90.25
298.292	79.25
298.523	84.25
298.753	91.25
298.984	97.25
299.214	94.25
299.445	82.25
299.675	90.25
299.905	86.25
300.136	97.25
300.366	92.25
300.597	78.25
300.827	94.25
301.057	99.25
301.288	105.25
301.518	76.25
301.748	106.25
301.979	115.25
302.209	99.25
302.439	89.25
302.669	79.25
302.9	102.25
303.13	87.25
303.36	100.25
303.59	93.25
303.82	108.25
304.051	104.25
304.281	102.25
304.511	87.25
304.741	97.25
304.971	91.25
305.201	86.25
305.431	85.25
305.661	79.25
305.891	95.25
306.121	88.25
306.352	109.25
306.582	107.25
306.812	107.25
307.042	92.25
307.272	91.25
307.502	99.25
307.731	94.25
307.961	78.25
308.191	73.25
308.421	95.25
308.651	97.25
308.881	100.25
309.111	95.25
309.341	112.25
309.571	100.25
309.8	95.25
310.03	95.25
310.26	88.25
310.49	97.25
310.72	91.25
310.949	90.25
311.179	95.25
311.409	82.25
311.639	102.25
311.868	88.25
312.098	95.25
312.328	92.25
312.557	107.25
312.787	100.25
313.017	104.25
313.246	89.25
313.476	98.25
313.706	92.25
313.935	87.25
314.165	109.25
314.394	104.25
314.624	94.25
314.853	97.25
315.083	102.25
315.312	95.25
315.542	80.25
315.771	91.25
316.001	89.25
316.23	93.25
316.46	80.25
316.689	95.25
316.919	93.25
317.148	96.25
317.377	92.25
317.607	104.25
317.836	92.25
318.065	96.25
318.295	92.25
318.524	81.25
318.753	99.25
318.983	90.25
319.212	100.25
319.441	107.25
319.67	108.25
319.9	96.25
320.129	93.25
320.358	94.25
320.587	106.25
320.816	94.25
321.046	99.25
321.275	102.25
321.504	98.25
321.733	89.25
321.962	107.25
322.191	95.25
322.42	122.25
322.649	116.25
322.878	123.25
323.108	104.25
323.337	134.25
323.566	135.25
323.795	153.25
324.024	224.25
324.253	414.25
324.482	876.25
324.71	1850.25
324.939	2433.25
325.168	864.25
325.397	259.25
325.626	154.25
325.855	136.25
326.084	126.25
326.313	138.25
326.542	156.25
326.77	245.25
326.999	491.25
327.228	1032.25
327.457	1825.25
327.686	1444.25
327.914	388.25
328.143	196.25
328.372	153.25
328.6	127.25
328.829	109.25
329.058	127.25
329.287	131.25
329.515	107.25
329.744	100.25
329.972	106.25
330.201	102.25
330.43	118.25
330.658	123.25
330.887	120.25
331.115	118.25
331.344	105.25
331.572	115.25
331.801	97.25
332.03	99.25
332.258	104.25
332.486	90.25
332.715	90.25
332.943	80.25
333.172	88.25
333.4	105.25
333.629	100.25
333.857	109.25
334.085	98.25
334.314	96.25
334.542	106.25
334.771	94.25
334.999	105.25
335.227	97.25
335.455	91.25
335.684	94.25
335.912	90.25
336.14	84.25
336.369	101.25
336.597	103.25
336.825	82.25
337.053	113.25
337.281	90.25
337.51	101.25
337.738	100.25
337.966	94.25
338.194	98.25
338.422	105.25
338.65	100.25
338.878	88.25
339.106	92.25
339.334	91.25
339.562	95.25
339.79	93.25
340.018	86.25
340.246	105.25
340.474	103.25
340.702	93.25
340.93	96.25
341.158	108.25
341.386	110.25
341.614	88.25
341.842	86.25
342.07	90.25
342.298	91.25
342.526	84.25
342.754	95.25
342.981	80.25
343.209	90.25
343.437	100.25
343.665	95.25
343.893	88.25
344.12	94.25
344.348	95.25
344.576	85.25
344.804	104.25
345.031	94.25
345.259	109.25
345.487	91.25
345.714	106.25
345.942	94.25
346.17	90.25
346.397	102.25
346.625	102.25
346.853	83.25
347.08	92.25
347.308	93.25
347.535	108.25
347.763	91.25
347.99	96.25
348.218	99.25
348.445	111.25
348.673	98.25
348.9	95.25
349.128	94.25
349.355	65.25
349.583	107.25
349.81	90.25
350.037	89.25
350.265	97.25
350.492	104.25
350.72	108.25
350.947	99.25
351.174	94.25
351.402	112.25
351.629	86.25
351.856	94.25
352.083	112.25
352.311	106.25
352.538	112.25
352.765	98.25
352.992	126.25
353.22	122.25
353.447	86.25
353.674	105.25
353.901	103.25
354.128	96.25
354.355	113.25
354.583	103.25
354.81	106.25
355.037	93.25
355.264	101.25
355.491	99.25
355.718	94.25
355.945	84.25
356.172	81.25
356.399	106.25
356.626	101.25
356.853	86.25
357.08	89.25
357.307	89.25
357.534	83.25
357.761	100.25
357.988	99.25
358.215	94.25
358.441	97.25
358.668	94.25
358.895	92.25
359.122	104.25
359.349	94.25
359.576	93.25
359.802	96.25
360.029	117.25
360.256	105.25
360.483	96.25
360.709	89.25
360.936	96.25
361.163	93.25
361.39	94.25
361.616	105.25
361.843	89.25
362.07	107.25
362.296	93.25
362.523	83.25
362.749	94.25
362.976	87.25
363.203	100.25
363.429	100.25
363.656	102.25
363.882	94.25
364.109	96.25
364.335	102.25
364.562	106.25
364.788	94.25
365.015	102.25
365.241	109.25
365.468	109.25
365.694	117.25
365.92	97.25
366.147	83.25
366.373	93.25
366.599	82.25
366.826	95.25
367.052	95.25
367.278	96.25
367.505	83.25
367.731	103.25
367.957	91.25
368.184	99.25
368.41	93.25
368.636	117.25
368.862	122.25
369.089	118.25
369.315	82.25
369.541	93.25
369.767	104.25
369.993	92.25
370.219	97.25
370.445	99.25
370.672	85.25
370.898	81.25
371.124	96.25
371.35	87.25
371.576	73.25
371.802	98.25
372.028	94.25
372.254	86.25
372.48	91.25
372.706	93.25
372.932	91.25
373.158	76.25
373.384	86.25
373.61	79.25
373.835	70.25
374.061	102.25
374.287	96.25
374.513	91.25
374.739	107.25
374.965	87.25
375.191	98.25
375.416	84.25
375.642	87.25
375.868	86.25
376.094	85.25
376.319	86.25
376.545	94.25
376.771	94.25
376.997	93.25
377.222	88.25
377.448	80.25
377.674	105.25
377.899	105.25
378.125	86.25
378.35	75.25
378.576	89.25
378.802	95.25
379.027	88.25
379.253	99.25
379.478	96.25
379.704	94.25
379.929	87.25
380.155	82.25
380.38	99.25
380.606	88.25
380.831	92.25
381.057	90.25
381.282	95.25
381.507	102.25
381.733	103.25
381.958	105.25
382.184	109.25
382.409	90.25
382.634	87.25
382.86	109.25
383.085	92.25
383.31	95.25
383.535	107.25
383.761	96.25
383.986	96.25
384.211	87.25
384.436	95.25
384.662	100.25
384.887	92.25
385.112	96.25
385.337	86.25
385.562	106.25
385.787	101.25
386.013	101.25
386.238	101.25
386.463	106.25
386.688	100.25
386.913	89.25
387.138	99.25
387.363	92.25
387.588	116.25
387.813	106.25
388.038	92.25
388.263	110.25
388.488	98.25
388.713	96.25
388.938	101.25
389.163	117.25
389.387	96.25
389.612	96.25
389.837	87.25
390.062	99.25
390.287	76.25
390.512	86.25
390.736	90.25
390.961	91.25
391.186	93.25
391.411	91.25
391.636	91.25
391.86	85.25
392.085	83.25
392.31	79.25
392.534	83.25
392.759	87.25
392.984	99.25
393.208	83.25
393.433	78.25
393.658	87.25
393.882	79.25
394.107	75.25
394.331	95.25
394.556	100.25
394.78	93.25
395.005	94.25
395.229	84.25
395.454	98.25
395.678	89.25
395.903	87.25
396.127	92.25
396.352	103.25
396.576	96.25
396.801	96.25
397.025	76.25
397.249	84.25
397.474	93.25
397.698	91.25
397.922	93.25
398.147	94.25
398.371	88.25
398.595	102.25
398.82	86.25
399.044	78.25
399.268	78.25
399.492	88.25
399.717	99.25
399.941	82.25
400.165	103.25
400.389	92.25
400.613	81.25
400.837	106.25
401.062	85.25
401.286	88.25
401.51	94.25
401.734	102.25
401.958	110.25
402.182	133.25
402.406	164.25
402.63	125.25
402.854	104.25
403.078	87.25
403.302	102.25
403.526	103.25
403.75	88.25
403.974	78.25
404.198	93.25
404.422	90.25
404.645	86.25
404.869	87.25
405.093	99.25
405.317	100.25
405.541	91.25
405.765	96.25
405.988	115.25
406.212	190.25
406.436	239.25
406.66	147.25
406.883	91.25
407.107	102.25
407.331	100.25
407.555	103.25
407.778	98.25
408.002	93.25
408.226	90.25
408.449	86.25
408.673	89.25
408.896	92.25
409.12	92.25
409.344	88.25
409.567	93.25
409.791	103.25
410.014	94.25
410.238	86.25
410.461	83.25
410.685	91.25
410.908	107.25
411.132	99.25
411.355	110.25
411.578	107.25
411.802	98.25
412.025	81.25
412.249	87.25
412.472	92.25
412.695	100.25
412.919	82.25
413.142	86.25
413.365	90.25
413.589	78.25
413.812	100.25
414.035	83.25
414.258	87.25
414.482	91.25
414.705	99.25
414.928	86.25
415.151	99.25
415.374	94.25
415.597	86.25
415.821	89.25
416.044	106.25
416.267	94.25
416.49	66.25
416.713	91.25
416.936	72.25
417.159	88.25
417.382	105.25
417.605	79.25
417.828	81.25
418.051	98.25
418.274	88.25
418.497	82.25
418.72	86.25
418.943	86.25
419.166	95.25
419.389	83.25
419.611	93.25
419.834	96.25
420.057	78.25
420.28	94.25
420.503	81.25
420.726	95.25
420.948	83.25
421.171	106.25
421.394	88.25
421.617	103.25
421.839	87.25
422.062	92.25
422.285	99.25
422.507	106.25
422.73	110.25
422.953	94.25
423.175	93.25
423.398	86.25
423.621	87.25
423.843	87.25
424.066	92.25
424.288	83.25
424.511	95.25
424.733	79.25
424.956	106.25
425.178	106.25
425.401	93.25
425.623	94.25
425.846	95.25
426.068	88.25
426.291	88.25
426.513	85.25
426.735	94.25
426.958	86.25
427.18	107.25
427.402	144.25
427.625	171.25
427.847	120.25
428.069	88.25
428.292	96.25
428.514	85.25
428.736	86.25
428.958	94.25
429.181	84.25
429.403	98.25
429.625	87.25
429.847	86.25
430.069	91.25
430.292	101.25
430.514	94.25
430.736	86.25
430.958	90.25
431.18	85.25
431.402	88.25
431.624	80.25
431.846	78.25
432.068	68.25
432.29	77.25
432.512	96.25
432.734	90.25
432.956	91.25
433.178	104.25
433.4	101.25
433.622	97.25
433.844	100.25
434.066	99.25
434.287	80.25
434.509	94.25
434.731	85.25
434.953	92.25
435.175	87.25
435.397	91.25
435.618	83.25
435.84	103.25
436.062	122.25
436.284	130.25
436.505	95.25
436.727	98.25
436.949	90.25
437.17	101.25
437.392	97.25
437.614	93.25
437.835	101.25
438.057	123.25
438.278	113.25
438.5	109.25
438.721	112.25
438.943	106.25
439.165	110.25
439.386	92.25
439.608	103.25
439.829	95.25
440.05	114.25
440.272	142.25
440.493	100.25
440.715	92.25
440.936	99.25
441.158	78.25
441.379	83.25
441.6	102.25
441.822	103.25
442.043	98.25
442.264	107.25
442.486	100.25
442.707	107.25
442.928	111.25
443.149	127.25
443.371	122.25
443.592	102.25
443.813	96.25
444.034	106.25
444.255	94.25
444.476	99.25
444.698	86.25
444.919	89.25
445.14	126.25
445.361	114.25
445.582	110.25
445.803	127.25
446.024	133.25
446.245	130.25
446.466	116.25
446.687	82.25
446.908	84.25
447.129	93.25
447.35	70.25
447.571	100.25
447.792	80.25
448.013	100.25
448.234	108.25
448.455	99.25
448.675	106.25
448.896	115.25
449.117	102.25
449.338	95.25
449.559	120.25
449.779	140.25
450	108.25
450.221	93.25
450.442	106.25
450.662	94.25
450.883	106.25
451.104	122.25
451.324	91.25
451.545	83.25
451.766	95.25
451.986	99.25
452.207	93.25
452.428	91.25
452.648	107.25
452.869	91.25
453.089	119.25
453.31	119.25
453.53	88.25
453.751	92.25
453.971	117.25
454.192	108.25
454.412	86.25
454.633	86.25
454.853	86.25
455.073	92.25
455.294	111.25
455.514	95.25
455.734	96.25
455.955	89.25
456.175	98.25
456.395	82.25
456.616	101.25
456.836	82.25
457.056	95.25
457.276	80.25
457.497	79.25
457.717	93.25
457.937	97.25
458.157	89.25
458.377	99.25
458.598	112.25
458.818	162.25
459.038	163.25
459.258	113.25
459.478	99.25
459.698	95.25
459.918	93.25
460.138	88.25
460.358	88.25
460.578	88.25
460.798	73.25
461.018	79.25
461.238	82.25
461.458	99.25
461.678	85.25
461.898	81.25
462.118	84.25
462.338	94.25
462.558	79.25
462.777	96.25
462.997	90.25
463.217	92.25
463.437	86.25
463.657	87.25
463.876	75.25
464.096	96.25
464.316	86.25
464.536	95.25
464.755	92.25
464.975	113.25
465.195	174.25
465.414	161.25
465.634	97.25
465.854	99.25
466.073	95.25
466.293	82.25
466.512	76.25
466.732	87.25
466.951	88.25
467.171	88.25
467.391	101.25
467.61	104.25
467.829	97.25
468.049	84.25
468.268	101.25
468.488	93.25
468.707	83.25
468.927	86.25
469.146	89.25
469.365	90.25
469.585	85.25
469.804	84.25
470.023	92.25
470.243	96.25
470.462	96.25
470.681	106.25
470.901	104.25
471.12	79.25
471.339	89.25
471.558	86.25
471.777	83.25
471.997	85.25
472.216	93.25
472.435	101.25
472.654	91.25
472.873	90.25
473.092	88.25
473.311	95.25
473.53	94.25
473.749	88.25
473.968	89.25
474.187	85.25
474.406	80.25
474.625	87.25
474.844	79.25
475.063	82.25
475.282	84.25
475.501	98.25
475.72	90.25
475.939	74.25
476.158	94.25
476.377	95.25
476.596	86.25
476.814	91.25
477.033	110.25
477.252	107.25
477.471	95.25
477.69	95.25
477.908	88.25
478.127	91.25
478.346	94.25
478.564	108.25
478.783	104.25
479.002	100.25
479.22	102.25
479.439	108.25
479.658	94.25
479.876	96.25
480.095	99.25
480.313	89.25
480.532	87.25
480.751	99.25
480.969	77.25
481.188	108.25
481.406	114.25
481.624	103.25
481.843	94.25
482.061	85.25
482.28	87.25
482.498	88.25
482.717	87.25
482.935	88.25
483.153	95.25
483.372	92.25
483.59	82.25
483.808	84.25
484.027	94.25
484.245	98.25
484.463	92.25
484.681	93.25
484.9	82.25
485.118	88.25
485.336	94.25
485.554	97.25
485.772	86.25
485.99	100.25
486.209	92.25
486.427	119.25
486.645	127.25
486.863	116.25
487.081	104.25
487.299	99.25
487.517	88.25
487.735	100.25
487.953	94.25
488.171	80.25
488.389	93.25
488.607	96.25
488.825	93.25
489.043	94.25
489.261	91.25
489.479	81.25
489.696	90.25
489.914	109.25
490.132	96.25
490.35	81.25
490.568	78.25
490.786	88.25
491.003	90.25
491.221	96.25
491.439	81.25
491.657	104.25
491.874	80.25
492.092	102.25
492.31	99.25
492.527	95.25
492.745	87.25
492.963	80.25
493.18	92.25
493.398	94.25
493.615	103.25
493.833	105.25
494.05	91.25
494.268	89.25
494.485	92.25
494.703	95.25
494.92	91.25
495.138	85.25
495.355	94.25
495.573	93.25
495.79	107.25
496.008	94.25
496.225	92.25
496.442	84.25
496.66	99.25
496.877	89.25
497.094	88.25
497.312	80.25
497.529	97.25
497.746	95.25
497.963	94.25
498.181	95.25
498.398	81.25
498.615	116.25
498.832	102.25
499.049	84.25
499.267	99.25
499.484	80.25
499.701	84.25
499.918	79.25
500.135	101.25
500.352	96.25
500.569	87.25
500.786	93.25
501.003	89.25
501.22	94.25
501.437	91.25
501.654	101.25
501.871	98.25
502.088	88.25
502.305	102.25
502.522	98.25
502.739	96.25
502.956	79.25
503.172	89.25
503.389	96.25
503.606	136.25
503.823	91.25
504.04	90.25
504.256	87.25
504.473	76.25
504.69	86.25
504.907	101.25
505.123	82.25
505.34	88.25
505.557	93.25
505.773	88.25
505.99	90.25
506.207	92.25
506.423	96.25
506.64	96.25
506.856	93.25
507.073	97.25
507.289	104.25
507.506	87.25
507.722	99.25
507.939	110.25
508.155	89.25
508.372	100.25
508.588	110.25
508.805	100.25
509.021	96.25
509.238	107.25
509.454	103.25
509.67	97.25
509.887	133.25
510.103	132.25
510.319	229.25
510.536	842.25
510.752	2647.25
510.968	722.25
511.184	173.25
511.401	119.25
511.617	96.25
511.833	86.25
512.049	89.25
512.265	100.25
512.481	103.25
512.698	95.25
512.914	92.25
513.13	95.25
513.346	92.25
513.562	91.25
513.778	89.25
513.994	96.25
514.21	102.25
514.426	122.25
514.642	136.25
514.858	130.25
515.074	157.25
515.29	487.25
