Data from Uncirc_2000_H10_HRD10591_00069.txt Node
Date: Wed Jan 03 10:48:31 EST 2024
User: Yrep
Spectrometer: HR+D1059
Trigger mode: 1
Integration Time (sec): 1.000000E-1
Scans to average: 1
Electric dark correction enabled: true
Nonlinearity correction enabled: false
Boxcar width: 0
XAxis mode: Wavelengths
Number of Pixels in Spectrum: 2048
>>>>>Begin Spectral Data<<<<<
223.165	-8.88
223.4	-8.88
223.635	-8.88
223.869	-6.88
224.104	-22.88
224.338	-11.88
224.573	-17.88
224.808	-4.88
225.042	-8.88
225.277	-17.88
225.511	-8.88
225.746	4.12
225.98	-0.88
226.215	10.12
226.449	19.12
226.683	23.12
226.918	19.12
227.152	34.12
227.387	29.12
227.621	32.12
227.856	49.12
228.09	47.12
228.324	39.12
228.559	55.12
228.793	46.12
229.027	66.12
229.262	68.12
229.496	70.12
229.73	80.12
229.964	79.12
230.199	67.12
230.433	73.12
230.667	72.12
230.901	67.12
231.136	76.12
231.37	76.12
231.604	77.12
231.838	74.12
232.072	85.12
232.306	79.12
232.541	82.12
232.775	81.12
233.009	73.12
233.243	87.12
233.477	84.12
233.711	86.12
233.945	88.12
234.179	77.12
234.413	65.12
234.647	76.12
234.881	76.12
235.115	81.12
235.349	63.12
235.583	81.12
235.817	74.12
236.051	75.12
236.285	71.12
236.519	85.12
236.753	72.12
236.987	70.12
237.221	71.12
237.455	73.12
237.689	72.12
237.922	82.12
238.156	69.12
238.39	69.12
238.624	85.12
238.858	72.12
239.091	81.12
239.325	66.12
239.559	85.12
239.793	80.12
240.027	84.12
240.26	81.12
240.494	64.12
240.728	86.12
240.961	76.12
241.195	73.12
241.429	83.12
241.662	80.12
241.896	73.12
242.13	80.12
242.363	79.12
242.597	67.12
242.83	81.12
243.064	70.12
243.298	74.12
243.531	71.12
243.765	69.12
243.998	79.12
244.232	80.12
244.465	79.12
244.699	74.12
244.932	74.12
245.166	83.12
245.399	83.12
245.633	73.12
245.866	83.12
246.099	85.12
246.333	74.12
246.566	68.12
246.8	75.12
247.033	74.12
247.266	68.12
247.5	82.12
247.733	89.12
247.966	78.12
248.2	72.12
248.433	71.12
248.666	64.12
248.899	84.12
249.133	88.12
249.366	92.12
249.599	93.12
249.832	86.12
250.066	80.12
250.299	70.12
250.532	84.12
250.765	78.12
250.998	58.12
251.231	78.12
251.465	87.12
251.698	75.12
251.931	74.12
252.164	79.12
252.397	68.12
252.63	80.12
252.863	87.12
253.096	81.12
253.329	81.12
253.562	78.12
253.795	80.12
254.028	85.12
254.261	74.12
254.494	85.12
254.727	70.12
254.96	74.12
255.193	89.12
255.426	95.12
255.659	85.12
255.892	95.12
256.124	71.12
256.357	78.12
256.59	74.12
256.823	73.12
257.056	73.12
257.289	79.12
257.521	77.12
257.754	79.12
257.987	67.12
258.22	86.12
258.452	79.12
258.685	78.12
258.918	72.12
259.151	83.12
259.383	81.12
259.616	80.12
259.849	82.12
260.081	91.12
260.314	82.12
260.547	83.12
260.779	79.12
261.012	64.12
261.244	79.12
261.477	82.12
261.71	92.12
261.942	100.12
262.175	107.12
262.407	90.12
262.64	78.12
262.872	67.12
263.105	80.12
263.337	88.12
263.57	78.12
263.802	83.12
264.035	85.12
264.267	87.12
264.499	79.12
264.732	85.12
264.964	84.12
265.197	80.12
265.429	85.12
265.661	75.12
265.894	80.12
266.126	88.12
266.358	85.12
266.591	98.12
266.823	76.12
267.055	83.12
267.287	80.12
267.52	86.12
267.752	94.12
267.984	80.12
268.216	76.12
268.448	92.12
268.681	86.12
268.913	95.12
269.145	90.12
269.377	81.12
269.609	72.12
269.841	72.12
270.073	79.12
270.306	88.12
270.538	92.12
270.77	82.12
271.002	82.12
271.234	71.12
271.466	93.12
271.698	81.12
271.93	90.12
272.162	78.12
272.394	93.12
272.626	89.12
272.858	88.12
273.09	82.12
273.322	69.12
273.553	71.12
273.785	85.12
274.017	74.12
274.249	84.12
274.481	85.12
274.713	81.12
274.945	81.12
275.176	80.12
275.408	86.12
275.64	74.12
275.872	65.12
276.104	84.12
276.335	103.12
276.567	93.12
276.799	95.12
277.031	92.12
277.262	70.12
277.494	87.12
277.726	82.12
277.957	70.12
278.189	81.12
278.421	76.12
278.652	83.12
278.884	77.12
279.115	79.12
279.347	72.12
279.579	72.12
279.81	80.12
280.042	91.12
280.273	86.12
280.505	73.12
280.736	73.12
280.968	79.12
281.199	76.12
281.431	82.12
281.662	77.12
281.894	94.12
282.125	97.12
282.356	103.12
282.588	129.12
282.819	103.12
283.051	86.12
283.282	87.12
283.513	101.12
283.745	87.12
283.976	95.12
284.207	92.12
284.439	85.12
284.67	74.12
284.901	79.12
285.132	80.12
285.364	85.12
285.595	84.12
285.826	70.12
286.057	91.12
286.288	79.12
286.52	84.12
286.751	81.12
286.982	73.12
287.213	74.12
287.444	77.12
287.675	69.12
287.906	73.12
288.138	71.12
288.369	92.12
288.6	105.12
288.831	82.12
289.062	86.12
289.293	82.12
289.524	83.12
289.755	81.12
289.986	69.12
290.217	65.12
290.448	94.12
290.679	79.12
290.91	102.12
291.141	83.12
291.371	86.12
291.602	78.12
291.833	90.12
292.064	75.12
292.295	89.12
292.526	79.12
292.757	88.12
292.987	74.12
293.218	90.12
293.449	85.12
293.68	75.12
293.91	90.12
294.141	86.12
294.372	81.12
294.603	91.12
294.833	89.12
295.064	71.12
295.295	97.12
295.525	93.12
295.756	91.12
295.987	112.12
296.217	120.12
296.448	118.12
296.679	102.12
296.909	85.12
297.14	85.12
297.37	83.12
297.601	88.12
297.831	80.12
298.062	92.12
298.292	87.12
298.523	89.12
298.753	93.12
298.984	94.12
299.214	90.12
299.445	90.12
299.675	89.12
299.905	88.12
300.136	89.12
300.366	83.12
300.597	80.12
300.827	86.12
301.057	89.12
301.288	91.12
301.518	90.12
301.748	94.12
301.979	87.12
302.209	78.12
302.439	77.12
302.669	83.12
302.9	89.12
303.13	87.12
303.36	89.12
303.59	93.12
303.82	101.12
304.051	89.12
304.281	87.12
304.511	92.12
304.741	104.12
304.971	86.12
305.201	83.12
305.431	79.12
305.661	81.12
305.891	92.12
306.121	94.12
306.352	107.12
306.582	99.12
306.812	84.12
307.042	76.12
307.272	86.12
307.502	75.12
307.731	76.12
307.961	83.12
308.191	78.12
308.421	84.12
308.651	96.12
308.881	85.12
309.111	81.12
309.341	84.12
309.571	75.12
309.8	74.12
310.03	90.12
310.26	106.12
310.49	77.12
310.72	85.12
310.949	87.12
311.179	92.12
311.409	97.12
311.639	87.12
311.868	88.12
312.098	88.12
312.328	100.12
312.557	95.12
312.787	90.12
313.017	97.12
313.246	87.12
313.476	91.12
313.706	88.12
313.935	93.12
314.165	85.12
314.394	84.12
314.624	89.12
314.853	90.12
315.083	96.12
315.312	90.12
315.542	93.12
315.771	76.12
316.001	88.12
316.23	84.12
316.46	87.12
316.689	97.12
316.919	88.12
317.148	93.12
317.377	86.12
317.607	99.12
317.836	96.12
318.065	88.12
318.295	88.12
318.524	99.12
318.753	90.12
318.983	88.12
319.212	88.12
319.441	96.12
319.67	100.12
319.9	98.12
320.129	96.12
320.358	84.12
320.587	101.12
320.816	107.12
321.046	105.12
321.275	106.12
321.504	79.12
321.733	86.12
321.962	87.12
322.191	98.12
322.42	114.12
322.649	113.12
322.878	121.12
323.108	107.12
323.337	117.12
323.566	135.12
323.795	149.12
324.024	203.12
324.253	362.12
324.482	741.12
324.71	1545.12
324.939	2021.12
325.168	726.12
325.397	206.12
325.626	141.12
325.855	117.12
326.084	119.12
326.313	113.12
326.542	149.12
326.77	211.12
326.999	443.12
327.228	873.12
327.457	1541.12
327.686	1248.12
327.914	328.12
328.143	172.12
328.372	137.12
328.6	107.12
328.829	105.12
329.058	137.12
329.287	109.12
329.515	92.12
329.744	91.12
329.972	90.12
330.201	101.12
330.43	101.12
330.658	103.12
330.887	109.12
331.115	106.12
331.344	91.12
331.572	100.12
331.801	99.12
332.03	85.12
332.258	84.12
332.486	86.12
332.715	80.12
332.943	72.12
333.172	91.12
333.4	105.12
333.629	92.12
333.857	99.12
334.085	102.12
334.314	89.12
334.542	94.12
334.771	90.12
334.999	86.12
335.227	82.12
335.455	91.12
335.684	90.12
335.912	88.12
336.14	98.12
336.369	106.12
336.597	104.12
336.825	99.12
337.053	86.12
337.281	89.12
337.51	84.12
337.738	93.12
337.966	94.12
338.194	100.12
338.422	91.12
338.65	95.12
338.878	85.12
339.106	63.12
339.334	86.12
339.562	74.12
339.79	91.12
340.018	89.12
340.246	86.12
340.474	86.12
340.702	91.12
340.93	95.12
341.158	84.12
341.386	81.12
341.614	80.12
341.842	93.12
342.07	88.12
342.298	84.12
342.526	76.12
342.754	87.12
342.981	96.12
343.209	85.12
343.437	101.12
343.665	96.12
343.893	87.12
344.12	88.12
344.348	78.12
344.576	92.12
344.804	84.12
345.031	89.12
345.259	83.12
345.487	85.12
345.714	106.12
345.942	98.12
346.17	92.12
346.397	86.12
346.625	83.12
346.853	81.12
347.08	85.12
347.308	106.12
347.535	86.12
347.763	99.12
347.99	101.12
348.218	95.12
348.445	87.12
348.673	95.12
348.9	93.12
349.128	81.12
349.355	104.12
349.583	95.12
349.81	77.12
350.037	86.12
350.265	109.12
350.492	90.12
350.72	110.12
350.947	105.12
351.174	95.12
351.402	106.12
351.629	98.12
351.856	98.12
352.083	98.12
352.311	96.12
352.538	110.12
352.765	103.12
352.992	101.12
353.22	102.12
353.447	103.12
353.674	98.12
353.901	88.12
354.128	106.12
354.355	93.12
354.583	100.12
354.81	98.12
355.037	98.12
355.264	88.12
355.491	88.12
355.718	69.12
355.945	95.12
356.172	94.12
356.399	91.12
356.626	94.12
356.853	93.12
357.08	86.12
357.307	84.12
357.534	94.12
357.761	78.12
357.988	89.12
358.215	80.12
358.441	101.12
358.668	83.12
358.895	89.12
359.122	81.12
359.349	66.12
359.576	95.12
359.802	100.12
360.029	99.12
360.256	94.12
360.483	84.12
360.709	85.12
360.936	97.12
361.163	84.12
361.39	86.12
361.616	95.12
361.843	87.12
362.07	91.12
362.296	89.12
362.523	76.12
362.749	86.12
362.976	90.12
363.203	82.12
363.429	82.12
363.656	78.12
363.882	84.12
364.109	88.12
364.335	80.12
364.562	87.12
364.788	81.12
365.015	87.12
365.241	93.12
365.468	106.12
365.694	88.12
365.92	94.12
366.147	94.12
366.373	89.12
366.599	84.12
366.826	85.12
367.052	86.12
367.278	91.12
367.505	96.12
367.731	91.12
367.957	89.12
368.184	87.12
368.41	81.12
368.636	106.12
368.862	102.12
369.089	101.12
369.315	87.12
369.541	86.12
369.767	92.12
369.993	101.12
370.219	87.12
370.445	85.12
370.672	71.12
370.898	80.12
371.124	69.12
371.35	85.12
371.576	84.12
371.802	69.12
372.028	80.12
372.254	82.12
372.48	81.12
372.706	95.12
372.932	79.12
373.158	84.12
373.384	91.12
373.61	82.12
373.835	90.12
374.061	79.12
374.287	82.12
374.513	85.12
374.739	82.12
374.965	81.12
375.191	82.12
375.416	77.12
375.642	88.12
375.868	75.12
376.094	84.12
376.319	75.12
376.545	73.12
376.771	73.12
376.997	92.12
377.222	87.12
377.448	85.12
377.674	74.12
377.899	78.12
378.125	78.12
378.35	86.12
378.576	93.12
378.802	90.12
379.027	90.12
379.253	95.12
379.478	78.12
379.704	78.12
379.929	96.12
380.155	75.12
380.38	97.12
380.606	89.12
380.831	80.12
381.057	89.12
381.282	85.12
381.507	63.12
381.733	91.12
381.958	97.12
382.184	95.12
382.409	75.12
382.634	103.12
382.86	99.12
383.085	93.12
383.31	108.12
383.535	95.12
383.761	90.12
383.986	87.12
384.211	84.12
384.436	98.12
384.662	100.12
384.887	81.12
385.112	95.12
385.337	99.12
385.562	85.12
385.787	95.12
386.013	102.12
386.238	109.12
386.463	87.12
386.688	101.12
386.913	94.12
387.138	104.12
387.363	84.12
387.588	92.12
387.813	96.12
388.038	99.12
388.263	89.12
388.488	102.12
388.713	86.12
388.938	84.12
389.163	82.12
389.387	94.12
389.612	79.12
389.837	88.12
390.062	87.12
390.287	83.12
390.512	85.12
390.736	90.12
390.961	89.12
391.186	94.12
391.411	79.12
391.636	89.12
391.86	86.12
392.085	92.12
392.31	91.12
392.534	86.12
392.759	98.12
392.984	75.12
393.208	77.12
393.433	87.12
393.658	88.12
393.882	80.12
394.107	78.12
394.331	96.12
394.556	86.12
394.78	89.12
395.005	84.12
395.229	86.12
395.454	101.12
395.678	74.12
395.903	77.12
396.127	86.12
396.352	87.12
396.576	104.12
396.801	84.12
397.025	101.12
397.249	74.12
397.474	87.12
397.698	92.12
397.922	82.12
398.147	86.12
398.371	81.12
398.595	86.12
398.82	80.12
399.044	76.12
399.268	87.12
399.492	80.12
399.717	77.12
399.941	73.12
400.165	77.12
400.389	74.12
400.613	95.12
400.837	91.12
401.062	83.12
401.286	89.12
401.51	81.12
401.734	86.12
401.958	78.12
402.182	117.12
402.406	136.12
402.63	115.12
402.854	95.12
403.078	84.12
403.302	78.12
403.526	81.12
403.75	76.12
403.974	67.12
404.198	74.12
404.422	85.12
404.645	73.12
404.869	82.12
405.093	100.12
405.317	73.12
405.541	79.12
405.765	88.12
405.988	112.12
406.212	172.12
406.436	206.12
406.66	133.12
406.883	89.12
407.107	89.12
407.331	84.12
407.555	84.12
407.778	93.12
408.002	82.12
408.226	85.12
408.449	89.12
408.673	79.12
408.896	82.12
409.12	79.12
409.344	89.12
409.567	101.12
409.791	83.12
410.014	90.12
410.238	96.12
410.461	103.12
410.685	81.12
410.908	94.12
411.132	97.12
411.355	98.12
411.578	93.12
411.802	81.12
412.025	86.12
412.249	85.12
412.472	95.12
412.695	84.12
412.919	95.12
413.142	75.12
413.365	75.12
413.589	86.12
413.812	85.12
414.035	86.12
414.258	93.12
414.482	85.12
414.705	97.12
414.928	88.12
415.151	91.12
415.374	94.12
415.597	84.12
415.821	87.12
416.044	76.12
416.267	79.12
416.49	88.12
416.713	103.12
416.936	85.12
417.159	75.12
417.382	88.12
417.605	90.12
417.828	101.12
418.051	97.12
418.274	90.12
418.497	94.12
418.72	91.12
418.943	95.12
419.166	84.12
419.389	87.12
419.611	84.12
419.834	93.12
420.057	79.12
420.28	81.12
420.503	81.12
420.726	83.12
420.948	82.12
421.171	79.12
421.394	82.12
421.617	84.12
421.839	85.12
422.062	86.12
422.285	81.12
422.507	99.12
422.73	102.12
422.953	97.12
423.175	85.12
423.398	82.12
423.621	90.12
423.843	90.12
424.066	94.12
424.288	84.12
424.511	96.12
424.733	97.12
424.956	82.12
425.178	99.12
425.401	91.12
425.623	88.12
425.846	91.12
426.068	91.12
426.291	87.12
426.513	93.12
426.735	96.12
426.958	84.12
427.18	103.12
427.402	129.12
427.625	159.12
427.847	121.12
428.069	97.12
428.292	82.12
428.514	86.12
428.736	91.12
428.958	88.12
429.181	87.12
429.403	79.12
429.625	83.12
429.847	83.12
430.069	88.12
430.292	77.12
430.514	97.12
430.736	75.12
430.958	89.12
431.18	78.12
431.402	72.12
431.624	83.12
431.846	79.12
432.068	87.12
432.29	79.12
432.512	85.12
432.734	80.12
432.956	90.12
433.178	90.12
433.4	83.12
433.622	81.12
433.844	91.12
434.066	76.12
434.287	84.12
434.509	93.12
434.731	87.12
434.953	91.12
435.175	95.12
435.397	67.12
435.618	77.12
435.84	102.12
436.062	110.12
436.284	107.12
436.505	97.12
436.727	101.12
436.949	86.12
437.17	82.12
437.392	81.12
437.614	81.12
437.835	105.12
438.057	103.12
438.278	96.12
438.5	84.12
438.721	106.12
438.943	94.12
439.165	80.12
439.386	95.12
439.608	90.12
439.829	90.12
440.05	121.12
440.272	114.12
440.493	91.12
440.715	83.12
440.936	97.12
441.158	99.12
441.379	75.12
441.6	87.12
441.822	91.12
442.043	83.12
442.264	90.12
442.486	89.12
442.707	80.12
442.928	103.12
443.149	112.12
443.371	129.12
443.592	119.12
443.813	105.12
444.034	94.12
444.255	89.12
444.476	79.12
444.698	78.12
444.919	91.12
445.14	125.12
445.361	102.12
445.582	111.12
445.803	110.12
446.024	131.12
446.245	122.12
446.466	110.12
446.687	85.12
446.908	84.12
447.129	88.12
447.35	94.12
447.571	89.12
447.792	95.12
448.013	82.12
448.234	95.12
448.455	102.12
448.675	95.12
448.896	107.12
449.117	91.12
449.338	97.12
449.559	115.12
449.779	110.12
450	94.12
450.221	89.12
450.442	104.12
450.662	79.12
450.883	93.12
451.104	105.12
451.324	80.12
451.545	72.12
451.766	93.12
451.986	70.12
452.207	69.12
452.428	79.12
452.648	90.12
452.869	100.12
453.089	113.12
453.31	105.12
453.53	92.12
453.751	78.12
453.971	94.12
454.192	95.12
454.412	86.12
454.633	73.12
454.853	78.12
455.073	80.12
455.294	90.12
455.514	78.12
455.734	83.12
455.955	85.12
456.175	60.12
456.395	79.12
456.616	79.12
456.836	85.12
457.056	82.12
457.276	84.12
457.497	86.12
457.717	90.12
457.937	86.12
458.157	77.12
458.377	77.12
458.598	109.12
458.818	122.12
459.038	137.12
459.258	111.12
459.478	82.12
459.698	88.12
459.918	87.12
460.138	80.12
460.358	76.12
460.578	87.12
460.798	77.12
461.018	102.12
461.238	80.12
461.458	87.12
461.678	77.12
461.898	86.12
462.118	75.12
462.338	85.12
462.558	74.12
462.777	95.12
462.997	84.12
463.217	68.12
463.437	83.12
463.657	88.12
463.876	76.12
464.096	80.12
464.316	78.12
464.536	86.12
464.755	100.12
464.975	118.12
465.195	152.12
465.414	130.12
465.634	93.12
465.854	74.12
466.073	80.12
466.293	89.12
466.512	77.12
466.732	87.12
466.951	91.12
467.171	79.12
467.391	100.12
467.61	108.12
467.829	82.12
468.049	102.12
468.268	85.12
468.488	83.12
468.707	82.12
468.927	87.12
469.146	84.12
469.365	86.12
469.585	89.12
469.804	87.12
470.023	95.12
470.243	80.12
470.462	97.12
470.681	103.12
470.901	82.12
471.12	85.12
471.339	96.12
471.558	80.12
471.777	81.12
471.997	98.12
472.216	91.12
472.435	82.12
472.654	77.12
472.873	83.12
473.092	88.12
473.311	79.12
473.53	81.12
473.749	85.12
473.968	99.12
474.187	107.12
474.406	85.12
474.625	82.12
474.844	82.12
475.063	77.12
475.282	81.12
475.501	78.12
475.72	81.12
475.939	84.12
476.158	87.12
476.377	90.12
476.596	90.12
476.814	81.12
477.033	85.12
477.252	84.12
477.471	72.12
477.69	90.12
477.908	85.12
478.127	80.12
478.346	87.12
478.564	90.12
478.783	89.12
479.002	73.12
479.22	87.12
479.439	96.12
479.658	101.12
479.876	93.12
480.095	81.12
480.313	89.12
480.532	74.12
480.751	79.12
480.969	78.12
481.188	94.12
481.406	99.12
481.624	87.12
481.843	78.12
482.061	88.12
482.28	81.12
482.498	82.12
482.717	82.12
482.935	81.12
483.153	99.12
483.372	94.12
483.59	89.12
483.808	87.12
484.027	88.12
484.245	92.12
484.463	93.12
484.681	91.12
484.9	84.12
485.118	93.12
485.336	97.12
485.554	96.12
485.772	85.12
485.99	102.12
486.209	94.12
486.427	97.12
486.645	114.12
486.863	100.12
487.081	104.12
487.299	92.12
487.517	100.12
487.735	87.12
487.953	98.12
488.171	96.12
488.389	83.12
488.607	91.12
488.825	93.12
489.043	93.12
489.261	78.12
489.479	82.12
489.696	79.12
489.914	90.12
490.132	91.12
490.35	92.12
490.568	83.12
490.786	81.12
491.003	87.12
491.221	91.12
491.439	88.12
491.657	89.12
491.874	86.12
492.092	90.12
492.31	86.12
492.527	73.12
492.745	86.12
492.963	98.12
493.18	83.12
493.398	93.12
493.615	91.12
493.833	112.12
494.05	97.12
494.268	108.12
494.485	79.12
494.703	94.12
494.92	83.12
495.138	88.12
495.355	87.12
495.573	94.12
495.79	77.12
496.008	89.12
496.225	84.12
496.442	84.12
496.66	93.12
496.877	93.12
497.094	98.12
497.312	91.12
497.529	89.12
497.746	88.12
497.963	87.12
498.181	100.12
498.398	82.12
498.615	102.12
498.832	118.12
499.049	78.12
499.267	77.12
499.484	87.12
499.701	95.12
499.918	98.12
500.135	91.12
500.352	97.12
500.569	88.12
500.786	85.12
501.003	86.12
501.22	93.12
501.437	95.12
501.654	86.12
501.871	95.12
502.088	84.12
502.305	87.12
502.522	81.12
502.739	92.12
502.956	86.12
503.172	80.12
503.389	77.12
503.606	99.12
503.823	97.12
504.04	100.12
504.256	97.12
504.473	93.12
504.69	97.12
504.907	89.12
505.123	81.12
505.34	97.12
505.557	97.12
505.773	90.12
505.99	81.12
506.207	81.12
506.423	79.12
506.64	95.12
506.856	106.12
507.073	95.12
507.289	99.12
507.506	91.12
507.722	100.12
507.939	103.12
508.155	93.12
508.372	90.12
508.588	85.12
508.805	95.12
509.021	86.12
509.238	94.12
509.454	94.12
509.67	109.12
509.887	120.12
510.103	142.12
510.319	201.12
510.536	717.12
510.752	2252.12
510.968	631.12
511.184	154.12
511.401	117.12
511.617	96.12
511.833	102.12
512.049	85.12
512.265	83.12
512.481	85.12
512.698	90.12
512.914	79.12
513.13	100.12
513.346	77.12
513.562	88.12
513.778	83.12
513.994	91.12
514.21	94.12
514.426	113.12
514.642	132.12
514.858	115.12
515.074	160.12
515.29	395.12
515.506	1307.12
515.721	486.12
515.937	145.12
516.153	112.12
516.369	90.12
516.585	93.12
516.801	89.12
517.016	98.12
517.232	91.12
