Data from Uncirc_2000_H10_HRD10591_00054.txt Node
Date: Wed Jan 03 10:48:28 EST 2024
User: Yrep
Spectrometer: HR+D1059
Trigger mode: 1
Integration Time (sec): 1.000000E-1
Scans to average: 1
Electric dark correction enabled: true
Nonlinearity correction enabled: false
Boxcar width: 0
XAxis mode: Wavelengths
Number of Pixels in Spectrum: 2048
>>>>>Begin Spectral Data<<<<<
223.165	-1.12
223.4	-1.12
223.635	-1.12
223.869	-12.12
224.104	-25.12
224.338	-11.12
224.573	-9.12
224.808	-21.12
225.042	-28.12
225.277	-5.12
225.511	8.88
225.746	5.88
225.98	11.88
226.215	10.88
226.449	6.88
226.683	13.88
226.918	26.88
227.152	27.88
227.387	35.88
227.621	42.88
227.856	54.88
228.09	45.88
228.324	59.88
228.559	60.88
228.793	53.88
229.027	69.88
229.262	67.88
229.496	72.88
229.73	76.88
229.964	78.88
230.199	72.88
230.433	84.88
230.667	80.88
230.901	69.88
231.136	69.88
231.37	79.88
231.604	85.88
231.838	98.88
232.072	81.88
232.306	65.88
232.541	93.88
232.775	89.88
233.009	83.88
233.243	85.88
233.477	92.88
233.711	77.88
233.945	86.88
234.179	72.88
234.413	69.88
234.647	82.88
234.881	81.88
235.115	71.88
235.349	73.88
235.583	85.88
235.817	85.88
236.051	80.88
236.285	81.88
236.519	76.88
236.753	88.88
236.987	79.88
237.221	84.88
237.455	83.88
237.689	74.88
237.922	69.88
238.156	79.88
238.39	74.88
238.624	86.88
238.858	94.88
239.091	76.88
239.325	66.88
239.559	77.88
239.793	81.88
240.027	70.88
240.26	72.88
240.494	81.88
240.728	82.88
240.961	73.88
241.195	81.88
241.429	68.88
241.662	78.88
241.896	74.88
242.13	78.88
242.363	71.88
242.597	85.88
242.83	85.88
243.064	82.88
243.298	77.88
243.531	97.88
243.765	86.88
243.998	88.88
244.232	75.88
244.465	98.88
244.699	86.88
244.932	76.88
245.166	81.88
245.399	87.88
245.633	86.88
245.866	80.88
246.099	79.88
246.333	74.88
246.566	78.88
246.8	76.88
247.033	82.88
247.266	59.88
247.5	69.88
247.733	70.88
247.966	69.88
248.2	94.88
248.433	93.88
248.666	86.88
248.899	103.88
249.133	86.88
249.366	90.88
249.599	91.88
249.832	90.88
250.066	87.88
250.299	74.88
250.532	84.88
250.765	88.88
250.998	90.88
251.231	74.88
251.465	79.88
251.698	84.88
251.931	68.88
252.164	87.88
252.397	80.88
252.63	90.88
252.863	81.88
253.096	80.88
253.329	84.88
253.562	86.88
253.795	79.88
254.028	95.88
254.261	89.88
254.494	94.88
254.727	75.88
254.96	81.88
255.193	82.88
255.426	92.88
255.659	102.88
255.892	83.88
256.124	69.88
256.357	89.88
256.59	65.88
256.823	83.88
257.056	102.88
257.289	83.88
257.521	73.88
257.754	83.88
257.987	86.88
258.22	75.88
258.452	81.88
258.685	76.88
258.918	82.88
259.151	80.88
259.383	83.88
259.616	72.88
259.849	77.88
260.081	81.88
260.314	82.88
260.547	70.88
260.779	85.88
261.012	89.88
261.244	94.88
261.477	95.88
261.71	86.88
261.942	115.88
262.175	120.88
262.407	99.88
262.64	85.88
262.872	89.88
263.105	86.88
263.337	89.88
263.57	90.88
263.802	80.88
264.035	82.88
264.267	75.88
264.499	82.88
264.732	87.88
264.964	78.88
265.197	83.88
265.429	90.88
265.661	74.88
265.894	76.88
266.126	101.88
266.358	101.88
266.591	73.88
266.823	85.88
267.055	93.88
267.287	79.88
267.52	77.88
267.752	80.88
267.984	80.88
268.216	74.88
268.448	79.88
268.681	80.88
268.913	69.88
269.145	88.88
269.377	83.88
269.609	87.88
269.841	96.88
270.073	86.88
270.306	89.88
270.538	75.88
270.77	74.88
271.002	83.88
271.234	87.88
271.466	90.88
271.698	76.88
271.93	73.88
272.162	85.88
272.394	93.88
272.626	78.88
272.858	84.88
273.09	77.88
273.322	71.88
273.553	92.88
273.785	84.88
274.017	89.88
274.249	88.88
274.481	94.88
274.713	94.88
274.945	83.88
275.176	106.88
275.408	77.88
275.64	90.88
275.872	74.88
276.104	81.88
276.335	90.88
276.567	102.88
276.799	122.88
277.031	92.88
277.262	108.88
277.494	88.88
277.726	76.88
277.957	83.88
278.189	84.88
278.421	100.88
278.652	82.88
278.884	99.88
279.115	98.88
279.347	82.88
279.579	99.88
279.81	77.88
280.042	95.88
280.273	88.88
280.505	82.88
280.736	75.88
280.968	93.88
281.199	82.88
281.431	84.88
281.662	83.88
281.894	93.88
282.125	97.88
282.356	109.88
282.588	131.88
282.819	113.88
283.051	95.88
283.282	83.88
283.513	79.88
283.745	95.88
283.976	70.88
284.207	79.88
284.439	97.88
284.67	88.88
284.901	78.88
285.132	85.88
285.364	84.88
285.595	87.88
285.826	90.88
286.057	77.88
286.288	77.88
286.52	87.88
286.751	78.88
286.982	87.88
287.213	95.88
287.444	93.88
287.675	79.88
287.906	85.88
288.138	75.88
288.369	87.88
288.6	93.88
288.831	103.88
289.062	89.88
289.293	94.88
289.524	78.88
289.755	79.88
289.986	75.88
290.217	89.88
290.448	95.88
290.679	77.88
290.91	90.88
291.141	93.88
291.371	106.88
291.602	93.88
291.833	76.88
292.064	85.88
292.295	87.88
292.526	102.88
292.757	92.88
292.987	79.88
293.218	89.88
293.449	85.88
293.68	77.88
293.91	76.88
294.141	78.88
294.372	91.88
294.603	79.88
294.833	90.88
295.064	75.88
295.295	85.88
295.525	116.88
295.756	102.88
295.987	120.88
296.217	116.88
296.448	118.88
296.679	87.88
296.909	91.88
297.14	83.88
297.37	90.88
297.601	83.88
297.831	89.88
298.062	98.88
298.292	101.88
298.523	100.88
298.753	85.88
298.984	81.88
299.214	93.88
299.445	90.88
299.675	92.88
299.905	112.88
300.136	87.88
300.366	80.88
300.597	90.88
300.827	78.88
301.057	89.88
301.288	120.88
301.518	89.88
301.748	81.88
301.979	108.88
302.209	105.88
302.439	96.88
302.669	89.88
302.9	83.88
303.13	79.88
303.36	85.88
303.59	110.88
303.82	96.88
304.051	86.88
304.281	93.88
304.511	91.88
304.741	89.88
304.971	99.88
305.201	93.88
305.431	75.88
305.661	73.88
305.891	88.88
306.121	99.88
306.352	102.88
306.582	107.88
306.812	97.88
307.042	101.88
307.272	88.88
307.502	87.88
307.731	100.88
307.961	94.88
308.191	92.88
308.421	104.88
308.651	96.88
308.881	98.88
309.111	94.88
309.341	106.88
309.571	87.88
309.8	95.88
310.03	97.88
310.26	90.88
310.49	89.88
310.72	100.88
310.949	96.88
311.179	78.88
311.409	98.88
311.639	89.88
311.868	79.88
312.098	90.88
312.328	93.88
312.557	95.88
312.787	94.88
313.017	94.88
313.246	88.88
313.476	86.88
313.706	79.88
313.935	97.88
314.165	97.88
314.394	94.88
314.624	94.88
314.853	87.88
315.083	83.88
315.312	98.88
315.542	94.88
315.771	100.88
316.001	110.88
316.23	96.88
316.46	85.88
316.689	94.88
316.919	89.88
317.148	92.88
317.377	106.88
317.607	93.88
317.836	99.88
318.065	85.88
318.295	94.88
318.524	97.88
318.753	90.88
318.983	109.88
319.212	99.88
319.441	114.88
319.67	90.88
319.9	92.88
320.129	92.88
320.358	99.88
320.587	108.88
320.816	117.88
321.046	99.88
321.275	90.88
321.504	91.88
321.733	101.88
321.962	89.88
322.191	103.88
322.42	100.88
322.649	103.88
322.878	113.88
323.108	115.88
323.337	121.88
323.566	121.88
323.795	142.88
324.024	195.88
324.253	359.88
324.482	764.88
324.71	1597.88
324.939	2107.88
325.168	777.88
325.397	237.88
325.626	154.88
325.855	114.88
326.084	120.88
326.313	120.88
326.542	149.88
326.77	214.88
326.999	453.88
327.228	901.88
327.457	1624.88
327.686	1288.88
327.914	340.88
328.143	179.88
328.372	147.88
328.6	129.88
328.829	134.88
329.058	127.88
329.287	125.88
329.515	107.88
329.744	90.88
329.972	106.88
330.201	110.88
330.43	101.88
330.658	126.88
330.887	146.88
331.115	116.88
331.344	92.88
331.572	99.88
331.801	97.88
332.03	93.88
332.258	102.88
332.486	93.88
332.715	95.88
332.943	87.88
333.172	91.88
333.4	95.88
333.629	92.88
333.857	106.88
334.085	93.88
334.314	100.88
334.542	102.88
334.771	95.88
334.999	89.88
335.227	110.88
335.455	96.88
335.684	93.88
335.912	95.88
336.14	90.88
336.369	106.88
336.597	107.88
336.825	102.88
337.053	101.88
337.281	89.88
337.51	93.88
337.738	99.88
337.966	96.88
338.194	115.88
338.422	95.88
338.65	95.88
338.878	94.88
339.106	94.88
339.334	100.88
339.562	89.88
339.79	99.88
340.018	85.88
340.246	106.88
340.474	85.88
340.702	103.88
340.93	81.88
341.158	95.88
341.386	103.88
341.614	93.88
341.842	84.88
342.07	90.88
342.298	74.88
342.526	90.88
342.754	96.88
342.981	85.88
343.209	99.88
343.437	117.88
343.665	86.88
343.893	95.88
344.12	93.88
344.348	92.88
344.576	100.88
344.804	95.88
345.031	98.88
345.259	101.88
345.487	101.88
345.714	85.88
345.942	86.88
346.17	97.88
346.397	89.88
346.625	90.88
346.853	98.88
347.08	103.88
347.308	90.88
347.535	100.88
347.763	86.88
347.99	112.88
348.218	97.88
348.445	100.88
348.673	105.88
348.9	99.88
349.128	99.88
349.355	82.88
349.583	94.88
349.81	92.88
350.037	93.88
350.265	103.88
350.492	92.88
350.72	76.88
350.947	106.88
351.174	124.88
351.402	119.88
351.629	102.88
351.856	101.88
352.083	100.88
352.311	99.88
352.538	105.88
352.765	106.88
352.992	115.88
353.22	116.88
353.447	111.88
353.674	104.88
353.901	105.88
354.128	99.88
354.355	107.88
354.583	110.88
354.81	101.88
355.037	95.88
355.264	102.88
355.491	97.88
355.718	93.88
355.945	106.88
356.172	81.88
356.399	82.88
356.626	100.88
356.853	85.88
357.08	84.88
357.307	96.88
357.534	78.88
357.761	88.88
357.988	84.88
358.215	94.88
358.441	94.88
358.668	88.88
358.895	100.88
359.122	94.88
359.349	100.88
359.576	85.88
359.802	93.88
360.029	108.88
360.256	91.88
360.483	84.88
360.709	94.88
360.936	97.88
361.163	83.88
361.39	105.88
361.616	99.88
361.843	85.88
362.07	89.88
362.296	91.88
362.523	74.88
362.749	82.88
362.976	96.88
363.203	96.88
363.429	71.88
363.656	79.88
363.882	103.88
364.109	81.88
364.335	87.88
364.562	81.88
364.788	85.88
365.015	89.88
365.241	89.88
365.468	106.88
365.694	115.88
365.92	91.88
366.147	109.88
366.373	77.88
366.599	85.88
366.826	82.88
367.052	80.88
367.278	89.88
367.505	82.88
367.731	90.88
367.957	90.88
368.184	93.88
368.41	99.88
368.636	94.88
368.862	93.88
369.089	111.88
369.315	95.88
369.541	101.88
369.767	93.88
369.993	97.88
370.219	97.88
370.445	94.88
370.672	95.88
370.898	85.88
371.124	86.88
371.35	86.88
371.576	88.88
371.802	80.88
372.028	90.88
372.254	106.88
372.48	101.88
372.706	93.88
372.932	81.88
373.158	78.88
373.384	93.88
373.61	78.88
373.835	99.88
374.061	98.88
374.287	94.88
374.513	89.88
374.739	82.88
374.965	87.88
375.191	85.88
375.416	88.88
375.642	88.88
375.868	89.88
376.094	88.88
376.319	92.88
376.545	86.88
376.771	102.88
376.997	77.88
377.222	95.88
377.448	99.88
377.674	93.88
377.899	110.88
378.125	97.88
378.35	93.88
378.576	88.88
378.802	84.88
379.027	85.88
379.253	88.88
379.478	89.88
379.704	80.88
379.929	106.88
380.155	78.88
380.38	88.88
380.606	90.88
380.831	107.88
381.057	80.88
381.282	98.88
381.507	89.88
381.733	96.88
381.958	111.88
382.184	107.88
382.409	97.88
382.634	109.88
382.86	111.88
383.085	93.88
383.31	86.88
383.535	103.88
383.761	101.88
383.986	100.88
384.211	91.88
384.436	112.88
384.662	94.88
384.887	93.88
385.112	98.88
385.337	96.88
385.562	84.88
385.787	101.88
386.013	114.88
386.238	122.88
386.463	94.88
386.688	95.88
386.913	102.88
387.138	102.88
387.363	90.88
387.588	87.88
387.813	100.88
388.038	113.88
388.263	118.88
388.488	110.88
388.713	87.88
388.938	101.88
389.163	89.88
389.387	87.88
389.612	100.88
389.837	85.88
390.062	96.88
390.287	100.88
390.512	83.88
390.736	99.88
390.961	89.88
391.186	88.88
391.411	87.88
391.636	94.88
391.86	92.88
392.085	82.88
392.31	82.88
392.534	90.88
392.759	81.88
392.984	83.88
393.208	102.88
393.433	101.88
393.658	86.88
393.882	90.88
394.107	87.88
394.331	98.88
394.556	98.88
394.78	85.88
395.005	83.88
395.229	78.88
395.454	97.88
395.678	81.88
395.903	90.88
396.127	89.88
396.352	94.88
396.576	81.88
396.801	81.88
397.025	94.88
397.249	99.88
397.474	96.88
397.698	85.88
397.922	93.88
398.147	89.88
398.371	73.88
398.595	91.88
398.82	76.88
399.044	80.88
399.268	95.88
399.492	98.88
399.717	81.88
399.941	87.88
400.165	85.88
400.389	86.88
400.613	98.88
400.837	97.88
401.062	93.88
401.286	89.88
401.51	92.88
401.734	84.88
401.958	107.88
402.182	116.88
402.406	124.88
402.63	117.88
402.854	93.88
403.078	107.88
403.302	102.88
403.526	86.88
403.75	89.88
403.974	87.88
404.198	87.88
404.422	86.88
404.645	85.88
404.869	91.88
405.093	100.88
405.317	95.88
405.541	97.88
405.765	89.88
405.988	119.88
406.212	169.88
406.436	200.88
406.66	128.88
406.883	98.88
407.107	75.88
407.331	91.88
407.555	86.88
407.778	74.88
408.002	92.88
408.226	92.88
408.449	72.88
408.673	84.88
408.896	102.88
409.12	91.88
409.344	83.88
409.567	96.88
409.791	100.88
410.014	90.88
410.238	89.88
410.461	85.88
410.685	96.88
410.908	110.88
411.132	102.88
411.355	99.88
411.578	95.88
411.802	97.88
412.025	96.88
412.249	86.88
412.472	85.88
412.695	102.88
412.919	91.88
413.142	85.88
413.365	88.88
413.589	89.88
413.812	81.88
414.035	87.88
414.258	76.88
414.482	91.88
414.705	86.88
414.928	91.88
415.151	94.88
415.374	79.88
415.597	95.88
415.821	88.88
416.044	82.88
416.267	79.88
416.49	86.88
416.713	89.88
416.936	91.88
417.159	86.88
417.382	100.88
417.605	98.88
417.828	95.88
418.051	94.88
418.274	92.88
418.497	78.88
418.72	89.88
418.943	92.88
419.166	93.88
419.389	90.88
419.611	85.88
419.834	92.88
420.057	98.88
420.28	98.88
420.503	85.88
420.726	96.88
420.948	81.88
421.171	91.88
421.394	87.88
421.617	98.88
421.839	102.88
422.062	81.88
422.285	95.88
422.507	108.88
422.73	107.88
422.953	85.88
423.175	90.88
423.398	92.88
423.621	89.88
423.843	73.88
424.066	91.88
424.288	84.88
424.511	94.88
424.733	100.88
424.956	91.88
425.178	86.88
425.401	109.88
425.623	98.88
425.846	89.88
426.068	95.88
426.291	90.88
426.513	90.88
426.735	87.88
426.958	101.88
427.18	100.88
427.402	123.88
427.625	133.88
427.847	118.88
428.069	98.88
428.292	78.88
428.514	94.88
428.736	86.88
428.958	91.88
429.181	99.88
429.403	97.88
429.625	85.88
429.847	81.88
430.069	106.88
430.292	95.88
430.514	88.88
430.736	89.88
430.958	89.88
431.18	90.88
431.402	71.88
431.624	81.88
431.846	93.88
432.068	87.88
432.29	76.88
432.512	82.88
432.734	85.88
432.956	86.88
433.178	102.88
433.4	91.88
433.622	89.88
433.844	82.88
434.066	89.88
434.287	90.88
434.509	89.88
434.731	97.88
434.953	93.88
435.175	79.88
435.397	90.88
435.618	86.88
435.84	102.88
436.062	108.88
436.284	135.88
436.505	104.88
436.727	108.88
436.949	99.88
437.17	85.88
437.392	90.88
437.614	92.88
437.835	106.88
438.057	112.88
438.278	92.88
438.5	99.88
438.721	113.88
438.943	98.88
439.165	90.88
439.386	101.88
439.608	89.88
439.829	89.88
440.05	108.88
440.272	106.88
440.493	100.88
440.715	100.88
440.936	104.88
441.158	79.88
441.379	93.88
441.6	100.88
441.822	101.88
442.043	98.88
442.264	87.88
442.486	88.88
442.707	91.88
442.928	91.88
443.149	118.88
443.371	142.88
443.592	110.88
443.813	95.88
444.034	108.88
444.255	102.88
444.476	79.88
444.698	94.88
444.919	82.88
445.14	127.88
445.361	112.88
445.582	106.88
445.803	124.88
446.024	121.88
446.245	108.88
446.466	95.88
446.687	82.88
446.908	90.88
447.129	81.88
447.35	83.88
447.571	87.88
447.792	93.88
448.013	94.88
448.234	85.88
448.455	101.88
448.675	97.88
448.896	111.88
449.117	94.88
449.338	96.88
449.559	113.88
449.779	117.88
450	89.88
450.221	92.88
450.442	73.88
450.662	97.88
450.883	98.88
451.104	84.88
451.324	97.88
451.545	87.88
451.766	87.88
451.986	101.88
452.207	95.88
452.428	90.88
452.648	105.88
452.869	104.88
453.089	101.88
453.31	88.88
453.53	93.88
453.751	97.88
453.971	103.88
454.192	110.88
454.412	85.88
454.633	81.88
454.853	103.88
455.073	99.88
455.294	76.88
455.514	104.88
455.734	98.88
455.955	93.88
456.175	82.88
456.395	76.88
456.616	81.88
456.836	84.88
457.056	87.88
457.276	73.88
457.497	81.88
457.717	87.88
457.937	95.88
458.157	82.88
458.377	89.88
458.598	90.88
458.818	129.88
459.038	132.88
459.258	107.88
459.478	94.88
459.698	94.88
459.918	75.88
460.138	71.88
460.358	80.88
460.578	86.88
460.798	84.88
461.018	78.88
461.238	82.88
461.458	76.88
461.678	92.88
461.898	75.88
462.118	76.88
462.338	82.88
462.558	91.88
462.777	94.88
462.997	89.88
463.217	91.88
463.437	93.88
463.657	83.88
463.876	86.88
464.096	72.88
464.316	92.88
464.536	93.88
464.755	92.88
464.975	104.88
465.195	139.88
465.414	134.88
465.634	100.88
465.854	98.88
466.073	90.88
466.293	94.88
466.512	87.88
466.732	90.88
466.951	87.88
467.171	113.88
467.391	94.88
467.61	89.88
467.829	93.88
468.049	86.88
468.268	89.88
468.488	84.88
468.707	97.88
468.927	89.88
469.146	89.88
469.365	83.88
469.585	85.88
469.804	90.88
470.023	107.88
470.243	109.88
470.462	120.88
470.681	90.88
470.901	92.88
471.12	80.88
471.339	87.88
471.558	98.88
471.777	94.88
471.997	82.88
472.216	88.88
472.435	87.88
472.654	81.88
472.873	92.88
473.092	91.88
473.311	90.88
473.53	89.88
473.749	94.88
473.968	102.88
474.187	107.88
474.406	107.88
474.625	79.88
474.844	89.88
475.063	82.88
475.282	78.88
475.501	84.88
475.72	94.88
475.939	85.88
476.158	80.88
476.377	92.88
476.596	93.88
476.814	100.88
477.033	85.88
477.252	91.88
477.471	79.88
477.69	90.88
477.908	88.88
478.127	97.88
478.346	78.88
478.564	95.88
478.783	101.88
479.002	93.88
479.22	84.88
479.439	104.88
479.658	101.88
479.876	100.88
480.095	97.88
480.313	90.88
480.532	94.88
480.751	79.88
480.969	82.88
481.188	83.88
481.406	87.88
481.624	82.88
481.843	92.88
482.061	69.88
482.28	102.88
482.498	88.88
482.717	80.88
482.935	86.88
483.153	93.88
483.372	93.88
483.59	83.88
483.808	85.88
484.027	94.88
484.245	78.88
484.463	85.88
484.681	81.88
484.9	85.88
485.118	82.88
485.336	77.88
485.554	93.88
485.772	114.88
485.99	105.88
486.209	112.88
486.427	86.88
486.645	114.88
486.863	104.88
487.081	106.88
487.299	76.88
487.517	75.88
487.735	93.88
487.953	92.88
488.171	77.88
488.389	96.88
488.607	103.88
488.825	80.88
489.043	90.88
489.261	92.88
489.479	105.88
489.696	91.88
489.914	106.88
490.132	98.88
490.35	86.88
490.568	76.88
490.786	70.88
491.003	97.88
491.221	76.88
491.439	82.88
491.657	90.88
491.874	99.88
492.092	89.88
492.31	93.88
492.527	82.88
492.745	86.88
492.963	94.88
493.18	93.88
493.398	91.88
493.615	99.88
493.833	101.88
494.05	95.88
494.268	93.88
494.485	94.88
494.703	87.88
494.92	93.88
495.138	67.88
495.355	105.88
495.573	96.88
495.79	90.88
496.008	96.88
496.225	100.88
496.442	108.88
496.66	87.88
496.877	90.88
497.094	82.88
497.312	93.88
497.529	80.88
497.746	89.88
497.963	77.88
498.181	108.88
498.398	96.88
498.615	93.88
498.832	93.88
499.049	89.88
499.267	94.88
499.484	99.88
499.701	94.88
499.918	97.88
500.135	90.88
500.352	82.88
500.569	91.88
500.786	85.88
501.003	102.88
501.22	82.88
501.437	80.88
501.654	94.88
501.871	105.88
502.088	101.88
502.305	82.88
502.522	89.88
502.739	94.88
502.956	85.88
503.172	102.88
503.389	91.88
503.606	110.88
503.823	88.88
504.04	84.88
504.256	99.88
504.473	103.88
504.69	82.88
504.907	107.88
505.123	88.88
505.34	102.88
505.557	95.88
505.773	99.88
505.99	82.88
506.207	86.88
506.423	91.88
506.64	111.88
506.856	81.88
507.073	85.88
507.289	84.88
507.506	92.88
507.722	106.88
507.939	89.88
508.155	89.88
508.372	100.88
508.588	98.88
508.805	101.88
509.021	114.88
509.238	98.88
509.454	93.88
509.67	102.88
509.887	92.88
510.103	122.88
510.319	197.88
510.536	674.88
510.752	2243.88
510.968	621.88
511.184	141.88
511.401	110.88
511.617	97.88
511.833	91.88
512.049	97.88
512.265	93.88
512.481	83.88
512.698	87.88
512.914	98.88
513.13	98.88
513.346	97.88
513.562	96.88
513.778	94.88
513.994	91.88
514.21	97.88
514.426	116.88
514.642	109.88
514.858	119.88
515.074	163.88
515.29	408.88
515.506	1275.88
515.721	457.88
515.937	130.88
