Data from Uncirc_2000_H10_HRD10591_00059.txt Node
Date: Wed Jan 03 10:48:29 EST 2024
User: Yrep
Spectrometer: HR+D1059
Trigger mode: 1
Integration Time (sec): 1.000000E-1
Scans to average: 1
Electric dark correction enabled: true
Nonlinearity correction enabled: false
Boxcar width: 0
XAxis mode: Wavelengths
Number of Pixels in Spectrum: 2048
>>>>>Begin Spectral Data<<<<<
223.165	-18.38
223.4	-18.38
223.635	-18.38
223.869	-10.38
224.104	-13.38
224.338	-5.38
224.573	-17.38
224.808	-11.38
225.042	-4.38
225.277	-15.38
225.511	-10.38
225.746	3.62
225.98	-2.38
226.215	16.62
226.449	9.62
226.683	23.62
226.918	25.62
227.152	29.62
227.387	39.62
227.621	28.62
227.856	32.62
228.09	42.62
228.324	52.62
228.559	38.62
228.793	69.62
229.027	61.62
229.262	57.62
229.496	78.62
229.73	66.62
229.964	83.62
230.199	63.62
230.433	73.62
230.667	87.62
230.901	68.62
231.136	72.62
231.37	76.62
231.604	70.62
231.838	59.62
232.072	74.62
232.306	80.62
232.541	78.62
232.775	81.62
233.009	90.62
233.243	78.62
233.477	81.62
233.711	86.62
233.945	75.62
234.179	75.62
234.413	82.62
234.647	62.62
234.881	55.62
235.115	95.62
235.349	82.62
235.583	82.62
235.817	71.62
236.051	78.62
236.285	88.62
236.519	85.62
236.753	94.62
236.987	82.62
237.221	70.62
237.455	81.62
237.689	66.62
237.922	83.62
238.156	71.62
238.39	83.62
238.624	69.62
238.858	57.62
239.091	72.62
239.325	78.62
239.559	84.62
239.793	82.62
240.027	98.62
240.26	83.62
240.494	75.62
240.728	85.62
240.961	71.62
241.195	72.62
241.429	78.62
241.662	68.62
241.896	71.62
242.13	71.62
242.363	77.62
242.597	75.62
242.83	75.62
243.064	73.62
243.298	70.62
243.531	75.62
243.765	75.62
243.998	70.62
244.232	76.62
244.465	83.62
244.699	90.62
244.932	82.62
245.166	77.62
245.399	82.62
245.633	71.62
245.866	66.62
246.099	74.62
246.333	76.62
246.566	88.62
246.8	74.62
247.033	76.62
247.266	81.62
247.5	72.62
247.733	74.62
247.966	88.62
248.2	80.62
248.433	84.62
248.666	74.62
248.899	70.62
249.133	82.62
249.366	94.62
249.599	87.62
249.832	86.62
250.066	93.62
250.299	68.62
250.532	75.62
250.765	82.62
250.998	76.62
251.231	89.62
251.465	90.62
251.698	79.62
251.931	75.62
252.164	83.62
252.397	75.62
252.63	68.62
252.863	68.62
253.096	81.62
253.329	74.62
253.562	80.62
253.795	84.62
254.028	83.62
254.261	87.62
254.494	73.62
254.727	80.62
254.96	70.62
255.193	82.62
255.426	98.62
255.659	81.62
255.892	95.62
256.124	80.62
256.357	85.62
256.59	89.62
256.823	74.62
257.056	79.62
257.289	78.62
257.521	82.62
257.754	72.62
257.987	76.62
258.22	84.62
258.452	77.62
258.685	84.62
258.918	87.62
259.151	90.62
259.383	68.62
259.616	84.62
259.849	85.62
260.081	78.62
260.314	88.62
260.547	88.62
260.779	92.62
261.012	78.62
261.244	93.62
261.477	96.62
261.71	90.62
261.942	100.62
262.175	98.62
262.407	79.62
262.64	84.62
262.872	83.62
263.105	72.62
263.337	72.62
263.57	99.62
263.802	82.62
264.035	80.62
264.267	69.62
264.499	68.62
264.732	91.62
264.964	70.62
265.197	76.62
265.429	72.62
265.661	77.62
265.894	75.62
266.126	92.62
266.358	87.62
266.591	85.62
266.823	77.62
267.055	90.62
267.287	85.62
267.52	74.62
267.752	69.62
267.984	90.62
268.216	74.62
268.448	91.62
268.681	85.62
268.913	85.62
269.145	93.62
269.377	84.62
269.609	84.62
269.841	86.62
270.073	86.62
270.306	82.62
270.538	86.62
270.77	76.62
271.002	84.62
271.234	82.62
271.466	74.62
271.698	78.62
271.93	84.62
272.162	82.62
272.394	91.62
272.626	104.62
272.858	84.62
273.09	82.62
273.322	99.62
273.553	82.62
273.785	83.62
274.017	81.62
274.249	78.62
274.481	86.62
274.713	86.62
274.945	85.62
275.176	91.62
275.408	76.62
275.64	85.62
275.872	85.62
276.104	75.62
276.335	93.62
276.567	103.62
276.799	96.62
277.031	93.62
277.262	93.62
277.494	92.62
277.726	79.62
277.957	75.62
278.189	95.62
278.421	80.62
278.652	86.62
278.884	76.62
279.115	79.62
279.347	80.62
279.579	87.62
279.81	76.62
280.042	72.62
280.273	78.62
280.505	90.62
280.736	76.62
280.968	88.62
281.199	83.62
281.431	77.62
281.662	78.62
281.894	89.62
282.125	94.62
282.356	109.62
282.588	132.62
282.819	120.62
283.051	90.62
283.282	86.62
283.513	84.62
283.745	76.62
283.976	92.62
284.207	77.62
284.439	81.62
284.67	87.62
284.901	88.62
285.132	85.62
285.364	93.62
285.595	83.62
285.826	80.62
286.057	76.62
286.288	92.62
286.52	80.62
286.751	87.62
286.982	88.62
287.213	80.62
287.444	87.62
287.675	91.62
287.906	83.62
288.138	76.62
288.369	85.62
288.6	89.62
288.831	80.62
289.062	94.62
289.293	82.62
289.524	76.62
289.755	74.62
289.986	75.62
290.217	84.62
290.448	72.62
290.679	89.62
290.91	94.62
291.141	79.62
291.371	101.62
291.602	88.62
291.833	96.62
292.064	86.62
292.295	88.62
292.526	79.62
292.757	87.62
292.987	82.62
293.218	86.62
293.449	93.62
293.68	81.62
293.91	89.62
294.141	88.62
294.372	91.62
294.603	82.62
294.833	94.62
295.064	73.62
295.295	75.62
295.525	80.62
295.756	93.62
295.987	115.62
296.217	148.62
296.448	114.62
296.679	91.62
296.909	98.62
297.14	98.62
297.37	94.62
297.601	96.62
297.831	89.62
298.062	85.62
298.292	90.62
298.523	92.62
298.753	83.62
298.984	89.62
299.214	84.62
299.445	82.62
299.675	85.62
299.905	88.62
300.136	91.62
300.366	86.62
300.597	78.62
300.827	76.62
301.057	93.62
301.288	109.62
301.518	93.62
301.748	84.62
301.979	102.62
302.209	84.62
302.439	80.62
302.669	87.62
302.9	82.62
303.13	98.62
303.36	89.62
303.59	97.62
303.82	100.62
304.051	89.62
304.281	104.62
304.511	99.62
304.741	88.62
304.971	83.62
305.201	87.62
305.431	86.62
305.661	85.62
305.891	100.62
306.121	96.62
306.352	96.62
306.582	99.62
306.812	96.62
307.042	82.62
307.272	96.62
307.502	84.62
307.731	94.62
307.961	101.62
308.191	94.62
308.421	80.62
308.651	82.62
308.881	100.62
309.111	83.62
309.341	74.62
309.571	92.62
309.8	86.62
310.03	89.62
310.26	83.62
310.49	95.62
310.72	108.62
310.949	104.62
311.179	90.62
311.409	103.62
311.639	93.62
311.868	85.62
312.098	86.62
312.328	102.62
312.557	94.62
312.787	108.62
313.017	92.62
313.246	88.62
313.476	94.62
313.706	97.62
313.935	90.62
314.165	100.62
314.394	104.62
314.624	93.62
314.853	93.62
315.083	90.62
315.312	82.62
315.542	100.62
315.771	87.62
316.001	96.62
316.23	81.62
316.46	93.62
316.689	92.62
316.919	89.62
317.148	98.62
317.377	94.62
317.607	99.62
317.836	92.62
318.065	95.62
318.295	88.62
318.524	95.62
318.753	87.62
318.983	83.62
319.212	98.62
319.441	99.62
319.67	100.62
319.9	81.62
320.129	82.62
320.358	99.62
320.587	94.62
320.816	83.62
321.046	90.62
321.275	91.62
321.504	100.62
321.733	91.62
321.962	90.62
322.191	110.62
322.42	92.62
322.649	96.62
322.878	112.62
323.108	101.62
323.337	120.62
323.566	123.62
323.795	161.62
324.024	205.62
324.253	385.62
324.482	821.62
324.71	1684.62
324.939	2138.62
325.168	780.62
325.397	240.62
325.626	146.62
325.855	125.62
326.084	126.62
326.313	133.62
326.542	157.62
326.77	236.62
326.999	460.62
327.228	925.62
327.457	1680.62
327.686	1318.62
327.914	371.62
328.143	186.62
328.372	136.62
328.6	129.62
328.829	114.62
329.058	121.62
329.287	121.62
329.515	107.62
329.744	101.62
329.972	93.62
330.201	85.62
330.43	101.62
330.658	112.62
330.887	114.62
331.115	118.62
331.344	92.62
331.572	97.62
331.801	91.62
332.03	101.62
332.258	93.62
332.486	102.62
332.715	72.62
332.943	82.62
333.172	101.62
333.4	97.62
333.629	103.62
333.857	102.62
334.085	94.62
334.314	95.62
334.542	89.62
334.771	99.62
334.999	103.62
335.227	100.62
335.455	90.62
335.684	105.62
335.912	95.62
336.14	98.62
336.369	99.62
336.597	106.62
336.825	97.62
337.053	92.62
337.281	91.62
337.51	84.62
337.738	94.62
337.966	100.62
338.194	93.62
338.422	94.62
338.65	94.62
338.878	91.62
339.106	90.62
339.334	88.62
339.562	87.62
339.79	96.62
340.018	89.62
340.246	92.62
340.474	77.62
340.702	112.62
340.93	83.62
341.158	84.62
341.386	100.62
341.614	99.62
341.842	86.62
342.07	88.62
342.298	81.62
342.526	87.62
342.754	97.62
342.981	88.62
343.209	88.62
343.437	87.62
343.665	97.62
343.893	77.62
344.12	92.62
344.348	91.62
344.576	97.62
344.804	106.62
345.031	104.62
345.259	81.62
345.487	98.62
345.714	99.62
345.942	103.62
346.17	80.62
346.397	96.62
346.625	100.62
346.853	91.62
347.08	92.62
347.308	91.62
347.535	92.62
347.763	92.62
347.99	100.62
348.218	108.62
348.445	106.62
348.673	102.62
348.9	97.62
349.128	104.62
349.355	93.62
349.583	105.62
349.81	98.62
350.037	86.62
350.265	89.62
350.492	89.62
350.72	89.62
350.947	101.62
351.174	104.62
351.402	112.62
351.629	106.62
351.856	101.62
352.083	111.62
352.311	101.62
352.538	89.62
352.765	113.62
352.992	105.62
353.22	105.62
353.447	98.62
353.674	109.62
353.901	107.62
354.128	115.62
354.355	104.62
354.583	103.62
354.81	101.62
355.037	111.62
355.264	90.62
355.491	91.62
355.718	87.62
355.945	86.62
356.172	95.62
356.399	112.62
356.626	88.62
356.853	101.62
357.08	100.62
357.307	86.62
357.534	100.62
357.761	84.62
357.988	98.62
358.215	97.62
358.441	86.62
358.668	93.62
358.895	92.62
359.122	91.62
359.349	85.62
359.576	92.62
359.802	87.62
360.029	105.62
360.256	96.62
360.483	100.62
360.709	88.62
360.936	101.62
361.163	88.62
361.39	110.62
361.616	98.62
361.843	95.62
362.07	109.62
362.296	96.62
362.523	99.62
362.749	81.62
362.976	88.62
363.203	76.62
363.429	86.62
363.656	77.62
363.882	94.62
364.109	97.62
364.335	82.62
364.562	90.62
364.788	94.62
365.015	78.62
365.241	85.62
365.468	108.62
365.694	98.62
365.92	103.62
366.147	84.62
366.373	78.62
366.599	88.62
366.826	78.62
367.052	87.62
367.278	91.62
367.505	78.62
367.731	90.62
367.957	100.62
368.184	90.62
368.41	114.62
368.636	116.62
368.862	111.62
369.089	99.62
369.315	101.62
369.541	86.62
369.767	84.62
369.993	97.62
370.219	107.62
370.445	94.62
370.672	97.62
370.898	98.62
371.124	74.62
371.35	89.62
371.576	81.62
371.802	93.62
372.028	103.62
372.254	94.62
372.48	88.62
372.706	89.62
372.932	90.62
373.158	87.62
373.384	85.62
373.61	92.62
373.835	75.62
374.061	81.62
374.287	86.62
374.513	98.62
374.739	98.62
374.965	78.62
375.191	86.62
375.416	92.62
375.642	80.62
375.868	100.62
376.094	86.62
376.319	99.62
376.545	77.62
376.771	80.62
376.997	92.62
377.222	93.62
377.448	100.62
377.674	93.62
377.899	93.62
378.125	91.62
378.35	86.62
378.576	92.62
378.802	91.62
379.027	91.62
379.253	94.62
379.478	88.62
379.704	88.62
379.929	105.62
380.155	95.62
380.38	85.62
380.606	92.62
380.831	88.62
381.057	96.62
381.282	93.62
381.507	93.62
381.733	95.62
381.958	98.62
382.184	91.62
382.409	93.62
382.634	102.62
382.86	105.62
383.085	95.62
383.31	97.62
383.535	86.62
383.761	103.62
383.986	98.62
384.211	99.62
384.436	97.62
384.662	80.62
384.887	106.62
385.112	108.62
385.337	109.62
385.562	103.62
385.787	104.62
386.013	110.62
386.238	114.62
386.463	97.62
386.688	104.62
386.913	102.62
387.138	109.62
387.363	93.62
387.588	88.62
387.813	107.62
388.038	101.62
388.263	107.62
388.488	111.62
388.713	94.62
388.938	98.62
389.163	100.62
389.387	91.62
389.612	92.62
389.837	92.62
390.062	77.62
390.287	73.62
390.512	82.62
390.736	110.62
390.961	100.62
391.186	95.62
391.411	84.62
391.636	84.62
391.86	91.62
392.085	86.62
392.31	80.62
392.534	82.62
392.759	78.62
392.984	90.62
393.208	86.62
393.433	97.62
393.658	98.62
393.882	92.62
394.107	74.62
394.331	85.62
394.556	77.62
394.78	96.62
395.005	97.62
395.229	86.62
395.454	91.62
395.678	111.62
395.903	79.62
396.127	72.62
396.352	96.62
396.576	92.62
396.801	79.62
397.025	85.62
397.249	84.62
397.474	87.62
397.698	98.62
397.922	92.62
398.147	92.62
398.371	80.62
398.595	92.62
398.82	90.62
399.044	93.62
399.268	93.62
399.492	101.62
399.717	94.62
399.941	83.62
400.165	77.62
400.389	87.62
400.613	98.62
400.837	95.62
401.062	88.62
401.286	101.62
401.51	92.62
401.734	70.62
401.958	98.62
402.182	128.62
402.406	137.62
402.63	114.62
402.854	94.62
403.078	89.62
403.302	84.62
403.526	84.62
403.75	66.62
403.974	86.62
404.198	73.62
404.422	81.62
404.645	60.62
404.869	91.62
405.093	98.62
405.317	100.62
405.541	94.62
405.765	107.62
405.988	129.62
406.212	161.62
406.436	205.62
406.66	132.62
406.883	102.62
407.107	84.62
407.331	102.62
407.555	87.62
407.778	90.62
408.002	92.62
408.226	72.62
408.449	72.62
408.673	89.62
408.896	86.62
409.12	105.62
409.344	91.62
409.567	78.62
409.791	91.62
410.014	89.62
410.238	93.62
410.461	93.62
410.685	102.62
410.908	95.62
411.132	107.62
411.355	97.62
411.578	87.62
411.802	93.62
412.025	84.62
412.249	82.62
412.472	96.62
412.695	84.62
412.919	94.62
413.142	97.62
413.365	93.62
413.589	74.62
413.812	75.62
414.035	87.62
414.258	86.62
414.482	78.62
414.705	82.62
414.928	109.62
415.151	102.62
415.374	89.62
415.597	80.62
415.821	97.62
416.044	91.62
416.267	89.62
416.49	94.62
416.713	97.62
416.936	90.62
417.159	93.62
417.382	85.62
417.605	81.62
417.828	87.62
418.051	87.62
418.274	89.62
418.497	98.62
418.72	72.62
418.943	88.62
419.166	79.62
419.389	83.62
419.611	79.62
419.834	77.62
420.057	102.62
420.28	86.62
420.503	76.62
420.726	102.62
420.948	96.62
421.171	94.62
421.394	96.62
421.617	84.62
421.839	95.62
422.062	70.62
422.285	89.62
422.507	92.62
422.73	109.62
422.953	88.62
423.175	82.62
423.398	94.62
423.621	80.62
423.843	77.62
424.066	78.62
424.288	81.62
424.511	82.62
424.733	93.62
424.956	98.62
425.178	100.62
425.401	82.62
425.623	90.62
425.846	84.62
426.068	94.62
426.291	100.62
426.513	87.62
426.735	94.62
426.958	92.62
427.18	89.62
427.402	125.62
427.625	145.62
427.847	119.62
428.069	106.62
428.292	104.62
428.514	92.62
428.736	81.62
428.958	94.62
429.181	84.62
429.403	88.62
429.625	85.62
429.847	83.62
430.069	94.62
430.292	90.62
430.514	89.62
430.736	89.62
430.958	79.62
431.18	78.62
431.402	97.62
431.624	85.62
431.846	99.62
432.068	99.62
432.29	81.62
432.512	90.62
432.734	97.62
432.956	82.62
433.178	108.62
433.4	94.62
433.622	90.62
433.844	91.62
434.066	99.62
434.287	107.62
434.509	92.62
434.731	91.62
434.953	87.62
435.175	88.62
435.397	83.62
435.618	81.62
435.84	108.62
436.062	101.62
436.284	113.62
436.505	103.62
436.727	96.62
436.949	96.62
437.17	89.62
437.392	94.62
437.614	96.62
437.835	105.62
438.057	92.62
438.278	104.62
438.5	91.62
438.721	124.62
438.943	93.62
439.165	85.62
439.386	97.62
439.608	93.62
439.829	96.62
440.05	119.62
440.272	132.62
440.493	98.62
440.715	89.62
440.936	96.62
441.158	82.62
441.379	90.62
441.6	90.62
441.822	78.62
442.043	82.62
442.264	107.62
442.486	89.62
442.707	91.62
442.928	105.62
443.149	114.62
443.371	113.62
443.592	98.62
443.813	118.62
444.034	116.62
444.255	86.62
444.476	103.62
444.698	81.62
444.919	80.62
445.14	127.62
445.361	123.62
445.582	112.62
445.803	135.62
446.024	110.62
446.245	121.62
446.466	102.62
446.687	77.62
446.908	94.62
447.129	71.62
447.35	89.62
447.571	75.62
447.792	90.62
448.013	100.62
448.234	99.62
448.455	92.62
448.675	91.62
448.896	97.62
449.117	99.62
449.338	86.62
449.559	114.62
449.779	139.62
450	89.62
450.221	86.62
450.442	70.62
450.662	89.62
450.883	88.62
451.104	106.62
451.324	101.62
451.545	84.62
451.766	85.62
451.986	70.62
452.207	77.62
452.428	94.62
452.648	88.62
452.869	108.62
453.089	103.62
453.31	104.62
453.53	94.62
453.751	86.62
453.971	100.62
454.192	110.62
454.412	100.62
454.633	92.62
454.853	94.62
455.073	88.62
455.294	92.62
455.514	100.62
455.734	84.62
455.955	80.62
456.175	65.62
456.395	84.62
456.616	85.62
456.836	78.62
457.056	89.62
457.276	81.62
457.497	76.62
457.717	85.62
457.937	70.62
458.157	94.62
458.377	88.62
458.598	96.62
458.818	144.62
459.038	161.62
459.258	121.62
459.478	94.62
459.698	88.62
459.918	79.62
460.138	76.62
460.358	77.62
460.578	76.62
460.798	89.62
461.018	91.62
461.238	83.62
461.458	94.62
461.678	89.62
461.898	88.62
462.118	92.62
462.338	84.62
462.558	115.62
462.777	96.62
462.997	78.62
463.217	83.62
463.437	79.62
463.657	98.62
463.876	78.62
464.096	95.62
464.316	93.62
464.536	91.62
464.755	78.62
464.975	91.62
465.195	154.62
465.414	146.62
465.634	91.62
465.854	88.62
466.073	78.62
466.293	76.62
466.512	69.62
466.732	78.62
466.951	83.62
467.171	94.62
467.391	104.62
467.61	119.62
467.829	101.62
468.049	91.62
468.268	96.62
468.488	73.62
468.707	76.62
468.927	91.62
469.146	76.62
469.365	93.62
469.585	84.62
469.804	94.62
470.023	98.62
470.243	82.62
470.462	89.62
470.681	97.62
470.901	94.62
471.12	85.62
471.339	91.62
471.558	91.62
471.777	89.62
471.997	85.62
472.216	92.62
472.435	91.62
472.654	92.62
472.873	81.62
473.092	90.62
473.311	90.62
473.53	76.62
473.749	89.62
473.968	101.62
474.187	97.62
474.406	85.62
474.625	84.62
474.844	99.62
475.063	79.62
475.282	83.62
475.501	76.62
475.72	91.62
475.939	94.62
476.158	88.62
476.377	90.62
476.596	85.62
476.814	100.62
477.033	89.62
477.252	85.62
477.471	97.62
477.69	106.62
477.908	99.62
478.127	89.62
478.346	86.62
478.564	82.62
478.783	96.62
479.002	92.62
479.22	85.62
479.439	109.62
479.658	98.62
479.876	84.62
480.095	87.62
480.313	86.62
480.532	80.62
480.751	95.62
480.969	84.62
481.188	101.62
481.406	100.62
481.624	94.62
481.843	85.62
482.061	95.62
482.28	84.62
482.498	91.62
482.717	103.62
482.935	70.62
483.153	72.62
483.372	85.62
483.59	99.62
483.808	90.62
484.027	99.62
484.245	98.62
484.463	98.62
484.681	94.62
484.9	78.62
485.118	98.62
485.336	90.62
485.554	86.62
485.772	109.62
485.99	102.62
486.209	105.62
486.427	94.62
486.645	110.62
486.863	107.62
487.081	89.62
487.299	89.62
487.517	97.62
487.735	100.62
487.953	98.62
488.171	102.62
488.389	101.62
488.607	111.62
488.825	101.62
489.043	98.62
489.261	92.62
489.479	91.62
489.696	101.62
489.914	107.62
490.132	104.62
490.35	68.62
490.568	92.62
490.786	80.62
491.003	97.62
491.221	100.62
491.439	101.62
491.657	105.62
491.874	81.62
492.092	88.62
492.31	92.62
492.527	91.62
492.745	87.62
492.963	87.62
493.18	85.62
493.398	94.62
493.615	91.62
493.833	116.62
494.05	89.62
494.268	93.62
494.485	89.62
494.703	85.62
494.92	97.62
495.138	87.62
495.355	100.62
495.573	74.62
495.79	77.62
496.008	95.62
496.225	102.62
496.442	91.62
496.66	84.62
496.877	103.62
497.094	104.62
497.312	98.62
497.529	76.62
497.746	83.62
497.963	100.62
498.181	87.62
498.398	84.62
498.615	101.62
498.832	111.62
499.049	95.62
499.267	91.62
499.484	119.62
499.701	88.62
499.918	101.62
500.135	83.62
500.352	85.62
500.569	91.62
500.786	103.62
501.003	101.62
501.22	82.62
501.437	80.62
501.654	96.62
501.871	98.62
502.088	93.62
502.305	96.62
502.522	96.62
502.739	92.62
502.956	98.62
503.172	96.62
503.389	103.62
503.606	100.62
503.823	84.62
504.04	90.62
504.256	90.62
504.473	85.62
504.69	98.62
504.907	93.62
505.123	104.62
505.34	71.62
505.557	101.62
505.773	85.62
505.99	87.62
506.207	88.62
506.423	94.62
506.64	76.62
506.856	96.62
507.073	97.62
507.289	87.62
507.506	102.62
507.722	114.62
507.939	99.62
508.155	95.62
508.372	87.62
508.588	87.62
508.805	104.62
509.021	84.62
509.238	100.62
509.454	93.62
509.67	99.62
509.887	110.62
510.103	133.62
510.319	196.62
510.536	740.62
510.752	2314.62
510.968	638.62
511.184	153.62
511.401	101.62
511.617	91.62
511.833	92.62
512.049	94.62
512.265	91.62
512.481	94.62
512.698	89.62
512.914	92.62
513.13	89.62
513.346	86.62
513.562	82.62
513.778	108.62
513.994	84.62
514.21	88.62
514.426	115.62
514.642	130.62
514.858	116.62
515.074	147.62
515.29	423.62
515.506	1350.62
515.721	502.62
515.937	149.62
516.153	106.62
