Data from Uncirc_2000_H10_HRD10591_00030.txt Node
Date: Wed Jan 03 10:48:23 EST 2024
User: Yrep
Spectrometer: HR+D1059
Trigger mode: 1
Integration Time (sec): 1.000000E-1
Scans to average: 1
Electric dark correction enabled: true
Nonlinearity correction enabled: false
Boxcar width: 0
XAxis mode: Wavelengths
Number of Pixels in Spectrum: 2048
>>>>>Begin Spectral Data<<<<<
223.165	-18.81
223.4	-18.81
223.635	-18.81
223.869	-34.81
224.104	-21.81
224.338	-17.81
224.573	-9.81
224.808	-7.81
225.042	-6.81
225.277	-9.81
225.511	8.19
225.746	0.19
225.98	5.19
226.215	20.19
226.449	17.19
226.683	25.19
226.918	21.19
227.152	30.19
227.387	36.19
227.621	40.19
227.856	57.19
228.09	44.19
228.324	51.19
228.559	68.19
228.793	68.19
229.027	50.19
229.262	68.19
229.496	64.19
229.73	83.19
229.964	86.19
230.199	82.19
230.433	83.19
230.667	82.19
230.901	79.19
231.136	82.19
231.37	88.19
231.604	88.19
231.838	74.19
232.072	81.19
232.306	75.19
232.541	83.19
232.775	78.19
233.009	87.19
233.243	90.19
233.477	90.19
233.711	69.19
233.945	80.19
234.179	82.19
234.413	85.19
234.647	78.19
234.881	86.19
235.115	85.19
235.349	84.19
235.583	68.19
235.817	84.19
236.051	73.19
236.285	71.19
236.519	75.19
236.753	82.19
236.987	69.19
237.221	69.19
237.455	87.19
237.689	73.19
237.922	81.19
238.156	72.19
238.39	70.19
238.624	73.19
238.858	89.19
239.091	88.19
239.325	86.19
239.559	76.19
239.793	79.19
240.027	76.19
240.26	77.19
240.494	72.19
240.728	83.19
240.961	79.19
241.195	89.19
241.429	77.19
241.662	77.19
241.896	78.19
242.13	81.19
242.363	69.19
242.597	80.19
242.83	73.19
243.064	78.19
243.298	75.19
243.531	72.19
243.765	87.19
243.998	75.19
244.232	77.19
244.465	96.19
244.699	83.19
244.932	77.19
245.166	86.19
245.399	87.19
245.633	83.19
245.866	91.19
246.099	81.19
246.333	84.19
246.566	62.19
246.8	74.19
247.033	73.19
247.266	87.19
247.5	70.19
247.733	80.19
247.966	80.19
248.2	59.19
248.433	82.19
248.666	76.19
248.899	86.19
249.133	88.19
249.366	88.19
249.599	95.19
249.832	78.19
250.066	72.19
250.299	84.19
250.532	81.19
250.765	72.19
250.998	74.19
251.231	102.19
251.465	77.19
251.698	91.19
251.931	80.19
252.164	83.19
252.397	83.19
252.63	77.19
252.863	65.19
253.096	76.19
253.329	89.19
253.562	83.19
253.795	69.19
254.028	73.19
254.261	82.19
254.494	86.19
254.727	83.19
254.96	101.19
255.193	84.19
255.426	82.19
255.659	79.19
255.892	76.19
256.124	89.19
256.357	100.19
256.59	66.19
256.823	76.19
257.056	88.19
257.289	93.19
257.521	84.19
257.754	83.19
257.987	80.19
258.22	85.19
258.452	81.19
258.685	76.19
258.918	81.19
259.151	87.19
259.383	90.19
259.616	84.19
259.849	83.19
260.081	80.19
260.314	83.19
260.547	78.19
260.779	61.19
261.012	86.19
261.244	81.19
261.477	76.19
261.71	97.19
261.942	111.19
262.175	112.19
262.407	82.19
262.64	86.19
262.872	93.19
263.105	92.19
263.337	76.19
263.57	84.19
263.802	74.19
264.035	87.19
264.267	80.19
264.499	89.19
264.732	91.19
264.964	80.19
265.197	97.19
265.429	80.19
265.661	92.19
265.894	71.19
266.126	86.19
266.358	74.19
266.591	74.19
266.823	75.19
267.055	81.19
267.287	96.19
267.52	85.19
267.752	71.19
267.984	93.19
268.216	77.19
268.448	94.19
268.681	78.19
268.913	93.19
269.145	89.19
269.377	72.19
269.609	87.19
269.841	78.19
270.073	87.19
270.306	81.19
270.538	77.19
270.77	71.19
271.002	90.19
271.234	88.19
271.466	80.19
271.698	86.19
271.93	86.19
272.162	99.19
272.394	75.19
272.626	82.19
272.858	81.19
273.09	86.19
273.322	92.19
273.553	77.19
273.785	82.19
274.017	68.19
274.249	84.19
274.481	76.19
274.713	88.19
274.945	80.19
275.176	69.19
275.408	86.19
275.64	73.19
275.872	85.19
276.104	86.19
276.335	76.19
276.567	87.19
276.799	86.19
277.031	97.19
277.262	100.19
277.494	92.19
277.726	87.19
277.957	75.19
278.189	88.19
278.421	93.19
278.652	97.19
278.884	91.19
279.115	74.19
279.347	75.19
279.579	82.19
279.81	79.19
280.042	89.19
280.273	81.19
280.505	81.19
280.736	73.19
280.968	85.19
281.199	84.19
281.431	75.19
281.662	81.19
281.894	84.19
282.125	84.19
282.356	101.19
282.588	141.19
282.819	103.19
283.051	84.19
283.282	90.19
283.513	76.19
283.745	79.19
283.976	85.19
284.207	85.19
284.439	102.19
284.67	98.19
284.901	75.19
285.132	82.19
285.364	99.19
285.595	82.19
285.826	87.19
286.057	86.19
286.288	86.19
286.52	90.19
286.751	91.19
286.982	74.19
287.213	78.19
287.444	86.19
287.675	84.19
287.906	104.19
288.138	82.19
288.369	95.19
288.6	79.19
288.831	86.19
289.062	92.19
289.293	86.19
289.524	89.19
289.755	95.19
289.986	100.19
290.217	88.19
290.448	96.19
290.679	95.19
290.91	88.19
291.141	90.19
291.371	85.19
291.602	94.19
291.833	73.19
292.064	69.19
292.295	92.19
292.526	101.19
292.757	89.19
292.987	85.19
293.218	81.19
293.449	84.19
293.68	89.19
293.91	107.19
294.141	98.19
294.372	98.19
294.603	93.19
294.833	89.19
295.064	96.19
295.295	92.19
295.525	92.19
295.756	113.19
295.987	114.19
296.217	118.19
296.448	108.19
296.679	99.19
296.909	83.19
297.14	80.19
297.37	92.19
297.601	91.19
297.831	105.19
298.062	91.19
298.292	68.19
298.523	89.19
298.753	94.19
298.984	69.19
299.214	76.19
299.445	79.19
299.675	83.19
299.905	86.19
300.136	91.19
300.366	78.19
300.597	97.19
300.827	87.19
301.057	96.19
301.288	114.19
301.518	102.19
301.748	92.19
301.979	93.19
302.209	90.19
302.439	105.19
302.669	89.19
302.9	88.19
303.13	97.19
303.36	81.19
303.59	98.19
303.82	106.19
304.051	99.19
304.281	92.19
304.511	93.19
304.741	85.19
304.971	87.19
305.201	94.19
305.431	89.19
305.661	88.19
305.891	94.19
306.121	91.19
306.352	106.19
306.582	101.19
306.812	86.19
307.042	79.19
307.272	80.19
307.502	98.19
307.731	98.19
307.961	97.19
308.191	92.19
308.421	84.19
308.651	89.19
308.881	86.19
309.111	86.19
309.341	94.19
309.571	99.19
309.8	82.19
310.03	94.19
310.26	92.19
310.49	92.19
310.72	94.19
310.949	102.19
311.179	98.19
311.409	90.19
311.639	96.19
311.868	104.19
312.098	88.19
312.328	114.19
312.557	108.19
312.787	106.19
313.017	85.19
313.246	94.19
313.476	90.19
313.706	94.19
313.935	99.19
314.165	89.19
314.394	94.19
314.624	93.19
314.853	101.19
315.083	91.19
315.312	105.19
315.542	102.19
315.771	97.19
316.001	88.19
316.23	93.19
316.46	103.19
316.689	92.19
316.919	86.19
317.148	94.19
317.377	87.19
317.607	95.19
317.836	104.19
318.065	87.19
318.295	86.19
318.524	91.19
318.753	90.19
318.983	86.19
319.212	97.19
319.441	104.19
319.67	117.19
319.9	100.19
320.129	108.19
320.358	91.19
320.587	97.19
320.816	100.19
321.046	93.19
321.275	93.19
321.504	105.19
321.733	123.19
321.962	95.19
322.191	102.19
322.42	100.19
322.649	101.19
322.878	113.19
323.108	112.19
323.337	136.19
323.566	122.19
323.795	140.19
324.024	198.19
324.253	360.19
324.482	782.19
324.71	1569.19
324.939	2066.19
325.168	742.19
325.397	234.19
325.626	154.19
325.855	131.19
326.084	120.19
326.313	139.19
326.542	158.19
326.77	211.19
326.999	418.19
327.228	869.19
327.457	1592.19
327.686	1320.19
327.914	353.19
328.143	172.19
328.372	139.19
328.6	102.19
328.829	121.19
329.058	123.19
329.287	134.19
329.515	103.19
329.744	107.19
329.972	99.19
330.201	105.19
330.43	115.19
330.658	116.19
330.887	121.19
331.115	113.19
331.344	98.19
331.572	108.19
331.801	83.19
332.03	92.19
332.258	96.19
332.486	81.19
332.715	84.19
332.943	90.19
333.172	89.19
333.4	88.19
333.629	102.19
333.857	98.19
334.085	105.19
334.314	95.19
334.542	102.19
334.771	92.19
334.999	97.19
335.227	100.19
335.455	97.19
335.684	104.19
335.912	94.19
336.14	102.19
336.369	103.19
336.597	109.19
336.825	94.19
337.053	94.19
337.281	97.19
337.51	97.19
337.738	100.19
337.966	103.19
338.194	93.19
338.422	99.19
338.65	97.19
338.878	86.19
339.106	80.19
339.334	90.19
339.562	89.19
339.79	90.19
340.018	90.19
340.246	81.19
340.474	92.19
340.702	92.19
340.93	79.19
341.158	86.19
341.386	97.19
341.614	82.19
341.842	112.19
342.07	106.19
342.298	99.19
342.526	89.19
342.754	93.19
342.981	86.19
343.209	100.19
343.437	105.19
343.665	92.19
343.893	94.19
344.12	106.19
344.348	94.19
344.576	98.19
344.804	91.19
345.031	95.19
345.259	96.19
345.487	108.19
345.714	96.19
345.942	84.19
346.17	94.19
346.397	98.19
346.625	96.19
346.853	86.19
347.08	87.19
347.308	91.19
347.535	104.19
347.763	92.19
347.99	89.19
348.218	106.19
348.445	105.19
348.673	107.19
348.9	97.19
349.128	94.19
349.355	97.19
349.583	93.19
349.81	91.19
350.037	90.19
350.265	88.19
350.492	106.19
350.72	91.19
350.947	94.19
351.174	108.19
351.402	106.19
351.629	98.19
351.856	97.19
352.083	109.19
352.311	113.19
352.538	98.19
352.765	93.19
352.992	106.19
353.22	120.19
353.447	88.19
353.674	93.19
353.901	95.19
354.128	102.19
354.355	93.19
354.583	91.19
354.81	89.19
355.037	103.19
355.264	101.19
355.491	90.19
355.718	94.19
355.945	94.19
356.172	106.19
356.399	99.19
356.626	99.19
356.853	92.19
357.08	106.19
357.307	88.19
357.534	93.19
357.761	89.19
357.988	88.19
358.215	92.19
358.441	90.19
358.668	88.19
358.895	84.19
359.122	93.19
359.349	85.19
359.576	89.19
359.802	89.19
360.029	89.19
360.256	98.19
360.483	96.19
360.709	88.19
360.936	92.19
361.163	93.19
361.39	103.19
361.616	95.19
361.843	69.19
362.07	107.19
362.296	99.19
362.523	104.19
362.749	101.19
362.976	93.19
363.203	91.19
363.429	90.19
363.656	79.19
363.882	91.19
364.109	106.19
364.335	86.19
364.562	87.19
364.788	88.19
365.015	109.19
365.241	86.19
365.468	112.19
365.694	91.19
365.92	85.19
366.147	100.19
366.373	87.19
366.599	77.19
366.826	92.19
367.052	88.19
367.278	92.19
367.505	84.19
367.731	101.19
367.957	102.19
368.184	90.19
368.41	87.19
368.636	99.19
368.862	118.19
369.089	97.19
369.315	82.19
369.541	87.19
369.767	87.19
369.993	100.19
370.219	98.19
370.445	74.19
370.672	99.19
370.898	108.19
371.124	97.19
371.35	100.19
371.576	85.19
371.802	84.19
372.028	90.19
372.254	80.19
372.48	85.19
372.706	91.19
372.932	76.19
373.158	83.19
373.384	88.19
373.61	84.19
373.835	82.19
374.061	94.19
374.287	90.19
374.513	93.19
374.739	86.19
374.965	92.19
375.191	104.19
375.416	107.19
375.642	93.19
375.868	107.19
376.094	82.19
376.319	80.19
376.545	88.19
376.771	88.19
376.997	98.19
377.222	101.19
377.448	91.19
377.674	96.19
377.899	77.19
378.125	82.19
378.35	73.19
378.576	96.19
378.802	90.19
379.027	108.19
379.253	100.19
379.478	89.19
379.704	98.19
379.929	98.19
380.155	97.19
380.38	104.19
380.606	91.19
380.831	107.19
381.057	93.19
381.282	104.19
381.507	97.19
381.733	87.19
381.958	104.19
382.184	81.19
382.409	98.19
382.634	99.19
382.86	94.19
383.085	102.19
383.31	113.19
383.535	91.19
383.761	74.19
383.986	97.19
384.211	98.19
384.436	95.19
384.662	113.19
384.887	92.19
385.112	107.19
385.337	87.19
385.562	118.19
385.787	107.19
386.013	107.19
386.238	108.19
386.463	103.19
386.688	103.19
386.913	98.19
387.138	99.19
387.363	103.19
387.588	106.19
387.813	92.19
388.038	109.19
388.263	107.19
388.488	94.19
388.713	93.19
388.938	89.19
389.163	99.19
389.387	100.19
389.612	98.19
389.837	88.19
390.062	86.19
390.287	104.19
390.512	80.19
390.736	108.19
390.961	91.19
391.186	96.19
391.411	75.19
391.636	92.19
391.86	76.19
392.085	72.19
392.31	82.19
392.534	75.19
392.759	91.19
392.984	93.19
393.208	91.19
393.433	89.19
393.658	87.19
393.882	78.19
394.107	97.19
394.331	76.19
394.556	94.19
394.78	97.19
395.005	91.19
395.229	87.19
395.454	87.19
395.678	82.19
395.903	86.19
396.127	88.19
396.352	89.19
396.576	80.19
396.801	92.19
397.025	97.19
397.249	91.19
397.474	88.19
397.698	80.19
397.922	91.19
398.147	89.19
398.371	93.19
398.595	82.19
398.82	87.19
399.044	82.19
399.268	108.19
399.492	91.19
399.717	101.19
399.941	77.19
400.165	87.19
400.389	81.19
400.613	81.19
400.837	86.19
401.062	91.19
401.286	92.19
401.51	93.19
401.734	91.19
401.958	100.19
402.182	119.19
402.406	152.19
402.63	116.19
402.854	95.19
403.078	92.19
403.302	88.19
403.526	83.19
403.75	93.19
403.974	91.19
404.198	89.19
404.422	85.19
404.645	88.19
404.869	94.19
405.093	91.19
405.317	98.19
405.541	100.19
405.765	82.19
405.988	105.19
406.212	158.19
406.436	205.19
406.66	129.19
406.883	104.19
407.107	86.19
407.331	100.19
407.555	89.19
407.778	99.19
408.002	87.19
408.226	100.19
408.449	76.19
408.673	80.19
408.896	80.19
409.12	101.19
409.344	87.19
409.567	91.19
409.791	101.19
410.014	95.19
410.238	97.19
410.461	85.19
410.685	83.19
410.908	99.19
411.132	99.19
411.355	86.19
411.578	87.19
411.802	79.19
412.025	92.19
412.249	84.19
412.472	101.19
412.695	85.19
412.919	94.19
413.142	91.19
413.365	90.19
413.589	101.19
413.812	91.19
414.035	86.19
414.258	107.19
414.482	101.19
414.705	92.19
414.928	80.19
415.151	75.19
415.374	83.19
415.597	100.19
415.821	92.19
416.044	96.19
416.267	84.19
416.49	97.19
416.713	89.19
416.936	86.19
417.159	83.19
417.382	90.19
417.605	92.19
417.828	95.19
418.051	83.19
418.274	91.19
418.497	83.19
418.72	91.19
418.943	87.19
419.166	101.19
419.389	90.19
419.611	93.19
419.834	95.19
420.057	94.19
420.28	85.19
420.503	85.19
420.726	74.19
420.948	85.19
421.171	85.19
421.394	87.19
421.617	97.19
421.839	82.19
422.062	76.19
422.285	96.19
422.507	88.19
422.73	94.19
422.953	95.19
423.175	98.19
423.398	91.19
423.621	74.19
423.843	84.19
424.066	82.19
424.288	78.19
424.511	108.19
424.733	100.19
424.956	91.19
425.178	99.19
425.401	86.19
425.623	101.19
425.846	88.19
426.068	82.19
426.291	98.19
426.513	95.19
426.735	88.19
426.958	81.19
427.18	109.19
427.402	118.19
427.625	145.19
427.847	113.19
428.069	90.19
428.292	92.19
428.514	92.19
428.736	85.19
428.958	93.19
429.181	85.19
429.403	77.19
429.625	78.19
429.847	89.19
430.069	85.19
430.292	102.19
430.514	97.19
430.736	94.19
430.958	80.19
431.18	91.19
431.402	83.19
431.624	81.19
431.846	83.19
432.068	96.19
432.29	86.19
432.512	99.19
432.734	93.19
432.956	68.19
433.178	98.19
433.4	91.19
433.622	96.19
433.844	93.19
434.066	95.19
434.287	89.19
434.509	84.19
434.731	96.19
434.953	88.19
435.175	95.19
435.397	100.19
435.618	104.19
435.84	90.19
436.062	120.19
436.284	112.19
436.505	116.19
436.727	94.19
436.949	94.19
437.17	75.19
437.392	91.19
437.614	92.19
437.835	101.19
438.057	105.19
438.278	86.19
438.5	89.19
438.721	103.19
438.943	92.19
439.165	95.19
439.386	90.19
439.608	89.19
439.829	88.19
440.05	108.19
440.272	138.19
440.493	80.19
440.715	89.19
440.936	93.19
441.158	98.19
441.379	109.19
441.6	99.19
441.822	92.19
442.043	90.19
442.264	82.19
442.486	75.19
442.707	96.19
442.928	108.19
443.149	122.19
443.371	134.19
443.592	108.19
443.813	96.19
444.034	109.19
444.255	88.19
444.476	84.19
444.698	86.19
444.919	104.19
445.14	122.19
445.361	117.19
445.582	121.19
445.803	129.19
446.024	131.19
446.245	111.19
446.466	108.19
446.687	80.19
446.908	83.19
447.129	73.19
447.35	89.19
447.571	98.19
447.792	80.19
448.013	87.19
448.234	104.19
448.455	91.19
448.675	107.19
448.896	106.19
449.117	86.19
449.338	84.19
449.559	132.19
449.779	115.19
450	99.19
450.221	91.19
450.442	94.19
450.662	87.19
450.883	96.19
451.104	93.19
451.324	94.19
451.545	72.19
451.766	79.19
451.986	76.19
452.207	89.19
452.428	96.19
452.648	96.19
452.869	102.19
453.089	117.19
453.31	106.19
453.53	86.19
453.751	100.19
453.971	96.19
454.192	113.19
454.412	79.19
454.633	87.19
454.853	90.19
455.073	82.19
455.294	86.19
455.514	90.19
455.734	74.19
455.955	85.19
456.175	89.19
456.395	90.19
456.616	94.19
456.836	94.19
457.056	87.19
457.276	71.19
457.497	76.19
457.717	101.19
457.937	82.19
458.157	89.19
458.377	88.19
458.598	101.19
458.818	119.19
459.038	128.19
459.258	98.19
459.478	72.19
459.698	76.19
459.918	80.19
460.138	98.19
460.358	95.19
460.578	99.19
460.798	84.19
461.018	109.19
461.238	77.19
461.458	83.19
461.678	79.19
461.898	86.19
462.118	88.19
462.338	92.19
462.558	81.19
462.777	74.19
462.997	85.19
463.217	68.19
463.437	97.19
463.657	90.19
463.876	84.19
464.096	93.19
464.316	92.19
464.536	100.19
464.755	83.19
464.975	95.19
465.195	147.19
465.414	134.19
465.634	94.19
465.854	96.19
466.073	91.19
466.293	93.19
466.512	92.19
466.732	86.19
466.951	88.19
467.171	102.19
467.391	89.19
467.61	87.19
467.829	90.19
468.049	90.19
468.268	98.19
468.488	77.19
468.707	84.19
468.927	85.19
469.146	82.19
469.365	82.19
469.585	88.19
469.804	87.19
470.023	80.19
470.243	86.19
470.462	100.19
470.681	118.19
470.901	93.19
471.12	81.19
471.339	75.19
471.558	83.19
471.777	76.19
471.997	79.19
472.216	90.19
472.435	83.19
472.654	84.19
472.873	95.19
473.092	93.19
473.311	74.19
473.53	93.19
473.749	81.19
473.968	110.19
474.187	111.19
474.406	107.19
474.625	82.19
474.844	86.19
475.063	84.19
475.282	86.19
475.501	92.19
475.72	93.19
475.939	94.19
476.158	97.19
476.377	77.19
476.596	83.19
476.814	89.19
477.033	81.19
477.252	89.19
477.471	98.19
477.69	94.19
477.908	96.19
478.127	82.19
478.346	94.19
478.564	91.19
478.783	77.19
479.002	100.19
479.22	91.19
479.439	108.19
479.658	94.19
479.876	97.19
480.095	100.19
480.313	85.19
480.532	83.19
480.751	91.19
480.969	99.19
481.188	94.19
481.406	100.19
481.624	105.19
481.843	90.19
482.061	90.19
482.28	88.19
482.498	97.19
482.717	87.19
482.935	84.19
483.153	80.19
483.372	92.19
483.59	93.19
483.808	98.19
484.027	94.19
484.245	94.19
484.463	96.19
484.681	96.19
484.9	100.19
485.118	103.19
485.336	81.19
485.554	80.19
485.772	105.19
485.99	115.19
486.209	107.19
486.427	106.19
486.645	97.19
486.863	104.19
487.081	92.19
487.299	100.19
487.517	88.19
487.735	91.19
487.953	90.19
488.171	90.19
488.389	83.19
488.607	80.19
488.825	94.19
489.043	81.19
489.261	96.19
489.479	78.19
489.696	93.19
489.914	90.19
490.132	76.19
490.35	102.19
490.568	81.19
490.786	77.19
491.003	97.19
491.221	89.19
491.439	86.19
491.657	88.19
491.874	89.19
492.092	74.19
492.31	97.19
492.527	81.19
492.745	85.19
492.963	93.19
493.18	94.19
493.398	101.19
493.615	96.19
493.833	93.19
494.05	85.19
494.268	87.19
494.485	93.19
494.703	84.19
494.92	98.19
495.138	85.19
495.355	82.19
495.573	82.19
495.79	101.19
496.008	93.19
496.225	77.19
496.442	88.19
496.66	94.19
496.877	90.19
497.094	101.19
497.312	100.19
497.529	91.19
497.746	94.19
497.963	94.19
498.181	94.19
498.398	109.19
498.615	113.19
498.832	93.19
499.049	89.19
499.267	85.19
499.484	90.19
499.701	105.19
499.918	89.19
500.135	85.19
500.352	80.19
500.569	98.19
500.786	91.19
501.003	94.19
501.22	91.19
501.437	88.19
501.654	104.19
501.871	94.19
502.088	99.19
502.305	80.19
502.522	89.19
502.739	85.19
502.956	91.19
503.172	87.19
503.389	95.19
503.606	104.19
503.823	88.19
504.04	86.19
504.256	95.19
504.473	91.19
504.69	92.19
504.907	100.19
505.123	76.19
505.34	86.19
505.557	86.19
505.773	87.19
505.99	109.19
506.207	90.19
506.423	83.19
506.64	99.19
506.856	97.19
507.073	85.19
507.289	99.19
507.506	87.19
507.722	103.19
507.939	104.19
508.155	81.19
508.372	88.19
508.588	80.19
508.805	104.19
509.021	110.19
509.238	87.19
509.454	100.19
509.67	111.19
509.887	105.19
510.103	121.19
510.319	212.19
510.536	720.19
510.752	2269.19
510.968	645.19
511.184	143.19
511.401	124.19
511.617	105.19
511.833	92.19
512.049	104.19
512.265	90.19
512.481	88.19
512.698	89.19
512.914	105.19
513.13	99.19
513.346	88.19
513.562	93.19
513.778	87.19
513.994	109.19
514.21	104.19
514.426	105.19
514.642	129.19
514.858	124.19
515.074	164.19
515.29	413.19
515.506	1310.19
515.721	487.19
515.937	131.19
