Data from Uncirc_2000_H10_HRD10591_00098.txt Node
Date: Wed Jan 03 10:48:36 EST 2024
User: Yrep
Spectrometer: HR+D1059
Trigger mode: 1
Integration Time (sec): 1.000000E-1
Scans to average: 1
Electric dark correction enabled: true
Nonlinearity correction enabled: false
Boxcar width: 0
XAxis mode: Wavelengths
Number of Pixels in Spectrum: 2048
>>>>>Begin Spectral Data<<<<<
223.165	-15.25
223.4	-15.25
223.635	-15.25
223.869	-7.25
224.104	-17.25
224.338	-15.25
224.573	-19.25
224.808	-13.25
225.042	-12.25
225.277	2.75
225.511	-2.25
225.746	-7.25
225.98	9.75
226.215	9.75
226.449	2.75
226.683	24.75
226.918	24.75
227.152	34.75
227.387	24.75
227.621	22.75
227.856	40.75
228.09	46.75
228.324	47.75
228.559	62.75
228.793	50.75
229.027	63.75
229.262	65.75
229.496	80.75
229.73	68.75
229.964	85.75
230.199	73.75
230.433	94.75
230.667	89.75
230.901	91.75
231.136	72.75
231.37	70.75
231.604	70.75
231.838	79.75
232.072	79.75
232.306	72.75
232.541	77.75
232.775	80.75
233.009	82.75
233.243	84.75
233.477	84.75
233.711	89.75
233.945	76.75
234.179	87.75
234.413	80.75
234.647	79.75
234.881	74.75
235.115	64.75
235.349	69.75
235.583	77.75
235.817	77.75
236.051	78.75
236.285	71.75
236.519	66.75
236.753	84.75
236.987	86.75
237.221	94.75
237.455	62.75
237.689	83.75
237.922	80.75
238.156	65.75
238.39	69.75
238.624	75.75
238.858	64.75
239.091	74.75
239.325	70.75
239.559	76.75
239.793	63.75
240.027	57.75
240.26	73.75
240.494	82.75
240.728	81.75
240.961	67.75
241.195	79.75
241.429	80.75
241.662	72.75
241.896	69.75
242.13	81.75
242.363	78.75
242.597	89.75
242.83	67.75
243.064	71.75
243.298	69.75
243.531	70.75
243.765	78.75
243.998	81.75
244.232	66.75
244.465	63.75
244.699	77.75
244.932	86.75
245.166	91.75
245.399	71.75
245.633	71.75
245.866	66.75
246.099	67.75
246.333	81.75
246.566	74.75
246.8	67.75
247.033	69.75
247.266	83.75
247.5	63.75
247.733	90.75
247.966	73.75
248.2	73.75
248.433	86.75
248.666	79.75
248.899	69.75
249.133	90.75
249.366	105.75
249.599	89.75
249.832	75.75
250.066	71.75
250.299	75.75
250.532	79.75
250.765	70.75
250.998	67.75
251.231	87.75
251.465	73.75
251.698	67.75
251.931	65.75
252.164	64.75
252.397	82.75
252.63	70.75
252.863	83.75
253.096	73.75
253.329	80.75
253.562	75.75
253.795	71.75
254.028	67.75
254.261	75.75
254.494	88.75
254.727	89.75
254.96	80.75
255.193	70.75
255.426	77.75
255.659	99.75
255.892	83.75
256.124	66.75
256.357	77.75
256.59	80.75
256.823	82.75
257.056	87.75
257.289	86.75
257.521	68.75
257.754	77.75
257.987	95.75
258.22	70.75
258.452	71.75
258.685	79.75
258.918	87.75
259.151	72.75
259.383	86.75
259.616	83.75
259.849	93.75
260.081	74.75
260.314	76.75
260.547	79.75
260.779	67.75
261.012	75.75
261.244	85.75
261.477	89.75
261.71	66.75
261.942	103.75
262.175	107.75
262.407	90.75
262.64	89.75
262.872	84.75
263.105	88.75
263.337	85.75
263.57	71.75
263.802	86.75
264.035	82.75
264.267	72.75
264.499	72.75
264.732	95.75
264.964	81.75
265.197	85.75
265.429	79.75
265.661	67.75
265.894	68.75
266.126	85.75
266.358	85.75
266.591	80.75
266.823	78.75
267.055	79.75
267.287	73.75
267.52	80.75
267.752	82.75
267.984	79.75
268.216	78.75
268.448	96.75
268.681	80.75
268.913	88.75
269.145	82.75
269.377	89.75
269.609	92.75
269.841	90.75
270.073	77.75
270.306	73.75
270.538	81.75
270.77	82.75
271.002	82.75
271.234	89.75
271.466	82.75
271.698	80.75
271.93	75.75
272.162	78.75
272.394	67.75
272.626	92.75
272.858	72.75
273.09	65.75
273.322	83.75
273.553	78.75
273.785	67.75
274.017	71.75
274.249	80.75
274.481	77.75
274.713	70.75
274.945	74.75
275.176	93.75
275.408	102.75
275.64	86.75
275.872	80.75
276.104	82.75
276.335	88.75
276.567	100.75
276.799	104.75
277.031	97.75
277.262	66.75
277.494	84.75
277.726	89.75
277.957	86.75
278.189	80.75
278.421	83.75
278.652	89.75
278.884	71.75
279.115	86.75
279.347	84.75
279.579	83.75
279.81	85.75
280.042	78.75
280.273	94.75
280.505	87.75
280.736	73.75
280.968	77.75
281.199	62.75
281.431	88.75
281.662	71.75
281.894	93.75
282.125	88.75
282.356	126.75
282.588	127.75
282.819	111.75
283.051	65.75
283.282	85.75
283.513	89.75
283.745	86.75
283.976	82.75
284.207	85.75
284.439	90.75
284.67	98.75
284.901	83.75
285.132	86.75
285.364	87.75
285.595	71.75
285.826	67.75
286.057	87.75
286.288	74.75
286.52	72.75
286.751	89.75
286.982	84.75
287.213	84.75
287.444	97.75
287.675	93.75
287.906	99.75
288.138	82.75
288.369	91.75
288.6	82.75
288.831	81.75
289.062	79.75
289.293	74.75
289.524	92.75
289.755	89.75
289.986	90.75
290.217	74.75
290.448	94.75
290.679	86.75
290.91	79.75
291.141	82.75
291.371	85.75
291.602	81.75
291.833	70.75
292.064	92.75
292.295	83.75
292.526	90.75
292.757	81.75
292.987	85.75
293.218	81.75
293.449	78.75
293.68	98.75
293.91	97.75
294.141	91.75
294.372	78.75
294.603	83.75
294.833	78.75
295.064	91.75
295.295	84.75
295.525	91.75
295.756	90.75
295.987	103.75
296.217	121.75
296.448	104.75
296.679	85.75
296.909	86.75
297.14	92.75
297.37	83.75
297.601	76.75
297.831	86.75
298.062	87.75
298.292	93.75
298.523	87.75
298.753	78.75
298.984	84.75
299.214	90.75
299.445	97.75
299.675	85.75
299.905	95.75
300.136	73.75
300.366	78.75
300.597	85.75
300.827	76.75
301.057	90.75
301.288	101.75
301.518	71.75
301.748	90.75
301.979	92.75
302.209	85.75
302.439	89.75
302.669	80.75
302.9	83.75
303.13	80.75
303.36	90.75
303.59	93.75
303.82	84.75
304.051	95.75
304.281	77.75
304.511	91.75
304.741	91.75
304.971	85.75
305.201	87.75
305.431	103.75
305.661	77.75
305.891	85.75
306.121	91.75
306.352	91.75
306.582	91.75
306.812	99.75
307.042	93.75
307.272	89.75
307.502	82.75
307.731	83.75
307.961	90.75
308.191	94.75
308.421	85.75
308.651	80.75
308.881	85.75
309.111	86.75
309.341	87.75
309.571	88.75
309.8	97.75
310.03	100.75
310.26	95.75
310.49	90.75
310.72	85.75
310.949	83.75
311.179	101.75
311.409	94.75
311.639	79.75
311.868	92.75
312.098	90.75
312.328	93.75
312.557	87.75
312.787	97.75
313.017	95.75
313.246	95.75
313.476	94.75
313.706	94.75
313.935	88.75
314.165	86.75
314.394	100.75
314.624	97.75
314.853	98.75
315.083	93.75
315.312	104.75
315.542	86.75
315.771	94.75
316.001	81.75
316.23	83.75
316.46	95.75
316.689	87.75
316.919	85.75
317.148	87.75
317.377	91.75
317.607	89.75
317.836	79.75
318.065	75.75
318.295	89.75
318.524	94.75
318.753	87.75
318.983	96.75
319.212	105.75
319.441	102.75
319.67	101.75
319.9	95.75
320.129	85.75
320.358	89.75
320.587	98.75
320.816	90.75
321.046	90.75
321.275	95.75
321.504	87.75
321.733	91.75
321.962	96.75
322.191	88.75
322.42	88.75
322.649	105.75
322.878	101.75
323.108	122.75
323.337	114.75
323.566	132.75
323.795	143.75
324.024	207.75
324.253	388.75
324.482	808.75
324.71	1681.75
324.939	2180.75
325.168	816.75
325.397	248.75
325.626	143.75
325.855	127.75
326.084	120.75
326.313	118.75
326.542	143.75
326.77	222.75
326.999	473.75
327.228	957.75
327.457	1755.75
327.686	1357.75
327.914	362.75
328.143	199.75
328.372	121.75
328.6	106.75
328.829	106.75
329.058	106.75
329.287	103.75
329.515	97.75
329.744	93.75
329.972	102.75
330.201	94.75
330.43	92.75
330.658	120.75
330.887	125.75
331.115	106.75
331.344	102.75
331.572	96.75
331.801	97.75
332.03	91.75
332.258	89.75
332.486	91.75
332.715	81.75
332.943	90.75
333.172	77.75
333.4	95.75
333.629	95.75
333.857	111.75
334.085	90.75
334.314	78.75
334.542	106.75
334.771	74.75
334.999	98.75
335.227	83.75
335.455	99.75
335.684	103.75
335.912	104.75
336.14	102.75
336.369	87.75
336.597	97.75
336.825	103.75
337.053	84.75
337.281	88.75
337.51	79.75
337.738	81.75
337.966	99.75
338.194	102.75
338.422	85.75
338.65	91.75
338.878	94.75
339.106	98.75
339.334	79.75
339.562	85.75
339.79	74.75
340.018	89.75
340.246	86.75
340.474	82.75
340.702	106.75
340.93	87.75
341.158	101.75
341.386	94.75
341.614	91.75
341.842	96.75
342.07	96.75
342.298	97.75
342.526	81.75
342.754	84.75
342.981	72.75
343.209	82.75
343.437	91.75
343.665	81.75
343.893	95.75
344.12	91.75
344.348	97.75
344.576	72.75
344.804	81.75
345.031	88.75
345.259	97.75
345.487	80.75
345.714	92.75
345.942	80.75
346.17	94.75
346.397	87.75
346.625	98.75
346.853	94.75
347.08	92.75
347.308	78.75
347.535	90.75
347.763	101.75
347.99	95.75
348.218	113.75
348.445	110.75
348.673	85.75
348.9	106.75
349.128	98.75
349.355	100.75
349.583	83.75
349.81	90.75
350.037	98.75
350.265	73.75
350.492	92.75
350.72	92.75
350.947	79.75
351.174	105.75
351.402	107.75
351.629	88.75
351.856	99.75
352.083	100.75
352.311	100.75
352.538	94.75
352.765	114.75
352.992	110.75
353.22	112.75
353.447	113.75
353.674	101.75
353.901	78.75
354.128	96.75
354.355	100.75
354.583	86.75
354.81	88.75
355.037	87.75
355.264	95.75
355.491	93.75
355.718	101.75
355.945	91.75
356.172	81.75
356.399	70.75
356.626	89.75
356.853	97.75
357.08	94.75
357.307	91.75
357.534	91.75
357.761	80.75
357.988	80.75
358.215	81.75
358.441	79.75
358.668	99.75
358.895	76.75
359.122	75.75
359.349	88.75
359.576	84.75
359.802	83.75
360.029	91.75
360.256	88.75
360.483	89.75
360.709	83.75
360.936	91.75
361.163	94.75
361.39	88.75
361.616	93.75
361.843	97.75
362.07	93.75
362.296	96.75
362.523	82.75
362.749	91.75
362.976	94.75
363.203	78.75
363.429	88.75
363.656	97.75
363.882	79.75
364.109	80.75
364.335	108.75
364.562	86.75
364.788	83.75
365.015	99.75
365.241	79.75
365.468	77.75
365.694	83.75
365.92	105.75
366.147	92.75
366.373	86.75
366.599	94.75
366.826	74.75
367.052	87.75
367.278	93.75
367.505	80.75
367.731	73.75
367.957	82.75
368.184	89.75
368.41	86.75
368.636	107.75
368.862	122.75
369.089	106.75
369.315	88.75
369.541	90.75
369.767	91.75
369.993	89.75
370.219	98.75
370.445	81.75
370.672	88.75
370.898	80.75
371.124	83.75
371.35	81.75
371.576	82.75
371.802	79.75
372.028	74.75
372.254	92.75
372.48	87.75
372.706	76.75
372.932	85.75
373.158	84.75
373.384	91.75
373.61	87.75
373.835	84.75
374.061	94.75
374.287	98.75
374.513	92.75
374.739	91.75
374.965	89.75
375.191	80.75
375.416	96.75
375.642	91.75
375.868	82.75
376.094	70.75
376.319	84.75
376.545	77.75
376.771	92.75
376.997	81.75
377.222	99.75
377.448	83.75
377.674	76.75
377.899	68.75
378.125	71.75
378.35	96.75
378.576	93.75
378.802	91.75
379.027	105.75
379.253	92.75
379.478	89.75
379.704	93.75
379.929	81.75
380.155	96.75
380.38	96.75
380.606	85.75
380.831	84.75
381.057	111.75
381.282	82.75
381.507	85.75
381.733	89.75
381.958	92.75
382.184	90.75
382.409	83.75
382.634	107.75
382.86	92.75
383.085	94.75
383.31	89.75
383.535	90.75
383.761	98.75
383.986	96.75
384.211	95.75
384.436	106.75
384.662	106.75
384.887	90.75
385.112	90.75
385.337	91.75
385.562	90.75
385.787	91.75
386.013	95.75
386.238	119.75
386.463	111.75
386.688	83.75
386.913	83.75
387.138	97.75
387.363	93.75
387.588	93.75
387.813	91.75
388.038	109.75
388.263	104.75
388.488	80.75
388.713	103.75
388.938	93.75
389.163	90.75
389.387	84.75
389.612	93.75
389.837	76.75
390.062	96.75
390.287	90.75
390.512	98.75
390.736	78.75
390.961	91.75
391.186	88.75
391.411	96.75
391.636	81.75
391.86	94.75
392.085	94.75
392.31	85.75
392.534	81.75
392.759	66.75
392.984	70.75
393.208	78.75
393.433	93.75
393.658	82.75
393.882	87.75
394.107	76.75
394.331	83.75
394.556	87.75
394.78	80.75
395.005	86.75
395.229	61.75
395.454	86.75
395.678	91.75
395.903	102.75
396.127	95.75
396.352	81.75
396.576	96.75
396.801	76.75
397.025	84.75
397.249	81.75
397.474	86.75
397.698	77.75
397.922	85.75
398.147	82.75
398.371	81.75
398.595	78.75
398.82	92.75
399.044	73.75
399.268	76.75
399.492	92.75
399.717	96.75
399.941	89.75
400.165	86.75
400.389	80.75
400.613	87.75
400.837	77.75
401.062	89.75
401.286	73.75
401.51	77.75
401.734	96.75
401.958	97.75
402.182	125.75
402.406	145.75
402.63	101.75
402.854	93.75
403.078	86.75
403.302	77.75
403.526	87.75
403.75	88.75
403.974	71.75
404.198	89.75
404.422	69.75
404.645	79.75
404.869	86.75
405.093	78.75
405.317	84.75
405.541	92.75
405.765	90.75
405.988	107.75
406.212	157.75
406.436	214.75
406.66	130.75
406.883	98.75
407.107	91.75
407.331	90.75
407.555	97.75
407.778	79.75
408.002	78.75
408.226	81.75
408.449	79.75
408.673	89.75
408.896	85.75
409.12	102.75
409.344	87.75
409.567	74.75
409.791	83.75
410.014	92.75
410.238	79.75
410.461	88.75
410.685	104.75
410.908	91.75
411.132	88.75
411.355	86.75
411.578	85.75
411.802	100.75
412.025	64.75
412.249	78.75
412.472	91.75
412.695	87.75
412.919	86.75
413.142	79.75
413.365	87.75
413.589	79.75
413.812	93.75
414.035	89.75
414.258	90.75
414.482	83.75
414.705	78.75
414.928	75.75
415.151	87.75
415.374	81.75
415.597	83.75
415.821	73.75
416.044	84.75
416.267	82.75
416.49	76.75
416.713	73.75
416.936	79.75
417.159	86.75
417.382	85.75
417.605	80.75
417.828	82.75
418.051	83.75
418.274	88.75
418.497	80.75
418.72	81.75
418.943	95.75
419.166	79.75
419.389	90.75
419.611	94.75
419.834	95.75
420.057	85.75
420.28	73.75
420.503	77.75
420.726	97.75
420.948	81.75
421.171	91.75
421.394	79.75
421.617	99.75
421.839	90.75
422.062	85.75
422.285	89.75
422.507	86.75
422.73	87.75
422.953	78.75
423.175	77.75
423.398	81.75
423.621	94.75
423.843	84.75
424.066	88.75
424.288	79.75
424.511	87.75
424.733	86.75
424.956	112.75
425.178	91.75
425.401	83.75
425.623	102.75
425.846	81.75
426.068	107.75
426.291	92.75
426.513	84.75
426.735	95.75
426.958	101.75
427.18	99.75
427.402	132.75
427.625	154.75
427.847	125.75
428.069	98.75
428.292	91.75
428.514	83.75
428.736	75.75
428.958	83.75
429.181	83.75
429.403	80.75
429.625	81.75
429.847	70.75
430.069	92.75
430.292	89.75
430.514	82.75
430.736	79.75
430.958	74.75
431.18	79.75
431.402	87.75
431.624	87.75
431.846	91.75
432.068	87.75
432.29	80.75
432.512	72.75
432.734	62.75
432.956	84.75
433.178	103.75
433.4	89.75
433.622	80.75
433.844	86.75
434.066	86.75
434.287	89.75
434.509	85.75
434.731	97.75
434.953	75.75
435.175	84.75
435.397	99.75
435.618	87.75
435.84	107.75
436.062	121.75
436.284	105.75
436.505	103.75
436.727	85.75
436.949	89.75
437.17	82.75
437.392	97.75
437.614	95.75
437.835	103.75
438.057	110.75
438.278	84.75
438.5	107.75
438.721	111.75
438.943	89.75
439.165	81.75
439.386	92.75
439.608	84.75
439.829	93.75
440.05	122.75
440.272	142.75
440.493	105.75
440.715	86.75
440.936	76.75
441.158	87.75
441.379	83.75
441.6	79.75
441.822	83.75
442.043	82.75
442.264	101.75
442.486	91.75
442.707	87.75
442.928	89.75
443.149	97.75
443.371	124.75
443.592	99.75
443.813	115.75
444.034	106.75
444.255	83.75
444.476	81.75
444.698	91.75
444.919	86.75
445.14	119.75
445.361	119.75
445.582	111.75
445.803	119.75
446.024	118.75
446.245	127.75
446.466	96.75
446.687	83.75
446.908	89.75
447.129	82.75
447.35	83.75
447.571	101.75
447.792	96.75
448.013	95.75
448.234	103.75
448.455	111.75
448.675	120.75
448.896	112.75
449.117	104.75
449.338	85.75
449.559	122.75
449.779	132.75
450	89.75
450.221	81.75
450.442	87.75
450.662	96.75
450.883	88.75
451.104	92.75
451.324	89.75
451.545	77.75
451.766	81.75
451.986	80.75
452.207	88.75
452.428	88.75
452.648	98.75
452.869	112.75
453.089	110.75
453.31	104.75
453.53	98.75
453.751	84.75
453.971	96.75
454.192	102.75
454.412	88.75
454.633	93.75
454.853	76.75
455.073	75.75
455.294	94.75
455.514	88.75
455.734	77.75
455.955	79.75
456.175	71.75
456.395	77.75
456.616	83.75
456.836	67.75
457.056	79.75
457.276	87.75
457.497	78.75
457.717	74.75
457.937	79.75
458.157	82.75
458.377	72.75
458.598	103.75
458.818	143.75
459.038	142.75
459.258	104.75
459.478	69.75
459.698	86.75
459.918	85.75
460.138	74.75
460.358	81.75
460.578	91.75
460.798	90.75
461.018	73.75
461.238	79.75
461.458	70.75
461.678	74.75
461.898	82.75
462.118	96.75
462.338	70.75
462.558	72.75
462.777	73.75
462.997	73.75
463.217	79.75
463.437	92.75
463.657	77.75
463.876	96.75
464.096	90.75
464.316	83.75
464.536	72.75
464.755	95.75
464.975	99.75
465.195	148.75
465.414	143.75
465.634	89.75
465.854	86.75
466.073	87.75
466.293	94.75
466.512	72.75
466.732	88.75
466.951	83.75
467.171	95.75
467.391	100.75
467.61	100.75
467.829	93.75
468.049	83.75
468.268	90.75
468.488	77.75
468.707	85.75
468.927	88.75
469.146	69.75
469.365	80.75
469.585	77.75
469.804	77.75
470.023	94.75
470.243	71.75
470.462	73.75
470.681	104.75
470.901	89.75
471.12	80.75
471.339	84.75
471.558	83.75
471.777	93.75
471.997	85.75
472.216	84.75
472.435	87.75
472.654	86.75
472.873	93.75
473.092	69.75
473.311	79.75
473.53	83.75
473.749	94.75
473.968	90.75
474.187	94.75
474.406	81.75
474.625	86.75
474.844	89.75
475.063	79.75
475.282	87.75
475.501	82.75
475.72	83.75
475.939	89.75
476.158	86.75
476.377	83.75
476.596	98.75
476.814	85.75
477.033	91.75
477.252	79.75
477.471	82.75
477.69	96.75
477.908	88.75
478.127	80.75
478.346	74.75
478.564	87.75
478.783	85.75
479.002	80.75
479.22	88.75
479.439	89.75
479.658	94.75
479.876	85.75
480.095	85.75
480.313	87.75
480.532	95.75
480.751	91.75
480.969	78.75
481.188	90.75
481.406	83.75
481.624	78.75
481.843	91.75
482.061	83.75
482.28	85.75
482.498	90.75
482.717	76.75
482.935	87.75
483.153	85.75
483.372	85.75
483.59	86.75
483.808	89.75
484.027	79.75
484.245	81.75
484.463	77.75
484.681	101.75
484.9	90.75
485.118	83.75
485.336	96.75
485.554	74.75
485.772	101.75
485.99	92.75
486.209	101.75
486.427	97.75
486.645	95.75
486.863	102.75
487.081	108.75
487.299	98.75
487.517	77.75
487.735	77.75
487.953	91.75
488.171	92.75
488.389	88.75
488.607	87.75
488.825	73.75
489.043	82.75
489.261	80.75
489.479	88.75
489.696	77.75
489.914	88.75
490.132	95.75
490.35	82.75
490.568	88.75
490.786	82.75
491.003	94.75
491.221	88.75
491.439	101.75
491.657	78.75
491.874	81.75
492.092	84.75
492.31	93.75
492.527	91.75
492.745	88.75
492.963	84.75
493.18	76.75
493.398	94.75
493.615	91.75
493.833	94.75
494.05	94.75
494.268	74.75
494.485	90.75
494.703	83.75
494.92	90.75
495.138	88.75
495.355	90.75
495.573	86.75
495.79	103.75
496.008	86.75
496.225	83.75
496.442	78.75
496.66	85.75
496.877	82.75
497.094	87.75
497.312	96.75
497.529	99.75
497.746	85.75
497.963	81.75
498.181	107.75
498.398	103.75
498.615	112.75
498.832	99.75
499.049	76.75
499.267	97.75
499.484	92.75
499.701	88.75
499.918	84.75
500.135	78.75
500.352	71.75
500.569	94.75
500.786	96.75
501.003	79.75
501.22	93.75
501.437	93.75
501.654	96.75
501.871	101.75
502.088	81.75
502.305	81.75
502.522	95.75
502.739	74.75
502.956	83.75
503.172	99.75
503.389	95.75
503.606	101.75
503.823	102.75
504.04	102.75
504.256	93.75
504.473	87.75
504.69	87.75
504.907	81.75
505.123	78.75
505.34	75.75
505.557	95.75
505.773	92.75
505.99	84.75
506.207	78.75
506.423	86.75
506.64	82.75
506.856	80.75
507.073	89.75
507.289	93.75
507.506	93.75
507.722	103.75
507.939	100.75
508.155	106.75
508.372	71.75
508.588	92.75
508.805	93.75
509.021	89.75
509.238	93.75
509.454	99.75
509.67	98.75
509.887	115.75
510.103	121.75
510.319	201.75
510.536	742.75
510.752	2301.75
510.968	627.75
511.184	153.75
511.401	99.75
511.617	91.75
511.833	100.75
512.049	87.75
512.265	80.75
512.481	96.75
512.698	95.75
512.914	90.75
513.13	85.75
513.346	85.75
513.562	101.75
513.778	85.75
513.994	79.75
514.21	88.75
514.426	114.75
514.642	110.75
514.858	101.75
515.074	137.75
515.29	427.75
515.506	1334.75
515.721	512.75
515.937	128.75
516.153	110.75
516.369	102.75
516.585	103.75
516.801	109.75
517.016	98.75
517.232	98.75
