Data from Uncirc_2000_H10_HRD10591_00001.txt Node
Date: Wed Jan 03 10:48:17 EST 2024
User: Yrep
Spectrometer: HR+D1059
Trigger mode: 1
Integration Time (sec): 1.000000E-1
Scans to average: 1
Electric dark correction enabled: true
Nonlinearity correction enabled: false
Boxcar width: 0
XAxis mode: Wavelengths
Number of Pixels in Spectrum: 2048
>>>>>Begin Spectral Data<<<<<
223.165	-29.31
223.4	-29.31
223.635	-29.31
223.869	-13.31
224.104	-21.31
224.338	-16.31
224.573	-12.31
224.808	-23.31
225.042	-3.31
225.277	-4.31
225.511	5.69
225.746	4.69
225.98	2.69
226.215	1.69
226.449	17.69
226.683	30.69
226.918	25.69
227.152	34.69
227.387	27.69
227.621	16.69
227.856	48.69
228.09	46.69
228.324	44.69
228.559	69.69
228.793	152.69
229.027	354.69
229.262	430.69
229.496	490.69
229.73	628.69
229.964	643.69
230.199	436.69
230.433	426.69
230.667	415.69
230.901	391.69
231.136	402.69
231.37	402.69
231.604	395.69
231.838	394.69
232.072	391.69
232.306	405.69
232.541	422.69
232.775	416.69
233.009	417.69
233.243	419.69
233.477	421.69
233.711	430.69
233.945	435.69
234.179	464.69
234.413	466.69
234.647	463.69
234.881	452.69
235.115	480.69
235.349	457.69
235.583	491.69
235.817	543.69
236.051	540.69
236.285	530.69
236.519	541.69
236.753	594.69
236.987	762.69
237.221	1095.69
237.455	1188.69
237.689	762.69
237.922	634.69
238.156	604.69
238.39	609.69
238.624	578.69
238.858	584.69
239.091	590.69
239.325	617.69
239.559	579.69
239.793	612.69
240.027	625.69
240.26	739.69
240.494	804.69
240.728	781.69
240.961	764.69
241.195	704.69
241.429	679.69
241.662	696.69
241.896	686.69
242.13	684.69
242.363	707.69
242.597	709.69
242.83	739.69
243.064	739.69
243.298	739.69
243.531	747.69
243.765	762.69
243.998	734.69
244.232	744.69
244.465	764.69
244.699	825.69
244.932	804.69
245.166	788.69
245.399	800.69
245.633	799.69
245.866	784.69
246.099	827.69
246.333	837.69
246.566	852.69
246.8	848.69
247.033	881.69
247.266	921.69
247.5	956.69
247.733	993.69
247.966	1015.69
248.2	995.69
248.433	1015.69
248.666	1071.69
248.899	1154.69
249.133	1189.69
249.366	1194.69
249.599	1113.69
249.832	1050.69
250.066	1097.69
250.299	1070.69
250.532	1186.69
250.765	1286.69
250.998	1440.69
251.231	1404.69
251.465	1269.69
251.698	1232.69
251.931	1267.69
252.164	1246.69
252.397	1268.69
252.63	1296.69
252.863	1352.69
253.096	1465.69
253.329	1474.69
253.562	1414.69
253.795	1361.69
254.028	1372.69
254.261	1415.69
254.494	1530.69
254.727	1788.69
254.96	1851.69
255.193	1685.69
255.426	1506.69
255.659	1423.69
255.892	1374.69
256.124	1381.69
256.357	1346.69
256.59	1351.69
256.823	1340.69
257.056	1335.69
257.289	1354.69
257.521	1371.69
257.754	1364.69
257.987	1358.69
258.22	1366.69
258.452	1371.69
258.685	1362.69
258.918	1352.69
259.151	1437.69
259.383	1500.69
259.616	1498.69
259.849	1531.69
260.081	1700.69
260.314	1776.69
260.547	1730.69
260.779	1622.69
261.012	1538.69
261.244	1518.69
261.477	1499.69
261.71	1515.69
261.942	1478.69
262.175	1511.69
262.407	1492.69
262.64	1466.69
262.872	1478.69
263.105	1477.69
263.337	1489.69
263.57	1502.69
263.802	1491.69
264.035	1488.69
264.267	1497.69
264.499	1482.69
264.732	1530.69
264.964	1510.69
265.197	1509.69
265.429	1544.69
265.661	1512.69
265.894	1544.69
266.126	1564.69
266.358	1563.69
266.591	1568.69
266.823	1635.69
267.055	1644.69
267.287	1705.69
267.52	1636.69
267.752	1676.69
267.984	1648.69
268.216	1662.69
268.448	1764.69
268.681	1783.69
268.913	1890.69
269.145	2017.69
269.377	2073.69
269.609	1984.69
269.841	1992.69
270.073	2067.69
270.306	2268.69
270.538	2415.69
270.77	2285.69
271.002	2172.69
271.234	2133.69
271.466	2290.69
271.698	2316.69
271.93	2300.69
272.162	2348.69
272.394	2248.69
272.626	2173.69
272.858	2076.69
273.09	2018.69
273.322	2004.69
273.553	1977.69
273.785	1993.69
274.017	1963.69
274.249	2032.69
274.481	2025.69
274.713	2004.69
274.945	2046.69
275.176	2044.69
275.408	2021.69
275.64	2025.69
275.872	1999.69
276.104	2077.69
276.335	2102.69
276.567	2136.69
276.799	2199.69
277.031	2365.69
277.262	2486.69
277.494	2371.69
277.726	2264.69
277.957	2201.69
278.189	2121.69
278.421	2119.69
278.652	2188.69
278.884	2148.69
279.115	2139.69
279.347	2162.69
279.579	2138.69
279.81	2197.69
280.042	2118.69
280.273	2160.69
280.505	2177.69
280.736	2141.69
280.968	2219.69
281.199	2227.69
281.431	2204.69
281.662	2221.69
281.894	2264.69
282.125	2270.69
282.356	2420.69
282.588	2413.69
282.819	2365.69
283.051	2305.69
283.282	2328.69
283.513	2364.69
283.745	2359.69
283.976	2408.69
284.207	2396.69
284.439	2399.69
284.67	2368.69
284.901	2411.69
285.132	2344.69
285.364	2354.69
285.595	2396.69
285.826	2422.69
286.057	2444.69
286.288	2417.69
286.52	2468.69
286.751	2420.69
286.982	2479.69
287.213	2443.69
287.444	2522.69
287.675	2574.69
287.906	2555.69
288.138	2636.69
288.369	2604.69
288.6	2606.69
288.831	2578.69
289.062	2577.69
289.293	2552.69
289.524	2549.69
289.755	2564.69
289.986	2567.69
290.217	2612.69
290.448	2582.69
290.679	2582.69
290.91	2573.69
291.141	2590.69
291.371	2603.69
291.602	2576.69
291.833	2591.69
292.064	2586.69
292.295	2583.69
292.526	2573.69
292.757	2612.69
292.987	2635.69
293.218	2589.69
293.449	2655.69
293.68	2601.69
293.91	2567.69
294.141	2611.69
294.372	2552.69
294.603	2611.69
294.833	2656.69
295.064	2656.69
295.295	2660.69
295.525	2631.69
295.756	2692.69
295.987	2725.69
296.217	2861.69
296.448	2772.69
296.679	2684.69
296.909	2693.69
297.14	2706.69
297.37	2794.69
297.601	2813.69
297.831	2784.69
298.062	2830.69
298.292	2825.69
298.523	2855.69
298.753	2862.69
298.984	2813.69
299.214	2842.69
299.445	2846.69
299.675	2833.69
299.905	2892.69
300.136	2851.69
300.366	2862.69
300.597	2921.69
300.827	2977.69
301.057	3003.69
301.288	3092.69
301.518	3057.69
301.748	3071.69
301.979	3031.69
302.209	3063.69
302.439	3042.69
302.669	3051.69
302.9	3005.69
303.13	3004.69
303.36	3039.69
303.59	3065.69
303.82	3039.69
304.051	3058.69
304.281	3050.69
304.511	3046.69
304.741	3011.69
304.971	3045.69
305.201	3055.69
305.431	3008.69
305.661	2983.69
305.891	3008.69
306.121	2966.69
306.352	3038.69
306.582	2971.69
306.812	2944.69
307.042	2990.69
307.272	3009.69
307.502	2992.69
307.731	2996.69
307.961	3016.69
308.191	3036.69
308.421	2967.69
308.651	2984.69
308.881	2973.69
309.111	3022.69
309.341	3095.69
309.571	3083.69
309.8	3157.69
310.03	3172.69
310.26	3177.69
310.49	3187.69
310.72	3266.69
310.949	3275.69
311.179	3301.69
311.409	3242.69
311.639	3274.69
311.868	3257.69
312.098	3325.69
312.328	3362.69
312.557	3410.69
312.787	3459.69
313.017	3462.69
313.246	3396.69
313.476	3313.69
313.706	3412.69
313.935	3511.69
314.165	3516.69
314.394	3496.69
314.624	3516.69
314.853	3437.69
315.083	3426.69
315.312	3382.69
315.542	3350.69
315.771	3331.69
316.001	3351.69
316.23	3344.69
316.46	3319.69
316.689	3376.69
316.919	3440.69
317.148	3448.69
317.377	3378.69
317.607	3350.69
317.836	3418.69
318.065	3308.69
318.295	3354.69
318.524	3326.69
318.753	3238.69
318.983	3319.69
319.212	3302.69
319.441	3432.69
319.67	3348.69
319.9	3352.69
320.129	3369.69
320.358	3346.69
320.587	3431.69
320.816	3485.69
321.046	3461.69
321.275	3465.69
321.504	3452.69
321.733	3432.69
321.962	3534.69
322.191	3585.69
322.42	3594.69
322.649	3706.69
322.878	3674.69
323.108	3726.69
323.337	3800.69
323.566	3989.69
323.795	4132.69
324.024	4542.69
324.253	5593.69
324.482	7950.69
324.71	12297.69
324.939	14336.69
325.168	8842.69
325.397	5107.69
325.626	4374.69
325.855	4087.69
326.084	4029.69
326.313	4078.69
326.542	4206.69
326.77	4604.69
326.999	5464.69
327.228	7565.69
327.457	10960.69
327.686	10089.69
327.914	5594.69
328.143	4678.69
328.372	4469.69
328.6	4356.69
328.829	4329.69
329.058	4407.69
329.287	4391.69
329.515	4260.69
329.744	4158.69
329.972	4108.69
330.201	4217.69
330.43	4377.69
330.658	4577.69
330.887	4725.69
331.115	4501.69
331.344	4317.69
331.572	4260.69
331.801	4345.69
332.03	4394.69
332.258	4433.69
332.486	4531.69
332.715	4641.69
332.943	4718.69
333.172	4868.69
333.4	4960.69
333.629	5106.69
333.857	5101.69
334.085	4996.69
334.314	4996.69
334.542	4869.69
334.771	4877.69
334.999	4800.69
335.227	4745.69
335.455	4665.69
335.684	4594.69
335.912	4586.69
336.14	4553.69
336.369	4497.69
336.597	4555.69
336.825	4489.69
337.053	4371.69
337.281	4329.69
337.51	4322.69
337.738	4325.69
337.966	4274.69
338.194	4233.69
338.422	4204.69
338.65	4160.69
338.878	4160.69
339.106	4131.69
339.334	4110.69
339.562	4078.69
339.79	3979.69
340.018	3985.69
340.246	4042.69
340.474	4063.69
340.702	3970.69
340.93	3991.69
341.158	4040.69
341.386	4019.69
341.614	3999.69
341.842	4007.69
342.07	3919.69
342.298	3959.69
342.526	3928.69
342.754	3917.69
342.981	3961.69
343.209	4105.69
343.437	4267.69
343.665	4571.69
343.893	4743.69
344.12	4776.69
344.348	4642.69
344.576	4424.69
344.804	4310.69
345.031	4192.69
345.259	4194.69
345.487	4024.69
345.714	3918.69
345.942	3860.69
346.17	3857.69
346.397	3850.69
346.625	3853.69
346.853	3780.69
347.08	3791.69
347.308	3850.69
347.535	3829.69
347.763	3859.69
347.99	3824.69
348.218	3850.69
348.445	3850.69
348.673	3801.69
348.9	3749.69
349.128	3766.69
349.355	3687.69
349.583	3763.69
349.81	3737.69
350.037	3736.69
350.265	3644.69
350.492	3694.69
350.72	3761.69
350.947	3781.69
351.174	3745.69
351.402	3834.69
351.629	3793.69
351.856	3802.69
352.083	3773.69
352.311	3788.69
352.538	3749.69
352.765	3797.69
352.992	3720.69
353.22	3678.69
353.447	3660.69
353.674	3638.69
353.901	3569.69
354.128	3606.69
354.355	3644.69
354.583	3658.69
354.81	3649.69
355.037	3610.69
355.264	3599.69
355.491	3602.69
355.718	3660.69
355.945	3638.69
356.172	3643.69
356.399	3643.69
356.626	3660.69
356.853	3654.69
357.08	3639.69
357.307	3634.69
357.534	3659.69
357.761	3618.69
357.988	3650.69
358.215	3649.69
358.441	3720.69
358.668	3700.69
358.895	3702.69
359.122	3732.69
359.349	3756.69
359.576	3805.69
359.802	3949.69
360.029	3968.69
360.256	4028.69
360.483	3892.69
360.709	3828.69
360.936	3806.69
361.163	3836.69
361.39	3831.69
361.616	3799.69
361.843	3807.69
362.07	3721.69
362.296	3772.69
362.523	3752.69
362.749	3789.69
362.976	3732.69
363.203	3692.69
363.429	3711.69
363.656	3771.69
363.882	3703.69
364.109	3662.69
364.335	3663.69
364.562	3701.69
364.788	3682.69
365.015	3684.69
365.241	3666.69
365.468	3664.69
365.694	3666.69
365.92	3686.69
366.147	3688.69
366.373	3700.69
366.599	3700.69
366.826	3654.69
367.052	3675.69
367.278	3738.69
367.505	3729.69
367.731	3788.69
367.957	3714.69
368.184	3737.69
368.41	3799.69
368.636	3927.69
368.862	3856.69
369.089	3814.69
369.315	3799.69
369.541	3801.69
369.767	3794.69
369.993	3803.69
370.219	3821.69
370.445	3842.69
370.672	3840.69
370.898	3932.69
371.124	3976.69
371.35	4036.69
371.576	3977.69
371.802	3984.69
372.028	4008.69
372.254	3977.69
372.48	4043.69
372.706	4141.69
372.932	4173.69
373.158	4074.69
373.384	4065.69
373.61	4009.69
373.835	3988.69
374.061	4057.69
374.287	4059.69
374.513	4158.69
374.739	4318.69
374.965	4408.69
375.191	4395.69
375.416	4297.69
375.642	4281.69
375.868	4161.69
376.094	4074.69
376.319	4094.69
376.545	4027.69
376.771	4052.69
376.997	4025.69
377.222	4021.69
377.448	4033.69
377.674	4006.69
377.899	3948.69
378.125	4006.69
378.35	3971.69
378.576	3944.69
378.802	3938.69
379.027	3965.69
379.253	3982.69
379.478	3955.69
379.704	4011.69
379.929	3993.69
380.155	4034.69
380.38	4066.69
380.606	3954.69
380.831	4000.69
381.057	4024.69
381.282	4053.69
381.507	4054.69
381.733	4080.69
381.958	4131.69
382.184	4134.69
382.409	4275.69
382.634	4293.69
382.86	4218.69
383.085	4348.69
383.31	4422.69
383.535	4426.69
383.761	4474.69
383.986	4561.69
384.211	4661.69
384.436	4795.69
384.662	4764.69
384.887	4884.69
385.112	4867.69
385.337	4943.69
385.562	4899.69
385.787	4934.69
386.013	4984.69
386.238	5014.69
386.463	4937.69
386.688	4962.69
386.913	4833.69
387.138	4882.69
387.363	4888.69
387.588	4797.69
387.813	4779.69
388.038	4843.69
388.263	4917.69
388.488	4892.69
388.713	4838.69
388.938	4853.69
389.163	4765.69
389.387	4774.69
389.612	4684.69
389.837	4772.69
390.062	4692.69
390.287	4717.69
390.512	4834.69
390.736	4844.69
390.961	4966.69
391.186	5016.69
391.411	5211.69
391.636	5270.69
391.86	5366.69
392.085	5414.69
392.31	5311.69
392.534	5262.69
392.759	5105.69
392.984	5109.69
393.208	5032.69
393.433	5091.69
393.658	5040.69
393.882	5114.69
394.107	5000.69
394.331	5074.69
394.556	5040.69
394.78	5161.69
395.005	5148.69
395.229	5190.69
395.454	5424.69
395.678	5489.69
395.903	5457.69
396.127	5420.69
396.352	5299.69
396.576	5086.69
396.801	5100.69
397.025	5284.69
397.249	5348.69
397.474	5427.69
397.698	5467.69
397.922	5479.69
398.147	5636.69
398.371	5793.69
398.595	5858.69
398.82	6123.69
399.044	6737.69
399.268	7410.69
399.492	8536.69
399.717	9110.69
399.941	8749.69
400.165	8152.69
400.389	7588.69
400.613	6789.69
400.837	6341.69
401.062	6185.69
401.286	6134.69
401.51	6121.69
401.734	6052.69
401.958	6141.69
402.182	6261.69
402.406	6337.69
402.63	6352.69
402.854	6600.69
403.078	6565.69
403.302	6728.69
403.526	6838.69
403.75	6934.69
403.974	6948.69
404.198	6904.69
404.422	7029.69
404.645	6914.69
404.869	6834.69
405.093	6934.69
405.317	6955.69
405.541	6854.69
405.765	6777.69
405.988	6751.69
406.212	6859.69
406.436	6841.69
406.66	7107.69
406.883	7074.69
407.107	7736.69
407.331	8159.69
407.555	8618.69
407.778	8388.69
408.002	7775.69
408.226	7283.69
408.449	7246.69
408.673	7110.69
408.896	7284.69
409.12	7350.69
409.344	6986.69
409.567	6660.69
409.791	6663.69
410.014	6533.69
410.238	6555.69
410.461	6636.69
410.685	6574.69
410.908	6645.69
411.132	6827.69
411.355	6820.69
411.578	6465.69
411.802	6273.69
412.025	6263.69
412.249	6375.69
412.472	6301.69
412.695	6113.69
412.919	6045.69
413.142	6039.69
413.365	5944.69
413.589	6070.69
413.812	5936.69
414.035	5851.69
414.258	5934.69
414.482	6008.69
414.705	6061.69
414.928	5988.69
415.151	6044.69
415.374	6058.69
415.597	5989.69
415.821	5832.69
416.044	5854.69
416.267	5881.69
416.49	5819.69
416.713	5786.69
416.936	5860.69
417.159	5878.69
417.382	5940.69
417.605	5900.69
417.828	6104.69
418.051	6233.69
418.274	6016.69
418.497	5968.69
418.72	6157.69
418.943	6135.69
419.166	6481.69
419.389	6691.69
419.611	6676.69
419.834	6455.69
420.057	6293.69
420.28	6115.69
420.503	6036.69
420.726	6028.69
420.948	6096.69
421.171	6504.69
421.394	6453.69
421.617	6153.69
421.839	6063.69
422.062	6168.69
422.285	6279.69
422.507	6895.69
422.73	7347.69
422.953	6790.69
423.175	6488.69
423.398	6569.69
423.621	6508.69
423.843	6738.69
424.066	6731.69
424.288	6565.69
424.511	6795.69
424.733	7140.69
424.956	7461.69
425.178	7009.69
425.401	7165.69
425.623	7071.69
425.846	6249.69
426.068	6155.69
426.291	6084.69
426.513	5997.69
426.735	6083.69
426.958	6569.69
427.18	7044.69
427.402	8102.69
427.625	7855.69
427.847	6689.69
428.069	6036.69
428.292	5788.69
428.514	5574.69
428.736	5491.69
428.958	5514.69
429.181	5356.69
429.403	5346.69
429.625	5473.69
429.847	5768.69
430.069	6142.69
430.292	5819.69
430.514	5352.69
430.736	5433.69
430.958	5300.69
431.18	5257.69
431.402	5199.69
431.624	5251.69
431.846	5354.69
432.068	5323.69
432.29	5487.69
432.512	5278.69
432.734	5364.69
432.956	5339.69
433.178	5364.69
433.4	5354.69
433.622	5378.69
433.844	5368.69
434.066	5453.69
434.287	5475.69
434.509	5785.69
434.731	5922.69
434.953	6047.69
435.175	6152.69
435.397	6141.69
435.618	6082.69
435.84	6437.69
436.062	7074.69
436.284	6979.69
436.505	6000.69
436.727	5699.69
436.949	5534.69
437.17	5388.69
437.392	5426.69
437.614	5469.69
437.835	5675.69
438.057	6474.69
438.278	7043.69
438.5	7070.69
438.721	7786.69
438.943	6743.69
439.165	5816.69
439.386	5556.69
439.608	5768.69
439.829	5734.69
440.05	6011.69
440.272	6216.69
440.493	5788.69
440.715	5576.69
440.936	5610.69
441.158	5715.69
441.379	5849.69
441.6	6056.69
441.822	6301.69
442.043	6638.69
442.264	7272.69
442.486	6985.69
442.707	6304.69
442.928	6208.69
443.149	6270.69
443.371	6452.69
443.592	7040.69
443.813	7862.69
444.034	7835.69
444.255	6856.69
444.476	6830.69
444.698	7081.69
444.919	7090.69
445.14	6904.69
445.361	6649.69
445.582	6774.69
445.803	7036.69
446.024	7629.69
446.245	7262.69
446.466	6617.69
446.687	5832.69
446.908	5572.69
447.129	5321.69
447.35	5240.69
447.571	5210.69
447.792	5103.69
448.013	5210.69
448.234	5324.69
448.455	5868.69
448.675	6848.69
448.896	7248.69
449.117	6070.69
449.338	6262.69
449.559	7390.69
449.779	7516.69
450	5778.69
450.221	5237.69
450.442	5072.69
450.662	4995.69
450.883	5000.69
451.104	5055.69
451.324	5035.69
451.545	4890.69
451.766	4782.69
451.986	4745.69
452.207	4715.69
452.428	4710.69
452.648	4669.69
452.869	4731.69
453.089	4738.69
453.31	4794.69
453.53	4702.69
453.751	4643.69
453.971	4664.69
454.192	4746.69
454.412	4515.69
454.633	4545.69
454.853	4537.69
455.073	4534.69
455.294	4901.69
455.514	5228.69
455.734	4796.69
455.955	4400.69
456.175	4414.69
456.395	4360.69
456.616	4362.69
456.836	4390.69
457.056	4319.69
457.276	4304.69
457.497	4438.69
457.717	4402.69
457.937	4493.69
458.157	4523.69
458.377	4680.69
458.598	4890.69
458.818	5340.69
459.038	5830.69
459.258	5915.69
459.478	5429.69
459.698	5419.69
459.918	5492.69
460.138	5689.69
460.358	5932.69
460.578	5926.69
460.798	6050.69
461.018	6047.69
461.238	5896.69
461.458	5865.69
461.678	5892.69
461.898	6050.69
462.118	6130.69
462.338	6453.69
462.558	6553.69
462.777	6835.69
462.997	7383.69
463.217	7780.69
463.437	7601.69
463.657	7024.69
463.876	6746.69
464.096	6784.69
464.316	6824.69
464.536	6791.69
464.755	6564.69
464.975	6379.69
465.195	6362.69
465.414	6190.69
465.634	5623.69
465.854	5438.69
466.073	5200.69
466.293	5082.69
466.512	4976.69
466.732	4913.69
466.951	4935.69
467.171	4934.69
467.391	4938.69
467.61	4951.69
467.829	4884.69
468.049	4819.69
468.268	4689.69
468.488	4677.69
468.707	4616.69
468.927	4727.69
469.146	4735.69
469.365	4698.69
469.585	4772.69
469.804	4962.69
470.023	5161.69
470.243	5010.69
470.462	5120.69
470.681	5168.69
470.901	5109.69
471.12	4992.69
471.339	5049.69
471.558	4897.69
471.777	4934.69
471.997	4730.69
472.216	4740.69
472.435	4710.69
472.654	4640.69
472.873	4601.69
473.092	4651.69
473.311	4695.69
473.53	4720.69
473.749	4808.69
473.968	5154.69
474.187	5912.69
474.406	5521.69
474.625	4913.69
474.844	4673.69
475.063	4674.69
475.282	4740.69
475.501	4802.69
475.72	4793.69
475.939	4818.69
476.158	4883.69
476.377	4898.69
476.596	4929.69
476.814	5052.69
477.033	5087.69
477.252	5113.69
477.471	5213.69
477.69	5306.69
477.908	5411.69
478.127	5579.69
478.346	5693.69
478.564	5719.69
478.783	5878.69
479.002	6024.69
479.22	6032.69
479.439	5977.69
479.658	6057.69
479.876	6204.69
480.095	6373.69
480.313	6698.69
480.532	6581.69
480.751	6499.69
480.969	6362.69
481.188	6170.69
481.406	6001.69
481.624	5741.69
481.843	5656.69
482.061	5586.69
482.28	5599.69
482.498	5538.69
482.717	5466.69
482.935	5470.69
483.153	5477.69
483.372	5508.69
483.59	5460.69
483.808	5475.69
484.027	5557.69
484.245	5629.69
484.463	5621.69
484.681	5737.69
484.9	5716.69
485.118	5745.69
485.336	5747.69
485.554	5810.69
485.772	5834.69
485.99	5968.69
486.209	5900.69
486.427	5936.69
486.645	5944.69
486.863	6011.69
487.081	5920.69
487.299	5901.69
487.517	5862.69
487.735	5904.69
487.953	5872.69
