Data from Uncirc_2000_H10_HRD10591_00072.txt Node
Date: Wed Jan 03 10:48:31 EST 2024
User: Yrep
Spectrometer: HR+D1059
Trigger mode: 1
Integration Time (sec): 1.000000E-1
Scans to average: 1
Electric dark correction enabled: true
Nonlinearity correction enabled: false
Boxcar width: 0
XAxis mode: Wavelengths
Number of Pixels in Spectrum: 2048
>>>>>Begin Spectral Data<<<<<
223.165	-22.62
223.4	-22.62
223.635	-22.62
223.869	-20.62
224.104	-13.62
224.338	-4.62
224.573	-27.62
224.808	-20.62
225.042	-3.62
225.277	2.38
225.511	10.38
225.746	4.38
225.98	2.38
226.215	2.38
226.449	18.38
226.683	23.38
226.918	14.38
227.152	35.38
227.387	44.38
227.621	38.38
227.856	44.38
228.09	55.38
228.324	45.38
228.559	56.38
228.793	46.38
229.027	63.38
229.262	58.38
229.496	58.38
229.73	63.38
229.964	59.38
230.199	60.38
230.433	72.38
230.667	70.38
230.901	84.38
231.136	75.38
231.37	76.38
231.604	79.38
231.838	72.38
232.072	87.38
232.306	86.38
232.541	68.38
232.775	83.38
233.009	90.38
233.243	83.38
233.477	80.38
233.711	60.38
233.945	77.38
234.179	76.38
234.413	86.38
234.647	85.38
234.881	95.38
235.115	73.38
235.349	82.38
235.583	77.38
235.817	85.38
236.051	92.38
236.285	79.38
236.519	64.38
236.753	74.38
236.987	70.38
237.221	83.38
237.455	89.38
237.689	70.38
237.922	70.38
238.156	68.38
238.39	66.38
238.624	78.38
238.858	81.38
239.091	73.38
239.325	83.38
239.559	75.38
239.793	81.38
240.027	80.38
240.26	78.38
240.494	67.38
240.728	69.38
240.961	70.38
241.195	77.38
241.429	82.38
241.662	67.38
241.896	64.38
242.13	76.38
242.363	79.38
242.597	81.38
242.83	92.38
243.064	80.38
243.298	81.38
243.531	73.38
243.765	74.38
243.998	75.38
244.232	74.38
244.465	84.38
244.699	71.38
244.932	91.38
245.166	74.38
245.399	79.38
245.633	74.38
245.866	83.38
246.099	85.38
246.333	89.38
246.566	82.38
246.8	85.38
247.033	86.38
247.266	77.38
247.5	86.38
247.733	93.38
247.966	82.38
248.2	71.38
248.433	64.38
248.666	68.38
248.899	67.38
249.133	73.38
249.366	93.38
249.599	86.38
249.832	75.38
250.066	88.38
250.299	66.38
250.532	76.38
250.765	86.38
250.998	81.38
251.231	63.38
251.465	59.38
251.698	76.38
251.931	80.38
252.164	80.38
252.397	76.38
252.63	77.38
252.863	84.38
253.096	87.38
253.329	74.38
253.562	87.38
253.795	83.38
254.028	75.38
254.261	78.38
254.494	70.38
254.727	84.38
254.96	91.38
255.193	69.38
255.426	80.38
255.659	68.38
255.892	77.38
256.124	80.38
256.357	75.38
256.59	74.38
256.823	71.38
257.056	72.38
257.289	83.38
257.521	92.38
257.754	81.38
257.987	92.38
258.22	74.38
258.452	76.38
258.685	82.38
258.918	75.38
259.151	90.38
259.383	106.38
259.616	85.38
259.849	87.38
260.081	87.38
260.314	69.38
260.547	72.38
260.779	81.38
261.012	89.38
261.244	88.38
261.477	95.38
261.71	92.38
261.942	128.38
262.175	110.38
262.407	92.38
262.64	76.38
262.872	83.38
263.105	80.38
263.337	66.38
263.57	73.38
263.802	78.38
264.035	78.38
264.267	83.38
264.499	78.38
264.732	83.38
264.964	75.38
265.197	75.38
265.429	75.38
265.661	85.38
265.894	70.38
266.126	89.38
266.358	74.38
266.591	68.38
266.823	94.38
267.055	75.38
267.287	71.38
267.52	80.38
267.752	82.38
267.984	89.38
268.216	69.38
268.448	73.38
268.681	71.38
268.913	64.38
269.145	77.38
269.377	92.38
269.609	76.38
269.841	84.38
270.073	80.38
270.306	78.38
270.538	89.38
270.77	75.38
271.002	87.38
271.234	73.38
271.466	78.38
271.698	84.38
271.93	91.38
272.162	88.38
272.394	79.38
272.626	88.38
272.858	78.38
273.09	83.38
273.322	99.38
273.553	96.38
273.785	78.38
274.017	86.38
274.249	83.38
274.481	82.38
274.713	81.38
274.945	94.38
275.176	88.38
275.408	82.38
275.64	87.38
275.872	82.38
276.104	77.38
276.335	85.38
276.567	84.38
276.799	89.38
277.031	95.38
277.262	89.38
277.494	105.38
277.726	95.38
277.957	90.38
278.189	78.38
278.421	71.38
278.652	87.38
278.884	89.38
279.115	84.38
279.347	88.38
279.579	82.38
279.81	88.38
280.042	95.38
280.273	83.38
280.505	79.38
280.736	74.38
280.968	87.38
281.199	82.38
281.431	95.38
281.662	83.38
281.894	82.38
282.125	91.38
282.356	91.38
282.588	105.38
282.819	121.38
283.051	87.38
283.282	85.38
283.513	78.38
283.745	67.38
283.976	92.38
284.207	92.38
284.439	80.38
284.67	90.38
284.901	96.38
285.132	84.38
285.364	86.38
285.595	102.38
285.826	69.38
286.057	78.38
286.288	73.38
286.52	91.38
286.751	95.38
286.982	85.38
287.213	99.38
287.444	92.38
287.675	86.38
287.906	88.38
288.138	79.38
288.369	83.38
288.6	83.38
288.831	79.38
289.062	86.38
289.293	92.38
289.524	85.38
289.755	84.38
289.986	81.38
290.217	91.38
290.448	85.38
290.679	87.38
290.91	94.38
291.141	96.38
291.371	86.38
291.602	87.38
291.833	88.38
292.064	93.38
292.295	86.38
292.526	90.38
292.757	87.38
292.987	83.38
293.218	68.38
293.449	93.38
293.68	86.38
293.91	89.38
294.141	86.38
294.372	76.38
294.603	78.38
294.833	107.38
295.064	91.38
295.295	85.38
295.525	88.38
295.756	105.38
295.987	109.38
296.217	133.38
296.448	96.38
296.679	81.38
296.909	85.38
297.14	89.38
297.37	80.38
297.601	89.38
297.831	87.38
298.062	84.38
298.292	78.38
298.523	75.38
298.753	78.38
298.984	86.38
299.214	81.38
299.445	82.38
299.675	95.38
299.905	99.38
300.136	98.38
300.366	87.38
300.597	87.38
300.827	90.38
301.057	99.38
301.288	96.38
301.518	85.38
301.748	83.38
301.979	88.38
302.209	88.38
302.439	78.38
302.669	92.38
302.9	82.38
303.13	98.38
303.36	97.38
303.59	100.38
303.82	107.38
304.051	77.38
304.281	83.38
304.511	80.38
304.741	86.38
304.971	69.38
305.201	83.38
305.431	79.38
305.661	81.38
305.891	88.38
306.121	82.38
306.352	102.38
306.582	106.38
306.812	99.38
307.042	91.38
307.272	82.38
307.502	98.38
307.731	76.38
307.961	96.38
308.191	92.38
308.421	96.38
308.651	89.38
308.881	94.38
309.111	100.38
309.341	89.38
309.571	103.38
309.8	91.38
310.03	92.38
310.26	101.38
310.49	82.38
310.72	101.38
310.949	117.38
311.179	103.38
311.409	96.38
311.639	84.38
311.868	89.38
312.098	90.38
312.328	79.38
312.557	87.38
312.787	104.38
313.017	103.38
313.246	97.38
313.476	93.38
313.706	88.38
313.935	88.38
314.165	91.38
314.394	89.38
314.624	85.38
314.853	85.38
315.083	88.38
315.312	88.38
315.542	82.38
315.771	86.38
316.001	80.38
316.23	79.38
316.46	97.38
316.689	83.38
316.919	98.38
317.148	98.38
317.377	92.38
317.607	89.38
317.836	87.38
318.065	94.38
318.295	91.38
318.524	110.38
318.753	94.38
318.983	89.38
319.212	103.38
319.441	92.38
319.67	105.38
319.9	80.38
320.129	88.38
320.358	83.38
320.587	90.38
320.816	83.38
321.046	98.38
321.275	97.38
321.504	91.38
321.733	83.38
321.962	109.38
322.191	96.38
322.42	102.38
322.649	103.38
322.878	118.38
323.108	111.38
323.337	114.38
323.566	124.38
323.795	145.38
324.024	182.38
324.253	364.38
324.482	781.38
324.71	1636.38
324.939	2098.38
325.168	754.38
325.397	234.38
325.626	142.38
325.855	121.38
326.084	122.38
326.313	131.38
326.542	126.38
326.77	233.38
326.999	433.38
327.228	901.38
327.457	1641.38
327.686	1266.38
327.914	360.38
328.143	169.38
328.372	135.38
328.6	111.38
328.829	105.38
329.058	107.38
329.287	120.38
329.515	105.38
329.744	111.38
329.972	99.38
330.201	88.38
330.43	103.38
330.658	108.38
330.887	120.38
331.115	114.38
331.344	94.38
331.572	98.38
331.801	100.38
332.03	98.38
332.258	90.38
332.486	88.38
332.715	90.38
332.943	96.38
333.172	95.38
333.4	104.38
333.629	99.38
333.857	114.38
334.085	95.38
334.314	92.38
334.542	91.38
334.771	92.38
334.999	89.38
335.227	94.38
335.455	84.38
335.684	102.38
335.912	92.38
336.14	98.38
336.369	107.38
336.597	83.38
336.825	74.38
337.053	97.38
337.281	82.38
337.51	102.38
337.738	92.38
337.966	81.38
338.194	86.38
338.422	83.38
338.65	95.38
338.878	91.38
339.106	98.38
339.334	96.38
339.562	79.38
339.79	86.38
340.018	96.38
340.246	100.38
340.474	73.38
340.702	95.38
340.93	83.38
341.158	87.38
341.386	104.38
341.614	88.38
341.842	87.38
342.07	90.38
342.298	82.38
342.526	74.38
342.754	83.38
342.981	81.38
343.209	79.38
343.437	102.38
343.665	97.38
343.893	95.38
344.12	96.38
344.348	96.38
344.576	97.38
344.804	82.38
345.031	89.38
345.259	105.38
345.487	91.38
345.714	92.38
345.942	96.38
346.17	89.38
346.397	97.38
346.625	95.38
346.853	88.38
347.08	80.38
347.308	92.38
347.535	106.38
347.763	106.38
347.99	96.38
348.218	89.38
348.445	100.38
348.673	98.38
348.9	100.38
349.128	92.38
349.355	98.38
349.583	86.38
349.81	90.38
350.037	101.38
350.265	89.38
350.492	94.38
350.72	99.38
350.947	91.38
351.174	96.38
351.402	92.38
351.629	85.38
351.856	88.38
352.083	98.38
352.311	98.38
352.538	115.38
352.765	107.38
352.992	103.38
353.22	101.38
353.447	116.38
353.674	98.38
353.901	94.38
354.128	92.38
354.355	101.38
354.583	102.38
354.81	99.38
355.037	97.38
355.264	84.38
355.491	94.38
355.718	88.38
355.945	95.38
356.172	80.38
356.399	92.38
356.626	94.38
356.853	82.38
357.08	98.38
357.307	104.38
357.534	94.38
357.761	86.38
357.988	101.38
358.215	95.38
358.441	91.38
358.668	78.38
358.895	85.38
359.122	94.38
359.349	76.38
359.576	99.38
359.802	98.38
360.029	99.38
360.256	107.38
360.483	94.38
360.709	95.38
360.936	87.38
361.163	79.38
361.39	100.38
361.616	94.38
361.843	92.38
362.07	82.38
362.296	84.38
362.523	99.38
362.749	83.38
362.976	86.38
363.203	91.38
363.429	86.38
363.656	109.38
363.882	82.38
364.109	98.38
364.335	91.38
364.562	92.38
364.788	87.38
365.015	81.38
365.241	102.38
365.468	92.38
365.694	92.38
365.92	97.38
366.147	72.38
366.373	90.38
366.599	76.38
366.826	82.38
367.052	77.38
367.278	92.38
367.505	82.38
367.731	76.38
367.957	94.38
368.184	85.38
368.41	80.38
368.636	100.38
368.862	99.38
369.089	87.38
369.315	76.38
369.541	88.38
369.767	107.38
369.993	72.38
370.219	103.38
370.445	83.38
370.672	82.38
370.898	91.38
371.124	103.38
371.35	83.38
371.576	85.38
371.802	89.38
372.028	79.38
372.254	85.38
372.48	91.38
372.706	84.38
372.932	79.38
373.158	97.38
373.384	95.38
373.61	96.38
373.835	82.38
374.061	82.38
374.287	77.38
374.513	92.38
374.739	83.38
374.965	85.38
375.191	85.38
375.416	79.38
375.642	97.38
375.868	75.38
376.094	88.38
376.319	96.38
376.545	96.38
376.771	88.38
376.997	98.38
377.222	84.38
377.448	90.38
377.674	95.38
377.899	89.38
378.125	97.38
378.35	90.38
378.576	88.38
378.802	88.38
379.027	71.38
379.253	98.38
379.478	85.38
379.704	91.38
379.929	82.38
380.155	86.38
380.38	85.38
380.606	96.38
380.831	100.38
381.057	92.38
381.282	87.38
381.507	99.38
381.733	97.38
381.958	86.38
382.184	88.38
382.409	87.38
382.634	101.38
382.86	90.38
383.085	93.38
383.31	94.38
383.535	97.38
383.761	111.38
383.986	94.38
384.211	84.38
384.436	93.38
384.662	82.38
384.887	105.38
385.112	88.38
385.337	97.38
385.562	82.38
385.787	95.38
386.013	102.38
386.238	98.38
386.463	98.38
386.688	112.38
386.913	96.38
387.138	95.38
387.363	98.38
387.588	92.38
387.813	92.38
388.038	107.38
388.263	102.38
388.488	105.38
388.713	93.38
388.938	96.38
389.163	91.38
389.387	98.38
389.612	80.38
389.837	87.38
390.062	76.38
390.287	93.38
390.512	96.38
390.736	78.38
390.961	98.38
391.186	83.38
391.411	104.38
391.636	92.38
391.86	87.38
392.085	75.38
392.31	89.38
392.534	71.38
392.759	87.38
392.984	84.38
393.208	99.38
393.433	77.38
393.658	75.38
393.882	75.38
394.107	88.38
394.331	78.38
394.556	73.38
394.78	84.38
395.005	84.38
395.229	84.38
395.454	95.38
395.678	77.38
395.903	92.38
396.127	85.38
396.352	78.38
396.576	73.38
396.801	78.38
397.025	88.38
397.249	87.38
397.474	93.38
397.698	80.38
397.922	93.38
398.147	74.38
398.371	81.38
398.595	92.38
398.82	108.38
399.044	89.38
399.268	87.38
399.492	83.38
399.717	89.38
399.941	80.38
400.165	80.38
400.389	87.38
400.613	82.38
400.837	87.38
401.062	83.38
401.286	77.38
401.51	89.38
401.734	98.38
401.958	93.38
402.182	111.38
402.406	144.38
402.63	107.38
402.854	99.38
403.078	91.38
403.302	81.38
403.526	74.38
403.75	80.38
403.974	75.38
404.198	95.38
404.422	85.38
404.645	72.38
404.869	85.38
405.093	79.38
405.317	83.38
405.541	84.38
405.765	89.38
405.988	107.38
406.212	155.38
406.436	208.38
406.66	132.38
406.883	95.38
407.107	88.38
407.331	83.38
407.555	88.38
407.778	85.38
408.002	84.38
408.226	88.38
408.449	94.38
408.673	73.38
408.896	87.38
409.12	78.38
409.344	101.38
409.567	80.38
409.791	81.38
410.014	97.38
410.238	102.38
410.461	108.38
410.685	102.38
410.908	93.38
411.132	99.38
411.355	92.38
411.578	93.38
411.802	81.38
412.025	97.38
412.249	83.38
412.472	81.38
412.695	88.38
412.919	83.38
413.142	86.38
413.365	91.38
413.589	86.38
413.812	98.38
414.035	99.38
414.258	89.38
414.482	87.38
414.705	84.38
414.928	90.38
415.151	85.38
415.374	106.38
415.597	91.38
415.821	81.38
416.044	66.38
416.267	86.38
416.49	89.38
416.713	84.38
416.936	79.38
417.159	79.38
417.382	79.38
417.605	98.38
417.828	87.38
418.051	101.38
418.274	74.38
418.497	88.38
418.72	80.38
418.943	65.38
419.166	80.38
419.389	84.38
419.611	89.38
419.834	76.38
420.057	82.38
420.28	81.38
420.503	91.38
420.726	70.38
420.948	88.38
421.171	98.38
421.394	84.38
421.617	86.38
421.839	102.38
422.062	84.38
422.285	95.38
422.507	103.38
422.73	98.38
422.953	96.38
423.175	94.38
423.398	97.38
423.621	92.38
423.843	79.38
424.066	87.38
424.288	84.38
424.511	80.38
424.733	87.38
424.956	92.38
425.178	87.38
425.401	94.38
425.623	96.38
425.846	87.38
426.068	94.38
426.291	84.38
426.513	96.38
426.735	103.38
426.958	97.38
427.18	102.38
427.402	124.38
427.625	146.38
427.847	115.38
428.069	105.38
428.292	73.38
428.514	88.38
428.736	83.38
428.958	92.38
429.181	79.38
429.403	64.38
429.625	89.38
429.847	87.38
430.069	95.38
430.292	90.38
430.514	71.38
430.736	81.38
430.958	77.38
431.18	90.38
431.402	85.38
431.624	79.38
431.846	96.38
432.068	90.38
432.29	85.38
432.512	83.38
432.734	90.38
432.956	74.38
433.178	94.38
433.4	84.38
433.622	90.38
433.844	91.38
434.066	90.38
434.287	96.38
434.509	94.38
434.731	78.38
434.953	80.38
435.175	87.38
435.397	96.38
435.618	78.38
435.84	102.38
436.062	118.38
436.284	104.38
436.505	101.38
436.727	101.38
436.949	94.38
437.17	87.38
437.392	82.38
437.614	104.38
437.835	114.38
438.057	105.38
438.278	108.38
438.5	84.38
438.721	98.38
438.943	90.38
439.165	95.38
439.386	81.38
439.608	89.38
439.829	96.38
440.05	93.38
440.272	114.38
440.493	88.38
440.715	75.38
440.936	107.38
441.158	79.38
441.379	87.38
441.6	104.38
441.822	95.38
442.043	87.38
442.264	95.38
442.486	93.38
442.707	87.38
442.928	107.38
443.149	111.38
443.371	122.38
443.592	84.38
443.813	111.38
444.034	101.38
444.255	99.38
444.476	100.38
444.698	71.38
444.919	91.38
445.14	134.38
445.361	112.38
445.582	115.38
445.803	115.38
446.024	101.38
446.245	118.38
446.466	121.38
446.687	98.38
446.908	97.38
447.129	92.38
447.35	97.38
447.571	105.38
447.792	105.38
448.013	94.38
448.234	96.38
448.455	109.38
448.675	104.38
448.896	109.38
449.117	95.38
449.338	100.38
449.559	117.38
449.779	128.38
450	90.38
450.221	81.38
450.442	87.38
450.662	107.38
450.883	93.38
451.104	108.38
451.324	86.38
451.545	94.38
451.766	86.38
451.986	72.38
452.207	82.38
452.428	84.38
452.648	94.38
452.869	107.38
453.089	115.38
453.31	103.38
453.53	75.38
453.751	93.38
453.971	113.38
454.192	98.38
454.412	92.38
454.633	86.38
454.853	73.38
455.073	88.38
455.294	78.38
455.514	88.38
455.734	85.38
455.955	88.38
456.175	80.38
456.395	84.38
456.616	91.38
456.836	76.38
457.056	83.38
457.276	90.38
457.497	74.38
457.717	88.38
457.937	80.38
458.157	89.38
458.377	88.38
458.598	107.38
458.818	119.38
459.038	133.38
459.258	115.38
459.478	81.38
459.698	92.38
459.918	83.38
460.138	87.38
460.358	75.38
460.578	94.38
460.798	79.38
461.018	81.38
461.238	88.38
461.458	75.38
461.678	77.38
461.898	91.38
462.118	84.38
462.338	99.38
462.558	68.38
462.777	84.38
462.997	88.38
463.217	108.38
463.437	71.38
463.657	89.38
463.876	73.38
464.096	79.38
464.316	96.38
464.536	107.38
464.755	98.38
464.975	104.38
465.195	146.38
465.414	134.38
465.634	88.38
465.854	97.38
466.073	100.38
466.293	78.38
466.512	74.38
466.732	85.38
466.951	76.38
467.171	89.38
467.391	93.38
467.61	96.38
467.829	78.38
468.049	89.38
468.268	91.38
468.488	72.38
468.707	80.38
468.927	94.38
469.146	91.38
469.365	90.38
469.585	86.38
469.804	92.38
470.023	90.38
470.243	92.38
470.462	104.38
470.681	90.38
470.901	68.38
471.12	83.38
471.339	80.38
471.558	88.38
471.777	99.38
471.997	77.38
472.216	76.38
472.435	84.38
472.654	95.38
472.873	88.38
473.092	79.38
473.311	79.38
473.53	84.38
473.749	83.38
473.968	85.38
474.187	92.38
474.406	91.38
474.625	87.38
474.844	85.38
475.063	86.38
475.282	91.38
475.501	92.38
475.72	82.38
475.939	91.38
476.158	96.38
476.377	80.38
476.596	87.38
476.814	87.38
477.033	84.38
477.252	92.38
477.471	91.38
477.69	88.38
477.908	76.38
478.127	80.38
478.346	99.38
478.564	91.38
478.783	94.38
479.002	96.38
479.22	97.38
479.439	100.38
479.658	95.38
479.876	106.38
480.095	85.38
480.313	86.38
480.532	80.38
480.751	87.38
480.969	90.38
481.188	86.38
481.406	87.38
481.624	94.38
481.843	85.38
482.061	80.38
482.28	91.38
482.498	72.38
482.717	75.38
482.935	72.38
483.153	89.38
483.372	93.38
483.59	92.38
483.808	96.38
484.027	82.38
484.245	93.38
484.463	89.38
484.681	85.38
484.9	101.38
485.118	99.38
485.336	96.38
485.554	100.38
485.772	98.38
485.99	89.38
486.209	101.38
486.427	110.38
486.645	102.38
486.863	105.38
487.081	90.38
487.299	97.38
487.517	95.38
487.735	93.38
487.953	92.38
488.171	82.38
488.389	93.38
488.607	92.38
488.825	92.38
489.043	91.38
489.261	90.38
489.479	81.38
489.696	82.38
489.914	95.38
490.132	84.38
490.35	78.38
490.568	85.38
490.786	89.38
491.003	89.38
491.221	94.38
491.439	91.38
491.657	84.38
491.874	89.38
492.092	86.38
492.31	87.38
492.527	85.38
492.745	80.38
492.963	100.38
493.18	93.38
493.398	92.38
493.615	86.38
493.833	84.38
494.05	76.38
494.268	95.38
494.485	95.38
494.703	97.38
494.92	92.38
495.138	93.38
495.355	69.38
495.573	85.38
495.79	83.38
496.008	87.38
496.225	89.38
496.442	85.38
496.66	85.38
496.877	75.38
497.094	87.38
497.312	75.38
497.529	86.38
497.746	98.38
497.963	99.38
498.181	96.38
498.398	86.38
498.615	117.38
498.832	100.38
499.049	91.38
499.267	76.38
499.484	78.38
499.701	83.38
499.918	89.38
500.135	89.38
500.352	75.38
500.569	70.38
500.786	85.38
501.003	82.38
501.22	89.38
501.437	81.38
501.654	102.38
501.871	110.38
502.088	95.38
502.305	69.38
502.522	79.38
502.739	82.38
502.956	72.38
503.172	83.38
503.389	97.38
503.606	91.38
503.823	97.38
504.04	85.38
504.256	86.38
504.473	86.38
504.69	91.38
504.907	90.38
505.123	90.38
505.34	88.38
505.557	88.38
505.773	94.38
505.99	83.38
506.207	107.38
506.423	80.38
506.64	94.38
506.856	78.38
507.073	92.38
507.289	84.38
507.506	98.38
507.722	99.38
507.939	106.38
508.155	102.38
508.372	88.38
508.588	92.38
508.805	97.38
509.021	95.38
509.238	101.38
509.454	98.38
509.67	94.38
509.887	83.38
510.103	123.38
510.319	199.38
510.536	699.38
510.752	2174.38
510.968	614.38
511.184	149.38
511.401	103.38
511.617	90.38
511.833	92.38
512.049	79.38
512.265	63.38
512.481	75.38
512.698	85.38
512.914	87.38
513.13	106.38
513.346	90.38
513.562	91.38
513.778	83.38
513.994	83.38
514.21	94.38
514.426	115.38
514.642	123.38
514.858	109.38
515.074	156.38
515.29	407.38
515.506	1264.38
515.721	454.38
515.937	142.38
516.153	98.38
516.369	99.38
516.585	82.38
516.801	84.38
517.016	95.38
