Data from Uncirc_2000_H10_HRD10591_00027.txt Node
Date: Wed Jan 03 10:48:22 EST 2024
User: Yrep
Spectrometer: HR+D1059
Trigger mode: 1
Integration Time (sec): 1.000000E-1
Scans to average: 1
Electric dark correction enabled: true
Nonlinearity correction enabled: false
Boxcar width: 0
XAxis mode: Wavelengths
Number of Pixels in Spectrum: 2048
>>>>>Begin Spectral Data<<<<<
223.165	-26.62
223.4	-26.62
223.635	-26.62
223.869	-21.62
224.104	-19.62
224.338	-11.62
224.573	-18.62
224.808	-3.62
225.042	-10.62
225.277	-6.62
225.511	1.38
225.746	-4.62
225.98	7.38
226.215	21.38
226.449	16.38
226.683	14.38
226.918	29.38
227.152	33.38
227.387	31.38
227.621	42.38
227.856	47.38
228.09	49.38
228.324	51.38
228.559	52.38
228.793	49.38
229.027	68.38
229.262	66.38
229.496	68.38
229.73	98.38
229.964	99.38
230.199	74.38
230.433	75.38
230.667	73.38
230.901	90.38
231.136	81.38
231.37	64.38
231.604	71.38
231.838	64.38
232.072	83.38
232.306	71.38
232.541	80.38
232.775	86.38
233.009	75.38
233.243	93.38
233.477	79.38
233.711	89.38
233.945	78.38
234.179	80.38
234.413	86.38
234.647	70.38
234.881	86.38
235.115	78.38
235.349	72.38
235.583	80.38
235.817	90.38
236.051	91.38
236.285	74.38
236.519	72.38
236.753	87.38
236.987	85.38
237.221	91.38
237.455	74.38
237.689	91.38
237.922	73.38
238.156	74.38
238.39	77.38
238.624	95.38
238.858	74.38
239.091	77.38
239.325	81.38
239.559	76.38
239.793	74.38
240.027	78.38
240.26	66.38
240.494	77.38
240.728	78.38
240.961	91.38
241.195	80.38
241.429	89.38
241.662	79.38
241.896	80.38
242.13	89.38
242.363	73.38
242.597	91.38
242.83	77.38
243.064	77.38
243.298	80.38
243.531	77.38
243.765	86.38
243.998	82.38
244.232	89.38
244.465	86.38
244.699	85.38
244.932	93.38
245.166	85.38
245.399	75.38
245.633	91.38
245.866	76.38
246.099	70.38
246.333	88.38
246.566	91.38
246.8	84.38
247.033	84.38
247.266	87.38
247.5	73.38
247.733	72.38
247.966	72.38
248.2	72.38
248.433	69.38
248.666	86.38
248.899	79.38
249.133	87.38
249.366	77.38
249.599	95.38
249.832	75.38
250.066	81.38
250.299	86.38
250.532	89.38
250.765	76.38
250.998	85.38
251.231	87.38
251.465	86.38
251.698	72.38
251.931	78.38
252.164	67.38
252.397	82.38
252.63	74.38
252.863	83.38
253.096	90.38
253.329	85.38
253.562	78.38
253.795	81.38
254.028	90.38
254.261	75.38
254.494	76.38
254.727	85.38
254.96	89.38
255.193	78.38
255.426	81.38
255.659	81.38
255.892	72.38
256.124	84.38
256.357	74.38
256.59	90.38
256.823	75.38
257.056	83.38
257.289	82.38
257.521	69.38
257.754	65.38
257.987	74.38
258.22	94.38
258.452	73.38
258.685	88.38
258.918	72.38
259.151	77.38
259.383	83.38
259.616	82.38
259.849	71.38
260.081	92.38
260.314	74.38
260.547	84.38
260.779	85.38
261.012	84.38
261.244	88.38
261.477	85.38
261.71	87.38
261.942	117.38
262.175	115.38
262.407	94.38
262.64	112.38
262.872	87.38
263.105	87.38
263.337	86.38
263.57	81.38
263.802	84.38
264.035	73.38
264.267	78.38
264.499	78.38
264.732	77.38
264.964	83.38
265.197	86.38
265.429	87.38
265.661	91.38
265.894	70.38
266.126	87.38
266.358	86.38
266.591	75.38
266.823	88.38
267.055	84.38
267.287	76.38
267.52	81.38
267.752	86.38
267.984	87.38
268.216	86.38
268.448	88.38
268.681	69.38
268.913	77.38
269.145	80.38
269.377	100.38
269.609	78.38
269.841	92.38
270.073	85.38
270.306	90.38
270.538	77.38
270.77	78.38
271.002	101.38
271.234	97.38
271.466	88.38
271.698	74.38
271.93	89.38
272.162	75.38
272.394	80.38
272.626	73.38
272.858	89.38
273.09	83.38
273.322	82.38
273.553	89.38
273.785	86.38
274.017	104.38
274.249	99.38
274.481	84.38
274.713	104.38
274.945	93.38
275.176	76.38
275.408	81.38
275.64	84.38
275.872	87.38
276.104	85.38
276.335	85.38
276.567	96.38
276.799	124.38
277.031	101.38
277.262	79.38
277.494	86.38
277.726	86.38
277.957	88.38
278.189	84.38
278.421	87.38
278.652	91.38
278.884	81.38
279.115	83.38
279.347	87.38
279.579	86.38
279.81	79.38
280.042	88.38
280.273	84.38
280.505	98.38
280.736	84.38
280.968	85.38
281.199	82.38
281.431	84.38
281.662	97.38
281.894	83.38
282.125	91.38
282.356	118.38
282.588	132.38
282.819	102.38
283.051	94.38
283.282	100.38
283.513	84.38
283.745	81.38
283.976	74.38
284.207	82.38
284.439	77.38
284.67	76.38
284.901	83.38
285.132	83.38
285.364	90.38
285.595	92.38
285.826	90.38
286.057	88.38
286.288	85.38
286.52	85.38
286.751	86.38
286.982	97.38
287.213	79.38
287.444	84.38
287.675	92.38
287.906	89.38
288.138	90.38
288.369	100.38
288.6	83.38
288.831	79.38
289.062	94.38
289.293	74.38
289.524	92.38
289.755	93.38
289.986	99.38
290.217	113.38
290.448	94.38
290.679	89.38
290.91	86.38
291.141	94.38
291.371	91.38
291.602	94.38
291.833	96.38
292.064	99.38
292.295	85.38
292.526	100.38
292.757	98.38
292.987	97.38
293.218	97.38
293.449	84.38
293.68	94.38
293.91	83.38
294.141	92.38
294.372	95.38
294.603	94.38
294.833	93.38
295.064	87.38
295.295	92.38
295.525	92.38
295.756	98.38
295.987	104.38
296.217	121.38
296.448	109.38
296.679	99.38
296.909	81.38
297.14	83.38
297.37	88.38
297.601	98.38
297.831	81.38
298.062	88.38
298.292	93.38
298.523	99.38
298.753	88.38
298.984	83.38
299.214	84.38
299.445	95.38
299.675	89.38
299.905	88.38
300.136	94.38
300.366	82.38
300.597	94.38
300.827	86.38
301.057	97.38
301.288	92.38
301.518	72.38
301.748	95.38
301.979	104.38
302.209	95.38
302.439	90.38
302.669	80.38
302.9	86.38
303.13	89.38
303.36	91.38
303.59	95.38
303.82	96.38
304.051	99.38
304.281	98.38
304.511	92.38
304.741	91.38
304.971	104.38
305.201	85.38
305.431	97.38
305.661	92.38
305.891	99.38
306.121	90.38
306.352	111.38
306.582	105.38
306.812	94.38
307.042	77.38
307.272	99.38
307.502	83.38
307.731	97.38
307.961	95.38
308.191	89.38
308.421	84.38
308.651	97.38
308.881	91.38
309.111	94.38
309.341	91.38
309.571	89.38
309.8	92.38
310.03	101.38
310.26	96.38
310.49	94.38
310.72	99.38
310.949	92.38
311.179	104.38
311.409	106.38
311.639	99.38
311.868	101.38
312.098	94.38
312.328	89.38
312.557	119.38
312.787	99.38
313.017	97.38
313.246	94.38
313.476	97.38
313.706	87.38
313.935	76.38
314.165	91.38
314.394	96.38
314.624	97.38
314.853	98.38
315.083	95.38
315.312	103.38
315.542	98.38
315.771	107.38
316.001	77.38
316.23	90.38
316.46	101.38
316.689	86.38
316.919	94.38
317.148	99.38
317.377	104.38
317.607	99.38
317.836	101.38
318.065	98.38
318.295	96.38
318.524	90.38
318.753	78.38
318.983	91.38
319.212	98.38
319.441	115.38
319.67	108.38
319.9	85.38
320.129	77.38
320.358	78.38
320.587	113.38
320.816	109.38
321.046	106.38
321.275	116.38
321.504	90.38
321.733	100.38
321.962	110.38
322.191	99.38
322.42	94.38
322.649	107.38
322.878	110.38
323.108	112.38
323.337	109.38
323.566	148.38
323.795	139.38
324.024	205.38
324.253	364.38
324.482	783.38
324.71	1611.38
324.939	2112.38
325.168	785.38
325.397	251.38
325.626	147.38
325.855	116.38
326.084	133.38
326.313	124.38
326.542	158.38
326.77	226.38
326.999	452.38
327.228	924.38
327.457	1672.38
327.686	1315.38
327.914	358.38
328.143	179.38
328.372	138.38
328.6	119.38
328.829	110.38
329.058	118.38
329.287	114.38
329.515	101.38
329.744	98.38
329.972	91.38
330.201	97.38
330.43	116.38
330.658	115.38
330.887	124.38
331.115	123.38
331.344	108.38
331.572	94.38
331.801	100.38
332.03	88.38
332.258	88.38
332.486	101.38
332.715	73.38
332.943	101.38
333.172	78.38
333.4	94.38
333.629	108.38
333.857	117.38
334.085	111.38
334.314	104.38
334.542	87.38
334.771	99.38
334.999	93.38
335.227	87.38
335.455	90.38
335.684	93.38
335.912	86.38
336.14	98.38
336.369	93.38
336.597	98.38
336.825	97.38
337.053	102.38
337.281	93.38
337.51	96.38
337.738	102.38
337.966	102.38
338.194	83.38
338.422	86.38
338.65	98.38
338.878	94.38
339.106	88.38
339.334	100.38
339.562	89.38
339.79	83.38
340.018	90.38
340.246	96.38
340.474	79.38
340.702	92.38
340.93	82.38
341.158	98.38
341.386	99.38
341.614	98.38
341.842	85.38
342.07	80.38
342.298	84.38
342.526	88.38
342.754	106.38
342.981	102.38
343.209	97.38
343.437	94.38
343.665	92.38
343.893	92.38
344.12	109.38
344.348	94.38
344.576	114.38
344.804	84.38
345.031	107.38
345.259	102.38
345.487	96.38
345.714	79.38
345.942	81.38
346.17	86.38
346.397	92.38
346.625	98.38
346.853	105.38
347.08	100.38
347.308	102.38
347.535	91.38
347.763	105.38
347.99	98.38
348.218	108.38
348.445	119.38
348.673	103.38
348.9	86.38
349.128	104.38
349.355	91.38
349.583	98.38
349.81	100.38
350.037	87.38
350.265	97.38
350.492	99.38
350.72	100.38
350.947	103.38
351.174	120.38
351.402	102.38
351.629	92.38
351.856	97.38
352.083	92.38
352.311	99.38
352.538	94.38
352.765	96.38
352.992	105.38
353.22	107.38
353.447	95.38
353.674	86.38
353.901	93.38
354.128	110.38
354.355	97.38
354.583	108.38
354.81	107.38
355.037	93.38
355.264	99.38
355.491	102.38
355.718	82.38
355.945	93.38
356.172	92.38
356.399	97.38
356.626	106.38
356.853	90.38
357.08	89.38
357.307	103.38
357.534	91.38
357.761	83.38
357.988	101.38
358.215	88.38
358.441	88.38
358.668	84.38
358.895	93.38
359.122	92.38
359.349	105.38
359.576	86.38
359.802	110.38
360.029	119.38
360.256	104.38
360.483	91.38
360.709	94.38
360.936	100.38
361.163	80.38
361.39	95.38
361.616	92.38
361.843	90.38
362.07	93.38
362.296	82.38
362.523	92.38
362.749	90.38
362.976	95.38
363.203	91.38
363.429	84.38
363.656	108.38
363.882	86.38
364.109	94.38
364.335	104.38
364.562	99.38
364.788	92.38
365.015	102.38
365.241	105.38
365.468	101.38
365.694	84.38
365.92	100.38
366.147	93.38
366.373	89.38
366.599	73.38
366.826	87.38
367.052	79.38
367.278	83.38
367.505	93.38
367.731	100.38
367.957	83.38
368.184	97.38
368.41	94.38
368.636	104.38
368.862	119.38
369.089	82.38
369.315	94.38
369.541	80.38
369.767	93.38
369.993	88.38
370.219	76.38
370.445	100.38
370.672	99.38
370.898	103.38
371.124	93.38
371.35	85.38
371.576	76.38
371.802	86.38
372.028	88.38
372.254	93.38
372.48	96.38
372.706	90.38
372.932	89.38
373.158	93.38
373.384	95.38
373.61	95.38
373.835	89.38
374.061	95.38
374.287	86.38
374.513	97.38
374.739	85.38
374.965	74.38
375.191	90.38
375.416	88.38
375.642	79.38
375.868	100.38
376.094	87.38
376.319	88.38
376.545	77.38
376.771	88.38
376.997	83.38
377.222	93.38
377.448	87.38
377.674	96.38
377.899	90.38
378.125	86.38
378.35	101.38
378.576	92.38
378.802	92.38
379.027	84.38
379.253	89.38
379.478	103.38
379.704	94.38
379.929	87.38
380.155	100.38
380.38	94.38
380.606	86.38
380.831	90.38
381.057	104.38
381.282	82.38
381.507	101.38
381.733	109.38
381.958	98.38
382.184	98.38
382.409	103.38
382.634	105.38
382.86	94.38
383.085	104.38
383.31	94.38
383.535	99.38
383.761	108.38
383.986	100.38
384.211	99.38
384.436	97.38
384.662	93.38
384.887	101.38
385.112	94.38
385.337	91.38
385.562	101.38
385.787	101.38
386.013	100.38
386.238	102.38
386.463	99.38
386.688	109.38
386.913	105.38
387.138	105.38
387.363	115.38
387.588	100.38
387.813	108.38
388.038	105.38
388.263	121.38
388.488	105.38
388.713	89.38
388.938	94.38
389.163	92.38
389.387	88.38
389.612	83.38
389.837	93.38
390.062	94.38
390.287	86.38
390.512	86.38
390.736	92.38
390.961	87.38
391.186	105.38
391.411	96.38
391.636	99.38
391.86	89.38
392.085	87.38
392.31	96.38
392.534	80.38
392.759	88.38
392.984	81.38
393.208	79.38
393.433	91.38
393.658	95.38
393.882	92.38
394.107	88.38
394.331	82.38
394.556	92.38
394.78	85.38
395.005	92.38
395.229	83.38
395.454	88.38
395.678	90.38
395.903	88.38
396.127	99.38
396.352	91.38
396.576	81.38
396.801	96.38
397.025	82.38
397.249	87.38
397.474	100.38
397.698	99.38
397.922	92.38
398.147	90.38
398.371	81.38
398.595	78.38
398.82	81.38
399.044	88.38
399.268	83.38
399.492	100.38
399.717	92.38
399.941	86.38
400.165	93.38
400.389	93.38
400.613	87.38
400.837	81.38
401.062	84.38
401.286	99.38
401.51	93.38
401.734	90.38
401.958	87.38
402.182	120.38
402.406	146.38
402.63	112.38
402.854	78.38
403.078	84.38
403.302	93.38
403.526	102.38
403.75	91.38
403.974	86.38
404.198	97.38
404.422	78.38
404.645	102.38
404.869	93.38
405.093	101.38
405.317	99.38
405.541	85.38
405.765	103.38
405.988	125.38
406.212	170.38
406.436	189.38
406.66	122.38
406.883	102.38
407.107	108.38
407.331	111.38
407.555	104.38
407.778	93.38
408.002	95.38
408.226	78.38
408.449	91.38
408.673	93.38
408.896	88.38
409.12	89.38
409.344	95.38
409.567	82.38
409.791	108.38
410.014	96.38
410.238	100.38
410.461	102.38
410.685	88.38
410.908	100.38
411.132	95.38
411.355	91.38
411.578	86.38
411.802	95.38
412.025	98.38
412.249	73.38
412.472	83.38
412.695	86.38
412.919	87.38
413.142	74.38
413.365	82.38
413.589	92.38
413.812	88.38
414.035	92.38
414.258	83.38
414.482	94.38
414.705	101.38
414.928	88.38
415.151	94.38
415.374	80.38
415.597	94.38
415.821	99.38
416.044	107.38
416.267	99.38
416.49	83.38
416.713	77.38
416.936	84.38
417.159	96.38
417.382	88.38
417.605	75.38
417.828	82.38
418.051	100.38
418.274	98.38
418.497	82.38
418.72	85.38
418.943	87.38
419.166	93.38
419.389	86.38
419.611	84.38
419.834	80.38
420.057	98.38
420.28	78.38
420.503	84.38
420.726	96.38
420.948	89.38
421.171	99.38
421.394	93.38
421.617	82.38
421.839	82.38
422.062	85.38
422.285	85.38
422.507	112.38
422.73	102.38
422.953	100.38
423.175	83.38
423.398	89.38
423.621	91.38
423.843	101.38
424.066	88.38
424.288	83.38
424.511	98.38
424.733	88.38
424.956	99.38
425.178	101.38
425.401	95.38
425.623	89.38
425.846	80.38
426.068	86.38
426.291	103.38
426.513	94.38
426.735	91.38
426.958	86.38
427.18	101.38
427.402	134.38
427.625	164.38
427.847	116.38
428.069	100.38
428.292	101.38
428.514	84.38
428.736	103.38
428.958	69.38
429.181	92.38
429.403	88.38
429.625	86.38
429.847	75.38
430.069	90.38
430.292	82.38
430.514	88.38
430.736	93.38
430.958	86.38
431.18	84.38
431.402	78.38
431.624	75.38
431.846	78.38
432.068	82.38
432.29	97.38
432.512	106.38
432.734	89.38
432.956	94.38
433.178	109.38
433.4	98.38
433.622	86.38
433.844	93.38
434.066	83.38
434.287	81.38
434.509	101.38
434.731	94.38
434.953	81.38
435.175	77.38
435.397	91.38
435.618	100.38
435.84	98.38
436.062	120.38
436.284	84.38
436.505	100.38
436.727	100.38
436.949	91.38
437.17	99.38
437.392	87.38
437.614	86.38
437.835	98.38
438.057	115.38
438.278	109.38
438.5	107.38
438.721	115.38
438.943	104.38
439.165	91.38
439.386	92.38
439.608	90.38
439.829	98.38
440.05	130.38
440.272	141.38
440.493	105.38
440.715	84.38
440.936	74.38
441.158	97.38
441.379	90.38
441.6	92.38
441.822	99.38
442.043	87.38
442.264	98.38
442.486	94.38
442.707	101.38
442.928	108.38
443.149	125.38
443.371	108.38
443.592	100.38
443.813	102.38
444.034	106.38
444.255	89.38
444.476	92.38
444.698	92.38
444.919	93.38
445.14	116.38
445.361	120.38
445.582	94.38
445.803	128.38
446.024	117.38
446.245	120.38
446.466	114.38
446.687	78.38
446.908	86.38
447.129	94.38
447.35	91.38
447.571	98.38
447.792	101.38
448.013	109.38
448.234	102.38
448.455	93.38
448.675	104.38
448.896	106.38
449.117	94.38
449.338	101.38
449.559	108.38
449.779	120.38
450	89.38
450.221	84.38
450.442	82.38
450.662	81.38
450.883	102.38
451.104	108.38
451.324	80.38
451.545	94.38
451.766	90.38
451.986	90.38
452.207	78.38
452.428	106.38
452.648	103.38
452.869	105.38
453.089	97.38
453.31	113.38
453.53	99.38
453.751	94.38
453.971	100.38
454.192	101.38
454.412	103.38
454.633	92.38
454.853	88.38
455.073	92.38
455.294	97.38
455.514	93.38
455.734	88.38
455.955	91.38
456.175	88.38
456.395	95.38
456.616	92.38
456.836	87.38
457.056	89.38
457.276	93.38
457.497	76.38
457.717	61.38
457.937	78.38
458.157	90.38
458.377	98.38
458.598	105.38
458.818	147.38
459.038	162.38
459.258	105.38
459.478	91.38
459.698	94.38
459.918	81.38
460.138	86.38
460.358	87.38
460.578	86.38
460.798	89.38
461.018	92.38
461.238	87.38
461.458	73.38
461.678	88.38
461.898	84.38
462.118	84.38
462.338	85.38
462.558	85.38
462.777	91.38
462.997	82.38
463.217	86.38
463.437	88.38
463.657	72.38
463.876	100.38
464.096	92.38
464.316	98.38
464.536	93.38
464.755	93.38
464.975	105.38
465.195	163.38
465.414	158.38
465.634	98.38
465.854	83.38
466.073	89.38
466.293	103.38
466.512	85.38
466.732	102.38
466.951	100.38
467.171	102.38
467.391	94.38
467.61	113.38
467.829	102.38
468.049	84.38
468.268	94.38
468.488	89.38
468.707	95.38
468.927	83.38
469.146	101.38
469.365	82.38
469.585	103.38
469.804	105.38
470.023	76.38
470.243	94.38
470.462	108.38
470.681	93.38
470.901	92.38
471.12	96.38
471.339	89.38
471.558	88.38
471.777	93.38
471.997	89.38
472.216	82.38
472.435	91.38
472.654	88.38
472.873	76.38
473.092	67.38
473.311	83.38
473.53	78.38
473.749	108.38
473.968	99.38
474.187	97.38
474.406	104.38
474.625	100.38
474.844	80.38
475.063	78.38
475.282	99.38
475.501	82.38
475.72	77.38
475.939	75.38
476.158	80.38
476.377	91.38
476.596	83.38
476.814	94.38
477.033	88.38
477.252	100.38
477.471	95.38
477.69	85.38
477.908	96.38
478.127	85.38
478.346	93.38
478.564	97.38
478.783	95.38
479.002	97.38
479.22	99.38
479.439	96.38
479.658	83.38
479.876	85.38
480.095	88.38
480.313	95.38
480.532	92.38
480.751	87.38
480.969	89.38
481.188	81.38
481.406	89.38
481.624	82.38
481.843	102.38
482.061	82.38
482.28	88.38
482.498	96.38
482.717	101.38
482.935	92.38
483.153	83.38
483.372	91.38
483.59	96.38
483.808	82.38
484.027	89.38
484.245	99.38
484.463	93.38
484.681	92.38
484.9	87.38
485.118	101.38
485.336	100.38
485.554	88.38
485.772	97.38
485.99	103.38
486.209	114.38
486.427	97.38
486.645	117.38
486.863	106.38
487.081	105.38
487.299	96.38
487.517	99.38
487.735	114.38
487.953	89.38
488.171	109.38
488.389	101.38
488.607	91.38
488.825	96.38
489.043	85.38
489.261	94.38
489.479	95.38
489.696	88.38
489.914	95.38
490.132	90.38
490.35	99.38
490.568	94.38
490.786	86.38
491.003	84.38
491.221	102.38
491.439	76.38
491.657	89.38
491.874	94.38
492.092	80.38
492.31	82.38
492.527	91.38
492.745	104.38
492.963	87.38
493.18	86.38
493.398	100.38
493.615	94.38
493.833	102.38
494.05	80.38
494.268	93.38
494.485	96.38
494.703	89.38
494.92	81.38
495.138	83.38
495.355	91.38
495.573	84.38
495.79	82.38
496.008	104.38
496.225	96.38
496.442	97.38
496.66	91.38
496.877	91.38
497.094	89.38
497.312	98.38
497.529	87.38
497.746	100.38
497.963	102.38
498.181	92.38
498.398	82.38
498.615	114.38
498.832	101.38
499.049	89.38
499.267	100.38
499.484	105.38
499.701	91.38
499.918	99.38
500.135	94.38
500.352	87.38
500.569	94.38
500.786	88.38
501.003	99.38
501.22	94.38
501.437	92.38
501.654	84.38
501.871	118.38
502.088	99.38
502.305	97.38
502.522	105.38
502.739	107.38
502.956	92.38
503.172	108.38
503.389	111.38
503.606	113.38
503.823	100.38
504.04	99.38
504.256	83.38
504.473	107.38
504.69	87.38
504.907	93.38
505.123	89.38
505.34	94.38
505.557	105.38
505.773	91.38
505.99	101.38
506.207	93.38
506.423	91.38
506.64	82.38
506.856	107.38
507.073	80.38
507.289	88.38
507.506	99.38
507.722	116.38
507.939	102.38
508.155	94.38
508.372	97.38
508.588	85.38
508.805	99.38
509.021	105.38
509.238	111.38
509.454	111.38
509.67	85.38
509.887	107.38
510.103	125.38
510.319	212.38
510.536	723.38
510.752	2250.38
510.968	624.38
511.184	164.38
511.401	104.38
511.617	99.38
511.833	93.38
512.049	90.38
512.265	90.38
512.481	99.38
512.698	98.38
512.914	88.38
513.13	92.38
513.346	93.38
513.562	95.38
513.778	93.38
513.994	105.38
514.21	101.38
514.426	128.38
514.642	121.38
514.858	115.38
515.074	150.38
515.29	414.38
515.506	1290.38
