Data from Uncirc_2000_H10_HRD10591_00076.txt Node
Date: Wed Jan 03 10:48:32 EST 2024
User: Yrep
Spectrometer: HR+D1059
Trigger mode: 1
Integration Time (sec): 1.000000E-1
Scans to average: 1
Electric dark correction enabled: true
Nonlinearity correction enabled: false
Boxcar width: 0
XAxis mode: Wavelengths
Number of Pixels in Spectrum: 2048
>>>>>Begin Spectral Data<<<<<
223.165	-28.44
223.4	-28.44
223.635	-28.44
223.869	-6.44
224.104	-21.44
224.338	-20.44
224.573	-10.44
224.808	-7.44
225.042	-4.44
225.277	-14.44
225.511	1.56
225.746	-0.44
225.98	7.56
226.215	15.56
226.449	19.56
226.683	17.56
226.918	22.56
227.152	29.56
227.387	21.56
227.621	33.56
227.856	42.56
228.09	33.56
228.324	49.56
228.559	47.56
228.793	50.56
229.027	72.56
229.262	74.56
229.496	68.56
229.73	80.56
229.964	80.56
230.199	71.56
230.433	71.56
230.667	78.56
230.901	80.56
231.136	71.56
231.37	80.56
231.604	67.56
231.838	73.56
232.072	68.56
232.306	85.56
232.541	87.56
232.775	87.56
233.009	87.56
233.243	72.56
233.477	81.56
233.711	91.56
233.945	84.56
234.179	77.56
234.413	67.56
234.647	74.56
234.881	73.56
235.115	81.56
235.349	71.56
235.583	79.56
235.817	72.56
236.051	74.56
236.285	69.56
236.519	77.56
236.753	92.56
236.987	90.56
237.221	72.56
237.455	80.56
237.689	66.56
237.922	84.56
238.156	77.56
238.39	70.56
238.624	68.56
238.858	68.56
239.091	68.56
239.325	85.56
239.559	83.56
239.793	73.56
240.027	75.56
240.26	70.56
240.494	81.56
240.728	74.56
240.961	87.56
241.195	85.56
241.429	81.56
241.662	81.56
241.896	76.56
242.13	73.56
242.363	69.56
242.597	86.56
242.83	73.56
243.064	86.56
243.298	82.56
243.531	85.56
243.765	74.56
243.998	82.56
244.232	74.56
244.465	77.56
244.699	92.56
244.932	77.56
245.166	80.56
245.399	74.56
245.633	89.56
245.866	78.56
246.099	76.56
246.333	83.56
246.566	65.56
246.8	83.56
247.033	77.56
247.266	80.56
247.5	71.56
247.733	79.56
247.966	75.56
248.2	90.56
248.433	80.56
248.666	88.56
248.899	74.56
249.133	80.56
249.366	98.56
249.599	101.56
249.832	82.56
250.066	67.56
250.299	78.56
250.532	66.56
250.765	68.56
250.998	64.56
251.231	86.56
251.465	99.56
251.698	76.56
251.931	71.56
252.164	82.56
252.397	72.56
252.63	93.56
252.863	84.56
253.096	66.56
253.329	83.56
253.562	63.56
253.795	78.56
254.028	72.56
254.261	81.56
254.494	91.56
254.727	90.56
254.96	73.56
255.193	84.56
255.426	88.56
255.659	86.56
255.892	89.56
256.124	88.56
256.357	80.56
256.59	73.56
256.823	76.56
257.056	72.56
257.289	84.56
257.521	84.56
257.754	83.56
257.987	70.56
258.22	84.56
258.452	73.56
258.685	81.56
258.918	88.56
259.151	97.56
259.383	97.56
259.616	77.56
259.849	87.56
260.081	86.56
260.314	69.56
260.547	73.56
260.779	73.56
261.012	86.56
261.244	93.56
261.477	78.56
261.71	85.56
261.942	90.56
262.175	95.56
262.407	83.56
262.64	86.56
262.872	77.56
263.105	65.56
263.337	83.56
263.57	79.56
263.802	84.56
264.035	97.56
264.267	75.56
264.499	92.56
264.732	89.56
264.964	74.56
265.197	64.56
265.429	88.56
265.661	83.56
265.894	90.56
266.126	94.56
266.358	83.56
266.591	85.56
266.823	88.56
267.055	80.56
267.287	70.56
267.52	89.56
267.752	68.56
267.984	79.56
268.216	81.56
268.448	78.56
268.681	89.56
268.913	73.56
269.145	75.56
269.377	86.56
269.609	89.56
269.841	70.56
270.073	69.56
270.306	77.56
270.538	71.56
270.77	69.56
271.002	97.56
271.234	94.56
271.466	82.56
271.698	94.56
271.93	85.56
272.162	93.56
272.394	80.56
272.626	79.56
272.858	72.56
273.09	88.56
273.322	103.56
273.553	85.56
273.785	79.56
274.017	82.56
274.249	81.56
274.481	65.56
274.713	81.56
274.945	78.56
275.176	77.56
275.408	83.56
275.64	81.56
275.872	85.56
276.104	76.56
276.335	81.56
276.567	95.56
276.799	103.56
277.031	81.56
277.262	98.56
277.494	80.56
277.726	91.56
277.957	94.56
278.189	81.56
278.421	84.56
278.652	73.56
278.884	78.56
279.115	95.56
279.347	87.56
279.579	98.56
279.81	90.56
280.042	83.56
280.273	97.56
280.505	80.56
280.736	88.56
280.968	78.56
281.199	83.56
281.431	79.56
281.662	89.56
281.894	90.56
282.125	91.56
282.356	114.56
282.588	132.56
282.819	109.56
283.051	103.56
283.282	85.56
283.513	91.56
283.745	75.56
283.976	85.56
284.207	88.56
284.439	78.56
284.67	87.56
284.901	71.56
285.132	89.56
285.364	95.56
285.595	86.56
285.826	83.56
286.057	90.56
286.288	84.56
286.52	84.56
286.751	79.56
286.982	61.56
287.213	94.56
287.444	71.56
287.675	81.56
287.906	85.56
288.138	90.56
288.369	79.56
288.6	81.56
288.831	82.56
289.062	78.56
289.293	90.56
289.524	101.56
289.755	76.56
289.986	78.56
290.217	93.56
290.448	88.56
290.679	85.56
290.91	87.56
291.141	87.56
291.371	87.56
291.602	97.56
291.833	89.56
292.064	94.56
292.295	91.56
292.526	82.56
292.757	96.56
292.987	83.56
293.218	85.56
293.449	87.56
293.68	96.56
293.91	101.56
294.141	98.56
294.372	83.56
294.603	89.56
294.833	85.56
295.064	79.56
295.295	87.56
295.525	94.56
295.756	98.56
295.987	106.56
296.217	113.56
296.448	125.56
296.679	94.56
296.909	87.56
297.14	79.56
297.37	84.56
297.601	82.56
297.831	80.56
298.062	94.56
298.292	78.56
298.523	89.56
298.753	85.56
298.984	83.56
299.214	96.56
299.445	82.56
299.675	95.56
299.905	91.56
300.136	88.56
300.366	82.56
300.597	91.56
300.827	83.56
301.057	84.56
301.288	96.56
301.518	85.56
301.748	80.56
301.979	102.56
302.209	88.56
302.439	72.56
302.669	85.56
302.9	77.56
303.13	89.56
303.36	87.56
303.59	85.56
303.82	92.56
304.051	86.56
304.281	78.56
304.511	84.56
304.741	83.56
304.971	84.56
305.201	80.56
305.431	83.56
305.661	89.56
305.891	88.56
306.121	89.56
306.352	95.56
306.582	100.56
306.812	85.56
307.042	101.56
307.272	84.56
307.502	83.56
307.731	77.56
307.961	89.56
308.191	79.56
308.421	97.56
308.651	81.56
308.881	70.56
309.111	95.56
309.341	99.56
309.571	84.56
309.8	86.56
310.03	99.56
310.26	95.56
310.49	85.56
310.72	88.56
310.949	99.56
311.179	95.56
311.409	93.56
311.639	105.56
311.868	99.56
312.098	104.56
312.328	102.56
312.557	96.56
312.787	95.56
313.017	103.56
313.246	79.56
313.476	89.56
313.706	93.56
313.935	98.56
314.165	90.56
314.394	110.56
314.624	94.56
314.853	112.56
315.083	84.56
315.312	91.56
315.542	81.56
315.771	98.56
316.001	95.56
316.23	78.56
316.46	91.56
316.689	84.56
316.919	82.56
317.148	74.56
317.377	98.56
317.607	90.56
317.836	88.56
318.065	91.56
318.295	90.56
318.524	98.56
318.753	83.56
318.983	78.56
319.212	91.56
319.441	100.56
319.67	107.56
319.9	84.56
320.129	104.56
320.358	88.56
320.587	79.56
320.816	97.56
321.046	89.56
321.275	91.56
321.504	98.56
321.733	90.56
321.962	100.56
322.191	106.56
322.42	118.56
322.649	116.56
322.878	97.56
323.108	127.56
323.337	114.56
323.566	125.56
323.795	151.56
324.024	205.56
324.253	385.56
324.482	801.56
324.71	1623.56
324.939	2129.56
325.168	780.56
325.397	231.56
325.626	137.56
325.855	120.56
326.084	130.56
326.313	135.56
326.542	146.56
326.77	216.56
326.999	446.56
327.228	910.56
327.457	1673.56
327.686	1303.56
327.914	368.56
328.143	173.56
328.372	135.56
328.6	103.56
328.829	110.56
329.058	126.56
329.287	107.56
329.515	92.56
329.744	113.56
329.972	83.56
330.201	90.56
330.43	97.56
330.658	108.56
330.887	133.56
331.115	102.56
331.344	97.56
331.572	79.56
331.801	96.56
332.03	101.56
332.258	94.56
332.486	87.56
332.715	82.56
332.943	95.56
333.172	70.56
333.4	96.56
333.629	91.56
333.857	111.56
334.085	99.56
334.314	90.56
334.542	99.56
334.771	91.56
334.999	98.56
335.227	89.56
335.455	100.56
335.684	84.56
335.912	100.56
336.14	76.56
336.369	85.56
336.597	107.56
336.825	101.56
337.053	86.56
337.281	90.56
337.51	69.56
337.738	89.56
337.966	91.56
338.194	84.56
338.422	79.56
338.65	106.56
338.878	75.56
339.106	83.56
339.334	84.56
339.562	87.56
339.79	96.56
340.018	81.56
340.246	89.56
340.474	97.56
340.702	83.56
340.93	83.56
341.158	91.56
341.386	92.56
341.614	101.56
341.842	94.56
342.07	78.56
342.298	92.56
342.526	83.56
342.754	99.56
342.981	80.56
343.209	83.56
343.437	99.56
343.665	87.56
343.893	89.56
344.12	86.56
344.348	90.56
344.576	95.56
344.804	85.56
345.031	86.56
345.259	81.56
345.487	75.56
345.714	84.56
345.942	81.56
346.17	100.56
346.397	90.56
346.625	88.56
346.853	87.56
347.08	77.56
347.308	102.56
347.535	102.56
347.763	84.56
347.99	79.56
348.218	103.56
348.445	78.56
348.673	79.56
348.9	82.56
349.128	89.56
349.355	93.56
349.583	90.56
349.81	86.56
350.037	87.56
350.265	100.56
350.492	82.56
350.72	89.56
350.947	105.56
351.174	110.56
351.402	109.56
351.629	109.56
351.856	100.56
352.083	91.56
352.311	98.56
352.538	104.56
352.765	91.56
352.992	101.56
353.22	102.56
353.447	89.56
353.674	103.56
353.901	97.56
354.128	94.56
354.355	95.56
354.583	87.56
354.81	90.56
355.037	97.56
355.264	89.56
355.491	84.56
355.718	95.56
355.945	110.56
356.172	102.56
356.399	88.56
356.626	89.56
356.853	77.56
357.08	97.56
357.307	88.56
357.534	81.56
357.761	82.56
357.988	89.56
358.215	87.56
358.441	89.56
358.668	89.56
358.895	95.56
359.122	83.56
359.349	78.56
359.576	91.56
359.802	96.56
360.029	109.56
360.256	99.56
360.483	87.56
360.709	95.56
360.936	89.56
361.163	98.56
361.39	99.56
361.616	98.56
361.843	73.56
362.07	86.56
362.296	97.56
362.523	81.56
362.749	98.56
362.976	78.56
363.203	84.56
363.429	89.56
363.656	88.56
363.882	84.56
364.109	81.56
364.335	94.56
364.562	79.56
364.788	74.56
365.015	90.56
365.241	92.56
365.468	90.56
365.694	102.56
365.92	95.56
366.147	73.56
366.373	81.56
366.599	83.56
366.826	83.56
367.052	98.56
367.278	96.56
367.505	94.56
367.731	95.56
367.957	91.56
368.184	84.56
368.41	90.56
368.636	106.56
368.862	110.56
369.089	96.56
369.315	89.56
369.541	83.56
369.767	102.56
369.993	103.56
370.219	89.56
370.445	98.56
370.672	83.56
370.898	81.56
371.124	81.56
371.35	87.56
371.576	80.56
371.802	77.56
372.028	77.56
372.254	76.56
372.48	90.56
372.706	83.56
372.932	79.56
373.158	77.56
373.384	94.56
373.61	98.56
373.835	79.56
374.061	89.56
374.287	79.56
374.513	88.56
374.739	79.56
374.965	74.56
375.191	89.56
375.416	86.56
375.642	96.56
375.868	91.56
376.094	102.56
376.319	86.56
376.545	87.56
376.771	86.56
376.997	86.56
377.222	94.56
377.448	72.56
377.674	78.56
377.899	82.56
378.125	90.56
378.35	80.56
378.576	88.56
378.802	87.56
379.027	89.56
379.253	75.56
379.478	76.56
379.704	86.56
379.929	84.56
380.155	84.56
380.38	78.56
380.606	84.56
380.831	74.56
381.057	90.56
381.282	99.56
381.507	97.56
381.733	81.56
381.958	84.56
382.184	82.56
382.409	83.56
382.634	104.56
382.86	95.56
383.085	107.56
383.31	85.56
383.535	98.56
383.761	106.56
383.986	91.56
384.211	105.56
384.436	89.56
384.662	86.56
384.887	98.56
385.112	110.56
385.337	99.56
385.562	102.56
385.787	106.56
386.013	97.56
386.238	100.56
386.463	94.56
386.688	105.56
386.913	99.56
387.138	114.56
387.363	110.56
387.588	95.56
387.813	105.56
388.038	107.56
388.263	99.56
388.488	92.56
388.713	83.56
388.938	80.56
389.163	96.56
389.387	89.56
389.612	82.56
389.837	81.56
390.062	81.56
390.287	91.56
390.512	100.56
390.736	80.56
390.961	90.56
391.186	96.56
391.411	81.56
391.636	88.56
391.86	74.56
392.085	81.56
392.31	88.56
392.534	91.56
392.759	70.56
392.984	94.56
393.208	84.56
393.433	90.56
393.658	69.56
393.882	75.56
394.107	83.56
394.331	96.56
394.556	95.56
394.78	93.56
395.005	86.56
395.229	71.56
395.454	93.56
395.678	89.56
395.903	90.56
396.127	82.56
396.352	89.56
396.576	76.56
396.801	71.56
397.025	77.56
397.249	86.56
397.474	89.56
397.698	70.56
397.922	96.56
398.147	92.56
398.371	79.56
398.595	86.56
398.82	81.56
399.044	95.56
399.268	87.56
399.492	84.56
399.717	74.56
399.941	84.56
400.165	82.56
400.389	83.56
400.613	86.56
400.837	70.56
401.062	81.56
401.286	86.56
401.51	91.56
401.734	82.56
401.958	98.56
402.182	126.56
402.406	141.56
402.63	118.56
402.854	89.56
403.078	92.56
403.302	95.56
403.526	80.56
403.75	77.56
403.974	76.56
404.198	85.56
404.422	85.56
404.645	80.56
404.869	86.56
405.093	82.56
405.317	75.56
405.541	86.56
405.765	95.56
405.988	97.56
406.212	152.56
406.436	205.56
406.66	130.56
406.883	88.56
407.107	93.56
407.331	83.56
407.555	98.56
407.778	86.56
408.002	79.56
408.226	88.56
408.449	86.56
408.673	86.56
408.896	98.56
409.12	101.56
409.344	86.56
409.567	82.56
409.791	87.56
410.014	91.56
410.238	81.56
410.461	89.56
410.685	88.56
410.908	96.56
411.132	95.56
411.355	95.56
411.578	95.56
411.802	94.56
412.025	82.56
412.249	87.56
412.472	83.56
412.695	87.56
412.919	78.56
413.142	82.56
413.365	70.56
413.589	82.56
413.812	82.56
414.035	98.56
414.258	77.56
414.482	95.56
414.705	90.56
414.928	100.56
415.151	82.56
415.374	80.56
415.597	92.56
415.821	90.56
416.044	91.56
416.267	91.56
416.49	81.56
416.713	91.56
416.936	89.56
417.159	81.56
417.382	76.56
417.605	72.56
417.828	78.56
418.051	81.56
418.274	90.56
418.497	87.56
418.72	73.56
418.943	91.56
419.166	82.56
419.389	89.56
419.611	82.56
419.834	83.56
420.057	76.56
420.28	77.56
420.503	85.56
420.726	86.56
420.948	85.56
421.171	78.56
421.394	88.56
421.617	75.56
421.839	85.56
422.062	91.56
422.285	92.56
422.507	96.56
422.73	104.56
422.953	86.56
423.175	80.56
423.398	72.56
423.621	89.56
423.843	86.56
424.066	98.56
424.288	62.56
424.511	105.56
424.733	78.56
424.956	83.56
425.178	95.56
425.401	103.56
425.623	99.56
425.846	77.56
426.068	85.56
426.291	97.56
426.513	96.56
426.735	82.56
426.958	96.56
427.18	102.56
427.402	113.56
427.625	139.56
427.847	105.56
428.069	89.56
428.292	80.56
428.514	101.56
428.736	84.56
428.958	81.56
429.181	77.56
429.403	75.56
429.625	99.56
429.847	89.56
430.069	94.56
430.292	74.56
430.514	77.56
430.736	92.56
430.958	77.56
431.18	88.56
431.402	84.56
431.624	86.56
431.846	70.56
432.068	75.56
432.29	95.56
432.512	67.56
432.734	86.56
432.956	87.56
433.178	96.56
433.4	88.56
433.622	79.56
433.844	85.56
434.066	90.56
434.287	98.56
434.509	83.56
434.731	100.56
434.953	82.56
435.175	83.56
435.397	96.56
435.618	93.56
435.84	93.56
436.062	117.56
436.284	98.56
436.505	86.56
436.727	93.56
436.949	100.56
437.17	86.56
437.392	89.56
437.614	71.56
437.835	94.56
438.057	105.56
438.278	99.56
438.5	93.56
438.721	111.56
438.943	105.56
439.165	80.56
439.386	88.56
439.608	87.56
439.829	93.56
440.05	114.56
440.272	116.56
440.493	73.56
440.715	87.56
440.936	80.56
441.158	99.56
441.379	73.56
441.6	86.56
441.822	97.56
442.043	89.56
442.264	103.56
442.486	78.56
442.707	77.56
442.928	88.56
443.149	131.56
443.371	102.56
443.592	101.56
443.813	92.56
444.034	113.56
444.255	87.56
444.476	72.56
444.698	84.56
444.919	70.56
445.14	121.56
445.361	101.56
445.582	102.56
445.803	123.56
446.024	129.56
446.245	122.56
446.466	113.56
446.687	78.56
446.908	77.56
447.129	88.56
447.35	93.56
447.571	96.56
447.792	96.56
448.013	87.56
448.234	107.56
448.455	82.56
448.675	106.56
448.896	102.56
449.117	97.56
449.338	97.56
449.559	111.56
449.779	134.56
450	91.56
450.221	91.56
450.442	74.56
450.662	86.56
450.883	95.56
451.104	95.56
451.324	103.56
451.545	78.56
451.766	80.56
451.986	81.56
452.207	70.56
452.428	86.56
452.648	84.56
452.869	106.56
453.089	104.56
453.31	99.56
453.53	87.56
453.751	89.56
453.971	81.56
454.192	92.56
454.412	83.56
454.633	89.56
454.853	72.56
455.073	77.56
455.294	90.56
455.514	92.56
455.734	90.56
455.955	82.56
456.175	83.56
456.395	78.56
456.616	88.56
456.836	77.56
457.056	77.56
457.276	84.56
457.497	76.56
457.717	65.56
457.937	74.56
458.157	78.56
458.377	91.56
458.598	103.56
458.818	136.56
459.038	123.56
459.258	94.56
459.478	92.56
459.698	66.56
459.918	91.56
460.138	94.56
460.358	72.56
460.578	83.56
460.798	83.56
461.018	96.56
461.238	83.56
461.458	81.56
461.678	91.56
461.898	85.56
462.118	83.56
462.338	79.56
462.558	71.56
462.777	84.56
462.997	88.56
463.217	83.56
463.437	86.56
463.657	68.56
463.876	80.56
464.096	77.56
464.316	79.56
464.536	104.56
464.755	92.56
464.975	104.56
465.195	138.56
465.414	137.56
465.634	94.56
465.854	84.56
466.073	84.56
466.293	79.56
466.512	88.56
466.732	80.56
466.951	72.56
467.171	79.56
467.391	87.56
467.61	96.56
467.829	93.56
468.049	74.56
468.268	76.56
468.488	63.56
468.707	77.56
468.927	81.56
469.146	81.56
469.365	80.56
469.585	86.56
469.804	103.56
470.023	95.56
470.243	81.56
470.462	100.56
470.681	109.56
470.901	72.56
471.12	92.56
471.339	85.56
471.558	87.56
471.777	90.56
471.997	72.56
472.216	77.56
472.435	83.56
472.654	69.56
472.873	78.56
473.092	73.56
473.311	92.56
473.53	74.56
473.749	84.56
473.968	100.56
474.187	95.56
474.406	85.56
474.625	90.56
474.844	77.56
475.063	71.56
475.282	81.56
475.501	79.56
475.72	85.56
475.939	89.56
476.158	88.56
476.377	86.56
476.596	82.56
476.814	75.56
477.033	82.56
477.252	87.56
477.471	71.56
477.69	77.56
477.908	86.56
478.127	90.56
478.346	88.56
478.564	85.56
478.783	80.56
479.002	89.56
479.22	80.56
479.439	94.56
479.658	104.56
479.876	102.56
480.095	70.56
480.313	86.56
480.532	92.56
480.751	81.56
480.969	77.56
481.188	77.56
481.406	98.56
481.624	83.56
481.843	90.56
482.061	75.56
482.28	89.56
482.498	89.56
482.717	85.56
482.935	86.56
483.153	78.56
483.372	77.56
483.59	87.56
483.808	94.56
484.027	92.56
484.245	99.56
484.463	83.56
484.681	86.56
484.9	100.56
485.118	96.56
485.336	91.56
485.554	102.56
485.772	88.56
485.99	93.56
486.209	90.56
486.427	97.56
486.645	112.56
486.863	105.56
487.081	88.56
487.299	100.56
487.517	84.56
487.735	82.56
487.953	82.56
488.171	79.56
488.389	92.56
488.607	97.56
488.825	75.56
489.043	104.56
489.261	88.56
489.479	73.56
489.696	104.56
489.914	89.56
490.132	83.56
490.35	83.56
490.568	88.56
490.786	93.56
491.003	85.56
491.221	81.56
491.439	81.56
491.657	95.56
491.874	88.56
492.092	86.56
492.31	86.56
492.527	93.56
492.745	75.56
492.963	90.56
493.18	88.56
493.398	91.56
493.615	85.56
493.833	85.56
494.05	81.56
494.268	75.56
494.485	91.56
494.703	86.56
494.92	97.56
495.138	91.56
495.355	93.56
495.573	102.56
495.79	90.56
496.008	84.56
496.225	76.56
496.442	83.56
496.66	98.56
496.877	85.56
497.094	91.56
497.312	94.56
497.529	86.56
497.746	86.56
497.963	83.56
498.181	85.56
498.398	79.56
498.615	81.56
498.832	95.56
499.049	93.56
499.267	87.56
499.484	79.56
499.701	90.56
499.918	86.56
500.135	86.56
500.352	78.56
500.569	80.56
500.786	96.56
501.003	95.56
501.22	89.56
501.437	92.56
501.654	95.56
501.871	95.56
502.088	93.56
502.305	89.56
502.522	82.56
502.739	82.56
502.956	88.56
503.172	83.56
503.389	103.56
503.606	91.56
503.823	89.56
504.04	83.56
504.256	76.56
504.473	87.56
504.69	87.56
504.907	88.56
505.123	79.56
505.34	82.56
505.557	83.56
505.773	95.56
505.99	85.56
506.207	79.56
506.423	94.56
506.64	87.56
506.856	74.56
507.073	81.56
507.289	79.56
507.506	86.56
507.722	108.56
507.939	97.56
508.155	87.56
508.372	89.56
508.588	86.56
508.805	93.56
509.021	96.56
509.238	90.56
509.454	105.56
509.67	100.56
509.887	112.56
510.103	115.56
510.319	204.56
510.536	669.56
510.752	2122.56
510.968	585.56
511.184	134.56
511.401	99.56
511.617	91.56
511.833	82.56
512.049	89.56
512.265	93.56
512.481	77.56
512.698	99.56
512.914	95.56
513.13	84.56
513.346	93.56
513.562	100.56
513.778	91.56
513.994	99.56
514.21	80.56
514.426	113.56
514.642	125.56
514.858	118.56
515.074	150.56
515.29	382.56
515.506	1246.56
515.721	458.56
515.937	149.56
516.153	116.56
516.369	102.56
516.585	86.56
516.801	92.56
517.016	118.56
517.232	95.56
