Data from Uncirc_2000_H10_HRD10591_00023.txt Node
Date: Wed Jan 03 10:48:21 EST 2024
User: Yrep
Spectrometer: HR+D1059
Trigger mode: 1
Integration Time (sec): 1.000000E-1
Scans to average: 1
Electric dark correction enabled: true
Nonlinearity correction enabled: false
Boxcar width: 0
XAxis mode: Wavelengths
Number of Pixels in Spectrum: 2048
>>>>>Begin Spectral Data<<<<<
223.165	-23.62
223.4	-23.62
223.635	-23.62
223.869	-19.62
224.104	-15.62
224.338	-16.62
224.573	-29.62
224.808	-8.62
225.042	0.38
225.277	3.38
225.511	8.38
225.746	11.38
225.98	-7.62
226.215	8.38
226.449	21.38
226.683	14.38
226.918	23.38
227.152	30.38
227.387	38.38
227.621	31.38
227.856	37.38
228.09	42.38
228.324	54.38
228.559	57.38
228.793	51.38
229.027	67.38
229.262	59.38
229.496	71.38
229.73	75.38
229.964	80.38
230.199	57.38
230.433	75.38
230.667	72.38
230.901	84.38
231.136	74.38
231.37	71.38
231.604	76.38
231.838	94.38
232.072	74.38
232.306	73.38
232.541	84.38
232.775	64.38
233.009	79.38
233.243	86.38
233.477	78.38
233.711	89.38
233.945	73.38
234.179	72.38
234.413	88.38
234.647	88.38
234.881	74.38
235.115	72.38
235.349	73.38
235.583	92.38
235.817	80.38
236.051	79.38
236.285	73.38
236.519	85.38
236.753	74.38
236.987	69.38
237.221	80.38
237.455	71.38
237.689	81.38
237.922	78.38
238.156	84.38
238.39	80.38
238.624	86.38
238.858	73.38
239.091	76.38
239.325	77.38
239.559	84.38
239.793	85.38
240.027	86.38
240.26	85.38
240.494	84.38
240.728	58.38
240.961	73.38
241.195	81.38
241.429	70.38
241.662	81.38
241.896	79.38
242.13	90.38
242.363	80.38
242.597	68.38
242.83	76.38
243.064	75.38
243.298	74.38
243.531	73.38
243.765	83.38
243.998	94.38
244.232	92.38
244.465	76.38
244.699	86.38
244.932	66.38
245.166	80.38
245.399	83.38
245.633	58.38
245.866	92.38
246.099	69.38
246.333	91.38
246.566	69.38
246.8	70.38
247.033	76.38
247.266	80.38
247.5	74.38
247.733	84.38
247.966	71.38
248.2	81.38
248.433	85.38
248.666	79.38
248.899	76.38
249.133	86.38
249.366	96.38
249.599	85.38
249.832	77.38
250.066	83.38
250.299	87.38
250.532	85.38
250.765	75.38
250.998	96.38
251.231	79.38
251.465	94.38
251.698	92.38
251.931	76.38
252.164	79.38
252.397	69.38
252.63	84.38
252.863	82.38
253.096	88.38
253.329	75.38
253.562	68.38
253.795	74.38
254.028	69.38
254.261	76.38
254.494	70.38
254.727	77.38
254.96	83.38
255.193	84.38
255.426	90.38
255.659	60.38
255.892	82.38
256.124	98.38
256.357	78.38
256.59	85.38
256.823	78.38
257.056	75.38
257.289	84.38
257.521	77.38
257.754	85.38
257.987	85.38
258.22	89.38
258.452	83.38
258.685	74.38
258.918	73.38
259.151	84.38
259.383	81.38
259.616	75.38
259.849	97.38
260.081	84.38
260.314	83.38
260.547	75.38
260.779	98.38
261.012	68.38
261.244	86.38
261.477	81.38
261.71	80.38
261.942	86.38
262.175	95.38
262.407	98.38
262.64	84.38
262.872	81.38
263.105	80.38
263.337	76.38
263.57	93.38
263.802	84.38
264.035	96.38
264.267	68.38
264.499	86.38
264.732	85.38
264.964	63.38
265.197	90.38
265.429	74.38
265.661	66.38
265.894	84.38
266.126	70.38
266.358	85.38
266.591	91.38
266.823	79.38
267.055	80.38
267.287	93.38
267.52	94.38
267.752	79.38
267.984	91.38
268.216	86.38
268.448	86.38
268.681	80.38
268.913	89.38
269.145	73.38
269.377	86.38
269.609	88.38
269.841	80.38
270.073	92.38
270.306	81.38
270.538	89.38
270.77	88.38
271.002	81.38
271.234	91.38
271.466	96.38
271.698	87.38
271.93	80.38
272.162	70.38
272.394	85.38
272.626	93.38
272.858	80.38
273.09	75.38
273.322	88.38
273.553	87.38
273.785	85.38
274.017	81.38
274.249	87.38
274.481	77.38
274.713	86.38
274.945	88.38
275.176	90.38
275.408	78.38
275.64	87.38
275.872	95.38
276.104	96.38
276.335	82.38
276.567	108.38
276.799	99.38
277.031	88.38
277.262	81.38
277.494	90.38
277.726	93.38
277.957	93.38
278.189	84.38
278.421	83.38
278.652	87.38
278.884	70.38
279.115	76.38
279.347	87.38
279.579	87.38
279.81	78.38
280.042	87.38
280.273	97.38
280.505	92.38
280.736	95.38
280.968	82.38
281.199	87.38
281.431	93.38
281.662	85.38
281.894	86.38
282.125	98.38
282.356	112.38
282.588	127.38
282.819	100.38
283.051	87.38
283.282	92.38
283.513	83.38
283.745	84.38
283.976	89.38
284.207	101.38
284.439	88.38
284.67	77.38
284.901	72.38
285.132	80.38
285.364	80.38
285.595	90.38
285.826	85.38
286.057	91.38
286.288	76.38
286.52	93.38
286.751	84.38
286.982	82.38
287.213	77.38
287.444	85.38
287.675	81.38
287.906	88.38
288.138	89.38
288.369	90.38
288.6	108.38
288.831	86.38
289.062	86.38
289.293	89.38
289.524	81.38
289.755	95.38
289.986	79.38
290.217	75.38
290.448	92.38
290.679	83.38
290.91	84.38
291.141	85.38
291.371	95.38
291.602	98.38
291.833	85.38
292.064	93.38
292.295	85.38
292.526	90.38
292.757	102.38
292.987	92.38
293.218	69.38
293.449	91.38
293.68	99.38
293.91	88.38
294.141	86.38
294.372	95.38
294.603	80.38
294.833	81.38
295.064	82.38
295.295	87.38
295.525	83.38
295.756	103.38
295.987	104.38
296.217	108.38
296.448	114.38
296.679	93.38
296.909	93.38
297.14	90.38
297.37	90.38
297.601	97.38
297.831	97.38
298.062	93.38
298.292	90.38
298.523	92.38
298.753	77.38
298.984	93.38
299.214	92.38
299.445	76.38
299.675	92.38
299.905	96.38
300.136	89.38
300.366	95.38
300.597	92.38
300.827	86.38
301.057	92.38
301.288	90.38
301.518	93.38
301.748	76.38
301.979	101.38
302.209	94.38
302.439	81.38
302.669	82.38
302.9	86.38
303.13	99.38
303.36	95.38
303.59	88.38
303.82	100.38
304.051	94.38
304.281	74.38
304.511	82.38
304.741	90.38
304.971	89.38
305.201	91.38
305.431	84.38
305.661	100.38
305.891	101.38
306.121	77.38
306.352	105.38
306.582	101.38
306.812	82.38
307.042	91.38
307.272	70.38
307.502	83.38
307.731	92.38
307.961	101.38
308.191	90.38
308.421	78.38
308.651	80.38
308.881	85.38
309.111	86.38
309.341	88.38
309.571	89.38
309.8	86.38
310.03	105.38
310.26	93.38
310.49	85.38
310.72	99.38
310.949	100.38
311.179	95.38
311.409	87.38
311.639	86.38
311.868	98.38
312.098	105.38
312.328	91.38
312.557	112.38
312.787	94.38
313.017	88.38
313.246	103.38
313.476	83.38
313.706	92.38
313.935	98.38
314.165	106.38
314.394	94.38
314.624	90.38
314.853	97.38
315.083	89.38
315.312	91.38
315.542	81.38
315.771	86.38
316.001	81.38
316.23	93.38
316.46	87.38
316.689	90.38
316.919	93.38
317.148	91.38
317.377	88.38
317.607	105.38
317.836	101.38
318.065	104.38
318.295	101.38
318.524	94.38
318.753	99.38
318.983	97.38
319.212	93.38
319.441	97.38
319.67	105.38
319.9	91.38
320.129	85.38
320.358	99.38
320.587	85.38
320.816	89.38
321.046	103.38
321.275	79.38
321.504	97.38
321.733	76.38
321.962	110.38
322.191	100.38
322.42	115.38
322.649	92.38
322.878	106.38
323.108	119.38
323.337	106.38
323.566	118.38
323.795	129.38
324.024	180.38
324.253	368.38
324.482	736.38
324.71	1483.38
324.939	1936.38
325.168	722.38
325.397	232.38
325.626	140.38
325.855	118.38
326.084	134.38
326.313	122.38
326.542	142.38
326.77	230.38
326.999	421.38
327.228	849.38
327.457	1522.38
327.686	1207.38
327.914	324.38
328.143	175.38
328.372	121.38
328.6	106.38
328.829	105.38
329.058	105.38
329.287	106.38
329.515	104.38
329.744	96.38
329.972	109.38
330.201	96.38
330.43	111.38
330.658	116.38
330.887	101.38
331.115	92.38
331.344	114.38
331.572	99.38
331.801	115.38
332.03	105.38
332.258	99.38
332.486	93.38
332.715	85.38
332.943	94.38
333.172	84.38
333.4	97.38
333.629	97.38
333.857	107.38
334.085	102.38
334.314	109.38
334.542	93.38
334.771	84.38
334.999	98.38
335.227	89.38
335.455	99.38
335.684	104.38
335.912	105.38
336.14	115.38
336.369	97.38
336.597	110.38
336.825	93.38
337.053	97.38
337.281	98.38
337.51	89.38
337.738	105.38
337.966	89.38
338.194	92.38
338.422	105.38
338.65	89.38
338.878	87.38
339.106	93.38
339.334	100.38
339.562	86.38
339.79	96.38
340.018	82.38
340.246	89.38
340.474	88.38
340.702	82.38
340.93	93.38
341.158	105.38
341.386	90.38
341.614	83.38
341.842	98.38
342.07	90.38
342.298	81.38
342.526	94.38
342.754	89.38
342.981	92.38
343.209	96.38
343.437	94.38
343.665	85.38
343.893	78.38
344.12	99.38
344.348	82.38
344.576	95.38
344.804	93.38
345.031	70.38
345.259	84.38
345.487	87.38
345.714	99.38
345.942	80.38
346.17	76.38
346.397	93.38
346.625	101.38
346.853	89.38
347.08	96.38
347.308	92.38
347.535	89.38
347.763	101.38
347.99	96.38
348.218	97.38
348.445	109.38
348.673	99.38
348.9	97.38
349.128	91.38
349.355	84.38
349.583	96.38
349.81	88.38
350.037	103.38
350.265	98.38
350.492	94.38
350.72	95.38
350.947	87.38
351.174	96.38
351.402	107.38
351.629	96.38
351.856	89.38
352.083	99.38
352.311	105.38
352.538	106.38
352.765	98.38
352.992	104.38
353.22	99.38
353.447	95.38
353.674	99.38
353.901	94.38
354.128	101.38
354.355	95.38
354.583	94.38
354.81	78.38
355.037	95.38
355.264	89.38
355.491	91.38
355.718	86.38
355.945	89.38
356.172	94.38
356.399	109.38
356.626	78.38
356.853	92.38
357.08	93.38
357.307	96.38
357.534	81.38
357.761	87.38
357.988	81.38
358.215	96.38
358.441	97.38
358.668	102.38
358.895	90.38
359.122	83.38
359.349	81.38
359.576	101.38
359.802	87.38
360.029	98.38
360.256	100.38
360.483	100.38
360.709	98.38
360.936	88.38
361.163	93.38
361.39	94.38
361.616	106.38
361.843	94.38
362.07	100.38
362.296	90.38
362.523	105.38
362.749	87.38
362.976	75.38
363.203	86.38
363.429	81.38
363.656	99.38
363.882	94.38
364.109	74.38
364.335	92.38
364.562	70.38
364.788	101.38
365.015	89.38
365.241	87.38
365.468	98.38
365.694	100.38
365.92	88.38
366.147	89.38
366.373	91.38
366.599	100.38
366.826	82.38
367.052	89.38
367.278	84.38
367.505	92.38
367.731	108.38
367.957	104.38
368.184	89.38
368.41	101.38
368.636	104.38
368.862	116.38
369.089	93.38
369.315	77.38
369.541	83.38
369.767	82.38
369.993	74.38
370.219	86.38
370.445	85.38
370.672	86.38
370.898	94.38
371.124	88.38
371.35	84.38
371.576	95.38
371.802	78.38
372.028	92.38
372.254	87.38
372.48	87.38
372.706	70.38
372.932	84.38
373.158	81.38
373.384	100.38
373.61	88.38
373.835	96.38
374.061	82.38
374.287	94.38
374.513	82.38
374.739	98.38
374.965	88.38
375.191	83.38
375.416	87.38
375.642	101.38
375.868	84.38
376.094	96.38
376.319	79.38
376.545	83.38
376.771	81.38
376.997	101.38
377.222	83.38
377.448	97.38
377.674	76.38
377.899	103.38
378.125	90.38
378.35	87.38
378.576	90.38
378.802	85.38
379.027	87.38
379.253	87.38
379.478	89.38
379.704	84.38
379.929	90.38
380.155	94.38
380.38	92.38
380.606	97.38
380.831	92.38
381.057	95.38
381.282	93.38
381.507	91.38
381.733	99.38
381.958	102.38
382.184	103.38
382.409	92.38
382.634	103.38
382.86	109.38
383.085	100.38
383.31	108.38
383.535	106.38
383.761	111.38
383.986	102.38
384.211	101.38
384.436	109.38
384.662	94.38
384.887	104.38
385.112	112.38
385.337	102.38
385.562	103.38
385.787	108.38
386.013	120.38
386.238	93.38
386.463	100.38
386.688	103.38
386.913	109.38
387.138	104.38
387.363	103.38
387.588	106.38
387.813	97.38
388.038	95.38
388.263	112.38
388.488	109.38
388.713	91.38
388.938	102.38
389.163	91.38
389.387	92.38
389.612	105.38
389.837	92.38
390.062	99.38
390.287	107.38
390.512	92.38
390.736	88.38
390.961	83.38
391.186	93.38
391.411	104.38
391.636	106.38
391.86	83.38
392.085	90.38
392.31	84.38
392.534	93.38
392.759	84.38
392.984	91.38
393.208	88.38
393.433	100.38
393.658	98.38
393.882	76.38
394.107	86.38
394.331	92.38
394.556	74.38
394.78	88.38
395.005	87.38
395.229	93.38
395.454	93.38
395.678	94.38
395.903	93.38
396.127	73.38
396.352	83.38
396.576	98.38
396.801	82.38
397.025	75.38
397.249	96.38
397.474	91.38
397.698	78.38
397.922	100.38
398.147	79.38
398.371	71.38
398.595	100.38
398.82	89.38
399.044	85.38
399.268	89.38
399.492	99.38
399.717	92.38
399.941	84.38
400.165	83.38
400.389	85.38
400.613	103.38
400.837	93.38
401.062	102.38
401.286	87.38
401.51	89.38
401.734	79.38
401.958	107.38
402.182	121.38
402.406	140.38
402.63	98.38
402.854	92.38
403.078	100.38
403.302	93.38
403.526	78.38
403.75	86.38
403.974	74.38
404.198	88.38
404.422	85.38
404.645	82.38
404.869	85.38
405.093	99.38
405.317	100.38
405.541	88.38
405.765	79.38
405.988	101.38
406.212	154.38
406.436	197.38
406.66	116.38
406.883	98.38
407.107	90.38
407.331	100.38
407.555	95.38
407.778	97.38
408.002	104.38
408.226	85.38
408.449	85.38
408.673	93.38
408.896	99.38
409.12	101.38
409.344	93.38
409.567	102.38
409.791	101.38
410.014	98.38
410.238	104.38
410.461	89.38
410.685	97.38
410.908	102.38
411.132	102.38
411.355	107.38
411.578	106.38
411.802	80.38
412.025	93.38
412.249	100.38
412.472	77.38
412.695	81.38
412.919	91.38
413.142	85.38
413.365	103.38
413.589	91.38
413.812	84.38
414.035	90.38
414.258	83.38
414.482	80.38
414.705	89.38
414.928	93.38
415.151	92.38
415.374	89.38
415.597	79.38
415.821	90.38
416.044	93.38
416.267	78.38
416.49	80.38
416.713	92.38
416.936	99.38
417.159	86.38
417.382	86.38
417.605	94.38
417.828	100.38
418.051	95.38
418.274	67.38
418.497	84.38
418.72	91.38
418.943	84.38
419.166	99.38
419.389	88.38
419.611	90.38
419.834	75.38
420.057	84.38
420.28	90.38
420.503	94.38
420.726	93.38
420.948	93.38
421.171	91.38
421.394	93.38
421.617	89.38
421.839	91.38
422.062	103.38
422.285	85.38
422.507	93.38
422.73	99.38
422.953	89.38
423.175	102.38
423.398	80.38
423.621	85.38
423.843	90.38
424.066	77.38
424.288	101.38
424.511	88.38
424.733	98.38
424.956	91.38
425.178	111.38
425.401	100.38
425.623	96.38
425.846	89.38
426.068	104.38
426.291	76.38
426.513	92.38
426.735	84.38
426.958	101.38
427.18	97.38
427.402	122.38
427.625	153.38
427.847	106.38
428.069	89.38
428.292	82.38
428.514	92.38
428.736	92.38
428.958	74.38
429.181	87.38
429.403	95.38
429.625	84.38
429.847	84.38
430.069	106.38
430.292	94.38
430.514	80.38
430.736	81.38
430.958	88.38
431.18	83.38
431.402	84.38
431.624	86.38
431.846	103.38
432.068	84.38
432.29	97.38
432.512	96.38
432.734	85.38
432.956	80.38
433.178	103.38
433.4	91.38
433.622	97.38
433.844	87.38
434.066	89.38
434.287	82.38
434.509	98.38
434.731	92.38
434.953	86.38
435.175	86.38
435.397	87.38
435.618	69.38
435.84	104.38
436.062	117.38
436.284	101.38
436.505	102.38
436.727	113.38
436.949	90.38
437.17	88.38
437.392	90.38
437.614	88.38
437.835	104.38
438.057	121.38
438.278	121.38
438.5	106.38
438.721	114.38
438.943	106.38
439.165	89.38
439.386	89.38
439.608	89.38
439.829	96.38
440.05	118.38
440.272	128.38
440.493	85.38
440.715	100.38
440.936	90.38
441.158	91.38
441.379	83.38
441.6	96.38
441.822	90.38
442.043	92.38
442.264	94.38
442.486	91.38
442.707	83.38
442.928	98.38
443.149	120.38
443.371	107.38
443.592	93.38
443.813	104.38
444.034	106.38
444.255	82.38
444.476	78.38
444.698	82.38
444.919	89.38
445.14	129.38
445.361	130.38
445.582	114.38
445.803	129.38
446.024	129.38
446.245	131.38
446.466	94.38
446.687	81.38
446.908	85.38
447.129	83.38
447.35	83.38
447.571	87.38
447.792	94.38
448.013	94.38
448.234	103.38
448.455	93.38
448.675	102.38
448.896	117.38
449.117	98.38
449.338	99.38
449.559	135.38
449.779	118.38
450	107.38
450.221	93.38
450.442	90.38
450.662	94.38
450.883	89.38
451.104	102.38
451.324	90.38
451.545	91.38
451.766	90.38
451.986	97.38
452.207	73.38
452.428	91.38
452.648	116.38
452.869	116.38
453.089	101.38
453.31	119.38
453.53	94.38
453.751	85.38
453.971	94.38
454.192	116.38
454.412	87.38
454.633	100.38
454.853	89.38
455.073	78.38
455.294	82.38
455.514	91.38
455.734	90.38
455.955	88.38
456.175	85.38
456.395	94.38
456.616	93.38
456.836	85.38
457.056	79.38
457.276	77.38
457.497	86.38
457.717	72.38
457.937	78.38
458.157	84.38
458.377	93.38
458.598	104.38
458.818	125.38
459.038	132.38
459.258	113.38
459.478	87.38
459.698	76.38
459.918	86.38
460.138	83.38
460.358	76.38
460.578	96.38
460.798	97.38
461.018	83.38
461.238	85.38
461.458	96.38
461.678	79.38
461.898	85.38
462.118	93.38
462.338	88.38
462.558	89.38
462.777	86.38
462.997	74.38
463.217	93.38
463.437	91.38
463.657	73.38
463.876	78.38
464.096	79.38
464.316	72.38
464.536	84.38
464.755	97.38
464.975	100.38
465.195	133.38
465.414	140.38
465.634	89.38
465.854	58.38
466.073	77.38
466.293	89.38
466.512	97.38
466.732	88.38
466.951	85.38
467.171	91.38
467.391	97.38
467.61	97.38
467.829	88.38
468.049	81.38
468.268	89.38
468.488	90.38
468.707	97.38
468.927	92.38
469.146	85.38
469.365	64.38
469.585	74.38
469.804	90.38
470.023	88.38
470.243	102.38
470.462	92.38
470.681	103.38
470.901	91.38
471.12	94.38
471.339	93.38
471.558	89.38
471.777	89.38
471.997	99.38
472.216	93.38
472.435	81.38
472.654	70.38
472.873	97.38
473.092	89.38
473.311	83.38
473.53	92.38
473.749	86.38
473.968	94.38
474.187	94.38
474.406	93.38
474.625	92.38
474.844	87.38
475.063	85.38
475.282	88.38
475.501	89.38
475.72	85.38
475.939	93.38
476.158	86.38
476.377	106.38
476.596	80.38
476.814	85.38
477.033	82.38
477.252	83.38
477.471	89.38
477.69	82.38
477.908	100.38
478.127	79.38
478.346	106.38
478.564	89.38
478.783	95.38
479.002	98.38
479.22	98.38
479.439	92.38
479.658	93.38
479.876	84.38
480.095	88.38
480.313	91.38
480.532	84.38
480.751	83.38
480.969	85.38
481.188	94.38
481.406	90.38
481.624	98.38
481.843	91.38
482.061	94.38
482.28	87.38
482.498	82.38
482.717	84.38
482.935	78.38
483.153	86.38
483.372	89.38
483.59	94.38
483.808	91.38
484.027	90.38
484.245	98.38
484.463	92.38
484.681	91.38
484.9	76.38
485.118	81.38
485.336	76.38
485.554	92.38
485.772	98.38
485.99	107.38
486.209	101.38
486.427	108.38
486.645	103.38
486.863	100.38
487.081	105.38
487.299	101.38
487.517	107.38
487.735	93.38
487.953	94.38
488.171	89.38
488.389	84.38
488.607	94.38
488.825	80.38
489.043	88.38
489.261	106.38
489.479	91.38
489.696	103.38
489.914	86.38
490.132	99.38
490.35	88.38
490.568	85.38
490.786	99.38
491.003	92.38
491.221	82.38
491.439	85.38
491.657	98.38
491.874	93.38
492.092	92.38
492.31	91.38
492.527	90.38
492.745	81.38
492.963	85.38
493.18	102.38
493.398	107.38
493.615	94.38
493.833	91.38
494.05	82.38
494.268	89.38
494.485	79.38
494.703	105.38
494.92	92.38
495.138	90.38
495.355	105.38
495.573	93.38
495.79	94.38
496.008	85.38
496.225	93.38
496.442	87.38
496.66	85.38
496.877	72.38
497.094	96.38
497.312	88.38
497.529	91.38
497.746	94.38
497.963	86.38
498.181	90.38
498.398	94.38
498.615	115.38
498.832	108.38
499.049	85.38
499.267	93.38
499.484	93.38
499.701	90.38
499.918	94.38
500.135	78.38
500.352	88.38
500.569	98.38
500.786	106.38
501.003	101.38
501.22	74.38
501.437	89.38
501.654	95.38
501.871	90.38
502.088	106.38
502.305	84.38
502.522	90.38
502.739	76.38
502.956	91.38
503.172	103.38
503.389	78.38
503.606	92.38
503.823	97.38
504.04	100.38
504.256	100.38
504.473	92.38
504.69	90.38
504.907	102.38
505.123	97.38
505.34	86.38
505.557	93.38
505.773	74.38
505.99	89.38
506.207	93.38
506.423	90.38
506.64	88.38
506.856	85.38
507.073	94.38
507.289	108.38
507.506	98.38
507.722	99.38
507.939	102.38
508.155	96.38
508.372	89.38
508.588	96.38
508.805	99.38
509.021	99.38
509.238	96.38
509.454	95.38
509.67	87.38
509.887	92.38
510.103	124.38
510.319	191.38
510.536	652.38
510.752	1932.38
510.968	546.38
511.184	144.38
511.401	108.38
511.617	101.38
511.833	84.38
512.049	91.38
512.265	86.38
512.481	93.38
512.698	90.38
512.914	93.38
513.13	90.38
513.346	85.38
513.562	89.38
513.778	93.38
513.994	112.38
514.21	102.38
514.426	110.38
514.642	132.38
514.858	109.38
515.074	158.38
515.29	387.38
515.506	1134.38
515.721	437.38
515.937	122.38
516.153	90.38
