Data from Uncirc_2000_H10_HRD10591_00042.txt Node
Date: Wed Jan 03 10:48:25 EST 2024
User: Yrep
Spectrometer: HR+D1059
Trigger mode: 1
Integration Time (sec): 1.000000E-1
Scans to average: 1
Electric dark correction enabled: true
Nonlinearity correction enabled: false
Boxcar width: 0
XAxis mode: Wavelengths
Number of Pixels in Spectrum: 2048
>>>>>Begin Spectral Data<<<<<
223.165	0.94
223.4	0.94
223.635	0.94
223.869	-16.06
224.104	-15.06
224.338	-18.06
224.573	-18.06
224.808	-9.06
225.042	-18.06
225.277	-7.06
225.511	0.94
225.746	15.94
225.98	-7.06
226.215	8.94
226.449	19.94
226.683	13.94
226.918	6.94
227.152	40.94
227.387	46.94
227.621	39.94
227.856	45.94
228.09	47.94
228.324	39.94
228.559	57.94
228.793	35.94
229.027	57.94
229.262	71.94
229.496	69.94
229.73	81.94
229.964	73.94
230.199	61.94
230.433	84.94
230.667	84.94
230.901	55.94
231.136	66.94
231.37	80.94
231.604	77.94
231.838	77.94
232.072	66.94
232.306	70.94
232.541	78.94
232.775	80.94
233.009	75.94
233.243	70.94
233.477	65.94
233.711	77.94
233.945	95.94
234.179	75.94
234.413	73.94
234.647	63.94
234.881	80.94
235.115	69.94
235.349	75.94
235.583	71.94
235.817	68.94
236.051	66.94
236.285	65.94
236.519	75.94
236.753	73.94
236.987	76.94
237.221	86.94
237.455	70.94
237.689	78.94
237.922	89.94
238.156	57.94
238.39	79.94
238.624	82.94
238.858	70.94
239.091	84.94
239.325	67.94
239.559	70.94
239.793	87.94
240.027	71.94
240.26	79.94
240.494	60.94
240.728	65.94
240.961	70.94
241.195	78.94
241.429	63.94
241.662	66.94
241.896	64.94
242.13	75.94
242.363	79.94
242.597	78.94
242.83	88.94
243.064	83.94
243.298	76.94
243.531	80.94
243.765	73.94
243.998	67.94
244.232	87.94
244.465	71.94
244.699	77.94
244.932	84.94
245.166	83.94
245.399	64.94
245.633	75.94
245.866	88.94
246.099	67.94
246.333	71.94
246.566	77.94
246.8	91.94
247.033	77.94
247.266	77.94
247.5	83.94
247.733	61.94
247.966	77.94
248.2	68.94
248.433	61.94
248.666	72.94
248.899	77.94
249.133	72.94
249.366	92.94
249.599	87.94
249.832	79.94
250.066	85.94
250.299	63.94
250.532	79.94
250.765	92.94
250.998	78.94
251.231	64.94
251.465	71.94
251.698	86.94
251.931	65.94
252.164	75.94
252.397	75.94
252.63	76.94
252.863	73.94
253.096	65.94
253.329	76.94
253.562	85.94
253.795	69.94
254.028	67.94
254.261	77.94
254.494	74.94
254.727	90.94
254.96	76.94
255.193	74.94
255.426	62.94
255.659	67.94
255.892	70.94
256.124	78.94
256.357	86.94
256.59	68.94
256.823	64.94
257.056	59.94
257.289	73.94
257.521	79.94
257.754	85.94
257.987	77.94
258.22	78.94
258.452	75.94
258.685	81.94
258.918	72.94
259.151	75.94
259.383	75.94
259.616	82.94
259.849	68.94
260.081	77.94
260.314	80.94
260.547	70.94
260.779	85.94
261.012	88.94
261.244	80.94
261.477	71.94
261.71	83.94
261.942	100.94
262.175	102.94
262.407	76.94
262.64	82.94
262.872	77.94
263.105	74.94
263.337	85.94
263.57	69.94
263.802	73.94
264.035	99.94
264.267	78.94
264.499	79.94
264.732	73.94
264.964	92.94
265.197	83.94
265.429	88.94
265.661	88.94
265.894	74.94
266.126	81.94
266.358	83.94
266.591	63.94
266.823	76.94
267.055	73.94
267.287	72.94
267.52	87.94
267.752	80.94
267.984	75.94
268.216	68.94
268.448	82.94
268.681	80.94
268.913	87.94
269.145	75.94
269.377	75.94
269.609	81.94
269.841	71.94
270.073	75.94
270.306	80.94
270.538	77.94
270.77	87.94
271.002	92.94
271.234	79.94
271.466	94.94
271.698	73.94
271.93	85.94
272.162	85.94
272.394	85.94
272.626	81.94
272.858	77.94
273.09	78.94
273.322	75.94
273.553	67.94
273.785	82.94
274.017	71.94
274.249	86.94
274.481	61.94
274.713	71.94
274.945	91.94
275.176	81.94
275.408	85.94
275.64	78.94
275.872	89.94
276.104	91.94
276.335	77.94
276.567	95.94
276.799	88.94
277.031	96.94
277.262	76.94
277.494	94.94
277.726	92.94
277.957	72.94
278.189	83.94
278.421	78.94
278.652	78.94
278.884	83.94
279.115	75.94
279.347	65.94
279.579	85.94
279.81	83.94
280.042	90.94
280.273	86.94
280.505	77.94
280.736	76.94
280.968	88.94
281.199	88.94
281.431	80.94
281.662	84.94
281.894	81.94
282.125	77.94
282.356	93.94
282.588	120.94
282.819	101.94
283.051	86.94
283.282	77.94
283.513	86.94
283.745	79.94
283.976	95.94
284.207	78.94
284.439	86.94
284.67	75.94
284.901	99.94
285.132	72.94
285.364	81.94
285.595	83.94
285.826	79.94
286.057	100.94
286.288	96.94
286.52	86.94
286.751	89.94
286.982	96.94
287.213	75.94
287.444	86.94
287.675	73.94
287.906	91.94
288.138	85.94
288.369	84.94
288.6	85.94
288.831	74.94
289.062	83.94
289.293	80.94
289.524	82.94
289.755	81.94
289.986	88.94
290.217	79.94
290.448	81.94
290.679	85.94
290.91	93.94
291.141	93.94
291.371	82.94
291.602	78.94
291.833	86.94
292.064	90.94
292.295	88.94
292.526	78.94
292.757	81.94
292.987	78.94
293.218	91.94
293.449	91.94
293.68	93.94
293.91	96.94
294.141	87.94
294.372	89.94
294.603	88.94
294.833	78.94
295.064	87.94
295.295	93.94
295.525	91.94
295.756	99.94
295.987	110.94
296.217	127.94
296.448	104.94
296.679	92.94
296.909	78.94
297.14	84.94
297.37	81.94
297.601	75.94
297.831	82.94
298.062	91.94
298.292	86.94
298.523	90.94
298.753	79.94
298.984	78.94
299.214	87.94
299.445	77.94
299.675	87.94
299.905	84.94
300.136	77.94
300.366	87.94
300.597	91.94
300.827	81.94
301.057	97.94
301.288	101.94
301.518	95.94
301.748	77.94
301.979	98.94
302.209	86.94
302.439	95.94
302.669	83.94
302.9	85.94
303.13	97.94
303.36	79.94
303.59	88.94
303.82	103.94
304.051	82.94
304.281	72.94
304.511	97.94
304.741	88.94
304.971	85.94
305.201	78.94
305.431	73.94
305.661	73.94
305.891	91.94
306.121	89.94
306.352	93.94
306.582	86.94
306.812	66.94
307.042	94.94
307.272	81.94
307.502	89.94
307.731	77.94
307.961	76.94
308.191	97.94
308.421	81.94
308.651	86.94
308.881	89.94
309.111	83.94
309.341	86.94
309.571	95.94
309.8	85.94
310.03	93.94
310.26	95.94
310.49	93.94
310.72	92.94
310.949	89.94
311.179	82.94
311.409	93.94
311.639	93.94
311.868	87.94
312.098	84.94
312.328	94.94
312.557	96.94
312.787	99.94
313.017	80.94
313.246	81.94
313.476	91.94
313.706	96.94
313.935	86.94
314.165	90.94
314.394	100.94
314.624	104.94
314.853	72.94
315.083	74.94
315.312	84.94
315.542	87.94
315.771	88.94
316.001	83.94
316.23	83.94
316.46	88.94
316.689	71.94
316.919	93.94
317.148	87.94
317.377	83.94
317.607	97.94
317.836	78.94
318.065	67.94
318.295	84.94
318.524	92.94
318.753	92.94
318.983	84.94
319.212	99.94
319.441	103.94
319.67	100.94
319.9	93.94
320.129	97.94
320.358	95.94
320.587	92.94
320.816	79.94
321.046	108.94
321.275	92.94
321.504	93.94
321.733	91.94
321.962	83.94
322.191	94.94
322.42	100.94
322.649	107.94
322.878	109.94
323.108	104.94
323.337	121.94
323.566	125.94
323.795	127.94
324.024	187.94
324.253	363.94
324.482	787.94
324.71	1596.94
324.939	2059.94
325.168	742.94
325.397	222.94
325.626	133.94
325.855	117.94
326.084	112.94
326.313	133.94
326.542	142.94
326.77	217.94
326.999	434.94
327.228	900.94
327.457	1644.94
327.686	1280.94
327.914	333.94
328.143	174.94
328.372	134.94
328.6	112.94
328.829	94.94
329.058	97.94
329.287	104.94
329.515	109.94
329.744	103.94
329.972	89.94
330.201	113.94
330.43	101.94
330.658	114.94
330.887	122.94
331.115	110.94
331.344	83.94
331.572	94.94
331.801	81.94
332.03	104.94
332.258	83.94
332.486	78.94
332.715	88.94
332.943	90.94
333.172	89.94
333.4	85.94
333.629	101.94
333.857	104.94
334.085	113.94
334.314	96.94
334.542	86.94
334.771	104.94
334.999	95.94
335.227	85.94
335.455	81.94
335.684	93.94
335.912	97.94
336.14	98.94
336.369	85.94
336.597	92.94
336.825	100.94
337.053	84.94
337.281	81.94
337.51	94.94
337.738	79.94
337.966	88.94
338.194	89.94
338.422	83.94
338.65	86.94
338.878	93.94
339.106	75.94
339.334	86.94
339.562	82.94
339.79	94.94
340.018	97.94
340.246	87.94
340.474	100.94
340.702	100.94
340.93	82.94
341.158	93.94
341.386	95.94
341.614	83.94
341.842	90.94
342.07	86.94
342.298	89.94
342.526	80.94
342.754	88.94
342.981	91.94
343.209	87.94
343.437	103.94
343.665	84.94
343.893	98.94
344.12	95.94
344.348	86.94
344.576	88.94
344.804	83.94
345.031	92.94
345.259	101.94
345.487	93.94
345.714	95.94
345.942	109.94
346.17	95.94
346.397	89.94
346.625	81.94
346.853	83.94
347.08	92.94
347.308	86.94
347.535	87.94
347.763	92.94
347.99	79.94
348.218	103.94
348.445	96.94
348.673	100.94
348.9	95.94
349.128	87.94
349.355	102.94
349.583	95.94
349.81	86.94
350.037	103.94
350.265	93.94
350.492	83.94
350.72	96.94
350.947	99.94
351.174	86.94
351.402	105.94
351.629	104.94
351.856	91.94
352.083	89.94
352.311	96.94
352.538	86.94
352.765	106.94
352.992	102.94
353.22	108.94
353.447	98.94
353.674	95.94
353.901	92.94
354.128	107.94
354.355	95.94
354.583	85.94
354.81	95.94
355.037	81.94
355.264	101.94
355.491	95.94
355.718	107.94
355.945	74.94
356.172	91.94
356.399	100.94
356.626	86.94
356.853	91.94
357.08	97.94
357.307	78.94
357.534	84.94
357.761	93.94
357.988	90.94
358.215	101.94
358.441	102.94
358.668	73.94
358.895	76.94
359.122	91.94
359.349	79.94
359.576	83.94
359.802	91.94
360.029	91.94
360.256	108.94
360.483	96.94
360.709	76.94
360.936	82.94
361.163	93.94
361.39	87.94
361.616	102.94
361.843	80.94
362.07	99.94
362.296	103.94
362.523	83.94
362.749	66.94
362.976	81.94
363.203	76.94
363.429	73.94
363.656	100.94
363.882	80.94
364.109	96.94
364.335	86.94
364.562	81.94
364.788	95.94
365.015	83.94
365.241	94.94
365.468	94.94
365.694	91.94
365.92	83.94
366.147	93.94
366.373	77.94
366.599	83.94
366.826	94.94
367.052	73.94
367.278	86.94
367.505	89.94
367.731	80.94
367.957	85.94
368.184	93.94
368.41	87.94
368.636	103.94
368.862	116.94
369.089	94.94
369.315	97.94
369.541	78.94
369.767	84.94
369.993	100.94
370.219	91.94
370.445	79.94
370.672	75.94
370.898	71.94
371.124	77.94
371.35	76.94
371.576	92.94
371.802	83.94
372.028	76.94
372.254	86.94
372.48	73.94
372.706	91.94
372.932	69.94
373.158	108.94
373.384	87.94
373.61	101.94
373.835	93.94
374.061	87.94
374.287	86.94
374.513	86.94
374.739	75.94
374.965	89.94
375.191	95.94
375.416	86.94
375.642	95.94
375.868	90.94
376.094	93.94
376.319	89.94
376.545	75.94
376.771	77.94
376.997	80.94
377.222	93.94
377.448	83.94
377.674	84.94
377.899	95.94
378.125	81.94
378.35	80.94
378.576	79.94
378.802	77.94
379.027	85.94
379.253	80.94
379.478	86.94
379.704	84.94
379.929	97.94
380.155	82.94
380.38	84.94
380.606	96.94
380.831	95.94
381.057	86.94
381.282	80.94
381.507	90.94
381.733	84.94
381.958	85.94
382.184	91.94
382.409	89.94
382.634	110.94
382.86	94.94
383.085	79.94
383.31	97.94
383.535	85.94
383.761	101.94
383.986	81.94
384.211	91.94
384.436	107.94
384.662	89.94
384.887	97.94
385.112	87.94
385.337	83.94
385.562	103.94
385.787	78.94
386.013	103.94
386.238	111.94
386.463	95.94
386.688	118.94
386.913	97.94
387.138	85.94
387.363	104.94
387.588	92.94
387.813	83.94
388.038	96.94
388.263	103.94
388.488	108.94
388.713	98.94
388.938	69.94
389.163	76.94
389.387	94.94
389.612	99.94
389.837	88.94
390.062	85.94
390.287	76.94
390.512	94.94
390.736	82.94
390.961	95.94
391.186	88.94
391.411	92.94
391.636	79.94
391.86	83.94
392.085	85.94
392.31	66.94
392.534	67.94
392.759	76.94
392.984	95.94
393.208	77.94
393.433	93.94
393.658	79.94
393.882	79.94
394.107	79.94
394.331	77.94
394.556	88.94
394.78	84.94
395.005	92.94
395.229	89.94
395.454	84.94
395.678	68.94
395.903	72.94
396.127	72.94
396.352	80.94
396.576	79.94
396.801	85.94
397.025	95.94
397.249	83.94
397.474	89.94
397.698	85.94
397.922	74.94
398.147	67.94
398.371	67.94
398.595	96.94
398.82	72.94
399.044	87.94
399.268	86.94
399.492	87.94
399.717	95.94
399.941	95.94
400.165	90.94
400.389	89.94
400.613	80.94
400.837	83.94
401.062	70.94
401.286	75.94
401.51	88.94
401.734	90.94
401.958	97.94
402.182	127.94
402.406	130.94
402.63	110.94
402.854	97.94
403.078	94.94
403.302	72.94
403.526	75.94
403.75	76.94
403.974	63.94
404.198	88.94
404.422	86.94
404.645	85.94
404.869	91.94
405.093	82.94
405.317	82.94
405.541	85.94
405.765	96.94
405.988	91.94
406.212	154.94
406.436	205.94
406.66	127.94
406.883	83.94
407.107	88.94
407.331	91.94
407.555	96.94
407.778	93.94
408.002	86.94
408.226	85.94
408.449	91.94
408.673	85.94
408.896	93.94
409.12	95.94
409.344	103.94
409.567	78.94
409.791	85.94
410.014	87.94
410.238	93.94
410.461	92.94
410.685	88.94
410.908	95.94
411.132	101.94
411.355	100.94
411.578	86.94
411.802	97.94
412.025	79.94
412.249	77.94
412.472	93.94
412.695	93.94
412.919	76.94
413.142	85.94
413.365	78.94
413.589	91.94
413.812	73.94
414.035	89.94
414.258	78.94
414.482	89.94
414.705	74.94
414.928	82.94
415.151	88.94
415.374	88.94
415.597	83.94
415.821	83.94
416.044	81.94
416.267	86.94
416.49	85.94
416.713	86.94
416.936	93.94
417.159	79.94
417.382	89.94
417.605	100.94
417.828	80.94
418.051	86.94
418.274	81.94
418.497	92.94
418.72	86.94
418.943	72.94
419.166	72.94
419.389	87.94
419.611	85.94
419.834	95.94
420.057	87.94
420.28	73.94
420.503	60.94
420.726	72.94
420.948	86.94
421.171	80.94
421.394	80.94
421.617	93.94
421.839	79.94
422.062	82.94
422.285	88.94
422.507	113.94
422.73	94.94
422.953	81.94
423.175	90.94
423.398	85.94
423.621	75.94
423.843	72.94
424.066	77.94
424.288	85.94
424.511	73.94
424.733	87.94
424.956	103.94
425.178	102.94
425.401	93.94
425.623	89.94
425.846	87.94
426.068	77.94
426.291	86.94
426.513	103.94
426.735	95.94
426.958	77.94
427.18	83.94
427.402	119.94
427.625	135.94
427.847	116.94
428.069	78.94
428.292	78.94
428.514	80.94
428.736	79.94
428.958	73.94
429.181	85.94
429.403	73.94
429.625	75.94
429.847	86.94
430.069	85.94
430.292	88.94
430.514	83.94
430.736	84.94
430.958	79.94
431.18	82.94
431.402	95.94
431.624	89.94
431.846	89.94
432.068	73.94
432.29	83.94
432.512	80.94
432.734	84.94
432.956	78.94
433.178	82.94
433.4	85.94
433.622	87.94
433.844	77.94
434.066	84.94
434.287	83.94
434.509	96.94
434.731	85.94
434.953	87.94
435.175	79.94
435.397	88.94
435.618	86.94
435.84	87.94
436.062	104.94
436.284	101.94
436.505	109.94
436.727	83.94
436.949	77.94
437.17	72.94
437.392	73.94
437.614	85.94
437.835	123.94
438.057	114.94
438.278	119.94
438.5	104.94
438.721	116.94
438.943	78.94
439.165	85.94
439.386	76.94
439.608	95.94
439.829	83.94
440.05	113.94
440.272	132.94
440.493	84.94
440.715	65.94
440.936	69.94
441.158	85.94
441.379	83.94
441.6	88.94
441.822	85.94
442.043	91.94
442.264	95.94
442.486	89.94
442.707	75.94
442.928	89.94
443.149	126.94
443.371	117.94
443.592	106.94
443.813	101.94
444.034	95.94
444.255	82.94
444.476	92.94
444.698	93.94
444.919	81.94
445.14	126.94
445.361	103.94
445.582	101.94
445.803	121.94
446.024	128.94
446.245	128.94
446.466	109.94
446.687	89.94
446.908	78.94
447.129	77.94
447.35	82.94
447.571	81.94
447.792	89.94
448.013	108.94
448.234	108.94
448.455	97.94
448.675	101.94
448.896	115.94
449.117	93.94
449.338	93.94
449.559	109.94
449.779	113.94
450	105.94
450.221	77.94
450.442	88.94
450.662	87.94
450.883	100.94
451.104	95.94
451.324	103.94
451.545	87.94
451.766	92.94
451.986	82.94
452.207	87.94
452.428	82.94
452.648	75.94
452.869	108.94
453.089	114.94
453.31	105.94
453.53	89.94
453.751	72.94
453.971	86.94
454.192	96.94
454.412	92.94
454.633	91.94
454.853	88.94
455.073	82.94
455.294	87.94
455.514	83.94
455.734	76.94
455.955	99.94
456.175	71.94
456.395	77.94
456.616	76.94
456.836	71.94
457.056	97.94
457.276	70.94
457.497	97.94
457.717	78.94
457.937	61.94
458.157	71.94
458.377	79.94
458.598	98.94
458.818	138.94
459.038	139.94
459.258	109.94
459.478	83.94
459.698	79.94
459.918	75.94
460.138	74.94
460.358	79.94
460.578	85.94
460.798	98.94
461.018	82.94
461.238	95.94
461.458	89.94
461.678	72.94
461.898	81.94
462.118	78.94
462.338	81.94
462.558	71.94
462.777	82.94
462.997	75.94
463.217	90.94
463.437	98.94
463.657	86.94
463.876	82.94
464.096	93.94
464.316	99.94
464.536	84.94
464.755	77.94
464.975	93.94
465.195	140.94
465.414	139.94
465.634	87.94
465.854	91.94
466.073	92.94
466.293	84.94
466.512	89.94
466.732	79.94
466.951	85.94
467.171	78.94
467.391	87.94
467.61	83.94
467.829	84.94
468.049	96.94
468.268	91.94
468.488	89.94
468.707	82.94
468.927	84.94
469.146	78.94
469.365	79.94
469.585	80.94
469.804	86.94
470.023	92.94
470.243	87.94
470.462	83.94
470.681	106.94
470.901	79.94
471.12	78.94
471.339	92.94
471.558	75.94
471.777	75.94
471.997	80.94
472.216	82.94
472.435	73.94
472.654	71.94
472.873	88.94
473.092	85.94
473.311	84.94
473.53	82.94
473.749	84.94
473.968	104.94
474.187	79.94
474.406	92.94
474.625	81.94
474.844	85.94
475.063	85.94
475.282	84.94
475.501	89.94
475.72	82.94
475.939	78.94
476.158	99.94
476.377	78.94
476.596	75.94
476.814	76.94
477.033	88.94
477.252	73.94
477.471	83.94
477.69	74.94
477.908	102.94
478.127	79.94
478.346	83.94
478.564	92.94
478.783	77.94
479.002	81.94
479.22	91.94
479.439	107.94
479.658	88.94
479.876	88.94
480.095	86.94
480.313	96.94
480.532	81.94
480.751	91.94
480.969	73.94
481.188	79.94
481.406	97.94
481.624	101.94
481.843	77.94
482.061	76.94
482.28	70.94
482.498	97.94
482.717	104.94
482.935	82.94
483.153	77.94
483.372	84.94
483.59	85.94
483.808	96.94
484.027	85.94
484.245	87.94
484.463	92.94
484.681	91.94
484.9	91.94
485.118	85.94
485.336	89.94
485.554	70.94
485.772	89.94
485.99	93.94
486.209	83.94
486.427	94.94
486.645	97.94
486.863	105.94
487.081	84.94
487.299	96.94
487.517	90.94
487.735	83.94
487.953	102.94
488.171	93.94
488.389	101.94
488.607	101.94
488.825	82.94
489.043	88.94
489.261	91.94
489.479	91.94
489.696	96.94
489.914	82.94
490.132	98.94
490.35	81.94
490.568	89.94
490.786	87.94
491.003	96.94
491.221	95.94
491.439	85.94
491.657	89.94
491.874	76.94
492.092	88.94
492.31	86.94
492.527	81.94
492.745	88.94
492.963	96.94
493.18	76.94
493.398	95.94
493.615	98.94
493.833	85.94
494.05	86.94
494.268	85.94
494.485	85.94
494.703	89.94
494.92	80.94
495.138	82.94
495.355	83.94
495.573	93.94
495.79	88.94
496.008	91.94
496.225	80.94
496.442	74.94
496.66	85.94
496.877	88.94
497.094	83.94
497.312	77.94
497.529	88.94
497.746	64.94
497.963	91.94
498.181	84.94
498.398	97.94
498.615	95.94
498.832	84.94
499.049	93.94
499.267	87.94
499.484	91.94
499.701	84.94
499.918	91.94
500.135	95.94
500.352	89.94
500.569	96.94
500.786	79.94
501.003	80.94
501.22	93.94
501.437	85.94
501.654	86.94
501.871	97.94
502.088	90.94
502.305	76.94
502.522	80.94
502.739	88.94
502.956	86.94
503.172	82.94
503.389	91.94
503.606	89.94
503.823	89.94
504.04	86.94
504.256	92.94
504.473	79.94
504.69	81.94
504.907	89.94
505.123	76.94
505.34	87.94
505.557	86.94
505.773	83.94
505.99	94.94
506.207	91.94
506.423	94.94
506.64	82.94
506.856	87.94
507.073	85.94
507.289	99.94
507.506	106.94
507.722	100.94
507.939	94.94
508.155	98.94
508.372	96.94
508.588	92.94
508.805	97.94
509.021	98.94
509.238	87.94
509.454	86.94
509.67	91.94
509.887	99.94
510.103	119.94
510.319	198.94
510.536	734.94
510.752	2257.94
510.968	631.94
511.184	143.94
511.401	112.94
511.617	95.94
511.833	100.94
512.049	84.94
512.265	87.94
512.481	87.94
512.698	79.94
512.914	87.94
513.13	88.94
513.346	92.94
513.562	95.94
513.778	84.94
513.994	83.94
514.21	107.94
514.426	102.94
514.642	127.94
514.858	113.94
515.074	158.94
515.29	375.94
515.506	1318.94
515.721	491.94
515.937	137.94
516.153	96.94
516.369	85.94
516.585	88.94
516.801	88.94
517.016	96.94
517.232	68.94
517.448	101.94
517.664	92.94
