Data from Uncirc_2000_H10_HRD10591_00058.txt Node
Date: Wed Jan 03 10:48:28 EST 2024
User: Yrep
Spectrometer: HR+D1059
Trigger mode: 1
Integration Time (sec): 1.000000E-1
Scans to average: 1
Electric dark correction enabled: true
Nonlinearity correction enabled: false
Boxcar width: 0
XAxis mode: Wavelengths
Number of Pixels in Spectrum: 2048
>>>>>Begin Spectral Data<<<<<
223.165	-19.75
223.4	-19.75
223.635	-19.75
223.869	-12.75
224.104	-16.75
224.338	-13.75
224.573	-17.75
224.808	-18.75
225.042	-4.75
225.277	3.25
225.511	-12.75
225.746	1.25
225.98	3.25
226.215	2.25
226.449	36.25
226.683	27.25
226.918	27.25
227.152	16.25
227.387	42.25
227.621	41.25
227.856	43.25
228.09	34.25
228.324	35.25
228.559	59.25
228.793	62.25
229.027	66.25
229.262	64.25
229.496	72.25
229.73	73.25
229.964	87.25
230.199	72.25
230.433	68.25
230.667	72.25
230.901	81.25
231.136	91.25
231.37	66.25
231.604	92.25
231.838	78.25
232.072	68.25
232.306	73.25
232.541	91.25
232.775	80.25
233.009	89.25
233.243	72.25
233.477	87.25
233.711	77.25
233.945	71.25
234.179	79.25
234.413	67.25
234.647	80.25
234.881	84.25
235.115	81.25
235.349	62.25
235.583	79.25
235.817	71.25
236.051	73.25
236.285	79.25
236.519	81.25
236.753	88.25
236.987	67.25
237.221	89.25
237.455	78.25
237.689	77.25
237.922	64.25
238.156	65.25
238.39	62.25
238.624	73.25
238.858	78.25
239.091	84.25
239.325	71.25
239.559	75.25
239.793	78.25
240.027	78.25
240.26	84.25
240.494	86.25
240.728	82.25
240.961	86.25
241.195	81.25
241.429	72.25
241.662	66.25
241.896	78.25
242.13	82.25
242.363	69.25
242.597	72.25
242.83	65.25
243.064	78.25
243.298	70.25
243.531	86.25
243.765	87.25
243.998	79.25
244.232	87.25
244.465	96.25
244.699	91.25
244.932	82.25
245.166	86.25
245.399	70.25
245.633	71.25
245.866	80.25
246.099	56.25
246.333	75.25
246.566	74.25
246.8	67.25
247.033	73.25
247.266	73.25
247.5	82.25
247.733	87.25
247.966	77.25
248.2	86.25
248.433	69.25
248.666	70.25
248.899	84.25
249.133	86.25
249.366	84.25
249.599	72.25
249.832	83.25
250.066	72.25
250.299	81.25
250.532	80.25
250.765	86.25
250.998	83.25
251.231	74.25
251.465	72.25
251.698	75.25
251.931	81.25
252.164	69.25
252.397	86.25
252.63	75.25
252.863	70.25
253.096	78.25
253.329	67.25
253.562	73.25
253.795	78.25
254.028	72.25
254.261	68.25
254.494	65.25
254.727	79.25
254.96	79.25
255.193	80.25
255.426	71.25
255.659	77.25
255.892	75.25
256.124	79.25
256.357	76.25
256.59	87.25
256.823	85.25
257.056	85.25
257.289	67.25
257.521	76.25
257.754	77.25
257.987	77.25
258.22	86.25
258.452	68.25
258.685	79.25
258.918	83.25
259.151	78.25
259.383	90.25
259.616	82.25
259.849	87.25
260.081	77.25
260.314	78.25
260.547	87.25
260.779	84.25
261.012	76.25
261.244	88.25
261.477	84.25
261.71	81.25
261.942	88.25
262.175	95.25
262.407	81.25
262.64	81.25
262.872	83.25
263.105	84.25
263.337	78.25
263.57	89.25
263.802	82.25
264.035	76.25
264.267	82.25
264.499	74.25
264.732	92.25
264.964	83.25
265.197	76.25
265.429	65.25
265.661	81.25
265.894	84.25
266.126	82.25
266.358	81.25
266.591	70.25
266.823	72.25
267.055	78.25
267.287	74.25
267.52	84.25
267.752	81.25
267.984	79.25
268.216	84.25
268.448	87.25
268.681	94.25
268.913	87.25
269.145	70.25
269.377	74.25
269.609	75.25
269.841	90.25
270.073	85.25
270.306	87.25
270.538	93.25
270.77	85.25
271.002	90.25
271.234	90.25
271.466	94.25
271.698	72.25
271.93	79.25
272.162	89.25
272.394	84.25
272.626	73.25
272.858	71.25
273.09	86.25
273.322	85.25
273.553	82.25
273.785	79.25
274.017	79.25
274.249	79.25
274.481	77.25
274.713	80.25
274.945	84.25
275.176	69.25
275.408	83.25
275.64	81.25
275.872	81.25
276.104	78.25
276.335	90.25
276.567	81.25
276.799	99.25
277.031	89.25
277.262	80.25
277.494	91.25
277.726	84.25
277.957	87.25
278.189	80.25
278.421	83.25
278.652	70.25
278.884	80.25
279.115	75.25
279.347	78.25
279.579	66.25
279.81	78.25
280.042	88.25
280.273	78.25
280.505	82.25
280.736	89.25
280.968	77.25
281.199	88.25
281.431	80.25
281.662	82.25
281.894	88.25
282.125	99.25
282.356	104.25
282.588	123.25
282.819	109.25
283.051	77.25
283.282	90.25
283.513	84.25
283.745	82.25
283.976	77.25
284.207	81.25
284.439	85.25
284.67	92.25
284.901	83.25
285.132	71.25
285.364	83.25
285.595	84.25
285.826	77.25
286.057	83.25
286.288	76.25
286.52	74.25
286.751	91.25
286.982	79.25
287.213	78.25
287.444	71.25
287.675	81.25
287.906	81.25
288.138	81.25
288.369	87.25
288.6	87.25
288.831	81.25
289.062	79.25
289.293	97.25
289.524	99.25
289.755	72.25
289.986	80.25
290.217	83.25
290.448	88.25
290.679	97.25
290.91	76.25
291.141	77.25
291.371	79.25
291.602	103.25
291.833	81.25
292.064	89.25
292.295	91.25
292.526	90.25
292.757	90.25
292.987	93.25
293.218	86.25
293.449	92.25
293.68	71.25
293.91	67.25
294.141	76.25
294.372	101.25
294.603	79.25
294.833	98.25
295.064	75.25
295.295	81.25
295.525	98.25
295.756	106.25
295.987	95.25
296.217	128.25
296.448	119.25
296.679	78.25
296.909	94.25
297.14	94.25
297.37	77.25
297.601	88.25
297.831	90.25
298.062	88.25
298.292	77.25
298.523	98.25
298.753	81.25
298.984	79.25
299.214	82.25
299.445	69.25
299.675	83.25
299.905	91.25
300.136	79.25
300.366	75.25
300.597	77.25
300.827	89.25
301.057	82.25
301.288	109.25
301.518	91.25
301.748	86.25
301.979	106.25
302.209	86.25
302.439	96.25
302.669	83.25
302.9	73.25
303.13	79.25
303.36	84.25
303.59	87.25
303.82	103.25
304.051	92.25
304.281	80.25
304.511	85.25
304.741	94.25
304.971	86.25
305.201	85.25
305.431	77.25
305.661	79.25
305.891	77.25
306.121	89.25
306.352	95.25
306.582	96.25
306.812	71.25
307.042	85.25
307.272	85.25
307.502	86.25
307.731	73.25
307.961	101.25
308.191	82.25
308.421	106.25
308.651	91.25
308.881	87.25
309.111	78.25
309.341	85.25
309.571	86.25
309.8	91.25
310.03	94.25
310.26	97.25
310.49	97.25
310.72	93.25
310.949	98.25
311.179	89.25
311.409	83.25
311.639	91.25
311.868	98.25
312.098	90.25
312.328	83.25
312.557	90.25
312.787	96.25
313.017	91.25
313.246	70.25
313.476	79.25
313.706	89.25
313.935	100.25
314.165	91.25
314.394	91.25
314.624	83.25
314.853	97.25
315.083	78.25
315.312	94.25
315.542	72.25
315.771	97.25
316.001	81.25
316.23	73.25
316.46	89.25
316.689	85.25
316.919	80.25
317.148	97.25
317.377	105.25
317.607	72.25
317.836	98.25
318.065	95.25
318.295	94.25
318.524	99.25
318.753	92.25
318.983	75.25
319.212	98.25
319.441	90.25
319.67	90.25
319.9	84.25
320.129	97.25
320.358	88.25
320.587	94.25
320.816	97.25
321.046	87.25
321.275	81.25
321.504	75.25
321.733	90.25
321.962	98.25
322.191	112.25
322.42	89.25
322.649	110.25
322.878	96.25
323.108	118.25
323.337	106.25
323.566	130.25
323.795	152.25
324.024	194.25
324.253	385.25
324.482	795.25
324.71	1606.25
324.939	2119.25
325.168	774.25
325.397	214.25
325.626	147.25
325.855	119.25
326.084	127.25
326.313	114.25
326.542	135.25
326.77	237.25
326.999	453.25
327.228	904.25
327.457	1632.25
327.686	1282.25
327.914	361.25
328.143	191.25
328.372	138.25
328.6	119.25
328.829	99.25
329.058	121.25
329.287	129.25
329.515	106.25
329.744	88.25
329.972	96.25
330.201	89.25
330.43	109.25
330.658	92.25
330.887	126.25
331.115	106.25
331.344	105.25
331.572	85.25
331.801	109.25
332.03	84.25
332.258	90.25
332.486	85.25
332.715	91.25
332.943	88.25
333.172	94.25
333.4	106.25
333.629	90.25
333.857	100.25
334.085	116.25
334.314	88.25
334.542	88.25
334.771	93.25
334.999	92.25
335.227	104.25
335.455	103.25
335.684	89.25
335.912	92.25
336.14	101.25
336.369	98.25
336.597	94.25
336.825	89.25
337.053	85.25
337.281	102.25
337.51	95.25
337.738	79.25
337.966	83.25
338.194	109.25
338.422	89.25
338.65	84.25
338.878	82.25
339.106	81.25
339.334	94.25
339.562	86.25
339.79	94.25
340.018	82.25
340.246	79.25
340.474	99.25
340.702	87.25
340.93	85.25
341.158	79.25
341.386	87.25
341.614	91.25
341.842	90.25
342.07	99.25
342.298	90.25
342.526	88.25
342.754	88.25
342.981	103.25
343.209	87.25
343.437	88.25
343.665	79.25
343.893	90.25
344.12	98.25
344.348	95.25
344.576	88.25
344.804	98.25
345.031	83.25
345.259	97.25
345.487	89.25
345.714	74.25
345.942	94.25
346.17	89.25
346.397	71.25
346.625	85.25
346.853	88.25
347.08	88.25
347.308	89.25
347.535	91.25
347.763	98.25
347.99	99.25
348.218	88.25
348.445	102.25
348.673	89.25
348.9	77.25
349.128	77.25
349.355	81.25
349.583	91.25
349.81	96.25
350.037	90.25
350.265	97.25
350.492	86.25
350.72	105.25
350.947	75.25
351.174	102.25
351.402	110.25
351.629	96.25
351.856	98.25
352.083	93.25
352.311	96.25
352.538	102.25
352.765	100.25
352.992	101.25
353.22	99.25
353.447	95.25
353.674	79.25
353.901	90.25
354.128	97.25
354.355	97.25
354.583	88.25
354.81	102.25
355.037	87.25
355.264	104.25
355.491	91.25
355.718	81.25
355.945	99.25
356.172	86.25
356.399	91.25
356.626	99.25
356.853	90.25
357.08	88.25
357.307	89.25
357.534	88.25
357.761	93.25
357.988	88.25
358.215	88.25
358.441	82.25
358.668	99.25
358.895	90.25
359.122	77.25
359.349	66.25
359.576	82.25
359.802	104.25
360.029	88.25
360.256	101.25
360.483	90.25
360.709	81.25
360.936	88.25
361.163	90.25
361.39	91.25
361.616	100.25
361.843	96.25
362.07	98.25
362.296	90.25
362.523	74.25
362.749	85.25
362.976	101.25
363.203	86.25
363.429	83.25
363.656	79.25
363.882	83.25
364.109	78.25
364.335	89.25
364.562	97.25
364.788	96.25
365.015	86.25
365.241	87.25
365.468	87.25
365.694	84.25
365.92	96.25
366.147	91.25
366.373	77.25
366.599	81.25
366.826	77.25
367.052	65.25
367.278	82.25
367.505	95.25
367.731	90.25
367.957	93.25
368.184	84.25
368.41	97.25
368.636	101.25
368.862	105.25
369.089	92.25
369.315	73.25
369.541	71.25
369.767	91.25
369.993	67.25
370.219	87.25
370.445	78.25
370.672	82.25
370.898	81.25
371.124	85.25
371.35	80.25
371.576	78.25
371.802	87.25
372.028	83.25
372.254	86.25
372.48	103.25
372.706	83.25
372.932	81.25
373.158	94.25
373.384	92.25
373.61	81.25
373.835	77.25
374.061	81.25
374.287	89.25
374.513	87.25
374.739	101.25
374.965	79.25
375.191	80.25
375.416	86.25
375.642	89.25
375.868	88.25
376.094	72.25
376.319	103.25
376.545	103.25
376.771	80.25
376.997	85.25
377.222	81.25
377.448	89.25
377.674	96.25
377.899	79.25
378.125	83.25
378.35	84.25
378.576	74.25
378.802	91.25
379.027	86.25
379.253	91.25
379.478	95.25
379.704	94.25
379.929	95.25
380.155	87.25
380.38	85.25
380.606	93.25
380.831	98.25
381.057	79.25
381.282	101.25
381.507	96.25
381.733	101.25
381.958	89.25
382.184	109.25
382.409	99.25
382.634	98.25
382.86	82.25
383.085	83.25
383.31	83.25
383.535	91.25
383.761	85.25
383.986	88.25
384.211	91.25
384.436	103.25
384.662	109.25
384.887	102.25
385.112	104.25
385.337	87.25
385.562	90.25
385.787	93.25
386.013	93.25
386.238	98.25
386.463	116.25
386.688	100.25
386.913	90.25
387.138	99.25
387.363	95.25
387.588	97.25
387.813	93.25
388.038	91.25
388.263	101.25
388.488	105.25
388.713	95.25
388.938	97.25
389.163	88.25
389.387	81.25
389.612	80.25
389.837	87.25
390.062	90.25
390.287	86.25
390.512	73.25
390.736	90.25
390.961	90.25
391.186	91.25
391.411	93.25
391.636	87.25
391.86	88.25
392.085	95.25
392.31	79.25
392.534	89.25
392.759	78.25
392.984	85.25
393.208	89.25
393.433	89.25
393.658	83.25
393.882	93.25
394.107	75.25
394.331	78.25
394.556	85.25
394.78	95.25
395.005	110.25
395.229	83.25
395.454	72.25
395.678	95.25
395.903	73.25
396.127	93.25
396.352	92.25
396.576	73.25
396.801	84.25
397.025	78.25
397.249	70.25
397.474	78.25
397.698	90.25
397.922	82.25
398.147	85.25
398.371	92.25
398.595	92.25
398.82	76.25
399.044	65.25
399.268	75.25
399.492	75.25
399.717	74.25
399.941	91.25
400.165	88.25
400.389	102.25
400.613	84.25
400.837	96.25
401.062	83.25
401.286	85.25
401.51	104.25
401.734	88.25
401.958	85.25
402.182	115.25
402.406	136.25
402.63	110.25
402.854	86.25
403.078	99.25
403.302	89.25
403.526	81.25
403.75	99.25
403.974	94.25
404.198	87.25
404.422	81.25
404.645	76.25
404.869	78.25
405.093	82.25
405.317	73.25
405.541	71.25
405.765	94.25
405.988	114.25
406.212	152.25
406.436	169.25
406.66	122.25
406.883	101.25
407.107	97.25
407.331	104.25
407.555	90.25
407.778	78.25
408.002	85.25
408.226	86.25
408.449	74.25
408.673	96.25
408.896	74.25
409.12	82.25
409.344	82.25
409.567	70.25
409.791	83.25
410.014	89.25
410.238	89.25
410.461	96.25
410.685	91.25
410.908	94.25
411.132	97.25
411.355	81.25
411.578	90.25
411.802	80.25
412.025	84.25
412.249	97.25
412.472	82.25
412.695	77.25
412.919	85.25
413.142	96.25
413.365	83.25
413.589	80.25
413.812	91.25
414.035	92.25
414.258	88.25
414.482	80.25
414.705	85.25
414.928	89.25
415.151	83.25
415.374	84.25
415.597	82.25
415.821	90.25
416.044	89.25
416.267	91.25
416.49	100.25
416.713	70.25
416.936	78.25
417.159	73.25
417.382	108.25
417.605	83.25
417.828	81.25
418.051	95.25
418.274	84.25
418.497	79.25
418.72	77.25
418.943	98.25
419.166	85.25
419.389	71.25
419.611	74.25
419.834	81.25
420.057	85.25
420.28	78.25
420.503	72.25
420.726	77.25
420.948	88.25
421.171	91.25
421.394	96.25
421.617	88.25
421.839	80.25
422.062	82.25
422.285	89.25
422.507	82.25
422.73	105.25
422.953	87.25
423.175	88.25
423.398	80.25
423.621	101.25
423.843	92.25
424.066	82.25
424.288	77.25
424.511	77.25
424.733	93.25
424.956	95.25
425.178	95.25
425.401	88.25
425.623	79.25
425.846	83.25
426.068	87.25
426.291	95.25
426.513	92.25
426.735	92.25
426.958	98.25
427.18	89.25
427.402	125.25
427.625	150.25
427.847	112.25
428.069	105.25
428.292	72.25
428.514	82.25
428.736	83.25
428.958	86.25
429.181	75.25
429.403	82.25
429.625	86.25
429.847	91.25
430.069	84.25
430.292	97.25
430.514	90.25
430.736	73.25
430.958	67.25
431.18	86.25
431.402	77.25
431.624	76.25
431.846	89.25
432.068	73.25
432.29	73.25
432.512	89.25
432.734	74.25
432.956	74.25
433.178	93.25
433.4	67.25
433.622	90.25
433.844	74.25
434.066	86.25
434.287	95.25
434.509	101.25
434.731	79.25
434.953	76.25
435.175	84.25
435.397	79.25
435.618	84.25
435.84	104.25
436.062	107.25
436.284	99.25
436.505	97.25
436.727	95.25
436.949	89.25
437.17	94.25
437.392	75.25
437.614	82.25
437.835	99.25
438.057	95.25
438.278	93.25
438.5	89.25
438.721	101.25
438.943	94.25
439.165	84.25
439.386	68.25
439.608	85.25
439.829	94.25
440.05	101.25
440.272	110.25
440.493	89.25
440.715	78.25
440.936	93.25
441.158	94.25
441.379	83.25
441.6	101.25
441.822	100.25
442.043	85.25
442.264	98.25
442.486	83.25
442.707	69.25
442.928	93.25
443.149	122.25
443.371	113.25
443.592	94.25
443.813	102.25
444.034	85.25
444.255	73.25
444.476	91.25
444.698	77.25
444.919	87.25
445.14	117.25
445.361	116.25
445.582	100.25
445.803	112.25
446.024	108.25
446.245	105.25
446.466	91.25
446.687	87.25
446.908	59.25
447.129	87.25
447.35	69.25
447.571	80.25
447.792	91.25
448.013	96.25
448.234	94.25
448.455	98.25
448.675	95.25
448.896	96.25
449.117	89.25
449.338	95.25
449.559	107.25
449.779	122.25
450	88.25
450.221	73.25
450.442	79.25
450.662	86.25
450.883	103.25
451.104	99.25
451.324	82.25
451.545	98.25
451.766	90.25
451.986	80.25
452.207	91.25
452.428	74.25
452.648	93.25
452.869	90.25
453.089	102.25
453.31	125.25
453.53	91.25
453.751	82.25
453.971	107.25
454.192	99.25
454.412	86.25
454.633	74.25
454.853	79.25
455.073	89.25
455.294	86.25
455.514	78.25
455.734	89.25
455.955	84.25
456.175	74.25
456.395	70.25
456.616	77.25
456.836	93.25
457.056	91.25
457.276	75.25
457.497	78.25
457.717	90.25
457.937	88.25
458.157	81.25
458.377	86.25
458.598	91.25
458.818	151.25
459.038	147.25
459.258	101.25
459.478	86.25
459.698	93.25
459.918	87.25
460.138	89.25
460.358	77.25
460.578	78.25
460.798	87.25
461.018	73.25
461.238	87.25
461.458	73.25
461.678	76.25
461.898	77.25
462.118	76.25
462.338	69.25
462.558	88.25
462.777	88.25
462.997	95.25
463.217	79.25
463.437	76.25
463.657	75.25
463.876	72.25
464.096	80.25
464.316	76.25
464.536	101.25
464.755	90.25
464.975	90.25
465.195	164.25
465.414	134.25
465.634	81.25
465.854	81.25
466.073	81.25
466.293	69.25
466.512	86.25
466.732	77.25
466.951	97.25
467.171	98.25
467.391	81.25
467.61	97.25
467.829	97.25
468.049	90.25
468.268	85.25
468.488	84.25
468.707	92.25
468.927	83.25
469.146	76.25
469.365	82.25
469.585	85.25
469.804	86.25
470.023	80.25
470.243	96.25
470.462	85.25
470.681	97.25
470.901	93.25
471.12	82.25
471.339	62.25
471.558	79.25
471.777	95.25
471.997	88.25
472.216	90.25
472.435	69.25
472.654	81.25
472.873	91.25
473.092	90.25
473.311	84.25
473.53	70.25
473.749	82.25
473.968	88.25
474.187	94.25
474.406	96.25
474.625	83.25
474.844	90.25
475.063	95.25
475.282	74.25
475.501	87.25
475.72	91.25
475.939	90.25
476.158	94.25
476.377	73.25
476.596	77.25
476.814	74.25
477.033	92.25
477.252	75.25
477.471	74.25
477.69	88.25
477.908	79.25
478.127	87.25
478.346	89.25
478.564	93.25
478.783	91.25
479.002	84.25
479.22	97.25
479.439	96.25
479.658	77.25
479.876	87.25
480.095	73.25
480.313	83.25
480.532	88.25
480.751	81.25
480.969	83.25
481.188	85.25
481.406	87.25
481.624	78.25
481.843	88.25
482.061	105.25
482.28	88.25
482.498	85.25
482.717	98.25
482.935	88.25
483.153	81.25
483.372	79.25
483.59	83.25
483.808	90.25
484.027	84.25
484.245	94.25
484.463	84.25
484.681	90.25
484.9	84.25
485.118	86.25
485.336	96.25
485.554	105.25
485.772	82.25
485.99	116.25
486.209	83.25
486.427	107.25
486.645	96.25
486.863	81.25
487.081	98.25
487.299	64.25
487.517	88.25
487.735	95.25
487.953	85.25
488.171	99.25
488.389	88.25
488.607	105.25
488.825	91.25
489.043	87.25
489.261	98.25
489.479	101.25
489.696	80.25
489.914	87.25
490.132	80.25
490.35	90.25
490.568	86.25
490.786	89.25
491.003	90.25
491.221	80.25
491.439	102.25
491.657	84.25
491.874	92.25
492.092	87.25
492.31	88.25
492.527	90.25
492.745	87.25
492.963	74.25
493.18	78.25
493.398	86.25
493.615	85.25
493.833	92.25
494.05	89.25
494.268	73.25
494.485	86.25
494.703	79.25
494.92	97.25
495.138	84.25
495.355	88.25
495.573	104.25
495.79	85.25
496.008	90.25
496.225	83.25
496.442	81.25
496.66	81.25
496.877	74.25
497.094	87.25
497.312	97.25
497.529	97.25
497.746	88.25
497.963	84.25
498.181	85.25
498.398	86.25
498.615	97.25
498.832	105.25
499.049	89.25
499.267	81.25
499.484	74.25
499.701	83.25
499.918	73.25
500.135	86.25
500.352	81.25
500.569	84.25
500.786	96.25
501.003	83.25
501.22	91.25
501.437	89.25
501.654	86.25
501.871	99.25
502.088	92.25
502.305	102.25
502.522	82.25
502.739	74.25
502.956	85.25
503.172	89.25
503.389	100.25
503.606	78.25
503.823	96.25
504.04	86.25
504.256	93.25
504.473	85.25
504.69	88.25
504.907	91.25
505.123	96.25
505.34	88.25
505.557	81.25
505.773	79.25
505.99	82.25
506.207	82.25
506.423	73.25
506.64	88.25
506.856	90.25
507.073	87.25
507.289	87.25
507.506	105.25
507.722	116.25
507.939	98.25
508.155	84.25
508.372	82.25
508.588	82.25
508.805	109.25
509.021	96.25
509.238	99.25
509.454	99.25
509.67	90.25
509.887	107.25
510.103	126.25
510.319	204.25
510.536	711.25
510.752	2122.25
510.968	592.25
511.184	141.25
511.401	113.25
511.617	98.25
511.833	76.25
512.049	74.25
512.265	83.25
512.481	94.25
512.698	89.25
512.914	100.25
513.13	102.25
513.346	88.25
513.562	89.25
513.778	82.25
513.994	86.25
514.21	102.25
514.426	108.25
514.642	135.25
514.858	98.25
515.074	153.25
515.29	374.25
515.506	1263.25
515.721	479.25
515.937	129.25
516.153	93.25
516.369	99.25
516.585	93.25
516.801	91.25
517.016	94.25
517.232	97.25
517.448	88.25
517.664	82.25
