Data from Uncirc_2000_H10_HRD10591_00092.txt Node
Date: Wed Jan 03 10:48:35 EST 2024
User: Yrep
Spectrometer: HR+D1059
Trigger mode: 1
Integration Time (sec): 1.000000E-1
Scans to average: 1
Electric dark correction enabled: true
Nonlinearity correction enabled: false
Boxcar width: 0
XAxis mode: Wavelengths
Number of Pixels in Spectrum: 2048
>>>>>Begin Spectral Data<<<<<
223.165	-18.69
223.4	-18.69
223.635	-18.69
223.869	-11.69
224.104	-16.69
224.338	-10.69
224.573	-20.69
224.808	-27.69
225.042	-2.69
225.277	-10.69
225.511	-4.69
225.746	7.31
225.98	11.31
226.215	14.31
226.449	17.31
226.683	19.31
226.918	32.31
227.152	22.31
227.387	24.31
227.621	34.31
227.856	26.31
228.09	57.31
228.324	61.31
228.559	47.31
228.793	56.31
229.027	67.31
229.262	69.31
229.496	70.31
229.73	93.31
229.964	88.31
230.199	81.31
230.433	75.31
230.667	81.31
230.901	62.31
231.136	78.31
231.37	70.31
231.604	90.31
231.838	71.31
232.072	77.31
232.306	83.31
232.541	95.31
232.775	90.31
233.009	86.31
233.243	81.31
233.477	80.31
233.711	79.31
233.945	91.31
234.179	62.31
234.413	69.31
234.647	78.31
234.881	77.31
235.115	79.31
235.349	72.31
235.583	79.31
235.817	67.31
236.051	67.31
236.285	60.31
236.519	87.31
236.753	62.31
236.987	73.31
237.221	83.31
237.455	75.31
237.689	70.31
237.922	81.31
238.156	83.31
238.39	71.31
238.624	74.31
238.858	65.31
239.091	66.31
239.325	75.31
239.559	90.31
239.793	77.31
240.027	73.31
240.26	78.31
240.494	76.31
240.728	86.31
240.961	81.31
241.195	84.31
241.429	76.31
241.662	79.31
241.896	73.31
242.13	70.31
242.363	77.31
242.597	78.31
242.83	78.31
243.064	82.31
243.298	69.31
243.531	84.31
243.765	82.31
243.998	89.31
244.232	86.31
244.465	79.31
244.699	81.31
244.932	77.31
245.166	76.31
245.399	87.31
245.633	68.31
245.866	90.31
246.099	83.31
246.333	85.31
246.566	71.31
246.8	84.31
247.033	80.31
247.266	79.31
247.5	80.31
247.733	65.31
247.966	90.31
248.2	75.31
248.433	81.31
248.666	73.31
248.899	73.31
249.133	70.31
249.366	87.31
249.599	104.31
249.832	78.31
250.066	75.31
250.299	76.31
250.532	79.31
250.765	80.31
250.998	85.31
251.231	77.31
251.465	90.31
251.698	86.31
251.931	84.31
252.164	73.31
252.397	77.31
252.63	66.31
252.863	76.31
253.096	86.31
253.329	67.31
253.562	90.31
253.795	71.31
254.028	87.31
254.261	95.31
254.494	92.31
254.727	85.31
254.96	88.31
255.193	91.31
255.426	82.31
255.659	85.31
255.892	91.31
256.124	79.31
256.357	79.31
256.59	96.31
256.823	81.31
257.056	75.31
257.289	82.31
257.521	75.31
257.754	82.31
257.987	82.31
258.22	87.31
258.452	89.31
258.685	73.31
258.918	101.31
259.151	83.31
259.383	70.31
259.616	79.31
259.849	87.31
260.081	89.31
260.314	82.31
260.547	76.31
260.779	77.31
261.012	80.31
261.244	83.31
261.477	96.31
261.71	86.31
261.942	95.31
262.175	108.31
262.407	94.31
262.64	96.31
262.872	86.31
263.105	73.31
263.337	85.31
263.57	76.31
263.802	87.31
264.035	76.31
264.267	84.31
264.499	78.31
264.732	92.31
264.964	74.31
265.197	83.31
265.429	76.31
265.661	84.31
265.894	91.31
266.126	89.31
266.358	82.31
266.591	83.31
266.823	72.31
267.055	86.31
267.287	87.31
267.52	79.31
267.752	96.31
267.984	81.31
268.216	91.31
268.448	82.31
268.681	108.31
268.913	73.31
269.145	89.31
269.377	92.31
269.609	84.31
269.841	70.31
270.073	83.31
270.306	79.31
270.538	78.31
270.77	101.31
271.002	85.31
271.234	76.31
271.466	90.31
271.698	72.31
271.93	93.31
272.162	71.31
272.394	83.31
272.626	93.31
272.858	90.31
273.09	83.31
273.322	73.31
273.553	70.31
273.785	92.31
274.017	77.31
274.249	81.31
274.481	75.31
274.713	93.31
274.945	83.31
275.176	76.31
275.408	85.31
275.64	87.31
275.872	85.31
276.104	103.31
276.335	101.31
276.567	115.31
276.799	116.31
277.031	109.31
277.262	89.31
277.494	73.31
277.726	86.31
277.957	78.31
278.189	95.31
278.421	81.31
278.652	76.31
278.884	78.31
279.115	95.31
279.347	85.31
279.579	78.31
279.81	92.31
280.042	81.31
280.273	80.31
280.505	86.31
280.736	82.31
280.968	88.31
281.199	82.31
281.431	101.31
281.662	72.31
281.894	86.31
282.125	102.31
282.356	93.31
282.588	121.31
282.819	132.31
283.051	79.31
283.282	74.31
283.513	67.31
283.745	94.31
283.976	93.31
284.207	95.31
284.439	97.31
284.67	87.31
284.901	85.31
285.132	99.31
285.364	81.31
285.595	98.31
285.826	93.31
286.057	95.31
286.288	75.31
286.52	85.31
286.751	85.31
286.982	100.31
287.213	87.31
287.444	91.31
287.675	98.31
287.906	89.31
288.138	77.31
288.369	106.31
288.6	91.31
288.831	87.31
289.062	90.31
289.293	84.31
289.524	92.31
289.755	95.31
289.986	90.31
290.217	71.31
290.448	90.31
290.679	85.31
290.91	92.31
291.141	90.31
291.371	86.31
291.602	70.31
291.833	88.31
292.064	93.31
292.295	85.31
292.526	94.31
292.757	92.31
292.987	82.31
293.218	85.31
293.449	97.31
293.68	87.31
293.91	88.31
294.141	95.31
294.372	94.31
294.603	78.31
294.833	88.31
295.064	91.31
295.295	99.31
295.525	98.31
295.756	100.31
295.987	99.31
296.217	123.31
296.448	129.31
296.679	97.31
296.909	97.31
297.14	89.31
297.37	90.31
297.601	86.31
297.831	94.31
298.062	100.31
298.292	97.31
298.523	89.31
298.753	94.31
298.984	105.31
299.214	91.31
299.445	86.31
299.675	93.31
299.905	103.31
300.136	84.31
300.366	85.31
300.597	99.31
300.827	93.31
301.057	94.31
301.288	103.31
301.518	95.31
301.748	86.31
301.979	104.31
302.209	85.31
302.439	86.31
302.669	91.31
302.9	92.31
303.13	100.31
303.36	88.31
303.59	98.31
303.82	101.31
304.051	101.31
304.281	85.31
304.511	90.31
304.741	92.31
304.971	86.31
305.201	101.31
305.431	94.31
305.661	80.31
305.891	82.31
306.121	87.31
306.352	106.31
306.582	104.31
306.812	78.31
307.042	95.31
307.272	93.31
307.502	88.31
307.731	94.31
307.961	90.31
308.191	83.31
308.421	79.31
308.651	99.31
308.881	86.31
309.111	94.31
309.341	105.31
309.571	116.31
309.8	86.31
310.03	105.31
310.26	101.31
310.49	103.31
310.72	108.31
310.949	108.31
311.179	102.31
311.409	100.31
311.639	85.31
311.868	104.31
312.098	92.31
312.328	98.31
312.557	104.31
312.787	106.31
313.017	89.31
313.246	86.31
313.476	91.31
313.706	94.31
313.935	111.31
314.165	110.31
314.394	93.31
314.624	94.31
314.853	91.31
315.083	83.31
315.312	79.31
315.542	92.31
315.771	90.31
316.001	90.31
316.23	83.31
316.46	89.31
316.689	84.31
316.919	89.31
317.148	84.31
317.377	101.31
317.607	93.31
317.836	114.31
318.065	100.31
318.295	89.31
318.524	100.31
318.753	103.31
318.983	90.31
319.212	94.31
319.441	113.31
319.67	109.31
319.9	99.31
320.129	88.31
320.358	85.31
320.587	102.31
320.816	92.31
321.046	80.31
321.275	101.31
321.504	97.31
321.733	103.31
321.962	109.31
322.191	108.31
322.42	117.31
322.649	108.31
322.878	120.31
323.108	107.31
323.337	147.31
323.566	132.31
323.795	152.31
324.024	222.31
324.253	393.31
324.482	865.31
324.71	1711.31
324.939	2242.31
325.168	802.31
325.397	223.31
325.626	159.31
325.855	127.31
326.084	133.31
326.313	149.31
326.542	173.31
326.77	244.31
326.999	472.31
327.228	953.31
327.457	1770.31
327.686	1395.31
327.914	367.31
328.143	193.31
328.372	133.31
328.6	125.31
328.829	126.31
329.058	130.31
329.287	118.31
329.515	93.31
329.744	111.31
329.972	95.31
330.201	110.31
330.43	103.31
330.658	109.31
330.887	139.31
331.115	116.31
331.344	106.31
331.572	105.31
331.801	109.31
332.03	92.31
332.258	118.31
332.486	106.31
332.715	102.31
332.943	96.31
333.172	74.31
333.4	100.31
333.629	98.31
333.857	111.31
334.085	108.31
334.314	93.31
334.542	99.31
334.771	94.31
334.999	118.31
335.227	106.31
335.455	100.31
335.684	95.31
335.912	95.31
336.14	105.31
336.369	99.31
336.597	97.31
336.825	84.31
337.053	89.31
337.281	88.31
337.51	89.31
337.738	102.31
337.966	98.31
338.194	93.31
338.422	99.31
338.65	102.31
338.878	99.31
339.106	100.31
339.334	105.31
339.562	82.31
339.79	91.31
340.018	91.31
340.246	90.31
340.474	92.31
340.702	91.31
340.93	91.31
341.158	89.31
341.386	92.31
341.614	98.31
341.842	101.31
342.07	86.31
342.298	103.31
342.526	100.31
342.754	90.31
342.981	91.31
343.209	76.31
343.437	98.31
343.665	90.31
343.893	95.31
344.12	100.31
344.348	89.31
344.576	74.31
344.804	92.31
345.031	100.31
345.259	91.31
345.487	91.31
345.714	87.31
345.942	107.31
346.17	103.31
346.397	86.31
346.625	104.31
346.853	92.31
347.08	97.31
347.308	97.31
347.535	73.31
347.763	94.31
347.99	100.31
348.218	104.31
348.445	102.31
348.673	107.31
348.9	105.31
349.128	102.31
349.355	83.31
349.583	95.31
349.81	100.31
350.037	111.31
350.265	88.31
350.492	98.31
350.72	104.31
350.947	102.31
351.174	104.31
351.402	105.31
351.629	94.31
351.856	109.31
352.083	107.31
352.311	107.31
352.538	120.31
352.765	104.31
352.992	111.31
353.22	109.31
353.447	105.31
353.674	92.31
353.901	101.31
354.128	111.31
354.355	104.31
354.583	102.31
354.81	92.31
355.037	108.31
355.264	105.31
355.491	93.31
355.718	97.31
355.945	90.31
356.172	103.31
356.399	115.31
356.626	107.31
356.853	86.31
357.08	84.31
357.307	75.31
357.534	100.31
357.761	95.31
357.988	101.31
358.215	101.31
358.441	106.31
358.668	97.31
358.895	95.31
359.122	92.31
359.349	92.31
359.576	97.31
359.802	101.31
360.029	111.31
360.256	107.31
360.483	100.31
360.709	71.31
360.936	97.31
361.163	94.31
361.39	102.31
361.616	93.31
361.843	95.31
362.07	104.31
362.296	96.31
362.523	88.31
362.749	84.31
362.976	89.31
363.203	94.31
363.429	94.31
363.656	82.31
363.882	85.31
364.109	109.31
364.335	94.31
364.562	83.31
364.788	92.31
365.015	92.31
365.241	111.31
365.468	103.31
365.694	100.31
365.92	98.31
366.147	94.31
366.373	102.31
366.599	105.31
366.826	100.31
367.052	82.31
367.278	91.31
367.505	95.31
367.731	94.31
367.957	103.31
368.184	110.31
368.41	102.31
368.636	100.31
368.862	111.31
369.089	98.31
369.315	98.31
369.541	88.31
369.767	98.31
369.993	80.31
370.219	87.31
370.445	93.31
370.672	92.31
370.898	92.31
371.124	88.31
371.35	98.31
371.576	90.31
371.802	95.31
372.028	105.31
372.254	88.31
372.48	83.31
372.706	82.31
372.932	80.31
373.158	87.31
373.384	103.31
373.61	89.31
373.835	99.31
374.061	93.31
374.287	103.31
374.513	90.31
374.739	101.31
374.965	99.31
375.191	95.31
375.416	86.31
375.642	105.31
375.868	105.31
376.094	90.31
376.319	85.31
376.545	82.31
376.771	91.31
376.997	87.31
377.222	91.31
377.448	86.31
377.674	85.31
377.899	110.31
378.125	113.31
378.35	102.31
378.576	90.31
378.802	93.31
379.027	95.31
379.253	98.31
379.478	81.31
379.704	90.31
379.929	94.31
380.155	102.31
380.38	78.31
380.606	98.31
380.831	107.31
381.057	109.31
381.282	96.31
381.507	97.31
381.733	97.31
381.958	94.31
382.184	97.31
382.409	100.31
382.634	109.31
382.86	91.31
383.085	87.31
383.31	105.31
383.535	101.31
383.761	103.31
383.986	95.31
384.211	93.31
384.436	90.31
384.662	86.31
384.887	96.31
385.112	104.31
385.337	117.31
385.562	112.31
385.787	100.31
386.013	102.31
386.238	106.31
386.463	106.31
386.688	116.31
386.913	99.31
387.138	106.31
387.363	103.31
387.588	100.31
387.813	79.31
388.038	91.31
388.263	117.31
388.488	113.31
388.713	90.31
388.938	101.31
389.163	95.31
389.387	103.31
389.612	88.31
389.837	84.31
390.062	108.31
390.287	113.31
390.512	94.31
390.736	110.31
390.961	90.31
391.186	84.31
391.411	94.31
391.636	94.31
391.86	104.31
392.085	96.31
392.31	96.31
392.534	90.31
392.759	80.31
392.984	87.31
393.208	81.31
393.433	113.31
393.658	101.31
393.882	89.31
394.107	95.31
394.331	87.31
394.556	82.31
394.78	95.31
395.005	95.31
395.229	102.31
395.454	99.31
395.678	95.31
395.903	89.31
396.127	85.31
396.352	89.31
396.576	86.31
396.801	92.31
397.025	83.31
397.249	84.31
397.474	88.31
397.698	90.31
397.922	89.31
398.147	80.31
398.371	85.31
398.595	90.31
398.82	90.31
399.044	103.31
399.268	87.31
399.492	87.31
399.717	70.31
399.941	109.31
400.165	91.31
400.389	72.31
400.613	92.31
400.837	70.31
401.062	94.31
401.286	97.31
401.51	64.31
401.734	94.31
401.958	102.31
402.182	112.31
402.406	148.31
402.63	121.31
402.854	93.31
403.078	104.31
403.302	89.31
403.526	98.31
403.75	105.31
403.974	78.31
404.198	91.31
404.422	91.31
404.645	79.31
404.869	96.31
405.093	88.31
405.317	91.31
405.541	87.31
405.765	98.31
405.988	108.31
406.212	166.31
406.436	195.31
406.66	145.31
406.883	98.31
407.107	105.31
407.331	105.31
407.555	105.31
407.778	97.31
408.002	105.31
408.226	105.31
408.449	110.31
408.673	95.31
408.896	97.31
409.12	100.31
409.344	96.31
409.567	94.31
409.791	88.31
410.014	93.31
410.238	99.31
410.461	91.31
410.685	94.31
410.908	89.31
411.132	90.31
411.355	93.31
411.578	83.31
411.802	94.31
412.025	94.31
412.249	92.31
412.472	96.31
412.695	92.31
412.919	81.31
413.142	94.31
413.365	82.31
413.589	90.31
413.812	83.31
414.035	95.31
414.258	90.31
414.482	90.31
414.705	92.31
414.928	89.31
415.151	94.31
415.374	109.31
415.597	97.31
415.821	84.31
416.044	96.31
416.267	89.31
416.49	101.31
416.713	83.31
416.936	94.31
417.159	87.31
417.382	87.31
417.605	85.31
417.828	84.31
418.051	84.31
418.274	81.31
418.497	90.31
418.72	85.31
418.943	83.31
419.166	78.31
419.389	90.31
419.611	89.31
419.834	87.31
420.057	99.31
420.28	86.31
420.503	90.31
420.726	83.31
420.948	102.31
421.171	91.31
421.394	87.31
421.617	75.31
421.839	96.31
422.062	95.31
422.285	95.31
422.507	105.31
422.73	110.31
422.953	107.31
423.175	89.31
423.398	102.31
423.621	90.31
423.843	105.31
424.066	86.31
424.288	96.31
424.511	89.31
424.733	105.31
424.956	112.31
425.178	97.31
425.401	106.31
425.623	95.31
425.846	98.31
426.068	89.31
426.291	80.31
426.513	84.31
426.735	85.31
426.958	95.31
427.18	110.31
427.402	126.31
427.625	150.31
427.847	114.31
428.069	101.31
428.292	95.31
428.514	88.31
428.736	91.31
428.958	73.31
429.181	95.31
429.403	78.31
429.625	101.31
429.847	82.31
430.069	82.31
430.292	83.31
430.514	88.31
430.736	69.31
430.958	87.31
431.18	86.31
431.402	93.31
431.624	83.31
431.846	97.31
432.068	84.31
432.29	86.31
432.512	85.31
432.734	93.31
432.956	93.31
433.178	99.31
433.4	105.31
433.622	103.31
433.844	98.31
434.066	99.31
434.287	101.31
434.509	107.31
434.731	87.31
434.953	86.31
435.175	85.31
435.397	86.31
435.618	84.31
435.84	98.31
436.062	113.31
436.284	125.31
436.505	97.31
436.727	91.31
436.949	84.31
437.17	99.31
437.392	97.31
437.614	92.31
437.835	108.31
438.057	116.31
438.278	111.31
438.5	102.31
438.721	117.31
438.943	97.31
439.165	103.31
439.386	94.31
439.608	91.31
439.829	95.31
440.05	126.31
440.272	141.31
440.493	90.31
440.715	75.31
440.936	84.31
441.158	85.31
441.379	81.31
441.6	94.31
441.822	112.31
442.043	99.31
442.264	116.31
442.486	95.31
442.707	90.31
442.928	106.31
443.149	133.31
443.371	129.31
443.592	103.31
443.813	117.31
444.034	104.31
444.255	106.31
444.476	91.31
444.698	75.31
444.919	88.31
445.14	129.31
445.361	103.31
445.582	114.31
445.803	120.31
446.024	115.31
446.245	140.31
446.466	114.31
446.687	102.31
446.908	95.31
447.129	89.31
447.35	64.31
447.571	91.31
447.792	87.31
448.013	97.31
448.234	108.31
448.455	95.31
448.675	110.31
448.896	96.31
449.117	94.31
449.338	99.31
449.559	117.31
449.779	138.31
450	78.31
450.221	75.31
450.442	67.31
450.662	105.31
450.883	109.31
451.104	105.31
451.324	101.31
451.545	90.31
451.766	85.31
451.986	78.31
452.207	90.31
452.428	94.31
452.648	92.31
452.869	105.31
453.089	103.31
453.31	112.31
453.53	114.31
453.751	95.31
453.971	94.31
454.192	118.31
454.412	102.31
454.633	86.31
454.853	91.31
455.073	83.31
455.294	87.31
455.514	112.31
455.734	91.31
455.955	96.31
456.175	86.31
456.395	73.31
456.616	90.31
456.836	90.31
457.056	79.31
457.276	94.31
457.497	73.31
457.717	78.31
457.937	83.31
458.157	78.31
458.377	89.31
458.598	93.31
458.818	130.31
459.038	135.31
459.258	105.31
459.478	82.31
459.698	91.31
459.918	91.31
460.138	81.31
460.358	85.31
460.578	86.31
460.798	86.31
461.018	84.31
461.238	98.31
461.458	99.31
461.678	90.31
461.898	81.31
462.118	81.31
462.338	86.31
462.558	103.31
462.777	76.31
462.997	84.31
463.217	90.31
463.437	92.31
463.657	88.31
463.876	88.31
464.096	93.31
464.316	87.31
464.536	101.31
464.755	95.31
464.975	93.31
465.195	145.31
465.414	159.31
465.634	91.31
465.854	76.31
466.073	85.31
466.293	87.31
466.512	87.31
466.732	89.31
466.951	93.31
467.171	87.31
467.391	101.31
467.61	92.31
467.829	87.31
468.049	86.31
468.268	81.31
468.488	83.31
468.707	87.31
468.927	88.31
469.146	92.31
469.365	86.31
469.585	97.31
469.804	99.31
470.023	98.31
470.243	101.31
470.462	102.31
470.681	122.31
470.901	90.31
471.12	84.31
471.339	83.31
471.558	100.31
471.777	98.31
471.997	90.31
472.216	91.31
472.435	84.31
472.654	109.31
472.873	100.31
473.092	86.31
473.311	80.31
473.53	87.31
473.749	85.31
473.968	93.31
474.187	106.31
474.406	86.31
474.625	93.31
474.844	100.31
475.063	89.31
475.282	86.31
475.501	86.31
475.72	88.31
475.939	76.31
476.158	79.31
476.377	74.31
476.596	81.31
476.814	97.31
477.033	82.31
477.252	102.31
477.471	95.31
477.69	82.31
477.908	83.31
478.127	90.31
478.346	90.31
478.564	91.31
478.783	90.31
479.002	104.31
479.22	75.31
479.439	99.31
479.658	88.31
479.876	85.31
480.095	95.31
480.313	98.31
480.532	93.31
480.751	99.31
480.969	86.31
481.188	91.31
481.406	94.31
481.624	96.31
481.843	89.31
482.061	84.31
482.28	97.31
482.498	84.31
482.717	85.31
482.935	88.31
483.153	86.31
483.372	96.31
483.59	94.31
483.808	83.31
484.027	84.31
484.245	94.31
484.463	98.31
484.681	97.31
484.9	96.31
485.118	86.31
485.336	104.31
485.554	96.31
485.772	116.31
485.99	97.31
486.209	103.31
486.427	101.31
486.645	98.31
486.863	88.31
487.081	87.31
487.299	96.31
487.517	94.31
487.735	85.31
487.953	94.31
488.171	92.31
488.389	78.31
488.607	103.31
488.825	81.31
489.043	96.31
489.261	91.31
489.479	78.31
489.696	97.31
489.914	81.31
490.132	100.31
490.35	92.31
490.568	71.31
490.786	89.31
491.003	86.31
491.221	92.31
491.439	83.31
491.657	86.31
491.874	87.31
492.092	76.31
492.31	82.31
492.527	91.31
492.745	95.31
492.963	102.31
493.18	97.31
493.398	104.31
493.615	105.31
493.833	87.31
494.05	93.31
494.268	94.31
494.485	91.31
494.703	82.31
494.92	86.31
495.138	101.31
495.355	84.31
495.573	90.31
495.79	77.31
496.008	91.31
496.225	82.31
496.442	106.31
496.66	109.31
496.877	75.31
497.094	82.31
497.312	88.31
497.529	94.31
497.746	105.31
497.963	101.31
498.181	87.31
498.398	85.31
498.615	99.31
498.832	103.31
499.049	106.31
499.267	91.31
499.484	90.31
499.701	75.31
499.918	86.31
500.135	76.31
500.352	90.31
500.569	93.31
500.786	91.31
501.003	90.31
501.22	89.31
501.437	98.31
501.654	97.31
501.871	110.31
502.088	91.31
502.305	85.31
502.522	91.31
502.739	81.31
502.956	92.31
503.172	94.31
503.389	97.31
503.606	111.31
503.823	99.31
504.04	98.31
504.256	87.31
504.473	88.31
504.69	99.31
504.907	97.31
505.123	88.31
505.34	91.31
505.557	83.31
505.773	101.31
505.99	101.31
506.207	98.31
506.423	100.31
506.64	104.31
506.856	101.31
507.073	94.31
507.289	95.31
507.506	82.31
507.722	99.31
507.939	122.31
508.155	89.31
508.372	97.31
508.588	104.31
508.805	86.31
509.021	93.31
509.238	92.31
509.454	110.31
509.67	98.31
509.887	105.31
510.103	129.31
510.319	212.31
510.536	759.31
510.752	2373.31
510.968	674.31
511.184	138.31
511.401	99.31
511.617	88.31
511.833	93.31
512.049	94.31
512.265	89.31
512.481	94.31
512.698	102.31
512.914	98.31
513.13	95.31
513.346	94.31
513.562	93.31
513.778	88.31
513.994	98.31
514.21	91.31
514.426	113.31
514.642	115.31
514.858	127.31
515.074	153.31
