Data from Uncirc_2000_H10_HRD10591_00089.txt Node
Date: Wed Jan 03 10:48:35 EST 2024
User: Yrep
Spectrometer: HR+D1059
Trigger mode: 1
Integration Time (sec): 1.000000E-1
Scans to average: 1
Electric dark correction enabled: true
Nonlinearity correction enabled: false
Boxcar width: 0
XAxis mode: Wavelengths
Number of Pixels in Spectrum: 2048
>>>>>Begin Spectral Data<<<<<
223.165	-3.5
223.4	-3.5
223.635	-3.5
223.869	-18.5
224.104	-18.5
224.338	-18.5
224.573	-10.5
224.808	-12.5
225.042	-7.5
225.277	-20.5
225.511	-1.5
225.746	4.5
225.98	11.5
226.215	7.5
226.449	19.5
226.683	19.5
226.918	17.5
227.152	31.5
227.387	38.5
227.621	36.5
227.856	62.5
228.09	47.5
228.324	45.5
228.559	60.5
228.793	65.5
229.027	56.5
229.262	55.5
229.496	71.5
229.73	73.5
229.964	72.5
230.199	59.5
230.433	78.5
230.667	76.5
230.901	78.5
231.136	77.5
231.37	79.5
231.604	70.5
231.838	82.5
232.072	77.5
232.306	85.5
232.541	80.5
232.775	87.5
233.009	81.5
233.243	83.5
233.477	75.5
233.711	91.5
233.945	98.5
234.179	95.5
234.413	78.5
234.647	93.5
234.881	81.5
235.115	74.5
235.349	77.5
235.583	74.5
235.817	81.5
236.051	81.5
236.285	75.5
236.519	78.5
236.753	80.5
236.987	86.5
237.221	90.5
237.455	79.5
237.689	83.5
237.922	84.5
238.156	72.5
238.39	76.5
238.624	82.5
238.858	83.5
239.091	80.5
239.325	74.5
239.559	84.5
239.793	78.5
240.027	81.5
240.26	80.5
240.494	78.5
240.728	89.5
240.961	76.5
241.195	64.5
241.429	67.5
241.662	71.5
241.896	81.5
242.13	86.5
242.363	92.5
242.597	71.5
242.83	78.5
243.064	74.5
243.298	84.5
243.531	92.5
243.765	72.5
243.998	70.5
244.232	70.5
244.465	82.5
244.699	86.5
244.932	77.5
245.166	70.5
245.399	72.5
245.633	71.5
245.866	83.5
246.099	83.5
246.333	78.5
246.566	66.5
246.8	83.5
247.033	93.5
247.266	76.5
247.5	68.5
247.733	81.5
247.966	86.5
248.2	92.5
248.433	82.5
248.666	80.5
248.899	87.5
249.133	89.5
249.366	100.5
249.599	96.5
249.832	71.5
250.066	91.5
250.299	79.5
250.532	83.5
250.765	80.5
250.998	99.5
251.231	81.5
251.465	81.5
251.698	76.5
251.931	89.5
252.164	94.5
252.397	87.5
252.63	94.5
252.863	83.5
253.096	87.5
253.329	79.5
253.562	96.5
253.795	71.5
254.028	72.5
254.261	94.5
254.494	88.5
254.727	69.5
254.96	95.5
255.193	85.5
255.426	79.5
255.659	88.5
255.892	53.5
256.124	76.5
256.357	79.5
256.59	79.5
256.823	78.5
257.056	87.5
257.289	83.5
257.521	80.5
257.754	85.5
257.987	103.5
258.22	100.5
258.452	82.5
258.685	106.5
258.918	81.5
259.151	75.5
259.383	77.5
259.616	85.5
259.849	87.5
260.081	85.5
260.314	79.5
260.547	79.5
260.779	87.5
261.012	71.5
261.244	88.5
261.477	97.5
261.71	97.5
261.942	116.5
262.175	114.5
262.407	83.5
262.64	78.5
262.872	93.5
263.105	86.5
263.337	75.5
263.57	93.5
263.802	85.5
264.035	63.5
264.267	92.5
264.499	83.5
264.732	95.5
264.964	101.5
265.197	84.5
265.429	83.5
265.661	78.5
265.894	90.5
266.126	78.5
266.358	79.5
266.591	95.5
266.823	93.5
267.055	93.5
267.287	91.5
267.52	91.5
267.752	82.5
267.984	89.5
268.216	89.5
268.448	94.5
268.681	80.5
268.913	88.5
269.145	96.5
269.377	77.5
269.609	65.5
269.841	87.5
270.073	85.5
270.306	91.5
270.538	93.5
270.77	85.5
271.002	80.5
271.234	87.5
271.466	89.5
271.698	85.5
271.93	78.5
272.162	80.5
272.394	79.5
272.626	87.5
272.858	90.5
273.09	82.5
273.322	81.5
273.553	76.5
273.785	88.5
274.017	100.5
274.249	84.5
274.481	87.5
274.713	108.5
274.945	84.5
275.176	88.5
275.408	85.5
275.64	89.5
275.872	74.5
276.104	104.5
276.335	102.5
276.567	107.5
276.799	105.5
277.031	97.5
277.262	83.5
277.494	87.5
277.726	76.5
277.957	88.5
278.189	89.5
278.421	86.5
278.652	91.5
278.884	87.5
279.115	79.5
279.347	90.5
279.579	98.5
279.81	91.5
280.042	99.5
280.273	91.5
280.505	92.5
280.736	95.5
280.968	83.5
281.199	84.5
281.431	89.5
281.662	99.5
281.894	99.5
282.125	100.5
282.356	122.5
282.588	145.5
282.819	116.5
283.051	91.5
283.282	81.5
283.513	81.5
283.745	86.5
283.976	83.5
284.207	102.5
284.439	111.5
284.67	97.5
284.901	80.5
285.132	85.5
285.364	95.5
285.595	90.5
285.826	97.5
286.057	86.5
286.288	94.5
286.52	87.5
286.751	88.5
286.982	106.5
287.213	92.5
287.444	101.5
287.675	95.5
287.906	93.5
288.138	97.5
288.369	98.5
288.6	91.5
288.831	77.5
289.062	83.5
289.293	87.5
289.524	97.5
289.755	88.5
289.986	79.5
290.217	100.5
290.448	99.5
290.679	83.5
290.91	83.5
291.141	89.5
291.371	92.5
291.602	86.5
291.833	87.5
292.064	77.5
292.295	72.5
292.526	88.5
292.757	94.5
292.987	95.5
293.218	95.5
293.449	83.5
293.68	96.5
293.91	77.5
294.141	84.5
294.372	81.5
294.603	95.5
294.833	95.5
295.064	87.5
295.295	92.5
295.525	99.5
295.756	92.5
295.987	109.5
296.217	117.5
296.448	108.5
296.679	93.5
296.909	88.5
297.14	93.5
297.37	87.5
297.601	92.5
297.831	73.5
298.062	105.5
298.292	91.5
298.523	87.5
298.753	89.5
298.984	92.5
299.214	92.5
299.445	88.5
299.675	86.5
299.905	100.5
300.136	89.5
300.366	88.5
300.597	97.5
300.827	102.5
301.057	87.5
301.288	100.5
301.518	100.5
301.748	93.5
301.979	97.5
302.209	83.5
302.439	84.5
302.669	79.5
302.9	92.5
303.13	81.5
303.36	105.5
303.59	94.5
303.82	91.5
304.051	89.5
304.281	97.5
304.511	88.5
304.741	94.5
304.971	94.5
305.201	101.5
305.431	93.5
305.661	95.5
305.891	79.5
306.121	91.5
306.352	105.5
306.582	115.5
306.812	85.5
307.042	102.5
307.272	92.5
307.502	94.5
307.731	97.5
307.961	107.5
308.191	95.5
308.421	103.5
308.651	96.5
308.881	95.5
309.111	93.5
309.341	97.5
309.571	88.5
309.8	86.5
310.03	111.5
310.26	103.5
310.49	101.5
310.72	98.5
310.949	91.5
311.179	104.5
311.409	102.5
311.639	108.5
311.868	108.5
312.098	92.5
312.328	98.5
312.557	91.5
312.787	86.5
313.017	107.5
313.246	98.5
313.476	86.5
313.706	91.5
313.935	89.5
314.165	113.5
314.394	101.5
314.624	95.5
314.853	91.5
315.083	97.5
315.312	96.5
315.542	100.5
315.771	107.5
316.001	94.5
316.23	109.5
316.46	90.5
316.689	110.5
316.919	86.5
317.148	92.5
317.377	93.5
317.607	84.5
317.836	88.5
318.065	88.5
318.295	94.5
318.524	100.5
318.753	103.5
318.983	96.5
319.212	100.5
319.441	95.5
319.67	106.5
319.9	94.5
320.129	105.5
320.358	88.5
320.587	99.5
320.816	110.5
321.046	101.5
321.275	109.5
321.504	94.5
321.733	87.5
321.962	95.5
322.191	99.5
322.42	112.5
322.649	109.5
322.878	121.5
323.108	115.5
323.337	113.5
323.566	132.5
323.795	163.5
324.024	195.5
324.253	382.5
324.482	805.5
324.71	1629.5
324.939	2103.5
325.168	779.5
325.397	231.5
325.626	147.5
325.855	131.5
326.084	128.5
326.313	120.5
326.542	145.5
326.77	218.5
326.999	452.5
327.228	897.5
327.457	1663.5
327.686	1299.5
327.914	355.5
328.143	191.5
328.372	142.5
328.6	120.5
328.829	112.5
329.058	140.5
329.287	101.5
329.515	107.5
329.744	100.5
329.972	115.5
330.201	96.5
330.43	101.5
330.658	117.5
330.887	121.5
331.115	129.5
331.344	106.5
331.572	90.5
331.801	89.5
332.03	94.5
332.258	88.5
332.486	99.5
332.715	91.5
332.943	109.5
333.172	89.5
333.4	96.5
333.629	109.5
333.857	110.5
334.085	102.5
334.314	96.5
334.542	114.5
334.771	112.5
334.999	102.5
335.227	94.5
335.455	92.5
335.684	82.5
335.912	103.5
336.14	95.5
336.369	94.5
336.597	93.5
336.825	95.5
337.053	95.5
337.281	108.5
337.51	91.5
337.738	105.5
337.966	81.5
338.194	89.5
338.422	110.5
338.65	89.5
338.878	96.5
339.106	100.5
339.334	98.5
339.562	89.5
339.79	96.5
340.018	96.5
340.246	113.5
340.474	90.5
340.702	87.5
340.93	95.5
341.158	89.5
341.386	94.5
341.614	104.5
341.842	97.5
342.07	90.5
342.298	91.5
342.526	89.5
342.754	94.5
342.981	91.5
343.209	85.5
343.437	100.5
343.665	93.5
343.893	101.5
344.12	88.5
344.348	97.5
344.576	102.5
344.804	76.5
345.031	107.5
345.259	101.5
345.487	75.5
345.714	95.5
345.942	79.5
346.17	105.5
346.397	94.5
346.625	81.5
346.853	91.5
347.08	84.5
347.308	83.5
347.535	102.5
347.763	97.5
347.99	98.5
348.218	99.5
348.445	101.5
348.673	104.5
348.9	100.5
349.128	96.5
349.355	101.5
349.583	89.5
349.81	88.5
350.037	100.5
350.265	95.5
350.492	92.5
350.72	104.5
350.947	91.5
351.174	103.5
351.402	108.5
351.629	111.5
351.856	99.5
352.083	87.5
352.311	103.5
352.538	106.5
352.765	115.5
352.992	118.5
353.22	118.5
353.447	125.5
353.674	90.5
353.901	90.5
354.128	103.5
354.355	112.5
354.583	101.5
354.81	88.5
355.037	98.5
355.264	105.5
355.491	88.5
355.718	88.5
355.945	98.5
356.172	91.5
356.399	102.5
356.626	87.5
356.853	88.5
357.08	109.5
357.307	98.5
357.534	93.5
357.761	97.5
357.988	89.5
358.215	108.5
358.441	95.5
358.668	96.5
358.895	97.5
359.122	98.5
359.349	77.5
359.576	98.5
359.802	95.5
360.029	105.5
360.256	97.5
360.483	90.5
360.709	103.5
360.936	90.5
361.163	86.5
361.39	90.5
361.616	97.5
361.843	93.5
362.07	96.5
362.296	92.5
362.523	87.5
362.749	98.5
362.976	99.5
363.203	85.5
363.429	85.5
363.656	76.5
363.882	89.5
364.109	107.5
364.335	102.5
364.562	101.5
364.788	99.5
365.015	103.5
365.241	97.5
365.468	106.5
365.694	83.5
365.92	109.5
366.147	97.5
366.373	91.5
366.599	81.5
366.826	84.5
367.052	87.5
367.278	92.5
367.505	92.5
367.731	105.5
367.957	83.5
368.184	76.5
368.41	100.5
368.636	102.5
368.862	111.5
369.089	100.5
369.315	103.5
369.541	90.5
369.767	89.5
369.993	98.5
370.219	89.5
370.445	73.5
370.672	86.5
370.898	93.5
371.124	85.5
371.35	88.5
371.576	96.5
371.802	95.5
372.028	102.5
372.254	89.5
372.48	95.5
372.706	104.5
372.932	103.5
373.158	90.5
373.384	95.5
373.61	104.5
373.835	101.5
374.061	93.5
374.287	96.5
374.513	78.5
374.739	82.5
374.965	83.5
375.191	79.5
375.416	93.5
375.642	94.5
375.868	109.5
376.094	79.5
376.319	104.5
376.545	100.5
376.771	96.5
376.997	88.5
377.222	91.5
377.448	93.5
377.674	95.5
377.899	79.5
378.125	82.5
378.35	95.5
378.576	79.5
378.802	95.5
379.027	115.5
379.253	102.5
379.478	83.5
379.704	102.5
379.929	92.5
380.155	96.5
380.38	104.5
380.606	101.5
380.831	103.5
381.057	88.5
381.282	93.5
381.507	81.5
381.733	88.5
381.958	102.5
382.184	96.5
382.409	102.5
382.634	103.5
382.86	79.5
383.085	95.5
383.31	109.5
383.535	97.5
383.761	110.5
383.986	117.5
384.211	93.5
384.436	103.5
384.662	90.5
384.887	111.5
385.112	110.5
385.337	102.5
385.562	103.5
385.787	113.5
386.013	101.5
386.238	105.5
386.463	119.5
386.688	110.5
386.913	100.5
387.138	101.5
387.363	91.5
387.588	102.5
387.813	102.5
388.038	104.5
388.263	88.5
388.488	111.5
388.713	105.5
388.938	97.5
389.163	89.5
389.387	89.5
389.612	93.5
389.837	109.5
390.062	95.5
390.287	101.5
390.512	84.5
390.736	101.5
390.961	100.5
391.186	87.5
391.411	99.5
391.636	90.5
391.86	98.5
392.085	83.5
392.31	82.5
392.534	98.5
392.759	95.5
392.984	94.5
393.208	77.5
393.433	97.5
393.658	82.5
393.882	84.5
394.107	81.5
394.331	92.5
394.556	79.5
394.78	89.5
395.005	95.5
395.229	75.5
395.454	89.5
395.678	103.5
395.903	84.5
396.127	98.5
396.352	91.5
396.576	75.5
396.801	88.5
397.025	87.5
397.249	74.5
397.474	86.5
397.698	95.5
397.922	85.5
398.147	91.5
398.371	90.5
398.595	93.5
398.82	94.5
399.044	95.5
399.268	96.5
399.492	83.5
399.717	88.5
399.941	89.5
400.165	88.5
400.389	95.5
400.613	60.5
400.837	93.5
401.062	83.5
401.286	88.5
401.51	88.5
401.734	85.5
401.958	109.5
402.182	110.5
402.406	149.5
402.63	118.5
402.854	89.5
403.078	84.5
403.302	82.5
403.526	92.5
403.75	76.5
403.974	99.5
404.198	88.5
404.422	91.5
404.645	89.5
404.869	89.5
405.093	79.5
405.317	101.5
405.541	82.5
405.765	97.5
405.988	114.5
406.212	136.5
406.436	203.5
406.66	145.5
406.883	101.5
407.107	89.5
407.331	100.5
407.555	89.5
407.778	97.5
408.002	89.5
408.226	84.5
408.449	96.5
408.673	80.5
408.896	90.5
409.12	98.5
409.344	83.5
409.567	87.5
409.791	99.5
410.014	102.5
410.238	98.5
410.461	104.5
410.685	103.5
410.908	105.5
411.132	95.5
411.355	99.5
411.578	96.5
411.802	94.5
412.025	97.5
412.249	92.5
412.472	89.5
412.695	97.5
412.919	81.5
413.142	90.5
413.365	88.5
413.589	85.5
413.812	107.5
414.035	93.5
414.258	73.5
414.482	97.5
414.705	90.5
414.928	96.5
415.151	82.5
415.374	96.5
415.597	78.5
415.821	99.5
416.044	89.5
416.267	98.5
416.49	90.5
416.713	104.5
416.936	85.5
417.159	94.5
417.382	99.5
417.605	99.5
417.828	77.5
418.051	92.5
418.274	92.5
418.497	94.5
418.72	83.5
418.943	86.5
419.166	109.5
419.389	90.5
419.611	108.5
419.834	98.5
420.057	88.5
420.28	88.5
420.503	92.5
420.726	107.5
420.948	88.5
421.171	91.5
421.394	104.5
421.617	85.5
421.839	91.5
422.062	103.5
422.285	95.5
422.507	102.5
422.73	105.5
422.953	91.5
423.175	83.5
423.398	93.5
423.621	97.5
423.843	81.5
424.066	81.5
424.288	94.5
424.511	93.5
424.733	101.5
424.956	110.5
425.178	94.5
425.401	105.5
425.623	88.5
425.846	78.5
426.068	75.5
426.291	80.5
426.513	80.5
426.735	110.5
426.958	94.5
427.18	104.5
427.402	128.5
427.625	158.5
427.847	121.5
428.069	85.5
428.292	87.5
428.514	84.5
428.736	85.5
428.958	83.5
429.181	91.5
429.403	101.5
429.625	109.5
429.847	90.5
430.069	104.5
430.292	106.5
430.514	89.5
430.736	86.5
430.958	84.5
431.18	87.5
431.402	96.5
431.624	101.5
431.846	77.5
432.068	86.5
432.29	81.5
432.512	98.5
432.734	85.5
432.956	104.5
433.178	85.5
433.4	94.5
433.622	99.5
433.844	89.5
434.066	107.5
434.287	105.5
434.509	83.5
434.731	85.5
434.953	91.5
435.175	93.5
435.397	93.5
435.618	86.5
435.84	99.5
436.062	108.5
436.284	103.5
436.505	110.5
436.727	102.5
436.949	95.5
437.17	83.5
437.392	80.5
437.614	87.5
437.835	119.5
438.057	104.5
438.278	98.5
438.5	108.5
438.721	116.5
438.943	104.5
439.165	79.5
439.386	84.5
439.608	96.5
439.829	97.5
440.05	117.5
440.272	116.5
440.493	107.5
440.715	94.5
440.936	91.5
441.158	67.5
441.379	80.5
441.6	106.5
441.822	89.5
442.043	113.5
442.264	97.5
442.486	108.5
442.707	91.5
442.928	117.5
443.149	126.5
443.371	127.5
443.592	115.5
443.813	100.5
444.034	96.5
444.255	102.5
444.476	83.5
444.698	81.5
444.919	94.5
445.14	144.5
445.361	122.5
445.582	108.5
445.803	128.5
446.024	128.5
446.245	135.5
446.466	110.5
446.687	78.5
446.908	76.5
447.129	101.5
447.35	84.5
447.571	102.5
447.792	103.5
448.013	94.5
448.234	107.5
448.455	100.5
448.675	102.5
448.896	109.5
449.117	90.5
449.338	93.5
449.559	136.5
449.779	141.5
450	107.5
450.221	90.5
450.442	94.5
450.662	102.5
450.883	83.5
451.104	104.5
451.324	94.5
451.545	84.5
451.766	87.5
451.986	91.5
452.207	110.5
452.428	92.5
452.648	85.5
452.869	97.5
453.089	95.5
453.31	119.5
453.53	111.5
453.751	95.5
453.971	101.5
454.192	112.5
454.412	91.5
454.633	92.5
454.853	87.5
455.073	93.5
455.294	102.5
455.514	105.5
455.734	94.5
455.955	99.5
456.175	84.5
456.395	89.5
456.616	82.5
456.836	86.5
457.056	80.5
457.276	80.5
457.497	80.5
457.717	79.5
457.937	88.5
458.157	107.5
458.377	92.5
458.598	107.5
458.818	143.5
459.038	147.5
459.258	109.5
459.478	93.5
459.698	90.5
459.918	84.5
460.138	88.5
460.358	98.5
460.578	87.5
460.798	94.5
461.018	110.5
461.238	103.5
461.458	89.5
461.678	78.5
461.898	95.5
462.118	96.5
462.338	108.5
462.558	87.5
462.777	89.5
462.997	87.5
463.217	84.5
463.437	86.5
463.657	107.5
463.876	97.5
464.096	80.5
464.316	79.5
464.536	88.5
464.755	84.5
464.975	99.5
465.195	134.5
465.414	149.5
465.634	94.5
465.854	101.5
466.073	100.5
466.293	84.5
466.512	79.5
466.732	91.5
466.951	76.5
467.171	94.5
467.391	84.5
467.61	115.5
467.829	103.5
468.049	92.5
468.268	91.5
468.488	87.5
468.707	88.5
468.927	87.5
469.146	80.5
469.365	88.5
469.585	92.5
469.804	81.5
470.023	100.5
470.243	83.5
470.462	104.5
470.681	101.5
470.901	99.5
471.12	91.5
471.339	81.5
471.558	81.5
471.777	96.5
471.997	90.5
472.216	96.5
472.435	87.5
472.654	86.5
472.873	97.5
473.092	103.5
473.311	89.5
473.53	88.5
473.749	87.5
473.968	95.5
474.187	104.5
474.406	84.5
474.625	91.5
474.844	83.5
475.063	92.5
475.282	84.5
475.501	87.5
475.72	99.5
475.939	83.5
476.158	90.5
476.377	86.5
476.596	88.5
476.814	102.5
477.033	105.5
477.252	92.5
477.471	88.5
477.69	89.5
477.908	90.5
478.127	106.5
478.346	96.5
478.564	89.5
478.783	88.5
479.002	97.5
479.22	104.5
479.439	110.5
479.658	104.5
479.876	92.5
480.095	95.5
480.313	92.5
480.532	86.5
480.751	92.5
480.969	94.5
481.188	93.5
481.406	93.5
481.624	97.5
481.843	87.5
482.061	94.5
482.28	81.5
482.498	86.5
482.717	81.5
482.935	90.5
483.153	89.5
483.372	81.5
483.59	72.5
483.808	85.5
484.027	91.5
484.245	108.5
484.463	86.5
484.681	99.5
484.9	100.5
485.118	104.5
485.336	98.5
485.554	89.5
485.772	100.5
485.99	126.5
486.209	93.5
486.427	107.5
486.645	88.5
486.863	110.5
487.081	88.5
487.299	100.5
487.517	81.5
487.735	106.5
487.953	83.5
488.171	91.5
488.389	96.5
488.607	95.5
488.825	93.5
489.043	93.5
489.261	104.5
489.479	83.5
489.696	87.5
489.914	103.5
490.132	98.5
490.35	87.5
490.568	82.5
490.786	90.5
491.003	87.5
491.221	91.5
491.439	83.5
491.657	102.5
491.874	80.5
492.092	98.5
492.31	92.5
492.527	96.5
492.745	98.5
492.963	89.5
493.18	87.5
493.398	94.5
493.615	96.5
493.833	96.5
494.05	95.5
494.268	89.5
494.485	105.5
494.703	87.5
494.92	88.5
495.138	83.5
495.355	95.5
495.573	74.5
495.79	84.5
496.008	99.5
496.225	109.5
496.442	85.5
496.66	85.5
496.877	97.5
497.094	99.5
497.312	115.5
497.529	100.5
497.746	101.5
497.963	104.5
498.181	84.5
498.398	103.5
498.615	101.5
498.832	100.5
499.049	86.5
499.267	86.5
499.484	90.5
499.701	96.5
499.918	97.5
500.135	91.5
500.352	88.5
500.569	79.5
500.786	92.5
501.003	96.5
501.22	104.5
501.437	96.5
501.654	100.5
501.871	110.5
502.088	96.5
502.305	87.5
502.522	89.5
502.739	89.5
502.956	91.5
503.172	98.5
503.389	93.5
503.606	108.5
503.823	97.5
504.04	88.5
504.256	77.5
504.473	93.5
504.69	95.5
504.907	97.5
505.123	97.5
505.34	100.5
505.557	106.5
505.773	88.5
505.99	85.5
506.207	104.5
506.423	81.5
506.64	101.5
506.856	87.5
507.073	91.5
507.289	107.5
507.506	103.5
507.722	112.5
507.939	105.5
508.155	108.5
508.372	92.5
508.588	100.5
508.805	99.5
509.021	103.5
509.238	93.5
509.454	112.5
509.67	97.5
509.887	105.5
510.103	133.5
510.319	199.5
510.536	698.5
510.752	2156.5
510.968	584.5
511.184	157.5
511.401	110.5
511.617	108.5
511.833	91.5
512.049	101.5
512.265	82.5
512.481	87.5
512.698	103.5
512.914	88.5
513.13	94.5
513.346	90.5
513.562	89.5
513.778	100.5
513.994	96.5
514.21	113.5
514.426	126.5
514.642	137.5
514.858	121.5
515.074	155.5
515.29	389.5
515.506	1246.5
515.721	454.5
515.937	165.5
516.153	106.5
516.369	112.5
516.585	88.5
516.801	100.5
517.016	96.5
517.232	112.5
517.448	84.5
517.664	88.5
517.879	99.5
518.095	98.5
518.311	103.5
518.527	100.5
518.742	105.5
518.958	86.5
519.173	105.5
519.389	89.5
519.605	95.5
519.82	115.5
520.036	124.5
520.251	116.5
520.467	112.5
520.682	94.5
520.898	96.5
521.113	101.5
521.329	135.5
521.544	183.5
521.76	490.5
521.975	2032.5
522.19	1225.5
522.406	268.5
522.621	110.5
522.836	110.5
523.052	92.5
523.267	91.5
523.482	97.5
523.698	100.5
523.913	113.5
524.128	93.5
524.343	89.5
524.559	81.5
524.774	95.5
524.989	96.5
525.204	110.5
525.419	105.5
525.634	86.5
525.849	89.5
526.064	107.5
526.28	89.5
526.495	83.5
526.71	92.5
526.925	92.5
527.14	86.5
527.355	103.5
527.57	105.5
527.785	86.5
527.999	83.5
528.214	100.5
528.429	89.5
528.644	97.5
528.859	82.5
529.074	105.5
529.289	133.5
529.503	149.5
529.718	112.5
529.933	93.5
530.148	89.5
530.363	104.5
530.577	88.5
530.792	95.5
531.007	88.5
531.221	110.5
531.436	90.5
531.651	86.5
531.865	82.5
532.08	82.5
532.295	95.5
532.509	114.5
532.724	103.5
532.938	93.5
533.153	111.5
533.367	91.5
533.582	103.5
533.796	99.5
534.011	89.5
534.225	91.5
