Data from Uncirc_2000_H10_HRD10591_00075.txt Node
Date: Wed Jan 03 10:48:32 EST 2024
User: Yrep
Spectrometer: HR+D1059
Trigger mode: 1
Integration Time (sec): 1.000000E-1
Scans to average: 1
Electric dark correction enabled: true
Nonlinearity correction enabled: false
Boxcar width: 0
XAxis mode: Wavelengths
Number of Pixels in Spectrum: 2048
>>>>>Begin Spectral Data<<<<<
223.165	-16.56
223.4	-16.56
223.635	-16.56
223.869	-24.56
224.104	1.44
224.338	-19.56
224.573	-15.56
224.808	-13.56
225.042	-10.56
225.277	-5.56
225.511	7.44
225.746	-3.56
225.98	-2.56
226.215	-2.56
226.449	29.44
226.683	15.44
226.918	31.44
227.152	29.44
227.387	32.44
227.621	49.44
227.856	40.44
228.09	37.44
228.324	28.44
228.559	51.44
228.793	61.44
229.027	58.44
229.262	71.44
229.496	63.44
229.73	82.44
229.964	63.44
230.199	74.44
230.433	76.44
230.667	80.44
230.901	97.44
231.136	89.44
231.37	73.44
231.604	69.44
231.838	75.44
232.072	77.44
232.306	88.44
232.541	82.44
232.775	85.44
233.009	71.44
233.243	87.44
233.477	78.44
233.711	81.44
233.945	88.44
234.179	71.44
234.413	81.44
234.647	77.44
234.881	73.44
235.115	67.44
235.349	76.44
235.583	82.44
235.817	91.44
236.051	65.44
236.285	77.44
236.519	75.44
236.753	77.44
236.987	79.44
237.221	86.44
237.455	76.44
237.689	71.44
237.922	73.44
238.156	64.44
238.39	78.44
238.624	73.44
238.858	73.44
239.091	71.44
239.325	74.44
239.559	94.44
239.793	85.44
240.027	72.44
240.26	82.44
240.494	81.44
240.728	73.44
240.961	78.44
241.195	78.44
241.429	85.44
241.662	81.44
241.896	73.44
242.13	77.44
242.363	75.44
242.597	54.44
242.83	80.44
243.064	101.44
243.298	83.44
243.531	73.44
243.765	59.44
243.998	69.44
244.232	78.44
244.465	76.44
244.699	69.44
244.932	73.44
245.166	72.44
245.399	83.44
245.633	67.44
245.866	79.44
246.099	87.44
246.333	69.44
246.566	72.44
246.8	83.44
247.033	73.44
247.266	66.44
247.5	71.44
247.733	67.44
247.966	67.44
248.2	67.44
248.433	71.44
248.666	81.44
248.899	71.44
249.133	82.44
249.366	105.44
249.599	98.44
249.832	77.44
250.066	80.44
250.299	73.44
250.532	79.44
250.765	81.44
250.998	75.44
251.231	86.44
251.465	73.44
251.698	74.44
251.931	69.44
252.164	74.44
252.397	86.44
252.63	94.44
252.863	84.44
253.096	77.44
253.329	68.44
253.562	80.44
253.795	75.44
254.028	79.44
254.261	78.44
254.494	88.44
254.727	80.44
254.96	76.44
255.193	78.44
255.426	73.44
255.659	83.44
255.892	88.44
256.124	66.44
256.357	61.44
256.59	84.44
256.823	87.44
257.056	83.44
257.289	97.44
257.521	81.44
257.754	69.44
257.987	79.44
258.22	79.44
258.452	69.44
258.685	81.44
258.918	78.44
259.151	73.44
259.383	77.44
259.616	73.44
259.849	78.44
260.081	81.44
260.314	71.44
260.547	85.44
260.779	78.44
261.012	80.44
261.244	84.44
261.477	84.44
261.71	98.44
261.942	98.44
262.175	96.44
262.407	82.44
262.64	88.44
262.872	78.44
263.105	85.44
263.337	77.44
263.57	86.44
263.802	88.44
264.035	81.44
264.267	83.44
264.499	74.44
264.732	82.44
264.964	90.44
265.197	84.44
265.429	90.44
265.661	97.44
265.894	84.44
266.126	80.44
266.358	87.44
266.591	82.44
266.823	85.44
267.055	86.44
267.287	71.44
267.52	83.44
267.752	69.44
267.984	80.44
268.216	79.44
268.448	90.44
268.681	86.44
268.913	74.44
269.145	105.44
269.377	85.44
269.609	81.44
269.841	101.44
270.073	94.44
270.306	83.44
270.538	80.44
270.77	78.44
271.002	80.44
271.234	101.44
271.466	81.44
271.698	71.44
271.93	86.44
272.162	83.44
272.394	78.44
272.626	81.44
272.858	77.44
273.09	69.44
273.322	84.44
273.553	73.44
273.785	90.44
274.017	91.44
274.249	87.44
274.481	69.44
274.713	83.44
274.945	94.44
275.176	101.44
275.408	90.44
275.64	92.44
275.872	86.44
276.104	67.44
276.335	93.44
276.567	82.44
276.799	84.44
277.031	89.44
277.262	104.44
277.494	98.44
277.726	73.44
277.957	95.44
278.189	71.44
278.421	86.44
278.652	91.44
278.884	81.44
279.115	92.44
279.347	73.44
279.579	74.44
279.81	86.44
280.042	86.44
280.273	97.44
280.505	81.44
280.736	79.44
280.968	89.44
281.199	90.44
281.431	69.44
281.662	79.44
281.894	86.44
282.125	104.44
282.356	108.44
282.588	136.44
282.819	120.44
283.051	83.44
283.282	89.44
283.513	90.44
283.745	85.44
283.976	90.44
284.207	91.44
284.439	78.44
284.67	91.44
284.901	84.44
285.132	85.44
285.364	90.44
285.595	80.44
285.826	72.44
286.057	91.44
286.288	89.44
286.52	92.44
286.751	80.44
286.982	96.44
287.213	87.44
287.444	85.44
287.675	75.44
287.906	85.44
288.138	89.44
288.369	89.44
288.6	83.44
288.831	82.44
289.062	69.44
289.293	87.44
289.524	81.44
289.755	88.44
289.986	81.44
290.217	76.44
290.448	84.44
290.679	87.44
290.91	79.44
291.141	83.44
291.371	86.44
291.602	88.44
291.833	80.44
292.064	90.44
292.295	70.44
292.526	87.44
292.757	78.44
292.987	87.44
293.218	87.44
293.449	91.44
293.68	86.44
293.91	83.44
294.141	84.44
294.372	86.44
294.603	78.44
294.833	95.44
295.064	81.44
295.295	89.44
295.525	89.44
295.756	98.44
295.987	95.44
296.217	123.44
296.448	103.44
296.679	102.44
296.909	83.44
297.14	87.44
297.37	80.44
297.601	79.44
297.831	74.44
298.062	92.44
298.292	86.44
298.523	84.44
298.753	97.44
298.984	87.44
299.214	85.44
299.445	99.44
299.675	74.44
299.905	91.44
300.136	91.44
300.366	93.44
300.597	90.44
300.827	82.44
301.057	95.44
301.288	101.44
301.518	88.44
301.748	94.44
301.979	100.44
302.209	83.44
302.439	73.44
302.669	100.44
302.9	79.44
303.13	94.44
303.36	88.44
303.59	97.44
303.82	101.44
304.051	96.44
304.281	86.44
304.511	87.44
304.741	92.44
304.971	97.44
305.201	74.44
305.431	87.44
305.661	78.44
305.891	84.44
306.121	89.44
306.352	105.44
306.582	101.44
306.812	100.44
307.042	92.44
307.272	97.44
307.502	94.44
307.731	91.44
307.961	111.44
308.191	95.44
308.421	61.44
308.651	73.44
308.881	81.44
309.111	100.44
309.341	86.44
309.571	97.44
309.8	82.44
310.03	96.44
310.26	89.44
310.49	76.44
310.72	91.44
310.949	100.44
311.179	104.44
311.409	99.44
311.639	93.44
311.868	91.44
312.098	90.44
312.328	97.44
312.557	98.44
312.787	111.44
313.017	95.44
313.246	85.44
313.476	78.44
313.706	103.44
313.935	86.44
314.165	97.44
314.394	100.44
314.624	91.44
314.853	89.44
315.083	82.44
315.312	101.44
315.542	71.44
315.771	90.44
316.001	92.44
316.23	97.44
316.46	96.44
316.689	92.44
316.919	92.44
317.148	81.44
317.377	84.44
317.607	91.44
317.836	79.44
318.065	85.44
318.295	78.44
318.524	94.44
318.753	85.44
318.983	85.44
319.212	94.44
319.441	105.44
319.67	91.44
319.9	92.44
320.129	95.44
320.358	84.44
320.587	83.44
320.816	100.44
321.046	104.44
321.275	90.44
321.504	91.44
321.733	101.44
321.962	83.44
322.191	95.44
322.42	89.44
322.649	95.44
322.878	110.44
323.108	114.44
323.337	119.44
323.566	134.44
323.795	136.44
324.024	203.44
324.253	417.44
324.482	827.44
324.71	1687.44
324.939	2228.44
325.168	809.44
325.397	232.44
325.626	145.44
325.855	144.44
326.084	119.44
326.313	145.44
326.542	159.44
326.77	225.44
326.999	458.44
327.228	935.44
327.457	1752.44
327.686	1349.44
327.914	385.44
328.143	186.44
328.372	128.44
328.6	106.44
328.829	100.44
329.058	107.44
329.287	117.44
329.515	114.44
329.744	104.44
329.972	96.44
330.201	82.44
330.43	108.44
330.658	115.44
330.887	136.44
331.115	122.44
331.344	89.44
331.572	98.44
331.801	95.44
332.03	101.44
332.258	99.44
332.486	101.44
332.715	95.44
332.943	99.44
333.172	94.44
333.4	91.44
333.629	101.44
333.857	107.44
334.085	91.44
334.314	83.44
334.542	86.44
334.771	98.44
334.999	100.44
335.227	94.44
335.455	102.44
335.684	94.44
335.912	94.44
336.14	101.44
336.369	80.44
336.597	91.44
336.825	99.44
337.053	89.44
337.281	99.44
337.51	82.44
337.738	78.44
337.966	88.44
338.194	98.44
338.422	105.44
338.65	97.44
338.878	104.44
339.106	90.44
339.334	89.44
339.562	88.44
339.79	96.44
340.018	89.44
340.246	99.44
340.474	89.44
340.702	76.44
340.93	86.44
341.158	107.44
341.386	86.44
341.614	91.44
341.842	83.44
342.07	96.44
342.298	92.44
342.526	98.44
342.754	83.44
342.981	85.44
343.209	87.44
343.437	104.44
343.665	97.44
343.893	98.44
344.12	97.44
344.348	79.44
344.576	89.44
344.804	78.44
345.031	97.44
345.259	91.44
345.487	91.44
345.714	84.44
345.942	96.44
346.17	85.44
346.397	90.44
346.625	82.44
346.853	87.44
347.08	96.44
347.308	88.44
347.535	91.44
347.763	94.44
347.99	91.44
348.218	102.44
348.445	105.44
348.673	106.44
348.9	99.44
349.128	106.44
349.355	93.44
349.583	88.44
349.81	103.44
350.037	94.44
350.265	77.44
350.492	80.44
350.72	73.44
350.947	93.44
351.174	107.44
351.402	107.44
351.629	102.44
351.856	94.44
352.083	90.44
352.311	111.44
352.538	103.44
352.765	94.44
352.992	110.44
353.22	93.44
353.447	108.44
353.674	106.44
353.901	98.44
354.128	93.44
354.355	87.44
354.583	99.44
354.81	99.44
355.037	101.44
355.264	101.44
355.491	91.44
355.718	89.44
355.945	99.44
356.172	81.44
356.399	89.44
356.626	94.44
356.853	99.44
357.08	96.44
357.307	99.44
357.534	98.44
357.761	93.44
357.988	90.44
358.215	86.44
358.441	89.44
358.668	75.44
358.895	94.44
359.122	91.44
359.349	81.44
359.576	87.44
359.802	81.44
360.029	93.44
360.256	101.44
360.483	95.44
360.709	72.44
360.936	77.44
361.163	82.44
361.39	85.44
361.616	94.44
361.843	87.44
362.07	101.44
362.296	97.44
362.523	83.44
362.749	99.44
362.976	87.44
363.203	95.44
363.429	88.44
363.656	84.44
363.882	87.44
364.109	81.44
364.335	88.44
364.562	85.44
364.788	90.44
365.015	94.44
365.241	86.44
365.468	110.44
365.694	102.44
365.92	96.44
366.147	98.44
366.373	90.44
366.599	92.44
366.826	85.44
367.052	94.44
367.278	95.44
367.505	85.44
367.731	88.44
367.957	97.44
368.184	72.44
368.41	101.44
368.636	96.44
368.862	113.44
369.089	98.44
369.315	94.44
369.541	85.44
369.767	80.44
369.993	88.44
370.219	86.44
370.445	91.44
370.672	104.44
370.898	94.44
371.124	83.44
371.35	85.44
371.576	92.44
371.802	73.44
372.028	94.44
372.254	70.44
372.48	74.44
372.706	89.44
372.932	86.44
373.158	82.44
373.384	89.44
373.61	96.44
373.835	81.44
374.061	83.44
374.287	81.44
374.513	82.44
374.739	95.44
374.965	86.44
375.191	79.44
375.416	80.44
375.642	94.44
375.868	90.44
376.094	93.44
376.319	83.44
376.545	81.44
376.771	78.44
376.997	86.44
377.222	98.44
377.448	80.44
377.674	75.44
377.899	88.44
378.125	84.44
378.35	70.44
378.576	83.44
378.802	90.44
379.027	94.44
379.253	90.44
379.478	91.44
379.704	86.44
379.929	82.44
380.155	87.44
380.38	87.44
380.606	83.44
380.831	87.44
381.057	92.44
381.282	93.44
381.507	94.44
381.733	95.44
381.958	87.44
382.184	95.44
382.409	89.44
382.634	88.44
382.86	96.44
383.085	112.44
383.31	92.44
383.535	93.44
383.761	88.44
383.986	93.44
384.211	79.44
384.436	112.44
384.662	89.44
384.887	88.44
385.112	100.44
385.337	86.44
385.562	89.44
385.787	109.44
386.013	95.44
386.238	108.44
386.463	102.44
386.688	115.44
386.913	95.44
387.138	84.44
387.363	88.44
387.588	93.44
387.813	105.44
388.038	112.44
388.263	87.44
388.488	114.44
388.713	99.44
388.938	85.44
389.163	95.44
389.387	77.44
389.612	86.44
389.837	95.44
390.062	85.44
390.287	88.44
390.512	86.44
390.736	89.44
390.961	85.44
391.186	69.44
391.411	103.44
391.636	97.44
391.86	103.44
392.085	84.44
392.31	73.44
392.534	82.44
392.759	69.44
392.984	86.44
393.208	85.44
393.433	79.44
393.658	73.44
393.882	73.44
394.107	81.44
394.331	91.44
394.556	84.44
394.78	87.44
395.005	85.44
395.229	89.44
395.454	101.44
395.678	75.44
395.903	81.44
396.127	93.44
396.352	89.44
396.576	73.44
396.801	88.44
397.025	69.44
397.249	71.44
397.474	82.44
397.698	82.44
397.922	85.44
398.147	94.44
398.371	86.44
398.595	85.44
398.82	81.44
399.044	88.44
399.268	85.44
399.492	77.44
399.717	81.44
399.941	79.44
400.165	98.44
400.389	93.44
400.613	104.44
400.837	86.44
401.062	86.44
401.286	72.44
401.51	75.44
401.734	89.44
401.958	95.44
402.182	119.44
402.406	141.44
402.63	105.44
402.854	90.44
403.078	85.44
403.302	79.44
403.526	88.44
403.75	87.44
403.974	89.44
404.198	88.44
404.422	86.44
404.645	68.44
404.869	96.44
405.093	104.44
405.317	91.44
405.541	82.44
405.765	80.44
405.988	104.44
406.212	161.44
406.436	217.44
406.66	130.44
406.883	95.44
407.107	90.44
407.331	87.44
407.555	88.44
407.778	84.44
408.002	82.44
408.226	95.44
408.449	89.44
408.673	85.44
408.896	89.44
409.12	90.44
409.344	85.44
409.567	84.44
409.791	97.44
410.014	89.44
410.238	96.44
410.461	84.44
410.685	93.44
410.908	81.44
411.132	98.44
411.355	89.44
411.578	77.44
411.802	81.44
412.025	75.44
412.249	90.44
412.472	96.44
412.695	82.44
412.919	64.44
413.142	77.44
413.365	87.44
413.589	90.44
413.812	66.44
414.035	90.44
414.258	93.44
414.482	81.44
414.705	86.44
414.928	88.44
415.151	72.44
415.374	94.44
415.597	88.44
415.821	83.44
416.044	73.44
416.267	84.44
416.49	81.44
416.713	68.44
416.936	99.44
417.159	90.44
417.382	102.44
417.605	92.44
417.828	86.44
418.051	95.44
418.274	95.44
418.497	81.44
418.72	90.44
418.943	90.44
419.166	87.44
419.389	85.44
419.611	87.44
419.834	88.44
420.057	91.44
420.28	86.44
420.503	70.44
420.726	81.44
420.948	81.44
421.171	81.44
421.394	91.44
421.617	101.44
421.839	85.44
422.062	86.44
422.285	92.44
422.507	104.44
422.73	90.44
422.953	91.44
423.175	84.44
423.398	78.44
423.621	91.44
423.843	90.44
424.066	91.44
424.288	92.44
424.511	73.44
424.733	78.44
424.956	90.44
425.178	97.44
425.401	99.44
425.623	110.44
425.846	90.44
426.068	89.44
426.291	85.44
426.513	70.44
426.735	92.44
426.958	83.44
427.18	102.44
427.402	121.44
427.625	144.44
427.847	103.44
428.069	92.44
428.292	64.44
428.514	80.44
428.736	80.44
428.958	78.44
429.181	98.44
429.403	86.44
429.625	91.44
429.847	84.44
430.069	90.44
430.292	82.44
430.514	93.44
430.736	82.44
430.958	89.44
431.18	84.44
431.402	96.44
431.624	85.44
431.846	82.44
432.068	80.44
432.29	96.44
432.512	83.44
432.734	82.44
432.956	82.44
433.178	89.44
433.4	85.44
433.622	90.44
433.844	94.44
434.066	92.44
434.287	89.44
434.509	82.44
434.731	79.44
434.953	84.44
435.175	72.44
435.397	86.44
435.618	85.44
435.84	91.44
436.062	103.44
436.284	110.44
436.505	86.44
436.727	97.44
436.949	86.44
437.17	90.44
437.392	73.44
437.614	106.44
437.835	107.44
438.057	89.44
438.278	109.44
438.5	97.44
438.721	118.44
438.943	106.44
439.165	86.44
439.386	93.44
439.608	96.44
439.829	98.44
440.05	112.44
440.272	137.44
440.493	85.44
440.715	82.44
440.936	82.44
441.158	82.44
441.379	86.44
441.6	95.44
441.822	81.44
442.043	100.44
442.264	94.44
442.486	86.44
442.707	86.44
442.928	92.44
443.149	115.44
443.371	115.44
443.592	102.44
443.813	98.44
444.034	95.44
444.255	93.44
444.476	95.44
444.698	90.44
444.919	81.44
445.14	122.44
445.361	111.44
445.582	113.44
445.803	129.44
446.024	128.44
446.245	132.44
446.466	107.44
446.687	94.44
446.908	86.44
447.129	83.44
447.35	81.44
447.571	94.44
447.792	84.44
448.013	95.44
448.234	101.44
448.455	98.44
448.675	105.44
448.896	117.44
449.117	96.44
449.338	94.44
449.559	129.44
449.779	105.44
450	85.44
450.221	87.44
450.442	89.44
450.662	101.44
450.883	111.44
451.104	98.44
451.324	84.44
451.545	85.44
451.766	88.44
451.986	90.44
452.207	106.44
452.428	82.44
452.648	90.44
452.869	89.44
453.089	116.44
453.31	112.44
453.53	82.44
453.751	83.44
453.971	95.44
454.192	99.44
454.412	109.44
454.633	80.44
454.853	89.44
455.073	82.44
455.294	94.44
455.514	93.44
455.734	85.44
455.955	90.44
456.175	104.44
456.395	81.44
456.616	88.44
456.836	78.44
457.056	74.44
457.276	88.44
457.497	94.44
457.717	83.44
457.937	87.44
458.157	84.44
458.377	89.44
458.598	109.44
458.818	131.44
459.038	147.44
459.258	98.44
459.478	70.44
459.698	89.44
459.918	96.44
460.138	93.44
460.358	81.44
460.578	94.44
460.798	86.44
461.018	90.44
461.238	71.44
461.458	71.44
461.678	78.44
461.898	73.44
462.118	78.44
462.338	86.44
462.558	76.44
462.777	76.44
462.997	84.44
463.217	74.44
463.437	72.44
463.657	86.44
463.876	91.44
464.096	103.44
464.316	85.44
464.536	92.44
464.755	108.44
464.975	94.44
465.195	140.44
465.414	165.44
465.634	81.44
465.854	96.44
466.073	93.44
466.293	75.44
466.512	88.44
466.732	74.44
466.951	85.44
467.171	87.44
467.391	84.44
467.61	101.44
467.829	96.44
468.049	92.44
468.268	86.44
468.488	86.44
468.707	83.44
468.927	90.44
469.146	84.44
469.365	87.44
469.585	83.44
469.804	90.44
470.023	94.44
470.243	92.44
470.462	85.44
470.681	105.44
470.901	88.44
471.12	79.44
471.339	81.44
471.558	79.44
471.777	96.44
471.997	79.44
472.216	95.44
472.435	87.44
472.654	93.44
472.873	81.44
473.092	90.44
473.311	98.44
473.53	79.44
473.749	87.44
473.968	79.44
474.187	112.44
474.406	73.44
474.625	82.44
474.844	90.44
475.063	94.44
475.282	87.44
475.501	85.44
475.72	86.44
475.939	84.44
476.158	79.44
476.377	90.44
476.596	95.44
476.814	107.44
477.033	98.44
477.252	87.44
477.471	89.44
477.69	88.44
477.908	84.44
478.127	90.44
478.346	91.44
478.564	95.44
478.783	78.44
479.002	90.44
479.22	97.44
479.439	94.44
479.658	93.44
479.876	83.44
480.095	77.44
480.313	86.44
480.532	84.44
480.751	89.44
480.969	96.44
481.188	93.44
481.406	90.44
481.624	94.44
481.843	83.44
482.061	78.44
482.28	85.44
482.498	85.44
482.717	70.44
482.935	81.44
483.153	87.44
483.372	83.44
483.59	81.44
483.808	91.44
484.027	82.44
484.245	94.44
484.463	93.44
484.681	103.44
484.9	99.44
485.118	82.44
485.336	91.44
485.554	85.44
485.772	87.44
485.99	104.44
486.209	105.44
486.427	105.44
486.645	100.44
486.863	103.44
487.081	96.44
487.299	88.44
487.517	84.44
487.735	70.44
487.953	86.44
488.171	101.44
488.389	107.44
488.607	97.44
488.825	88.44
489.043	87.44
489.261	75.44
489.479	83.44
489.696	97.44
489.914	80.44
490.132	88.44
490.35	85.44
490.568	95.44
490.786	83.44
491.003	87.44
491.221	90.44
491.439	86.44
491.657	88.44
491.874	81.44
492.092	96.44
492.31	83.44
492.527	87.44
492.745	78.44
492.963	89.44
493.18	90.44
493.398	105.44
493.615	107.44
493.833	90.44
494.05	71.44
494.268	78.44
494.485	86.44
494.703	91.44
494.92	83.44
495.138	90.44
495.355	90.44
495.573	83.44
495.79	83.44
496.008	79.44
496.225	87.44
496.442	102.44
496.66	93.44
496.877	83.44
497.094	94.44
497.312	97.44
497.529	83.44
497.746	84.44
497.963	95.44
498.181	80.44
498.398	89.44
498.615	117.44
498.832	104.44
499.049	92.44
499.267	95.44
499.484	85.44
499.701	83.44
499.918	99.44
500.135	85.44
500.352	91.44
500.569	94.44
500.786	83.44
501.003	86.44
501.22	86.44
501.437	81.44
501.654	87.44
501.871	98.44
502.088	90.44
502.305	75.44
502.522	86.44
502.739	93.44
502.956	77.44
503.172	86.44
503.389	92.44
503.606	100.44
503.823	92.44
504.04	83.44
504.256	98.44
504.473	89.44
504.69	81.44
504.907	80.44
505.123	87.44
505.34	86.44
505.557	90.44
505.773	83.44
505.99	95.44
506.207	89.44
506.423	107.44
506.64	82.44
506.856	87.44
507.073	90.44
507.289	95.44
507.506	97.44
507.722	109.44
507.939	106.44
508.155	100.44
508.372	97.44
508.588	103.44
508.805	92.44
509.021	97.44
509.238	96.44
509.454	95.44
509.67	88.44
509.887	93.44
510.103	145.44
510.319	211.44
510.536	762.44
510.752	2472.44
510.968	673.44
511.184	146.44
511.401	120.44
511.617	98.44
511.833	91.44
512.049	82.44
512.265	107.44
512.481	88.44
512.698	94.44
512.914	84.44
513.13	93.44
513.346	85.44
513.562	90.44
513.778	95.44
513.994	93.44
514.21	90.44
514.426	113.44
514.642	132.44
514.858	123.44
515.074	160.44
515.29	421.44
515.506	1421.44
515.721	539.44
515.937	147.44
516.153	90.44
516.369	98.44
516.585	94.44
516.801	91.44
517.016	91.44
