Data from Uncirc_2000_H10_HRD10591_00016.txt Node
Date: Wed Jan 03 10:48:20 EST 2024
User: Yrep
Spectrometer: HR+D1059
Trigger mode: 1
Integration Time (sec): 1.000000E-1
Scans to average: 1
Electric dark correction enabled: true
Nonlinearity correction enabled: false
Boxcar width: 0
XAxis mode: Wavelengths
Number of Pixels in Spectrum: 2048
>>>>>Begin Spectral Data<<<<<
223.165	-27.19
223.4	-27.19
223.635	-27.19
223.869	-33.19
224.104	-27.19
224.338	-10.19
224.573	-8.19
224.808	-10.19
225.042	-4.19
225.277	2.81
225.511	11.81
225.746	-1.19
225.98	12.81
226.215	4.81
226.449	8.81
226.683	19.81
226.918	23.81
227.152	36.81
227.387	40.81
227.621	39.81
227.856	43.81
228.09	41.81
228.324	43.81
228.559	50.81
228.793	54.81
229.027	61.81
229.262	60.81
229.496	53.81
229.73	68.81
229.964	74.81
230.199	70.81
230.433	70.81
230.667	75.81
230.901	74.81
231.136	86.81
231.37	72.81
231.604	84.81
231.838	74.81
232.072	89.81
232.306	92.81
232.541	89.81
232.775	79.81
233.009	86.81
233.243	86.81
233.477	78.81
233.711	79.81
233.945	88.81
234.179	87.81
234.413	82.81
234.647	67.81
234.881	77.81
235.115	70.81
235.349	74.81
235.583	83.81
235.817	68.81
236.051	76.81
236.285	86.81
236.519	73.81
236.753	79.81
236.987	77.81
237.221	81.81
237.455	86.81
237.689	76.81
237.922	73.81
238.156	78.81
238.39	72.81
238.624	72.81
238.858	76.81
239.091	81.81
239.325	64.81
239.559	78.81
239.793	84.81
240.027	89.81
240.26	71.81
240.494	56.81
240.728	82.81
240.961	72.81
241.195	59.81
241.429	82.81
241.662	74.81
241.896	59.81
242.13	69.81
242.363	80.81
242.597	68.81
242.83	82.81
243.064	80.81
243.298	76.81
243.531	83.81
243.765	72.81
243.998	94.81
244.232	70.81
244.465	93.81
244.699	76.81
244.932	79.81
245.166	73.81
245.399	75.81
245.633	80.81
245.866	86.81
246.099	87.81
246.333	70.81
246.566	70.81
246.8	89.81
247.033	74.81
247.266	81.81
247.5	78.81
247.733	76.81
247.966	81.81
248.2	68.81
248.433	80.81
248.666	88.81
248.899	85.81
249.133	74.81
249.366	96.81
249.599	89.81
249.832	82.81
250.066	79.81
250.299	91.81
250.532	76.81
250.765	90.81
250.998	72.81
251.231	79.81
251.465	83.81
251.698	69.81
251.931	86.81
252.164	80.81
252.397	76.81
252.63	85.81
252.863	75.81
253.096	86.81
253.329	76.81
253.562	88.81
253.795	74.81
254.028	77.81
254.261	80.81
254.494	82.81
254.727	68.81
254.96	68.81
255.193	86.81
255.426	72.81
255.659	87.81
255.892	86.81
256.124	86.81
256.357	72.81
256.59	77.81
256.823	97.81
257.056	76.81
257.289	88.81
257.521	82.81
257.754	81.81
257.987	77.81
258.22	83.81
258.452	72.81
258.685	74.81
258.918	66.81
259.151	95.81
259.383	81.81
259.616	66.81
259.849	96.81
260.081	70.81
260.314	76.81
260.547	81.81
260.779	95.81
261.012	87.81
261.244	94.81
261.477	93.81
261.71	96.81
261.942	99.81
262.175	110.81
262.407	83.81
262.64	83.81
262.872	76.81
263.105	79.81
263.337	85.81
263.57	91.81
263.802	83.81
264.035	78.81
264.267	62.81
264.499	81.81
264.732	83.81
264.964	82.81
265.197	71.81
265.429	74.81
265.661	78.81
265.894	79.81
266.126	84.81
266.358	89.81
266.591	96.81
266.823	64.81
267.055	77.81
267.287	89.81
267.52	81.81
267.752	83.81
267.984	85.81
268.216	81.81
268.448	80.81
268.681	80.81
268.913	96.81
269.145	83.81
269.377	78.81
269.609	76.81
269.841	67.81
270.073	86.81
270.306	85.81
270.538	93.81
270.77	78.81
271.002	76.81
271.234	90.81
271.466	80.81
271.698	89.81
271.93	103.81
272.162	93.81
272.394	78.81
272.626	73.81
272.858	96.81
273.09	94.81
273.322	79.81
273.553	94.81
273.785	92.81
274.017	89.81
274.249	79.81
274.481	83.81
274.713	84.81
274.945	91.81
275.176	78.81
275.408	82.81
275.64	84.81
275.872	69.81
276.104	93.81
276.335	82.81
276.567	92.81
276.799	75.81
277.031	92.81
277.262	91.81
277.494	80.81
277.726	91.81
277.957	83.81
278.189	73.81
278.421	80.81
278.652	73.81
278.884	91.81
279.115	106.81
279.347	81.81
279.579	83.81
279.81	81.81
280.042	93.81
280.273	91.81
280.505	96.81
280.736	82.81
280.968	77.81
281.199	85.81
281.431	74.81
281.662	73.81
281.894	87.81
282.125	92.81
282.356	105.81
282.588	123.81
282.819	114.81
283.051	92.81
283.282	83.81
283.513	109.81
283.745	93.81
283.976	79.81
284.207	88.81
284.439	95.81
284.67	91.81
284.901	91.81
285.132	73.81
285.364	77.81
285.595	86.81
285.826	99.81
286.057	97.81
286.288	104.81
286.52	93.81
286.751	76.81
286.982	87.81
287.213	82.81
287.444	92.81
287.675	86.81
287.906	89.81
288.138	91.81
288.369	102.81
288.6	84.81
288.831	84.81
289.062	82.81
289.293	88.81
289.524	83.81
289.755	94.81
289.986	92.81
290.217	80.81
290.448	83.81
290.679	90.81
290.91	92.81
291.141	78.81
291.371	97.81
291.602	100.81
291.833	87.81
292.064	80.81
292.295	84.81
292.526	97.81
292.757	84.81
292.987	72.81
293.218	93.81
293.449	83.81
293.68	95.81
293.91	88.81
294.141	81.81
294.372	78.81
294.603	88.81
294.833	95.81
295.064	81.81
295.295	75.81
295.525	80.81
295.756	100.81
295.987	121.81
296.217	113.81
296.448	92.81
296.679	92.81
296.909	77.81
297.14	90.81
297.37	88.81
297.601	93.81
297.831	96.81
298.062	89.81
298.292	105.81
298.523	83.81
298.753	100.81
298.984	87.81
299.214	88.81
299.445	94.81
299.675	80.81
299.905	97.81
300.136	99.81
300.366	88.81
300.597	82.81
300.827	82.81
301.057	98.81
301.288	102.81
301.518	87.81
301.748	81.81
301.979	96.81
302.209	90.81
302.439	97.81
302.669	93.81
302.9	85.81
303.13	96.81
303.36	88.81
303.59	104.81
303.82	95.81
304.051	88.81
304.281	90.81
304.511	85.81
304.741	85.81
304.971	86.81
305.201	88.81
305.431	88.81
305.661	86.81
305.891	97.81
306.121	85.81
306.352	84.81
306.582	93.81
306.812	84.81
307.042	83.81
307.272	90.81
307.502	84.81
307.731	92.81
307.961	83.81
308.191	93.81
308.421	89.81
308.651	98.81
308.881	100.81
309.111	82.81
309.341	93.81
309.571	96.81
309.8	90.81
310.03	98.81
310.26	88.81
310.49	88.81
310.72	99.81
310.949	92.81
311.179	91.81
311.409	98.81
311.639	92.81
311.868	96.81
312.098	98.81
312.328	99.81
312.557	102.81
312.787	108.81
313.017	96.81
313.246	102.81
313.476	94.81
313.706	91.81
313.935	106.81
314.165	107.81
314.394	104.81
314.624	93.81
314.853	96.81
315.083	95.81
315.312	77.81
315.542	84.81
315.771	90.81
316.001	72.81
316.23	85.81
316.46	93.81
316.689	88.81
316.919	86.81
317.148	109.81
317.377	85.81
317.607	90.81
317.836	85.81
318.065	78.81
318.295	96.81
318.524	90.81
318.753	87.81
318.983	76.81
319.212	99.81
319.441	93.81
319.67	92.81
319.9	97.81
320.129	100.81
320.358	105.81
320.587	89.81
320.816	83.81
321.046	101.81
321.275	90.81
321.504	92.81
321.733	93.81
321.962	108.81
322.191	95.81
322.42	97.81
322.649	108.81
322.878	105.81
323.108	98.81
323.337	97.81
323.566	103.81
323.795	138.81
324.024	182.81
324.253	336.81
324.482	685.81
324.71	1408.81
324.939	1823.81
325.168	676.81
325.397	229.81
325.626	149.81
325.855	117.81
326.084	119.81
326.313	131.81
326.542	152.81
326.77	196.81
326.999	388.81
327.228	819.81
327.457	1462.81
327.686	1149.81
327.914	324.81
328.143	166.81
328.372	131.81
328.6	115.81
328.829	110.81
329.058	103.81
329.287	117.81
329.515	94.81
329.744	105.81
329.972	98.81
330.201	107.81
330.43	98.81
330.658	98.81
330.887	109.81
331.115	112.81
331.344	112.81
331.572	97.81
331.801	92.81
332.03	97.81
332.258	98.81
332.486	89.81
332.715	102.81
332.943	78.81
333.172	96.81
333.4	93.81
333.629	94.81
333.857	99.81
334.085	91.81
334.314	101.81
334.542	81.81
334.771	84.81
334.999	92.81
335.227	95.81
335.455	97.81
335.684	104.81
335.912	87.81
336.14	94.81
336.369	99.81
336.597	79.81
336.825	95.81
337.053	93.81
337.281	93.81
337.51	88.81
337.738	104.81
337.966	93.81
338.194	96.81
338.422	82.81
338.65	91.81
338.878	95.81
339.106	88.81
339.334	84.81
339.562	97.81
339.79	84.81
340.018	83.81
340.246	84.81
340.474	91.81
340.702	100.81
340.93	99.81
341.158	102.81
341.386	99.81
341.614	102.81
341.842	90.81
342.07	90.81
342.298	93.81
342.526	84.81
342.754	75.81
342.981	95.81
343.209	99.81
343.437	112.81
343.665	108.81
343.893	86.81
344.12	96.81
344.348	98.81
344.576	98.81
344.804	93.81
345.031	102.81
345.259	88.81
345.487	87.81
345.714	84.81
345.942	99.81
346.17	89.81
346.397	100.81
346.625	93.81
346.853	88.81
347.08	79.81
347.308	90.81
347.535	102.81
347.763	102.81
347.99	83.81
348.218	88.81
348.445	91.81
348.673	93.81
348.9	85.81
349.128	87.81
349.355	93.81
349.583	107.81
349.81	95.81
350.037	96.81
350.265	86.81
350.492	92.81
350.72	98.81
350.947	102.81
351.174	103.81
351.402	99.81
351.629	101.81
351.856	105.81
352.083	111.81
352.311	103.81
352.538	105.81
352.765	100.81
352.992	103.81
353.22	88.81
353.447	119.81
353.674	95.81
353.901	94.81
354.128	101.81
354.355	101.81
354.583	107.81
354.81	101.81
355.037	108.81
355.264	93.81
355.491	82.81
355.718	102.81
355.945	108.81
356.172	95.81
356.399	93.81
356.626	107.81
356.853	92.81
357.08	103.81
357.307	89.81
357.534	97.81
357.761	97.81
357.988	90.81
358.215	94.81
358.441	80.81
358.668	95.81
358.895	85.81
359.122	78.81
359.349	90.81
359.576	79.81
359.802	94.81
360.029	126.81
360.256	107.81
360.483	91.81
360.709	82.81
360.936	94.81
361.163	98.81
361.39	93.81
361.616	97.81
361.843	96.81
362.07	92.81
362.296	91.81
362.523	85.81
362.749	81.81
362.976	97.81
363.203	77.81
363.429	86.81
363.656	89.81
363.882	102.81
364.109	83.81
364.335	92.81
364.562	85.81
364.788	89.81
365.015	88.81
365.241	98.81
365.468	99.81
365.694	94.81
365.92	107.81
366.147	88.81
366.373	91.81
366.599	84.81
366.826	81.81
367.052	99.81
367.278	95.81
367.505	84.81
367.731	101.81
367.957	97.81
368.184	92.81
368.41	102.81
368.636	109.81
368.862	109.81
369.089	87.81
369.315	94.81
369.541	76.81
369.767	97.81
369.993	93.81
370.219	98.81
370.445	85.81
370.672	88.81
370.898	87.81
371.124	83.81
371.35	88.81
371.576	92.81
371.802	88.81
372.028	90.81
372.254	87.81
372.48	81.81
372.706	85.81
372.932	73.81
373.158	83.81
373.384	94.81
373.61	101.81
373.835	87.81
374.061	84.81
374.287	104.81
374.513	98.81
374.739	82.81
374.965	83.81
375.191	103.81
375.416	90.81
375.642	88.81
375.868	102.81
376.094	86.81
376.319	85.81
376.545	82.81
376.771	98.81
376.997	98.81
377.222	106.81
377.448	89.81
377.674	101.81
377.899	85.81
378.125	101.81
378.35	92.81
378.576	85.81
378.802	84.81
379.027	88.81
379.253	97.81
379.478	87.81
379.704	82.81
379.929	101.81
380.155	98.81
380.38	85.81
380.606	87.81
380.831	105.81
381.057	93.81
381.282	96.81
381.507	94.81
381.733	89.81
381.958	90.81
382.184	97.81
382.409	100.81
382.634	100.81
382.86	107.81
383.085	104.81
383.31	103.81
383.535	83.81
383.761	104.81
383.986	96.81
384.211	106.81
384.436	106.81
384.662	111.81
384.887	100.81
385.112	97.81
385.337	102.81
385.562	93.81
385.787	100.81
386.013	107.81
386.238	111.81
386.463	100.81
386.688	132.81
386.913	107.81
387.138	117.81
387.363	100.81
387.588	104.81
387.813	96.81
388.038	107.81
388.263	108.81
388.488	104.81
388.713	84.81
388.938	114.81
389.163	98.81
389.387	104.81
389.612	90.81
389.837	97.81
390.062	102.81
390.287	109.81
390.512	85.81
390.736	83.81
390.961	91.81
391.186	97.81
391.411	100.81
391.636	100.81
391.86	82.81
392.085	85.81
392.31	99.81
392.534	88.81
392.759	90.81
392.984	91.81
393.208	89.81
393.433	93.81
393.658	84.81
393.882	87.81
394.107	72.81
394.331	87.81
394.556	93.81
394.78	94.81
395.005	92.81
395.229	73.81
395.454	101.81
395.678	93.81
395.903	83.81
396.127	87.81
396.352	81.81
396.576	85.81
396.801	98.81
397.025	102.81
397.249	79.81
397.474	91.81
397.698	76.81
397.922	93.81
398.147	91.81
398.371	82.81
398.595	93.81
398.82	100.81
399.044	90.81
399.268	89.81
399.492	87.81
399.717	103.81
399.941	85.81
400.165	90.81
400.389	86.81
400.613	97.81
400.837	93.81
401.062	95.81
401.286	89.81
401.51	103.81
401.734	80.81
401.958	102.81
402.182	116.81
402.406	129.81
402.63	96.81
402.854	91.81
403.078	76.81
403.302	93.81
403.526	82.81
403.75	84.81
403.974	81.81
404.198	85.81
404.422	83.81
404.645	84.81
404.869	90.81
405.093	84.81
405.317	96.81
405.541	84.81
405.765	85.81
405.988	101.81
406.212	121.81
406.436	161.81
406.66	114.81
406.883	112.81
407.107	90.81
407.331	90.81
407.555	99.81
407.778	96.81
408.002	89.81
408.226	98.81
408.449	89.81
408.673	84.81
408.896	89.81
409.12	96.81
409.344	89.81
409.567	83.81
409.791	97.81
410.014	98.81
410.238	96.81
410.461	90.81
410.685	99.81
410.908	84.81
411.132	105.81
411.355	91.81
411.578	98.81
411.802	84.81
412.025	89.81
412.249	89.81
412.472	87.81
412.695	86.81
412.919	89.81
413.142	98.81
413.365	99.81
413.589	68.81
413.812	105.81
414.035	100.81
414.258	97.81
414.482	85.81
414.705	91.81
414.928	92.81
415.151	97.81
415.374	102.81
415.597	81.81
415.821	77.81
416.044	91.81
416.267	88.81
416.49	91.81
416.713	82.81
416.936	90.81
417.159	91.81
417.382	81.81
417.605	96.81
417.828	93.81
418.051	78.81
418.274	94.81
418.497	80.81
418.72	91.81
418.943	88.81
419.166	90.81
419.389	91.81
419.611	86.81
419.834	87.81
420.057	100.81
420.28	95.81
420.503	76.81
420.726	102.81
420.948	89.81
421.171	83.81
421.394	90.81
421.617	87.81
421.839	100.81
422.062	82.81
422.285	84.81
422.507	98.81
422.73	107.81
422.953	84.81
423.175	83.81
423.398	85.81
423.621	99.81
423.843	97.81
424.066	68.81
424.288	74.81
424.511	89.81
424.733	87.81
424.956	105.81
425.178	91.81
425.401	97.81
425.623	84.81
425.846	78.81
426.068	78.81
426.291	82.81
426.513	76.81
426.735	80.81
426.958	100.81
427.18	110.81
427.402	116.81
427.625	122.81
427.847	94.81
428.069	98.81
428.292	91.81
428.514	94.81
428.736	91.81
428.958	92.81
429.181	88.81
429.403	96.81
429.625	86.81
429.847	86.81
430.069	97.81
430.292	84.81
430.514	73.81
430.736	78.81
430.958	79.81
431.18	91.81
431.402	93.81
431.624	81.81
431.846	90.81
432.068	75.81
432.29	92.81
432.512	91.81
432.734	78.81
432.956	94.81
433.178	94.81
433.4	104.81
433.622	77.81
433.844	72.81
434.066	101.81
434.287	97.81
434.509	107.81
434.731	77.81
434.953	89.81
435.175	87.81
435.397	87.81
435.618	97.81
435.84	99.81
436.062	102.81
436.284	100.81
436.505	90.81
436.727	94.81
436.949	75.81
437.17	85.81
437.392	82.81
437.614	89.81
437.835	94.81
438.057	114.81
438.278	91.81
438.5	96.81
438.721	105.81
438.943	104.81
439.165	98.81
439.386	89.81
439.608	93.81
439.829	92.81
440.05	90.81
440.272	104.81
440.493	82.81
440.715	95.81
440.936	88.81
441.158	101.81
441.379	81.81
441.6	94.81
441.822	90.81
442.043	88.81
442.264	88.81
442.486	97.81
442.707	105.81
442.928	103.81
443.149	118.81
443.371	101.81
443.592	101.81
443.813	108.81
444.034	92.81
444.255	88.81
444.476	82.81
444.698	89.81
444.919	94.81
445.14	132.81
445.361	113.81
445.582	116.81
445.803	112.81
446.024	131.81
446.245	124.81
446.466	106.81
446.687	90.81
446.908	86.81
447.129	97.81
447.35	88.81
447.571	85.81
447.792	81.81
448.013	89.81
448.234	85.81
448.455	96.81
448.675	128.81
448.896	111.81
449.117	103.81
449.338	99.81
449.559	114.81
449.779	124.81
450	91.81
450.221	92.81
450.442	81.81
450.662	92.81
450.883	92.81
451.104	101.81
451.324	88.81
451.545	76.81
451.766	101.81
451.986	76.81
452.207	85.81
452.428	90.81
452.648	104.81
452.869	96.81
453.089	113.81
453.31	108.81
453.53	73.81
453.751	85.81
453.971	100.81
454.192	91.81
454.412	86.81
454.633	84.81
454.853	93.81
455.073	76.81
455.294	82.81
455.514	99.81
455.734	83.81
455.955	74.81
456.175	85.81
456.395	88.81
456.616	81.81
456.836	81.81
457.056	89.81
457.276	106.81
457.497	93.81
457.717	64.81
457.937	78.81
458.157	85.81
458.377	96.81
458.598	100.81
458.818	130.81
459.038	132.81
459.258	98.81
459.478	94.81
459.698	79.81
459.918	91.81
460.138	77.81
460.358	86.81
460.578	86.81
460.798	86.81
461.018	92.81
461.238	89.81
461.458	88.81
461.678	88.81
461.898	99.81
462.118	82.81
462.338	90.81
462.558	93.81
462.777	99.81
462.997	94.81
463.217	88.81
463.437	92.81
463.657	70.81
463.876	83.81
464.096	83.81
464.316	91.81
464.536	92.81
464.755	84.81
464.975	102.81
465.195	129.81
465.414	122.81
465.634	84.81
465.854	82.81
466.073	87.81
466.293	91.81
466.512	94.81
466.732	91.81
466.951	106.81
467.171	98.81
467.391	102.81
467.61	83.81
467.829	89.81
468.049	78.81
468.268	83.81
468.488	88.81
468.707	76.81
468.927	85.81
469.146	78.81
469.365	82.81
469.585	89.81
469.804	78.81
470.023	82.81
470.243	81.81
470.462	89.81
470.681	94.81
470.901	83.81
471.12	80.81
471.339	79.81
471.558	78.81
471.777	82.81
471.997	87.81
472.216	89.81
472.435	91.81
472.654	85.81
472.873	98.81
473.092	83.81
473.311	76.81
473.53	80.81
473.749	91.81
473.968	91.81
474.187	105.81
474.406	90.81
474.625	84.81
474.844	87.81
475.063	80.81
475.282	87.81
475.501	75.81
475.72	84.81
475.939	94.81
476.158	89.81
476.377	85.81
476.596	87.81
476.814	92.81
477.033	77.81
477.252	82.81
477.471	99.81
477.69	89.81
477.908	85.81
478.127	99.81
478.346	88.81
478.564	88.81
478.783	87.81
479.002	101.81
479.22	70.81
479.439	96.81
479.658	94.81
479.876	99.81
480.095	105.81
480.313	80.81
480.532	88.81
480.751	101.81
480.969	91.81
481.188	100.81
481.406	99.81
481.624	73.81
481.843	77.81
482.061	75.81
482.28	96.81
482.498	91.81
482.717	101.81
482.935	86.81
483.153	80.81
483.372	83.81
483.59	88.81
483.808	89.81
484.027	100.81
484.245	89.81
484.463	87.81
484.681	89.81
484.9	100.81
485.118	101.81
485.336	109.81
485.554	109.81
485.772	105.81
485.99	108.81
486.209	105.81
486.427	96.81
486.645	111.81
486.863	95.81
487.081	106.81
487.299	86.81
487.517	109.81
487.735	91.81
487.953	105.81
488.171	94.81
488.389	93.81
488.607	86.81
488.825	91.81
489.043	89.81
489.261	82.81
489.479	90.81
489.696	91.81
489.914	85.81
490.132	89.81
490.35	97.81
490.568	99.81
490.786	84.81
491.003	100.81
491.221	89.81
491.439	100.81
491.657	89.81
491.874	78.81
492.092	85.81
492.31	101.81
492.527	99.81
492.745	85.81
492.963	96.81
493.18	81.81
493.398	89.81
493.615	94.81
493.833	73.81
494.05	96.81
494.268	85.81
494.485	88.81
494.703	100.81
494.92	73.81
495.138	85.81
495.355	92.81
495.573	86.81
495.79	92.81
496.008	84.81
496.225	93.81
496.442	98.81
496.66	104.81
496.877	86.81
497.094	105.81
497.312	92.81
497.529	102.81
497.746	88.81
497.963	75.81
498.181	80.81
498.398	80.81
498.615	98.81
498.832	100.81
499.049	67.81
499.267	105.81
499.484	84.81
499.701	86.81
499.918	95.81
500.135	103.81
500.352	94.81
500.569	93.81
500.786	91.81
501.003	93.81
501.22	74.81
501.437	86.81
501.654	87.81
501.871	102.81
502.088	89.81
502.305	84.81
502.522	94.81
502.739	76.81
502.956	99.81
503.172	84.81
503.389	79.81
503.606	76.81
503.823	97.81
504.04	108.81
504.256	75.81
504.473	85.81
504.69	105.81
504.907	87.81
505.123	88.81
505.34	81.81
505.557	88.81
505.773	85.81
505.99	88.81
506.207	100.81
506.423	93.81
506.64	74.81
506.856	79.81
507.073	99.81
507.289	92.81
507.506	89.81
507.722	101.81
507.939	87.81
508.155	105.81
508.372	84.81
508.588	96.81
508.805	83.81
509.021	99.81
509.238	90.81
509.454	105.81
509.67	85.81
509.887	104.81
510.103	115.81
510.319	182.81
510.536	560.81
510.752	1636.81
510.968	478.81
511.184	130.81
511.401	94.81
511.617	93.81
511.833	100.81
512.049	80.81
512.265	80.81
512.481	94.81
512.698	90.81
512.914	91.81
513.13	101.81
513.346	98.81
513.562	84.81
513.778	93.81
513.994	95.81
514.21	83.81
514.426	103.81
514.642	113.81
514.858	119.81
515.074	128.81
515.29	319.81
515.506	946.81
515.721	376.81
515.937	134.81
516.153	78.81
516.369	89.81
