Data from Uncirc_2000_H10_HRD10591_00018.txt Node
Date: Wed Jan 03 10:48:20 EST 2024
User: Yrep
Spectrometer: HR+D1059
Trigger mode: 1
Integration Time (sec): 1.000000E-1
Scans to average: 1
Electric dark correction enabled: true
Nonlinearity correction enabled: false
Boxcar width: 0
XAxis mode: Wavelengths
Number of Pixels in Spectrum: 2048
>>>>>Begin Spectral Data<<<<<
223.165	-9.5
223.4	-9.5
223.635	-9.5
223.869	-17.5
224.104	-10.5
224.338	-4.5
224.573	-20.5
224.808	-14.5
225.042	-14.5
225.277	-4.5
225.511	-12.5
225.746	2.5
225.98	16.5
226.215	9.5
226.449	14.5
226.683	24.5
226.918	22.5
227.152	18.5
227.387	38.5
227.621	51.5
227.856	49.5
228.09	48.5
228.324	51.5
228.559	51.5
228.793	55.5
229.027	69.5
229.262	67.5
229.496	82.5
229.73	84.5
229.964	91.5
230.199	73.5
230.433	71.5
230.667	77.5
230.901	71.5
231.136	77.5
231.37	77.5
231.604	80.5
231.838	82.5
232.072	83.5
232.306	83.5
232.541	87.5
232.775	77.5
233.009	102.5
233.243	92.5
233.477	82.5
233.711	99.5
233.945	78.5
234.179	74.5
234.413	66.5
234.647	88.5
234.881	83.5
235.115	88.5
235.349	87.5
235.583	72.5
235.817	84.5
236.051	86.5
236.285	81.5
236.519	69.5
236.753	73.5
236.987	70.5
237.221	71.5
237.455	85.5
237.689	92.5
237.922	73.5
238.156	78.5
238.39	73.5
238.624	78.5
238.858	94.5
239.091	82.5
239.325	73.5
239.559	87.5
239.793	77.5
240.027	87.5
240.26	68.5
240.494	78.5
240.728	78.5
240.961	82.5
241.195	74.5
241.429	73.5
241.662	76.5
241.896	75.5
242.13	76.5
242.363	84.5
242.597	78.5
242.83	88.5
243.064	78.5
243.298	77.5
243.531	82.5
243.765	61.5
243.998	75.5
244.232	83.5
244.465	87.5
244.699	80.5
244.932	78.5
245.166	91.5
245.399	88.5
245.633	85.5
245.866	72.5
246.099	86.5
246.333	84.5
246.566	80.5
246.8	79.5
247.033	98.5
247.266	78.5
247.5	85.5
247.733	93.5
247.966	89.5
248.2	70.5
248.433	62.5
248.666	78.5
248.899	91.5
249.133	79.5
249.366	85.5
249.599	83.5
249.832	73.5
250.066	88.5
250.299	77.5
250.532	89.5
250.765	75.5
250.998	83.5
251.231	89.5
251.465	88.5
251.698	71.5
251.931	74.5
252.164	77.5
252.397	77.5
252.63	81.5
252.863	99.5
253.096	79.5
253.329	75.5
253.562	85.5
253.795	73.5
254.028	85.5
254.261	92.5
254.494	84.5
254.727	68.5
254.96	90.5
255.193	93.5
255.426	70.5
255.659	85.5
255.892	83.5
256.124	84.5
256.357	88.5
256.59	76.5
256.823	72.5
257.056	85.5
257.289	80.5
257.521	84.5
257.754	90.5
257.987	82.5
258.22	86.5
258.452	93.5
258.685	83.5
258.918	92.5
259.151	87.5
259.383	96.5
259.616	86.5
259.849	76.5
260.081	83.5
260.314	86.5
260.547	80.5
260.779	88.5
261.012	82.5
261.244	86.5
261.477	99.5
261.71	105.5
261.942	101.5
262.175	96.5
262.407	92.5
262.64	84.5
262.872	86.5
263.105	80.5
263.337	76.5
263.57	80.5
263.802	87.5
264.035	64.5
264.267	87.5
264.499	83.5
264.732	87.5
264.964	83.5
265.197	76.5
265.429	81.5
265.661	90.5
265.894	93.5
266.126	93.5
266.358	87.5
266.591	86.5
266.823	80.5
267.055	92.5
267.287	84.5
267.52	73.5
267.752	81.5
267.984	82.5
268.216	79.5
268.448	82.5
268.681	94.5
268.913	85.5
269.145	83.5
269.377	76.5
269.609	86.5
269.841	84.5
270.073	85.5
270.306	89.5
270.538	86.5
270.77	82.5
271.002	81.5
271.234	74.5
271.466	82.5
271.698	81.5
271.93	91.5
272.162	92.5
272.394	90.5
272.626	88.5
272.858	82.5
273.09	74.5
273.322	86.5
273.553	78.5
273.785	86.5
274.017	91.5
274.249	89.5
274.481	91.5
274.713	97.5
274.945	89.5
275.176	80.5
275.408	77.5
275.64	87.5
275.872	76.5
276.104	90.5
276.335	89.5
276.567	73.5
276.799	95.5
277.031	84.5
277.262	84.5
277.494	88.5
277.726	93.5
277.957	90.5
278.189	90.5
278.421	99.5
278.652	89.5
278.884	88.5
279.115	93.5
279.347	99.5
279.579	93.5
279.81	82.5
280.042	98.5
280.273	91.5
280.505	84.5
280.736	87.5
280.968	94.5
281.199	76.5
281.431	76.5
281.662	86.5
281.894	86.5
282.125	102.5
282.356	102.5
282.588	125.5
282.819	105.5
283.051	82.5
283.282	78.5
283.513	87.5
283.745	69.5
283.976	71.5
284.207	106.5
284.439	88.5
284.67	90.5
284.901	84.5
285.132	79.5
285.364	82.5
285.595	77.5
285.826	102.5
286.057	89.5
286.288	88.5
286.52	78.5
286.751	88.5
286.982	74.5
287.213	91.5
287.444	89.5
287.675	93.5
287.906	87.5
288.138	78.5
288.369	96.5
288.6	90.5
288.831	77.5
289.062	95.5
289.293	93.5
289.524	77.5
289.755	89.5
289.986	80.5
290.217	86.5
290.448	88.5
290.679	76.5
290.91	91.5
291.141	82.5
291.371	84.5
291.602	93.5
291.833	90.5
292.064	91.5
292.295	86.5
292.526	87.5
292.757	100.5
292.987	80.5
293.218	87.5
293.449	81.5
293.68	88.5
293.91	89.5
294.141	88.5
294.372	88.5
294.603	89.5
294.833	84.5
295.064	71.5
295.295	93.5
295.525	96.5
295.756	105.5
295.987	106.5
296.217	122.5
296.448	116.5
296.679	101.5
296.909	91.5
297.14	89.5
297.37	93.5
297.601	97.5
297.831	91.5
298.062	104.5
298.292	107.5
298.523	92.5
298.753	94.5
298.984	84.5
299.214	86.5
299.445	88.5
299.675	85.5
299.905	98.5
300.136	106.5
300.366	97.5
300.597	78.5
300.827	84.5
301.057	99.5
301.288	104.5
301.518	95.5
301.748	87.5
301.979	94.5
302.209	92.5
302.439	101.5
302.669	94.5
302.9	90.5
303.13	103.5
303.36	89.5
303.59	88.5
303.82	97.5
304.051	84.5
304.281	95.5
304.511	109.5
304.741	101.5
304.971	92.5
305.201	95.5
305.431	74.5
305.661	94.5
305.891	86.5
306.121	86.5
306.352	97.5
306.582	101.5
306.812	89.5
307.042	100.5
307.272	91.5
307.502	93.5
307.731	101.5
307.961	85.5
308.191	87.5
308.421	89.5
308.651	92.5
308.881	101.5
309.111	98.5
309.341	104.5
309.571	99.5
309.8	86.5
310.03	97.5
310.26	96.5
310.49	98.5
310.72	84.5
310.949	101.5
311.179	92.5
311.409	104.5
311.639	89.5
311.868	107.5
312.098	92.5
312.328	101.5
312.557	99.5
312.787	90.5
313.017	100.5
313.246	103.5
313.476	106.5
313.706	94.5
313.935	90.5
314.165	97.5
314.394	109.5
314.624	97.5
314.853	101.5
315.083	92.5
315.312	90.5
315.542	92.5
315.771	92.5
316.001	98.5
316.23	93.5
316.46	90.5
316.689	85.5
316.919	80.5
317.148	100.5
317.377	90.5
317.607	98.5
317.836	92.5
318.065	91.5
318.295	91.5
318.524	97.5
318.753	74.5
318.983	102.5
319.212	103.5
319.441	113.5
319.67	88.5
319.9	85.5
320.129	87.5
320.358	107.5
320.587	91.5
320.816	108.5
321.046	92.5
321.275	95.5
321.504	109.5
321.733	100.5
321.962	85.5
322.191	93.5
322.42	100.5
322.649	112.5
322.878	107.5
323.108	121.5
323.337	109.5
323.566	124.5
323.795	136.5
324.024	182.5
324.253	339.5
324.482	763.5
324.71	1513.5
324.939	1972.5
325.168	702.5
325.397	219.5
325.626	160.5
325.855	123.5
326.084	120.5
326.313	115.5
326.542	136.5
326.77	204.5
326.999	421.5
327.228	844.5
327.457	1536.5
327.686	1253.5
327.914	338.5
328.143	181.5
328.372	123.5
328.6	113.5
328.829	105.5
329.058	123.5
329.287	125.5
329.515	115.5
329.744	82.5
329.972	84.5
330.201	82.5
330.43	89.5
330.658	103.5
330.887	129.5
331.115	102.5
331.344	86.5
331.572	88.5
331.801	102.5
332.03	95.5
332.258	104.5
332.486	97.5
332.715	84.5
332.943	97.5
333.172	102.5
333.4	94.5
333.629	104.5
333.857	112.5
334.085	94.5
334.314	94.5
334.542	92.5
334.771	100.5
334.999	98.5
335.227	92.5
335.455	93.5
335.684	98.5
335.912	97.5
336.14	88.5
336.369	98.5
336.597	105.5
336.825	95.5
337.053	101.5
337.281	98.5
337.51	90.5
337.738	98.5
337.966	86.5
338.194	108.5
338.422	93.5
338.65	89.5
338.878	83.5
339.106	85.5
339.334	88.5
339.562	93.5
339.79	76.5
340.018	90.5
340.246	83.5
340.474	100.5
340.702	92.5
340.93	96.5
341.158	80.5
341.386	100.5
341.614	94.5
341.842	91.5
342.07	84.5
342.298	74.5
342.526	90.5
342.754	100.5
342.981	87.5
343.209	82.5
343.437	87.5
343.665	90.5
343.893	104.5
344.12	90.5
344.348	101.5
344.576	85.5
344.804	71.5
345.031	94.5
345.259	101.5
345.487	101.5
345.714	94.5
345.942	98.5
346.17	84.5
346.397	93.5
346.625	94.5
346.853	87.5
347.08	90.5
347.308	94.5
347.535	86.5
347.763	101.5
347.99	89.5
348.218	105.5
348.445	113.5
348.673	104.5
348.9	92.5
349.128	98.5
349.355	94.5
349.583	113.5
349.81	102.5
350.037	100.5
350.265	91.5
350.492	80.5
350.72	96.5
350.947	95.5
351.174	107.5
351.402	100.5
351.629	92.5
351.856	92.5
352.083	108.5
352.311	106.5
352.538	93.5
352.765	103.5
352.992	107.5
353.22	102.5
353.447	119.5
353.674	112.5
353.901	116.5
354.128	102.5
354.355	98.5
354.583	85.5
354.81	102.5
355.037	95.5
355.264	88.5
355.491	89.5
355.718	92.5
355.945	94.5
356.172	110.5
356.399	97.5
356.626	85.5
356.853	93.5
357.08	95.5
357.307	86.5
357.534	93.5
357.761	104.5
357.988	93.5
358.215	104.5
358.441	99.5
358.668	89.5
358.895	84.5
359.122	100.5
359.349	87.5
359.576	100.5
359.802	91.5
360.029	97.5
360.256	106.5
360.483	77.5
360.709	98.5
360.936	94.5
361.163	91.5
361.39	96.5
361.616	92.5
361.843	87.5
362.07	99.5
362.296	92.5
362.523	88.5
362.749	93.5
362.976	83.5
363.203	92.5
363.429	89.5
363.656	81.5
363.882	87.5
364.109	95.5
364.335	97.5
364.562	91.5
364.788	91.5
365.015	97.5
365.241	93.5
365.468	93.5
365.694	105.5
365.92	94.5
366.147	78.5
366.373	81.5
366.599	94.5
366.826	82.5
367.052	100.5
367.278	90.5
367.505	96.5
367.731	92.5
367.957	78.5
368.184	92.5
368.41	92.5
368.636	112.5
368.862	108.5
369.089	98.5
369.315	87.5
369.541	88.5
369.767	80.5
369.993	94.5
370.219	84.5
370.445	82.5
370.672	90.5
370.898	86.5
371.124	95.5
371.35	73.5
371.576	81.5
371.802	85.5
372.028	95.5
372.254	90.5
372.48	79.5
372.706	96.5
372.932	92.5
373.158	95.5
373.384	101.5
373.61	103.5
373.835	102.5
374.061	94.5
374.287	99.5
374.513	73.5
374.739	83.5
374.965	82.5
375.191	86.5
375.416	89.5
375.642	86.5
375.868	81.5
376.094	84.5
376.319	103.5
376.545	88.5
376.771	96.5
376.997	94.5
377.222	100.5
377.448	100.5
377.674	92.5
377.899	88.5
378.125	93.5
378.35	90.5
378.576	90.5
378.802	91.5
379.027	92.5
379.253	107.5
379.478	91.5
379.704	89.5
379.929	79.5
380.155	95.5
380.38	91.5
380.606	90.5
380.831	94.5
381.057	93.5
381.282	92.5
381.507	98.5
381.733	94.5
381.958	94.5
382.184	99.5
382.409	84.5
382.634	87.5
382.86	99.5
383.085	106.5
383.31	102.5
383.535	104.5
383.761	119.5
383.986	97.5
384.211	97.5
384.436	94.5
384.662	85.5
384.887	106.5
385.112	104.5
385.337	102.5
385.562	119.5
385.787	108.5
386.013	112.5
386.238	103.5
386.463	109.5
386.688	109.5
386.913	103.5
387.138	93.5
387.363	106.5
387.588	109.5
387.813	97.5
388.038	109.5
388.263	111.5
388.488	109.5
388.713	101.5
388.938	96.5
389.163	106.5
389.387	108.5
389.612	92.5
389.837	89.5
390.062	93.5
390.287	91.5
390.512	86.5
390.736	83.5
390.961	91.5
391.186	103.5
391.411	92.5
391.636	99.5
391.86	88.5
392.085	106.5
392.31	69.5
392.534	84.5
392.759	90.5
392.984	91.5
393.208	102.5
393.433	120.5
393.658	81.5
393.882	87.5
394.107	96.5
394.331	88.5
394.556	84.5
394.78	90.5
395.005	72.5
395.229	83.5
395.454	101.5
395.678	77.5
395.903	94.5
396.127	89.5
396.352	89.5
396.576	87.5
396.801	85.5
397.025	91.5
397.249	94.5
397.474	85.5
397.698	94.5
397.922	81.5
398.147	89.5
398.371	78.5
398.595	80.5
398.82	80.5
399.044	86.5
399.268	77.5
399.492	86.5
399.717	94.5
399.941	79.5
400.165	88.5
400.389	89.5
400.613	78.5
400.837	81.5
401.062	80.5
401.286	88.5
401.51	88.5
401.734	91.5
401.958	77.5
402.182	112.5
402.406	120.5
402.63	103.5
402.854	80.5
403.078	92.5
403.302	81.5
403.526	84.5
403.75	83.5
403.974	90.5
404.198	82.5
404.422	87.5
404.645	100.5
404.869	72.5
405.093	84.5
405.317	91.5
405.541	100.5
405.765	93.5
405.988	87.5
406.212	140.5
406.436	180.5
406.66	134.5
406.883	94.5
407.107	100.5
407.331	93.5
407.555	108.5
407.778	97.5
408.002	98.5
408.226	100.5
408.449	93.5
408.673	85.5
408.896	75.5
409.12	91.5
409.344	93.5
409.567	89.5
409.791	84.5
410.014	90.5
410.238	88.5
410.461	86.5
410.685	96.5
410.908	91.5
411.132	105.5
411.355	104.5
411.578	85.5
411.802	81.5
412.025	80.5
412.249	90.5
412.472	79.5
412.695	96.5
412.919	77.5
413.142	101.5
413.365	92.5
413.589	88.5
413.812	102.5
414.035	86.5
414.258	84.5
414.482	100.5
414.705	97.5
414.928	82.5
415.151	91.5
415.374	84.5
415.597	78.5
415.821	97.5
416.044	92.5
416.267	93.5
416.49	85.5
416.713	104.5
416.936	88.5
417.159	96.5
417.382	92.5
417.605	78.5
417.828	99.5
418.051	85.5
418.274	86.5
418.497	84.5
418.72	95.5
418.943	83.5
419.166	89.5
419.389	104.5
419.611	80.5
419.834	103.5
420.057	95.5
420.28	101.5
420.503	88.5
420.726	86.5
420.948	98.5
421.171	100.5
421.394	91.5
421.617	81.5
421.839	95.5
422.062	95.5
422.285	104.5
422.507	112.5
422.73	106.5
422.953	94.5
423.175	84.5
423.398	89.5
423.621	86.5
423.843	99.5
424.066	96.5
424.288	90.5
424.511	107.5
424.733	82.5
424.956	96.5
425.178	97.5
425.401	94.5
425.623	86.5
425.846	91.5
426.068	90.5
426.291	91.5
426.513	88.5
426.735	88.5
426.958	86.5
427.18	100.5
427.402	115.5
427.625	144.5
427.847	112.5
428.069	88.5
428.292	82.5
428.514	89.5
428.736	107.5
428.958	89.5
429.181	82.5
429.403	77.5
429.625	90.5
429.847	102.5
430.069	94.5
430.292	91.5
430.514	91.5
430.736	97.5
430.958	86.5
431.18	70.5
431.402	92.5
431.624	88.5
431.846	98.5
432.068	87.5
432.29	90.5
432.512	98.5
432.734	90.5
432.956	85.5
433.178	91.5
433.4	100.5
433.622	83.5
433.844	83.5
434.066	95.5
434.287	94.5
434.509	67.5
434.731	89.5
434.953	99.5
435.175	84.5
435.397	102.5
435.618	85.5
435.84	105.5
436.062	124.5
436.284	106.5
436.505	95.5
436.727	96.5
436.949	97.5
437.17	92.5
437.392	91.5
437.614	96.5
437.835	92.5
438.057	94.5
438.278	105.5
438.5	88.5
438.721	109.5
438.943	87.5
439.165	81.5
439.386	82.5
439.608	92.5
439.829	80.5
440.05	98.5
440.272	114.5
440.493	96.5
440.715	94.5
440.936	94.5
441.158	93.5
441.379	96.5
441.6	102.5
441.822	105.5
442.043	79.5
442.264	97.5
442.486	89.5
442.707	80.5
442.928	91.5
443.149	112.5
443.371	109.5
443.592	98.5
443.813	103.5
444.034	93.5
444.255	79.5
444.476	80.5
444.698	93.5
444.919	92.5
445.14	123.5
445.361	122.5
445.582	98.5
445.803	128.5
446.024	121.5
446.245	128.5
446.466	96.5
446.687	89.5
446.908	77.5
447.129	93.5
447.35	86.5
447.571	84.5
447.792	85.5
448.013	84.5
448.234	97.5
448.455	92.5
448.675	93.5
448.896	115.5
449.117	95.5
449.338	115.5
449.559	105.5
449.779	120.5
450	79.5
450.221	105.5
450.442	97.5
450.662	107.5
450.883	95.5
451.104	114.5
451.324	98.5
451.545	84.5
451.766	92.5
451.986	76.5
452.207	89.5
452.428	86.5
452.648	101.5
452.869	123.5
453.089	112.5
453.31	110.5
453.53	76.5
453.751	91.5
453.971	91.5
454.192	85.5
454.412	90.5
454.633	92.5
454.853	102.5
455.073	89.5
455.294	97.5
455.514	107.5
455.734	78.5
455.955	87.5
456.175	78.5
456.395	87.5
456.616	69.5
456.836	89.5
457.056	84.5
457.276	88.5
457.497	91.5
457.717	84.5
457.937	93.5
458.157	76.5
458.377	80.5
458.598	104.5
458.818	137.5
459.038	136.5
459.258	108.5
459.478	80.5
459.698	88.5
459.918	103.5
460.138	75.5
460.358	86.5
460.578	91.5
460.798	93.5
461.018	90.5
461.238	92.5
461.458	81.5
461.678	89.5
461.898	101.5
462.118	98.5
462.338	77.5
462.558	100.5
462.777	80.5
462.997	83.5
463.217	82.5
463.437	86.5
463.657	79.5
463.876	86.5
464.096	86.5
464.316	82.5
464.536	90.5
464.755	91.5
464.975	92.5
465.195	133.5
465.414	142.5
465.634	85.5
465.854	115.5
466.073	76.5
466.293	93.5
466.512	90.5
466.732	98.5
466.951	83.5
467.171	85.5
467.391	93.5
467.61	110.5
467.829	102.5
468.049	85.5
468.268	87.5
468.488	85.5
468.707	81.5
468.927	85.5
469.146	86.5
469.365	101.5
469.585	80.5
469.804	87.5
470.023	90.5
470.243	85.5
470.462	101.5
470.681	97.5
470.901	85.5
471.12	76.5
471.339	91.5
471.558	77.5
471.777	88.5
471.997	88.5
472.216	78.5
472.435	98.5
472.654	101.5
472.873	88.5
473.092	88.5
473.311	88.5
473.53	92.5
473.749	78.5
473.968	93.5
474.187	89.5
474.406	95.5
474.625	100.5
474.844	91.5
475.063	72.5
475.282	101.5
475.501	90.5
475.72	92.5
475.939	89.5
476.158	89.5
476.377	77.5
476.596	88.5
476.814	83.5
477.033	88.5
477.252	98.5
477.471	87.5
477.69	81.5
477.908	96.5
478.127	80.5
478.346	94.5
478.564	89.5
478.783	92.5
479.002	87.5
479.22	95.5
479.439	93.5
479.658	105.5
479.876	81.5
480.095	94.5
480.313	84.5
480.532	87.5
480.751	93.5
480.969	80.5
481.188	89.5
481.406	89.5
481.624	88.5
481.843	86.5
482.061	84.5
482.28	81.5
482.498	99.5
482.717	89.5
482.935	84.5
483.153	97.5
483.372	97.5
483.59	94.5
483.808	104.5
484.027	86.5
484.245	95.5
484.463	92.5
484.681	93.5
484.9	93.5
485.118	101.5
485.336	97.5
485.554	101.5
485.772	91.5
485.99	102.5
486.209	107.5
486.427	97.5
486.645	98.5
486.863	120.5
487.081	90.5
487.299	94.5
487.517	88.5
487.735	95.5
487.953	104.5
488.171	98.5
488.389	91.5
488.607	102.5
488.825	99.5
489.043	91.5
489.261	97.5
489.479	90.5
489.696	96.5
489.914	85.5
490.132	89.5
490.35	83.5
490.568	83.5
490.786	90.5
491.003	93.5
491.221	88.5
491.439	95.5
491.657	82.5
491.874	90.5
492.092	89.5
492.31	98.5
492.527	87.5
492.745	82.5
492.963	87.5
493.18	94.5
493.398	106.5
493.615	90.5
493.833	87.5
494.05	87.5
494.268	98.5
494.485	82.5
494.703	97.5
494.92	102.5
495.138	93.5
495.355	92.5
495.573	95.5
495.79	82.5
496.008	100.5
496.225	93.5
496.442	79.5
496.66	102.5
496.877	85.5
497.094	91.5
497.312	99.5
497.529	88.5
497.746	86.5
497.963	98.5
498.181	79.5
498.398	88.5
498.615	109.5
498.832	99.5
499.049	103.5
499.267	92.5
499.484	98.5
499.701	98.5
499.918	93.5
500.135	95.5
500.352	84.5
500.569	100.5
500.786	94.5
501.003	95.5
501.22	88.5
501.437	89.5
501.654	97.5
501.871	87.5
502.088	86.5
502.305	100.5
502.522	116.5
502.739	94.5
502.956	97.5
503.172	90.5
503.389	94.5
503.606	94.5
503.823	87.5
504.04	100.5
504.256	92.5
504.473	88.5
504.69	83.5
504.907	91.5
505.123	98.5
505.34	87.5
505.557	92.5
505.773	87.5
505.99	76.5
506.207	81.5
506.423	83.5
506.64	93.5
506.856	81.5
507.073	85.5
507.289	86.5
507.506	89.5
507.722	94.5
507.939	110.5
508.155	104.5
508.372	92.5
508.588	107.5
508.805	89.5
509.021	91.5
509.238	97.5
509.454	104.5
509.67	94.5
509.887	98.5
510.103	140.5
510.319	200.5
510.536	657.5
510.752	2045.5
510.968	572.5
511.184	124.5
511.401	106.5
511.617	108.5
511.833	81.5
512.049	84.5
512.265	101.5
512.481	89.5
512.698	86.5
512.914	98.5
513.13	94.5
513.346	89.5
513.562	101.5
513.778	94.5
513.994	97.5
514.21	107.5
514.426	122.5
514.642	113.5
514.858	116.5
515.074	141.5
515.29	358.5
515.506	1139.5
515.721	440.5
515.937	140.5
516.153	105.5
516.369	102.5
516.585	90.5
516.801	84.5
517.016	95.5
517.232	97.5
517.448	93.5
517.664	89.5
517.879	89.5
518.095	95.5
518.311	90.5
518.527	88.5
518.742	74.5
518.958	100.5
519.173	92.5
519.389	100.5
519.605	87.5
519.82	102.5
520.036	98.5
520.251	116.5
520.467	110.5
520.682	106.5
520.898	100.5
521.113	108.5
521.329	128.5
521.544	162.5
521.76	468.5
521.975	1881.5
522.19	1144.5
522.406	267.5
522.621	118.5
522.836	107.5
523.052	79.5
523.267	109.5
523.482	96.5
523.698	102.5
523.913	117.5
524.128	115.5
524.343	88.5
524.559	105.5
524.774	101.5
524.989	98.5
525.204	108.5
525.419	97.5
525.634	96.5
525.849	79.5
526.064	93.5
526.28	89.5
526.495	97.5
526.71	86.5
526.925	84.5
527.14	86.5
527.355	86.5
527.57	89.5
527.785	81.5
527.999	88.5
528.214	90.5
528.429	107.5
528.644	111.5
528.859	76.5
529.074	97.5
529.289	117.5
529.503	157.5
529.718	112.5
529.933	92.5
530.148	79.5
530.363	95.5
530.577	84.5
530.792	92.5
531.007	101.5
531.221	112.5
531.436	91.5
531.651	84.5
531.865	93.5
532.08	94.5
532.295	104.5
532.509	93.5
532.724	100.5
532.938	109.5
533.153	91.5
533.367	84.5
533.582	104.5
533.796	84.5
534.011	86.5
534.225	97.5
534.44	92.5
534.654	91.5
534.868	97.5
535.083	86.5
535.297	98.5
535.511	97.5
