Data from Uncirc_2000_H10_HRD10591_00037.txt Node
Date: Wed Jan 03 10:48:24 EST 2024
User: Yrep
Spectrometer: HR+D1059
Trigger mode: 1
Integration Time (sec): 1.000000E-1
Scans to average: 1
Electric dark correction enabled: true
Nonlinearity correction enabled: false
Boxcar width: 0
XAxis mode: Wavelengths
Number of Pixels in Spectrum: 2048
>>>>>Begin Spectral Data<<<<<
223.165	-17.62
223.4	-17.62
223.635	-17.62
223.869	-23.62
224.104	-28.62
224.338	-19.62
224.573	-6.62
224.808	-27.62
225.042	-16.62
225.277	-6.62
225.511	8.38
225.746	7.38
225.98	7.38
226.215	12.38
226.449	36.38
226.683	21.38
226.918	34.38
227.152	19.38
227.387	35.38
227.621	36.38
227.856	29.38
228.09	34.38
228.324	63.38
228.559	50.38
228.793	49.38
229.027	71.38
229.262	60.38
229.496	58.38
229.73	84.38
229.964	80.38
230.199	75.38
230.433	81.38
230.667	71.38
230.901	66.38
231.136	78.38
231.37	79.38
231.604	79.38
231.838	71.38
232.072	80.38
232.306	69.38
232.541	78.38
232.775	79.38
233.009	69.38
233.243	80.38
233.477	71.38
233.711	83.38
233.945	82.38
234.179	69.38
234.413	79.38
234.647	63.38
234.881	68.38
235.115	83.38
235.349	89.38
235.583	86.38
235.817	73.38
236.051	66.38
236.285	75.38
236.519	60.38
236.753	71.38
236.987	79.38
237.221	88.38
237.455	79.38
237.689	78.38
237.922	64.38
238.156	91.38
238.39	86.38
238.624	68.38
238.858	82.38
239.091	68.38
239.325	72.38
239.559	74.38
239.793	69.38
240.027	74.38
240.26	89.38
240.494	93.38
240.728	79.38
240.961	72.38
241.195	80.38
241.429	72.38
241.662	63.38
241.896	67.38
242.13	66.38
242.363	75.38
242.597	78.38
242.83	90.38
243.064	64.38
243.298	83.38
243.531	76.38
243.765	86.38
243.998	93.38
244.232	88.38
244.465	78.38
244.699	86.38
244.932	82.38
245.166	69.38
245.399	77.38
245.633	73.38
245.866	75.38
246.099	75.38
246.333	58.38
246.566	76.38
246.8	65.38
247.033	80.38
247.266	65.38
247.5	77.38
247.733	71.38
247.966	73.38
248.2	77.38
248.433	71.38
248.666	83.38
248.899	82.38
249.133	85.38
249.366	83.38
249.599	72.38
249.832	86.38
250.066	82.38
250.299	76.38
250.532	80.38
250.765	77.38
250.998	83.38
251.231	80.38
251.465	61.38
251.698	81.38
251.931	71.38
252.164	83.38
252.397	79.38
252.63	79.38
252.863	83.38
253.096	92.38
253.329	80.38
253.562	85.38
253.795	76.38
254.028	81.38
254.261	75.38
254.494	85.38
254.727	79.38
254.96	68.38
255.193	88.38
255.426	92.38
255.659	72.38
255.892	79.38
256.124	78.38
256.357	71.38
256.59	85.38
256.823	71.38
257.056	72.38
257.289	60.38
257.521	77.38
257.754	85.38
257.987	81.38
258.22	80.38
258.452	78.38
258.685	83.38
258.918	96.38
259.151	90.38
259.383	92.38
259.616	82.38
259.849	90.38
260.081	89.38
260.314	84.38
260.547	85.38
260.779	68.38
261.012	66.38
261.244	91.38
261.477	83.38
261.71	85.38
261.942	97.38
262.175	87.38
262.407	103.38
262.64	81.38
262.872	84.38
263.105	83.38
263.337	97.38
263.57	85.38
263.802	78.38
264.035	90.38
264.267	81.38
264.499	84.38
264.732	76.38
264.964	69.38
265.197	75.38
265.429	89.38
265.661	73.38
265.894	81.38
266.126	90.38
266.358	71.38
266.591	87.38
266.823	79.38
267.055	74.38
267.287	81.38
267.52	72.38
267.752	85.38
267.984	94.38
268.216	97.38
268.448	91.38
268.681	88.38
268.913	82.38
269.145	69.38
269.377	87.38
269.609	78.38
269.841	72.38
270.073	69.38
270.306	79.38
270.538	85.38
270.77	68.38
271.002	83.38
271.234	81.38
271.466	79.38
271.698	83.38
271.93	76.38
272.162	84.38
272.394	85.38
272.626	90.38
272.858	92.38
273.09	89.38
273.322	74.38
273.553	85.38
273.785	71.38
274.017	83.38
274.249	90.38
274.481	82.38
274.713	88.38
274.945	77.38
275.176	76.38
275.408	86.38
275.64	86.38
275.872	90.38
276.104	83.38
276.335	90.38
276.567	92.38
276.799	113.38
277.031	93.38
277.262	84.38
277.494	79.38
277.726	74.38
277.957	76.38
278.189	83.38
278.421	83.38
278.652	85.38
278.884	84.38
279.115	86.38
279.347	69.38
279.579	85.38
279.81	84.38
280.042	96.38
280.273	87.38
280.505	85.38
280.736	82.38
280.968	77.38
281.199	87.38
281.431	81.38
281.662	74.38
281.894	80.38
282.125	93.38
282.356	100.38
282.588	125.38
282.819	91.38
283.051	93.38
283.282	74.38
283.513	71.38
283.745	95.38
283.976	88.38
284.207	96.38
284.439	101.38
284.67	90.38
284.901	73.38
285.132	95.38
285.364	77.38
285.595	88.38
285.826	95.38
286.057	93.38
286.288	78.38
286.52	83.38
286.751	83.38
286.982	72.38
287.213	81.38
287.444	85.38
287.675	87.38
287.906	87.38
288.138	81.38
288.369	97.38
288.6	101.38
288.831	95.38
289.062	77.38
289.293	94.38
289.524	78.38
289.755	68.38
289.986	89.38
290.217	76.38
290.448	83.38
290.679	87.38
290.91	87.38
291.141	79.38
291.371	97.38
291.602	83.38
291.833	87.38
292.064	81.38
292.295	98.38
292.526	92.38
292.757	75.38
292.987	76.38
293.218	77.38
293.449	92.38
293.68	83.38
293.91	100.38
294.141	82.38
294.372	81.38
294.603	95.38
294.833	90.38
295.064	82.38
295.295	91.38
295.525	96.38
295.756	108.38
295.987	111.38
296.217	123.38
296.448	112.38
296.679	76.38
296.909	101.38
297.14	81.38
297.37	84.38
297.601	93.38
297.831	90.38
298.062	91.38
298.292	82.38
298.523	84.38
298.753	73.38
298.984	77.38
299.214	97.38
299.445	99.38
299.675	92.38
299.905	91.38
300.136	90.38
300.366	72.38
300.597	86.38
300.827	86.38
301.057	85.38
301.288	105.38
301.518	96.38
301.748	80.38
301.979	97.38
302.209	87.38
302.439	92.38
302.669	90.38
302.9	94.38
303.13	88.38
303.36	99.38
303.59	100.38
303.82	103.38
304.051	90.38
304.281	90.38
304.511	83.38
304.741	81.38
304.971	88.38
305.201	82.38
305.431	90.38
305.661	87.38
305.891	79.38
306.121	103.38
306.352	99.38
306.582	101.38
306.812	92.38
307.042	83.38
307.272	90.38
307.502	81.38
307.731	80.38
307.961	93.38
308.191	84.38
308.421	76.38
308.651	102.38
308.881	83.38
309.111	88.38
309.341	95.38
309.571	94.38
309.8	88.38
310.03	85.38
310.26	86.38
310.49	108.38
310.72	81.38
310.949	97.38
311.179	95.38
311.409	81.38
311.639	93.38
311.868	84.38
312.098	97.38
312.328	91.38
312.557	102.38
312.787	117.38
313.017	108.38
313.246	99.38
313.476	92.38
313.706	96.38
313.935	95.38
314.165	109.38
314.394	85.38
314.624	99.38
314.853	85.38
315.083	96.38
315.312	87.38
315.542	80.38
315.771	86.38
316.001	82.38
316.23	90.38
316.46	91.38
316.689	84.38
316.919	87.38
317.148	98.38
317.377	86.38
317.607	89.38
317.836	106.38
318.065	93.38
318.295	102.38
318.524	83.38
318.753	95.38
318.983	92.38
319.212	97.38
319.441	102.38
319.67	100.38
319.9	85.38
320.129	78.38
320.358	99.38
320.587	94.38
320.816	96.38
321.046	98.38
321.275	104.38
321.504	82.38
321.733	92.38
321.962	99.38
322.191	121.38
322.42	103.38
322.649	108.38
322.878	98.38
323.108	100.38
323.337	109.38
323.566	127.38
323.795	158.38
324.024	188.38
324.253	357.38
324.482	719.38
324.71	1499.38
324.939	1925.38
325.168	733.38
325.397	214.38
325.626	145.38
325.855	120.38
326.084	125.38
326.313	123.38
326.542	143.38
326.77	209.38
326.999	424.38
327.228	866.38
327.457	1527.38
327.686	1215.38
327.914	330.38
328.143	181.38
328.372	129.38
328.6	108.38
328.829	110.38
329.058	115.38
329.287	112.38
329.515	100.38
329.744	98.38
329.972	99.38
330.201	93.38
330.43	99.38
330.658	112.38
330.887	128.38
331.115	104.38
331.344	105.38
331.572	91.38
331.801	102.38
332.03	96.38
332.258	89.38
332.486	88.38
332.715	102.38
332.943	90.38
333.172	82.38
333.4	98.38
333.629	100.38
333.857	111.38
334.085	101.38
334.314	107.38
334.542	103.38
334.771	85.38
334.999	101.38
335.227	84.38
335.455	103.38
335.684	90.38
335.912	93.38
336.14	91.38
336.369	96.38
336.597	83.38
336.825	96.38
337.053	88.38
337.281	97.38
337.51	84.38
337.738	91.38
337.966	100.38
338.194	84.38
338.422	89.38
338.65	85.38
338.878	92.38
339.106	91.38
339.334	87.38
339.562	91.38
339.79	98.38
340.018	94.38
340.246	92.38
340.474	89.38
340.702	84.38
340.93	83.38
341.158	92.38
341.386	83.38
341.614	93.38
341.842	89.38
342.07	87.38
342.298	81.38
342.526	83.38
342.754	82.38
342.981	93.38
343.209	86.38
343.437	103.38
343.665	71.38
343.893	94.38
344.12	87.38
344.348	91.38
344.576	82.38
344.804	84.38
345.031	91.38
345.259	94.38
345.487	97.38
345.714	91.38
345.942	85.38
346.17	86.38
346.397	82.38
346.625	88.38
346.853	101.38
347.08	99.38
347.308	90.38
347.535	92.38
347.763	89.38
347.99	97.38
348.218	102.38
348.445	92.38
348.673	91.38
348.9	90.38
349.128	91.38
349.355	92.38
349.583	103.38
349.81	84.38
350.037	97.38
350.265	93.38
350.492	103.38
350.72	81.38
350.947	99.38
351.174	107.38
351.402	98.38
351.629	106.38
351.856	106.38
352.083	94.38
352.311	108.38
352.538	95.38
352.765	98.38
352.992	107.38
353.22	100.38
353.447	90.38
353.674	94.38
353.901	96.38
354.128	89.38
354.355	95.38
354.583	102.38
354.81	90.38
355.037	89.38
355.264	90.38
355.491	94.38
355.718	85.38
355.945	99.38
356.172	105.38
356.399	77.38
356.626	103.38
356.853	107.38
357.08	107.38
357.307	96.38
357.534	90.38
357.761	95.38
357.988	87.38
358.215	92.38
358.441	97.38
358.668	77.38
358.895	93.38
359.122	85.38
359.349	82.38
359.576	103.38
359.802	90.38
360.029	93.38
360.256	106.38
360.483	93.38
360.709	90.38
360.936	87.38
361.163	86.38
361.39	98.38
361.616	100.38
361.843	94.38
362.07	88.38
362.296	93.38
362.523	88.38
362.749	83.38
362.976	88.38
363.203	81.38
363.429	96.38
363.656	84.38
363.882	103.38
364.109	81.38
364.335	92.38
364.562	92.38
364.788	86.38
365.015	78.38
365.241	102.38
365.468	108.38
365.694	95.38
365.92	101.38
366.147	88.38
366.373	84.38
366.599	89.38
366.826	94.38
367.052	95.38
367.278	96.38
367.505	102.38
367.731	109.38
367.957	98.38
368.184	101.38
368.41	98.38
368.636	121.38
368.862	130.38
369.089	103.38
369.315	79.38
369.541	88.38
369.767	99.38
369.993	90.38
370.219	83.38
370.445	99.38
370.672	69.38
370.898	89.38
371.124	73.38
371.35	79.38
371.576	80.38
371.802	90.38
372.028	88.38
372.254	78.38
372.48	100.38
372.706	97.38
372.932	95.38
373.158	97.38
373.384	98.38
373.61	88.38
373.835	99.38
374.061	84.38
374.287	79.38
374.513	91.38
374.739	87.38
374.965	89.38
375.191	91.38
375.416	101.38
375.642	99.38
375.868	91.38
376.094	79.38
376.319	80.38
376.545	87.38
376.771	86.38
376.997	80.38
377.222	74.38
377.448	101.38
377.674	92.38
377.899	94.38
378.125	86.38
378.35	83.38
378.576	76.38
378.802	74.38
379.027	84.38
379.253	98.38
379.478	77.38
379.704	99.38
379.929	94.38
380.155	86.38
380.38	93.38
380.606	78.38
380.831	74.38
381.057	99.38
381.282	88.38
381.507	95.38
381.733	93.38
381.958	99.38
382.184	90.38
382.409	91.38
382.634	89.38
382.86	97.38
383.085	96.38
383.31	104.38
383.535	114.38
383.761	99.38
383.986	90.38
384.211	103.38
384.436	89.38
384.662	108.38
384.887	112.38
385.112	107.38
385.337	90.38
385.562	92.38
385.787	93.38
386.013	112.38
386.238	99.38
386.463	103.38
386.688	101.38
386.913	96.38
387.138	112.38
387.363	106.38
387.588	108.38
387.813	90.38
388.038	97.38
388.263	92.38
388.488	114.38
388.713	98.38
388.938	115.38
389.163	93.38
389.387	100.38
389.612	92.38
389.837	86.38
390.062	81.38
390.287	100.38
390.512	103.38
390.736	85.38
390.961	79.38
391.186	98.38
391.411	89.38
391.636	92.38
391.86	82.38
392.085	91.38
392.31	84.38
392.534	94.38
392.759	99.38
392.984	97.38
393.208	86.38
393.433	81.38
393.658	88.38
393.882	84.38
394.107	86.38
394.331	71.38
394.556	88.38
394.78	89.38
395.005	87.38
395.229	97.38
395.454	93.38
395.678	68.38
395.903	89.38
396.127	75.38
396.352	85.38
396.576	84.38
396.801	81.38
397.025	92.38
397.249	92.38
397.474	80.38
397.698	98.38
397.922	84.38
398.147	96.38
398.371	91.38
398.595	89.38
398.82	81.38
399.044	78.38
399.268	109.38
399.492	100.38
399.717	97.38
399.941	98.38
400.165	75.38
400.389	75.38
400.613	86.38
400.837	83.38
401.062	82.38
401.286	84.38
401.51	79.38
401.734	76.38
401.958	91.38
402.182	124.38
402.406	149.38
402.63	118.38
402.854	83.38
403.078	88.38
403.302	92.38
403.526	101.38
403.75	83.38
403.974	97.38
404.198	83.38
404.422	76.38
404.645	86.38
404.869	106.38
405.093	87.38
405.317	83.38
405.541	94.38
405.765	95.38
405.988	106.38
406.212	151.38
406.436	202.38
406.66	123.38
406.883	88.38
407.107	84.38
407.331	91.38
407.555	92.38
407.778	76.38
408.002	81.38
408.226	89.38
408.449	89.38
408.673	85.38
408.896	86.38
409.12	87.38
409.344	93.38
409.567	84.38
409.791	92.38
410.014	97.38
410.238	95.38
410.461	98.38
410.685	96.38
410.908	102.38
411.132	109.38
411.355	89.38
411.578	90.38
411.802	98.38
412.025	96.38
412.249	89.38
412.472	94.38
412.695	93.38
412.919	75.38
413.142	72.38
413.365	75.38
413.589	91.38
413.812	91.38
414.035	93.38
414.258	82.38
414.482	81.38
414.705	83.38
414.928	95.38
415.151	80.38
415.374	92.38
415.597	90.38
415.821	79.38
416.044	84.38
416.267	97.38
416.49	85.38
416.713	95.38
416.936	77.38
417.159	89.38
417.382	89.38
417.605	81.38
417.828	81.38
418.051	78.38
418.274	92.38
418.497	92.38
418.72	83.38
418.943	95.38
419.166	77.38
419.389	81.38
419.611	87.38
419.834	84.38
420.057	94.38
420.28	100.38
420.503	67.38
420.726	81.38
420.948	95.38
421.171	76.38
421.394	86.38
421.617	96.38
421.839	97.38
422.062	101.38
422.285	87.38
422.507	104.38
422.73	91.38
422.953	89.38
423.175	88.38
423.398	74.38
423.621	98.38
423.843	95.38
424.066	83.38
424.288	84.38
424.511	89.38
424.733	93.38
424.956	95.38
425.178	104.38
425.401	100.38
425.623	80.38
425.846	92.38
426.068	103.38
426.291	80.38
426.513	76.38
426.735	91.38
426.958	75.38
427.18	96.38
427.402	125.38
427.625	157.38
427.847	107.38
428.069	105.38
428.292	84.38
428.514	84.38
428.736	85.38
428.958	86.38
429.181	80.38
429.403	91.38
429.625	84.38
429.847	95.38
430.069	100.38
430.292	88.38
430.514	90.38
430.736	83.38
430.958	76.38
431.18	97.38
431.402	87.38
431.624	91.38
431.846	76.38
432.068	84.38
432.29	109.38
432.512	97.38
432.734	76.38
432.956	76.38
433.178	85.38
433.4	92.38
433.622	86.38
433.844	84.38
434.066	84.38
434.287	98.38
434.509	83.38
434.731	96.38
434.953	93.38
435.175	87.38
435.397	105.38
435.618	94.38
435.84	80.38
436.062	118.38
436.284	108.38
436.505	108.38
436.727	100.38
436.949	98.38
437.17	83.38
437.392	80.38
437.614	89.38
437.835	106.38
438.057	107.38
438.278	98.38
438.5	100.38
438.721	104.38
438.943	99.38
439.165	83.38
439.386	80.38
439.608	93.38
439.829	85.38
440.05	112.38
440.272	124.38
440.493	93.38
440.715	90.38
440.936	83.38
441.158	84.38
441.379	80.38
441.6	86.38
441.822	81.38
442.043	93.38
442.264	89.38
442.486	76.38
442.707	89.38
442.928	101.38
443.149	131.38
443.371	120.38
443.592	109.38
443.813	93.38
444.034	102.38
444.255	96.38
444.476	92.38
444.698	83.38
444.919	90.38
445.14	127.38
445.361	125.38
445.582	109.38
445.803	124.38
446.024	126.38
446.245	120.38
446.466	110.38
446.687	91.38
446.908	77.38
447.129	81.38
447.35	95.38
447.571	83.38
447.792	92.38
448.013	99.38
448.234	111.38
448.455	107.38
448.675	107.38
448.896	112.38
449.117	100.38
449.338	95.38
449.559	122.38
449.779	121.38
450	88.38
450.221	97.38
450.442	95.38
450.662	77.38
450.883	101.38
451.104	101.38
451.324	99.38
451.545	89.38
451.766	96.38
451.986	73.38
452.207	91.38
452.428	76.38
452.648	96.38
452.869	103.38
453.089	98.38
453.31	118.38
453.53	92.38
453.751	88.38
453.971	90.38
454.192	96.38
454.412	99.38
454.633	92.38
454.853	85.38
455.073	90.38
455.294	87.38
455.514	83.38
455.734	101.38
455.955	64.38
456.175	83.38
456.395	81.38
456.616	86.38
456.836	83.38
457.056	90.38
457.276	87.38
457.497	69.38
457.717	90.38
457.937	93.38
458.157	82.38
458.377	96.38
458.598	99.38
458.818	113.38
459.038	150.38
459.258	107.38
459.478	86.38
459.698	98.38
459.918	80.38
460.138	96.38
460.358	90.38
460.578	81.38
460.798	80.38
461.018	94.38
461.238	73.38
461.458	105.38
461.678	91.38
461.898	88.38
462.118	87.38
462.338	83.38
462.558	72.38
462.777	80.38
462.997	84.38
463.217	78.38
463.437	93.38
463.657	81.38
463.876	96.38
464.096	80.38
464.316	88.38
464.536	84.38
464.755	92.38
464.975	92.38
465.195	149.38
465.414	130.38
465.634	104.38
465.854	77.38
466.073	85.38
466.293	87.38
466.512	94.38
466.732	78.38
466.951	96.38
467.171	91.38
467.391	101.38
467.61	101.38
467.829	84.38
468.049	82.38
468.268	79.38
468.488	90.38
468.707	76.38
468.927	77.38
469.146	85.38
469.365	92.38
469.585	88.38
469.804	72.38
470.023	84.38
470.243	102.38
470.462	89.38
470.681	104.38
470.901	99.38
471.12	76.38
471.339	101.38
471.558	92.38
471.777	85.38
471.997	87.38
472.216	87.38
472.435	87.38
472.654	84.38
472.873	86.38
473.092	84.38
473.311	90.38
473.53	105.38
473.749	80.38
473.968	93.38
474.187	100.38
474.406	96.38
474.625	89.38
474.844	85.38
475.063	71.38
475.282	95.38
475.501	89.38
475.72	69.38
475.939	81.38
476.158	93.38
476.377	92.38
476.596	88.38
476.814	88.38
477.033	88.38
477.252	87.38
477.471	78.38
477.69	95.38
477.908	87.38
478.127	88.38
478.346	106.38
478.564	100.38
478.783	97.38
479.002	88.38
479.22	90.38
479.439	101.38
479.658	96.38
479.876	106.38
480.095	83.38
480.313	88.38
480.532	87.38
480.751	77.38
480.969	92.38
481.188	93.38
481.406	95.38
481.624	95.38
481.843	84.38
482.061	87.38
482.28	87.38
482.498	100.38
482.717	77.38
482.935	89.38
483.153	97.38
483.372	89.38
483.59	91.38
483.808	90.38
484.027	97.38
484.245	98.38
484.463	96.38
484.681	97.38
484.9	97.38
485.118	73.38
485.336	83.38
485.554	73.38
485.772	115.38
485.99	97.38
486.209	96.38
486.427	93.38
486.645	96.38
486.863	100.38
487.081	104.38
487.299	89.38
487.517	88.38
487.735	90.38
487.953	95.38
488.171	100.38
488.389	97.38
488.607	95.38
488.825	85.38
489.043	98.38
489.261	91.38
489.479	86.38
489.696	84.38
489.914	92.38
490.132	74.38
490.35	85.38
490.568	76.38
490.786	81.38
491.003	74.38
491.221	95.38
491.439	98.38
491.657	86.38
491.874	110.38
492.092	81.38
492.31	89.38
492.527	84.38
492.745	86.38
492.963	78.38
493.18	87.38
493.398	91.38
493.615	84.38
493.833	92.38
494.05	96.38
494.268	90.38
494.485	95.38
494.703	87.38
494.92	83.38
495.138	93.38
495.355	98.38
495.573	95.38
495.79	84.38
496.008	83.38
496.225	89.38
496.442	88.38
496.66	90.38
496.877	95.38
497.094	96.38
497.312	82.38
497.529	86.38
497.746	89.38
497.963	80.38
498.181	89.38
498.398	91.38
498.615	103.38
498.832	103.38
499.049	85.38
499.267	99.38
499.484	93.38
499.701	64.38
499.918	88.38
500.135	100.38
500.352	88.38
500.569	92.38
500.786	102.38
501.003	87.38
501.22	92.38
501.437	97.38
501.654	98.38
501.871	103.38
502.088	79.38
502.305	82.38
502.522	87.38
502.739	87.38
502.956	93.38
503.172	89.38
503.389	93.38
503.606	88.38
503.823	100.38
504.04	95.38
504.256	74.38
504.473	89.38
504.69	95.38
504.907	91.38
505.123	83.38
505.34	91.38
505.557	79.38
505.773	80.38
505.99	87.38
506.207	84.38
506.423	93.38
506.64	80.38
506.856	98.38
507.073	75.38
507.289	85.38
507.506	88.38
507.722	108.38
507.939	105.38
508.155	87.38
508.372	88.38
508.588	88.38
508.805	100.38
509.021	88.38
509.238	103.38
509.454	84.38
509.67	83.38
509.887	97.38
510.103	127.38
510.319	199.38
510.536	693.38
510.752	2176.38
510.968	587.38
511.184	151.38
511.401	103.38
511.617	97.38
511.833	90.38
512.049	91.38
512.265	95.38
512.481	98.38
512.698	93.38
512.914	93.38
513.13	104.38
513.346	99.38
513.562	104.38
513.778	92.38
513.994	86.38
514.21	101.38
514.426	98.38
514.642	117.38
514.858	117.38
515.074	152.38
515.29	399.38
515.506	1285.38
515.721	519.38
515.937	143.38
516.153	99.38
516.369	111.38
516.585	92.38
516.801	112.38
