Data from Uncirc_2000_H10_HRD10591_00044.txt Node
Date: Wed Jan 03 10:48:26 EST 2024
User: Yrep
Spectrometer: HR+D1059
Trigger mode: 1
Integration Time (sec): 1.000000E-1
Scans to average: 1
Electric dark correction enabled: true
Nonlinearity correction enabled: false
Boxcar width: 0
XAxis mode: Wavelengths
Number of Pixels in Spectrum: 2048
>>>>>Begin Spectral Data<<<<<
223.165	-20.38
223.4	-20.38
223.635	-20.38
223.869	-19.38
224.104	-6.38
224.338	-14.38
224.573	-13.38
224.808	-33.38
225.042	-2.38
225.277	-2.38
225.511	5.62
225.746	-4.38
225.98	3.62
226.215	14.62
226.449	14.62
226.683	26.62
226.918	32.62
227.152	18.62
227.387	31.62
227.621	47.62
227.856	59.62
228.09	63.62
228.324	53.62
228.559	66.62
228.793	64.62
229.027	57.62
229.262	61.62
229.496	76.62
229.73	83.62
229.964	97.62
230.199	78.62
230.433	70.62
230.667	71.62
230.901	68.62
231.136	76.62
231.37	71.62
231.604	80.62
231.838	73.62
232.072	86.62
232.306	96.62
232.541	84.62
232.775	83.62
233.009	85.62
233.243	78.62
233.477	82.62
233.711	82.62
233.945	84.62
234.179	93.62
234.413	77.62
234.647	79.62
234.881	71.62
235.115	86.62
235.349	86.62
235.583	64.62
235.817	94.62
236.051	86.62
236.285	61.62
236.519	85.62
236.753	81.62
236.987	80.62
237.221	80.62
237.455	74.62
237.689	82.62
237.922	73.62
238.156	65.62
238.39	77.62
238.624	77.62
238.858	89.62
239.091	72.62
239.325	81.62
239.559	80.62
239.793	93.62
240.027	88.62
240.26	87.62
240.494	78.62
240.728	71.62
240.961	59.62
241.195	73.62
241.429	86.62
241.662	71.62
241.896	81.62
242.13	78.62
242.363	88.62
242.597	78.62
242.83	73.62
243.064	75.62
243.298	79.62
243.531	76.62
243.765	93.62
243.998	77.62
244.232	73.62
244.465	76.62
244.699	76.62
244.932	85.62
245.166	78.62
245.399	90.62
245.633	74.62
245.866	82.62
246.099	85.62
246.333	80.62
246.566	79.62
246.8	69.62
247.033	90.62
247.266	88.62
247.5	68.62
247.733	83.62
247.966	74.62
248.2	85.62
248.433	83.62
248.666	89.62
248.899	83.62
249.133	63.62
249.366	86.62
249.599	101.62
249.832	76.62
250.066	80.62
250.299	98.62
250.532	91.62
250.765	82.62
250.998	78.62
251.231	84.62
251.465	91.62
251.698	90.62
251.931	69.62
252.164	82.62
252.397	81.62
252.63	86.62
252.863	72.62
253.096	80.62
253.329	73.62
253.562	64.62
253.795	84.62
254.028	97.62
254.261	85.62
254.494	84.62
254.727	75.62
254.96	100.62
255.193	85.62
255.426	84.62
255.659	75.62
255.892	89.62
256.124	93.62
256.357	91.62
256.59	74.62
256.823	74.62
257.056	91.62
257.289	87.62
257.521	72.62
257.754	63.62
257.987	88.62
258.22	96.62
258.452	86.62
258.685	93.62
258.918	74.62
259.151	74.62
259.383	83.62
259.616	80.62
259.849	93.62
260.081	93.62
260.314	90.62
260.547	64.62
260.779	80.62
261.012	95.62
261.244	77.62
261.477	100.62
261.71	96.62
261.942	106.62
262.175	116.62
262.407	83.62
262.64	87.62
262.872	76.62
263.105	99.62
263.337	72.62
263.57	80.62
263.802	101.62
264.035	80.62
264.267	88.62
264.499	80.62
264.732	88.62
264.964	95.62
265.197	70.62
265.429	86.62
265.661	83.62
265.894	96.62
266.126	96.62
266.358	79.62
266.591	83.62
266.823	85.62
267.055	81.62
267.287	76.62
267.52	86.62
267.752	85.62
267.984	83.62
268.216	93.62
268.448	76.62
268.681	94.62
268.913	91.62
269.145	79.62
269.377	90.62
269.609	80.62
269.841	93.62
270.073	86.62
270.306	89.62
270.538	85.62
270.77	95.62
271.002	86.62
271.234	76.62
271.466	77.62
271.698	82.62
271.93	88.62
272.162	91.62
272.394	102.62
272.626	92.62
272.858	86.62
273.09	70.62
273.322	81.62
273.553	84.62
273.785	89.62
274.017	95.62
274.249	102.62
274.481	94.62
274.713	83.62
274.945	97.62
275.176	89.62
275.408	95.62
275.64	81.62
275.872	89.62
276.104	112.62
276.335	101.62
276.567	95.62
276.799	96.62
277.031	95.62
277.262	93.62
277.494	75.62
277.726	90.62
277.957	88.62
278.189	93.62
278.421	99.62
278.652	95.62
278.884	88.62
279.115	77.62
279.347	96.62
279.579	78.62
279.81	78.62
280.042	94.62
280.273	76.62
280.505	84.62
280.736	78.62
280.968	86.62
281.199	79.62
281.431	93.62
281.662	96.62
281.894	99.62
282.125	83.62
282.356	116.62
282.588	123.62
282.819	103.62
283.051	105.62
283.282	92.62
283.513	96.62
283.745	82.62
283.976	90.62
284.207	82.62
284.439	96.62
284.67	76.62
284.901	84.62
285.132	81.62
285.364	87.62
285.595	88.62
285.826	78.62
286.057	90.62
286.288	92.62
286.52	97.62
286.751	90.62
286.982	84.62
287.213	89.62
287.444	76.62
287.675	87.62
287.906	99.62
288.138	98.62
288.369	88.62
288.6	102.62
288.831	77.62
289.062	79.62
289.293	97.62
289.524	98.62
289.755	83.62
289.986	81.62
290.217	98.62
290.448	82.62
290.679	97.62
290.91	115.62
291.141	74.62
291.371	91.62
291.602	96.62
291.833	91.62
292.064	90.62
292.295	92.62
292.526	91.62
292.757	98.62
292.987	86.62
293.218	84.62
293.449	85.62
293.68	84.62
293.91	82.62
294.141	92.62
294.372	75.62
294.603	93.62
294.833	97.62
295.064	87.62
295.295	76.62
295.525	85.62
295.756	105.62
295.987	134.62
296.217	134.62
296.448	127.62
296.679	91.62
296.909	88.62
297.14	82.62
297.37	94.62
297.601	90.62
297.831	75.62
298.062	88.62
298.292	82.62
298.523	83.62
298.753	96.62
298.984	106.62
299.214	90.62
299.445	104.62
299.675	94.62
299.905	111.62
300.136	86.62
300.366	99.62
300.597	103.62
300.827	90.62
301.057	94.62
301.288	94.62
301.518	79.62
301.748	93.62
301.979	106.62
302.209	90.62
302.439	80.62
302.669	90.62
302.9	81.62
303.13	83.62
303.36	92.62
303.59	98.62
303.82	102.62
304.051	98.62
304.281	83.62
304.511	78.62
304.741	90.62
304.971	104.62
305.201	81.62
305.431	98.62
305.661	95.62
305.891	96.62
306.121	101.62
306.352	106.62
306.582	96.62
306.812	96.62
307.042	83.62
307.272	99.62
307.502	109.62
307.731	100.62
307.961	91.62
308.191	94.62
308.421	90.62
308.651	89.62
308.881	99.62
309.111	84.62
309.341	103.62
309.571	90.62
309.8	95.62
310.03	81.62
310.26	89.62
310.49	100.62
310.72	101.62
310.949	102.62
311.179	97.62
311.409	87.62
311.639	97.62
311.868	92.62
312.098	93.62
312.328	86.62
312.557	95.62
312.787	98.62
313.017	110.62
313.246	95.62
313.476	102.62
313.706	86.62
313.935	102.62
314.165	102.62
314.394	100.62
314.624	105.62
314.853	90.62
315.083	97.62
315.312	80.62
315.542	88.62
315.771	82.62
316.001	85.62
316.23	89.62
316.46	88.62
316.689	92.62
316.919	82.62
317.148	102.62
317.377	101.62
317.607	84.62
317.836	73.62
318.065	105.62
318.295	88.62
318.524	88.62
318.753	92.62
318.983	107.62
319.212	103.62
319.441	99.62
319.67	96.62
319.9	90.62
320.129	86.62
320.358	91.62
320.587	87.62
320.816	95.62
321.046	97.62
321.275	105.62
321.504	107.62
321.733	91.62
321.962	107.62
322.191	96.62
322.42	102.62
322.649	114.62
322.878	119.62
323.108	108.62
323.337	105.62
323.566	127.62
323.795	143.62
324.024	199.62
324.253	389.62
324.482	799.62
324.71	1654.62
324.939	2156.62
325.168	780.62
325.397	227.62
325.626	138.62
325.855	126.62
326.084	125.62
326.313	143.62
326.542	159.62
326.77	224.62
326.999	462.62
327.228	941.62
327.457	1695.62
327.686	1324.62
327.914	362.62
328.143	174.62
328.372	132.62
328.6	112.62
328.829	115.62
329.058	105.62
329.287	125.62
329.515	105.62
329.744	102.62
329.972	104.62
330.201	95.62
330.43	111.62
330.658	106.62
330.887	119.62
331.115	106.62
331.344	97.62
331.572	91.62
331.801	115.62
332.03	118.62
332.258	95.62
332.486	94.62
332.715	96.62
332.943	95.62
333.172	106.62
333.4	94.62
333.629	115.62
333.857	103.62
334.085	102.62
334.314	109.62
334.542	100.62
334.771	106.62
334.999	100.62
335.227	83.62
335.455	102.62
335.684	88.62
335.912	97.62
336.14	101.62
336.369	94.62
336.597	95.62
336.825	112.62
337.053	104.62
337.281	89.62
337.51	101.62
337.738	93.62
337.966	102.62
338.194	105.62
338.422	79.62
338.65	89.62
338.878	87.62
339.106	83.62
339.334	93.62
339.562	90.62
339.79	94.62
340.018	86.62
340.246	96.62
340.474	84.62
340.702	90.62
340.93	101.62
341.158	98.62
341.386	91.62
341.614	107.62
341.842	92.62
342.07	87.62
342.298	94.62
342.526	106.62
342.754	95.62
342.981	86.62
343.209	78.62
343.437	103.62
343.665	86.62
343.893	83.62
344.12	84.62
344.348	79.62
344.576	96.62
344.804	96.62
345.031	82.62
345.259	103.62
345.487	116.62
345.714	89.62
345.942	89.62
346.17	95.62
346.397	99.62
346.625	102.62
346.853	95.62
347.08	90.62
347.308	84.62
347.535	95.62
347.763	96.62
347.99	95.62
348.218	94.62
348.445	101.62
348.673	108.62
348.9	96.62
349.128	90.62
349.355	94.62
349.583	102.62
349.81	91.62
350.037	102.62
350.265	87.62
350.492	105.62
350.72	90.62
350.947	103.62
351.174	103.62
351.402	96.62
351.629	112.62
351.856	100.62
352.083	92.62
352.311	99.62
352.538	119.62
352.765	111.62
352.992	107.62
353.22	82.62
353.447	105.62
353.674	94.62
353.901	106.62
354.128	111.62
354.355	86.62
354.583	95.62
354.81	104.62
355.037	105.62
355.264	91.62
355.491	98.62
355.718	90.62
355.945	100.62
356.172	98.62
356.399	116.62
356.626	104.62
356.853	102.62
357.08	105.62
357.307	97.62
357.534	108.62
357.761	85.62
357.988	95.62
358.215	108.62
358.441	92.62
358.668	85.62
358.895	87.62
359.122	84.62
359.349	88.62
359.576	82.62
359.802	106.62
360.029	113.62
360.256	119.62
360.483	97.62
360.709	108.62
360.936	99.62
361.163	76.62
361.39	94.62
361.616	96.62
361.843	93.62
362.07	92.62
362.296	96.62
362.523	90.62
362.749	96.62
362.976	91.62
363.203	92.62
363.429	105.62
363.656	105.62
363.882	91.62
364.109	87.62
364.335	82.62
364.562	90.62
364.788	112.62
365.015	89.62
365.241	109.62
365.468	101.62
365.694	98.62
365.92	95.62
366.147	103.62
366.373	89.62
366.599	94.62
366.826	83.62
367.052	79.62
367.278	96.62
367.505	90.62
367.731	87.62
367.957	96.62
368.184	101.62
368.41	89.62
368.636	98.62
368.862	116.62
369.089	96.62
369.315	96.62
369.541	91.62
369.767	78.62
369.993	99.62
370.219	93.62
370.445	94.62
370.672	101.62
370.898	88.62
371.124	72.62
371.35	83.62
371.576	94.62
371.802	89.62
372.028	88.62
372.254	82.62
372.48	95.62
372.706	91.62
372.932	90.62
373.158	86.62
373.384	96.62
373.61	90.62
373.835	88.62
374.061	89.62
374.287	91.62
374.513	92.62
374.739	98.62
374.965	90.62
375.191	90.62
375.416	82.62
375.642	93.62
375.868	101.62
376.094	93.62
376.319	93.62
376.545	84.62
376.771	87.62
376.997	99.62
377.222	87.62
377.448	90.62
377.674	90.62
377.899	93.62
378.125	95.62
378.35	91.62
378.576	88.62
378.802	90.62
379.027	85.62
379.253	97.62
379.478	89.62
379.704	91.62
379.929	99.62
380.155	86.62
380.38	89.62
380.606	92.62
380.831	85.62
381.057	100.62
381.282	83.62
381.507	93.62
381.733	107.62
381.958	95.62
382.184	91.62
382.409	104.62
382.634	109.62
382.86	102.62
383.085	104.62
383.31	96.62
383.535	110.62
383.761	95.62
383.986	101.62
384.211	96.62
384.436	87.62
384.662	99.62
384.887	114.62
385.112	120.62
385.337	100.62
385.562	100.62
385.787	100.62
386.013	99.62
386.238	102.62
386.463	109.62
386.688	112.62
386.913	96.62
387.138	87.62
387.363	100.62
387.588	106.62
387.813	100.62
388.038	121.62
388.263	110.62
388.488	105.62
388.713	88.62
388.938	91.62
389.163	95.62
389.387	93.62
389.612	104.62
389.837	105.62
390.062	110.62
390.287	82.62
390.512	77.62
390.736	88.62
390.961	91.62
391.186	88.62
391.411	102.62
391.636	99.62
391.86	83.62
392.085	74.62
392.31	74.62
392.534	96.62
392.759	99.62
392.984	89.62
393.208	78.62
393.433	94.62
393.658	100.62
393.882	91.62
394.107	89.62
394.331	94.62
394.556	87.62
394.78	98.62
395.005	92.62
395.229	82.62
395.454	94.62
395.678	98.62
395.903	83.62
396.127	81.62
396.352	74.62
396.576	104.62
396.801	88.62
397.025	99.62
397.249	79.62
397.474	100.62
397.698	90.62
397.922	76.62
398.147	89.62
398.371	102.62
398.595	83.62
398.82	83.62
399.044	107.62
399.268	84.62
399.492	106.62
399.717	90.62
399.941	84.62
400.165	93.62
400.389	84.62
400.613	90.62
400.837	96.62
401.062	89.62
401.286	88.62
401.51	87.62
401.734	91.62
401.958	80.62
402.182	134.62
402.406	151.62
402.63	119.62
402.854	96.62
403.078	91.62
403.302	91.62
403.526	88.62
403.75	96.62
403.974	85.62
404.198	94.62
404.422	89.62
404.645	85.62
404.869	86.62
405.093	93.62
405.317	101.62
405.541	84.62
405.765	97.62
405.988	104.62
406.212	154.62
406.436	210.62
406.66	149.62
406.883	102.62
407.107	102.62
407.331	94.62
407.555	102.62
407.778	100.62
408.002	90.62
408.226	88.62
408.449	87.62
408.673	102.62
408.896	91.62
409.12	88.62
409.344	88.62
409.567	77.62
409.791	92.62
410.014	87.62
410.238	86.62
410.461	92.62
410.685	92.62
410.908	102.62
411.132	110.62
411.355	101.62
411.578	101.62
411.802	88.62
412.025	94.62
412.249	96.62
412.472	73.62
412.695	89.62
412.919	93.62
413.142	83.62
413.365	105.62
413.589	98.62
413.812	96.62
414.035	94.62
414.258	78.62
414.482	89.62
414.705	93.62
414.928	96.62
415.151	86.62
415.374	106.62
415.597	88.62
415.821	78.62
416.044	92.62
416.267	80.62
416.49	81.62
416.713	80.62
416.936	87.62
417.159	91.62
417.382	85.62
417.605	84.62
417.828	90.62
418.051	89.62
418.274	82.62
418.497	85.62
418.72	90.62
418.943	90.62
419.166	91.62
419.389	82.62
419.611	93.62
419.834	88.62
420.057	95.62
420.28	96.62
420.503	82.62
420.726	89.62
420.948	101.62
421.171	94.62
421.394	91.62
421.617	95.62
421.839	86.62
422.062	98.62
422.285	91.62
422.507	86.62
422.73	102.62
422.953	77.62
423.175	90.62
423.398	80.62
423.621	93.62
423.843	89.62
424.066	87.62
424.288	96.62
424.511	88.62
424.733	104.62
424.956	111.62
425.178	99.62
425.401	91.62
425.623	97.62
425.846	86.62
426.068	98.62
426.291	109.62
426.513	86.62
426.735	92.62
426.958	101.62
427.18	98.62
427.402	134.62
427.625	149.62
427.847	124.62
428.069	91.62
428.292	89.62
428.514	95.62
428.736	90.62
428.958	70.62
429.181	86.62
429.403	73.62
429.625	80.62
429.847	90.62
430.069	95.62
430.292	82.62
430.514	91.62
430.736	87.62
430.958	87.62
431.18	103.62
431.402	86.62
431.624	97.62
431.846	91.62
432.068	95.62
432.29	85.62
432.512	92.62
432.734	85.62
432.956	79.62
433.178	82.62
433.4	95.62
433.622	83.62
433.844	87.62
434.066	86.62
434.287	93.62
434.509	97.62
434.731	100.62
434.953	92.62
435.175	109.62
435.397	93.62
435.618	89.62
435.84	100.62
436.062	91.62
436.284	109.62
436.505	107.62
436.727	103.62
436.949	87.62
437.17	98.62
437.392	86.62
437.614	92.62
437.835	94.62
438.057	122.62
438.278	103.62
438.5	105.62
438.721	115.62
438.943	107.62
439.165	80.62
439.386	101.62
439.608	82.62
439.829	101.62
440.05	101.62
440.272	152.62
440.493	100.62
440.715	95.62
440.936	63.62
441.158	85.62
441.379	76.62
441.6	90.62
441.822	99.62
442.043	95.62
442.264	91.62
442.486	92.62
442.707	101.62
442.928	83.62
443.149	107.62
443.371	118.62
443.592	107.62
443.813	104.62
444.034	103.62
444.255	88.62
444.476	81.62
444.698	102.62
444.919	83.62
445.14	135.62
445.361	117.62
445.582	105.62
445.803	116.62
446.024	127.62
446.245	125.62
446.466	109.62
446.687	85.62
446.908	99.62
447.129	104.62
447.35	92.62
447.571	89.62
447.792	93.62
448.013	101.62
448.234	111.62
448.455	107.62
448.675	105.62
448.896	94.62
449.117	95.62
449.338	109.62
449.559	119.62
449.779	132.62
450	108.62
450.221	80.62
450.442	96.62
450.662	93.62
450.883	107.62
451.104	93.62
451.324	91.62
451.545	80.62
451.766	90.62
451.986	88.62
452.207	93.62
452.428	95.62
452.648	90.62
452.869	109.62
453.089	118.62
453.31	112.62
453.53	99.62
453.751	101.62
453.971	93.62
454.192	84.62
454.412	91.62
454.633	88.62
454.853	104.62
455.073	89.62
455.294	85.62
455.514	105.62
455.734	93.62
455.955	89.62
456.175	88.62
456.395	81.62
456.616	83.62
456.836	87.62
457.056	77.62
457.276	99.62
457.497	100.62
457.717	95.62
457.937	84.62
458.157	96.62
458.377	86.62
458.598	111.62
458.818	149.62
459.038	156.62
459.258	107.62
459.478	95.62
459.698	85.62
459.918	80.62
460.138	88.62
460.358	101.62
460.578	89.62
460.798	105.62
461.018	83.62
461.238	82.62
461.458	78.62
461.678	86.62
461.898	91.62
462.118	93.62
462.338	92.62
462.558	97.62
462.777	85.62
462.997	94.62
463.217	103.62
463.437	93.62
463.657	82.62
463.876	77.62
464.096	87.62
464.316	87.62
464.536	99.62
464.755	91.62
464.975	108.62
465.195	138.62
465.414	136.62
465.634	109.62
465.854	90.62
466.073	82.62
466.293	89.62
466.512	90.62
466.732	93.62
466.951	104.62
467.171	94.62
467.391	84.62
467.61	101.62
467.829	82.62
468.049	90.62
468.268	87.62
468.488	90.62
468.707	84.62
468.927	90.62
469.146	92.62
469.365	88.62
469.585	79.62
469.804	87.62
470.023	91.62
470.243	78.62
470.462	78.62
470.681	95.62
470.901	105.62
471.12	89.62
471.339	98.62
471.558	94.62
471.777	89.62
471.997	84.62
472.216	90.62
472.435	82.62
472.654	105.62
472.873	95.62
473.092	67.62
473.311	88.62
473.53	99.62
473.749	86.62
473.968	92.62
474.187	87.62
474.406	95.62
474.625	96.62
474.844	99.62
475.063	84.62
475.282	93.62
475.501	81.62
475.72	100.62
475.939	83.62
476.158	88.62
476.377	99.62
476.596	89.62
476.814	90.62
477.033	95.62
477.252	76.62
477.471	94.62
477.69	81.62
477.908	105.62
478.127	97.62
478.346	74.62
478.564	90.62
478.783	105.62
479.002	99.62
479.22	105.62
479.439	96.62
479.658	101.62
479.876	91.62
480.095	101.62
480.313	89.62
480.532	79.62
480.751	91.62
480.969	86.62
481.188	100.62
481.406	96.62
481.624	95.62
481.843	86.62
482.061	93.62
482.28	82.62
482.498	91.62
482.717	72.62
482.935	85.62
483.153	99.62
483.372	93.62
483.59	93.62
483.808	107.62
484.027	106.62
484.245	93.62
484.463	97.62
484.681	103.62
484.9	87.62
485.118	123.62
485.336	100.62
485.554	111.62
485.772	101.62
485.99	104.62
486.209	109.62
486.427	112.62
486.645	110.62
486.863	120.62
487.081	103.62
487.299	107.62
487.517	97.62
487.735	95.62
487.953	96.62
488.171	99.62
488.389	95.62
488.607	94.62
488.825	91.62
489.043	93.62
489.261	97.62
489.479	99.62
489.696	76.62
489.914	93.62
490.132	86.62
490.35	94.62
490.568	86.62
490.786	94.62
491.003	92.62
491.221	89.62
491.439	90.62
491.657	96.62
491.874	100.62
492.092	84.62
492.31	88.62
492.527	89.62
492.745	97.62
492.963	100.62
493.18	104.62
493.398	93.62
493.615	119.62
493.833	84.62
494.05	93.62
494.268	102.62
494.485	94.62
494.703	97.62
494.92	99.62
495.138	90.62
495.355	91.62
495.573	99.62
495.79	78.62
496.008	99.62
496.225	93.62
496.442	91.62
496.66	90.62
496.877	94.62
497.094	103.62
497.312	108.62
497.529	89.62
497.746	94.62
497.963	88.62
498.181	95.62
498.398	94.62
498.615	108.62
498.832	100.62
499.049	83.62
499.267	101.62
499.484	98.62
499.701	90.62
499.918	99.62
500.135	89.62
500.352	91.62
500.569	83.62
500.786	101.62
501.003	99.62
501.22	91.62
501.437	102.62
501.654	109.62
501.871	103.62
502.088	86.62
502.305	91.62
502.522	91.62
502.739	102.62
502.956	103.62
503.172	93.62
503.389	102.62
503.606	98.62
503.823	96.62
504.04	91.62
504.256	95.62
504.473	106.62
504.69	98.62
504.907	107.62
505.123	109.62
505.34	85.62
505.557	93.62
505.773	90.62
505.99	89.62
506.207	101.62
506.423	89.62
506.64	95.62
506.856	108.62
507.073	94.62
507.289	89.62
507.506	98.62
507.722	99.62
507.939	121.62
508.155	96.62
508.372	96.62
508.588	95.62
508.805	114.62
509.021	91.62
509.238	102.62
509.454	101.62
509.67	86.62
509.887	115.62
510.103	131.62
510.319	208.62
510.536	722.62
510.752	2229.62
510.968	608.62
511.184	168.62
511.401	104.62
511.617	89.62
511.833	94.62
512.049	102.62
512.265	96.62
512.481	92.62
512.698	90.62
512.914	90.62
513.13	90.62
513.346	92.62
513.562	99.62
513.778	104.62
513.994	87.62
514.21	97.62
514.426	119.62
514.642	127.62
514.858	133.62
515.074	147.62
515.29	404.62
