Data from Uncirc_2000_H10_HRD10591_00077.txt Node
Date: Wed Jan 03 10:48:32 EST 2024
User: Yrep
Spectrometer: HR+D1059
Trigger mode: 1
Integration Time (sec): 1.000000E-1
Scans to average: 1
Electric dark correction enabled: true
Nonlinearity correction enabled: false
Boxcar width: 0
XAxis mode: Wavelengths
Number of Pixels in Spectrum: 2048
>>>>>Begin Spectral Data<<<<<
223.165	-6.38
223.4	-6.38
223.635	-6.38
223.869	-19.38
224.104	-20.38
224.338	-18.38
224.573	-6.38
224.808	-3.38
225.042	-12.38
225.277	-9.38
225.511	5.62
225.746	-3.38
225.98	-7.38
226.215	7.62
226.449	26.62
226.683	17.62
226.918	18.62
227.152	30.62
227.387	29.62
227.621	38.62
227.856	48.62
228.09	45.62
228.324	52.62
228.559	64.62
228.793	65.62
229.027	71.62
229.262	72.62
229.496	86.62
229.73	61.62
229.964	71.62
230.199	79.62
230.433	64.62
230.667	88.62
230.901	80.62
231.136	69.62
231.37	90.62
231.604	68.62
231.838	74.62
232.072	80.62
232.306	80.62
232.541	75.62
232.775	82.62
233.009	87.62
233.243	84.62
233.477	84.62
233.711	81.62
233.945	71.62
234.179	80.62
234.413	78.62
234.647	70.62
234.881	80.62
235.115	84.62
235.349	79.62
235.583	80.62
235.817	70.62
236.051	81.62
236.285	68.62
236.519	81.62
236.753	90.62
236.987	61.62
237.221	85.62
237.455	76.62
237.689	75.62
237.922	78.62
238.156	71.62
238.39	80.62
238.624	72.62
238.858	68.62
239.091	67.62
239.325	78.62
239.559	86.62
239.793	72.62
240.027	86.62
240.26	73.62
240.494	78.62
240.728	78.62
240.961	85.62
241.195	71.62
241.429	78.62
241.662	85.62
241.896	69.62
242.13	87.62
242.363	80.62
242.597	75.62
242.83	80.62
243.064	66.62
243.298	75.62
243.531	60.62
243.765	73.62
243.998	59.62
244.232	93.62
244.465	76.62
244.699	75.62
244.932	80.62
245.166	81.62
245.399	90.62
245.633	78.62
245.866	69.62
246.099	70.62
246.333	87.62
246.566	75.62
246.8	76.62
247.033	80.62
247.266	80.62
247.5	76.62
247.733	71.62
247.966	69.62
248.2	75.62
248.433	71.62
248.666	90.62
248.899	87.62
249.133	91.62
249.366	98.62
249.599	82.62
249.832	70.62
250.066	78.62
250.299	79.62
250.532	82.62
250.765	77.62
250.998	81.62
251.231	77.62
251.465	92.62
251.698	75.62
251.931	71.62
252.164	77.62
252.397	85.62
252.63	84.62
252.863	91.62
253.096	69.62
253.329	79.62
253.562	72.62
253.795	76.62
254.028	86.62
254.261	89.62
254.494	76.62
254.727	71.62
254.96	76.62
255.193	71.62
255.426	76.62
255.659	100.62
255.892	83.62
256.124	77.62
256.357	85.62
256.59	75.62
256.823	85.62
257.056	84.62
257.289	82.62
257.521	86.62
257.754	87.62
257.987	74.62
258.22	78.62
258.452	94.62
258.685	75.62
258.918	84.62
259.151	88.62
259.383	76.62
259.616	89.62
259.849	87.62
260.081	86.62
260.314	81.62
260.547	87.62
260.779	90.62
261.012	81.62
261.244	85.62
261.477	99.62
261.71	109.62
261.942	105.62
262.175	115.62
262.407	86.62
262.64	76.62
262.872	82.62
263.105	84.62
263.337	87.62
263.57	84.62
263.802	72.62
264.035	85.62
264.267	85.62
264.499	83.62
264.732	79.62
264.964	81.62
265.197	76.62
265.429	84.62
265.661	93.62
265.894	75.62
266.126	92.62
266.358	81.62
266.591	70.62
266.823	95.62
267.055	77.62
267.287	84.62
267.52	83.62
267.752	82.62
267.984	72.62
268.216	70.62
268.448	83.62
268.681	95.62
268.913	97.62
269.145	88.62
269.377	94.62
269.609	87.62
269.841	106.62
270.073	94.62
270.306	84.62
270.538	94.62
270.77	83.62
271.002	91.62
271.234	90.62
271.466	87.62
271.698	79.62
271.93	89.62
272.162	86.62
272.394	86.62
272.626	91.62
272.858	78.62
273.09	94.62
273.322	84.62
273.553	80.62
273.785	83.62
274.017	82.62
274.249	81.62
274.481	95.62
274.713	93.62
274.945	88.62
275.176	86.62
275.408	79.62
275.64	92.62
275.872	88.62
276.104	84.62
276.335	93.62
276.567	80.62
276.799	100.62
277.031	104.62
277.262	83.62
277.494	89.62
277.726	88.62
277.957	82.62
278.189	75.62
278.421	80.62
278.652	93.62
278.884	85.62
279.115	75.62
279.347	89.62
279.579	96.62
279.81	85.62
280.042	85.62
280.273	93.62
280.505	94.62
280.736	92.62
280.968	83.62
281.199	81.62
281.431	94.62
281.662	90.62
281.894	85.62
282.125	108.62
282.356	116.62
282.588	139.62
282.819	121.62
283.051	83.62
283.282	80.62
283.513	82.62
283.745	83.62
283.976	92.62
284.207	90.62
284.439	89.62
284.67	92.62
284.901	99.62
285.132	79.62
285.364	72.62
285.595	89.62
285.826	93.62
286.057	77.62
286.288	81.62
286.52	81.62
286.751	94.62
286.982	83.62
287.213	86.62
287.444	90.62
287.675	87.62
287.906	99.62
288.138	98.62
288.369	88.62
288.6	97.62
288.831	90.62
289.062	84.62
289.293	81.62
289.524	91.62
289.755	90.62
289.986	79.62
290.217	92.62
290.448	86.62
290.679	86.62
290.91	84.62
291.141	102.62
291.371	94.62
291.602	98.62
291.833	84.62
292.064	88.62
292.295	81.62
292.526	72.62
292.757	88.62
292.987	96.62
293.218	103.62
293.449	94.62
293.68	73.62
293.91	89.62
294.141	100.62
294.372	80.62
294.603	94.62
294.833	88.62
295.064	94.62
295.295	98.62
295.525	93.62
295.756	110.62
295.987	102.62
296.217	145.62
296.448	124.62
296.679	100.62
296.909	97.62
297.14	88.62
297.37	94.62
297.601	101.62
297.831	98.62
298.062	101.62
298.292	82.62
298.523	94.62
298.753	92.62
298.984	72.62
299.214	94.62
299.445	86.62
299.675	96.62
299.905	89.62
300.136	91.62
300.366	93.62
300.597	91.62
300.827	93.62
301.057	88.62
301.288	87.62
301.518	88.62
301.748	95.62
301.979	90.62
302.209	80.62
302.439	92.62
302.669	86.62
302.9	96.62
303.13	90.62
303.36	93.62
303.59	91.62
303.82	93.62
304.051	106.62
304.281	91.62
304.511	99.62
304.741	84.62
304.971	75.62
305.201	88.62
305.431	89.62
305.661	102.62
305.891	96.62
306.121	97.62
306.352	98.62
306.582	111.62
306.812	96.62
307.042	91.62
307.272	86.62
307.502	91.62
307.731	90.62
307.961	99.62
308.191	88.62
308.421	86.62
308.651	106.62
308.881	100.62
309.111	107.62
309.341	100.62
309.571	101.62
309.8	111.62
310.03	92.62
310.26	100.62
310.49	88.62
310.72	92.62
310.949	107.62
311.179	90.62
311.409	106.62
311.639	100.62
311.868	91.62
312.098	101.62
312.328	84.62
312.557	99.62
312.787	113.62
313.017	102.62
313.246	84.62
313.476	96.62
313.706	103.62
313.935	90.62
314.165	101.62
314.394	93.62
314.624	88.62
314.853	91.62
315.083	78.62
315.312	101.62
315.542	97.62
315.771	88.62
316.001	99.62
316.23	105.62
316.46	99.62
316.689	104.62
316.919	100.62
317.148	94.62
317.377	87.62
317.607	105.62
317.836	87.62
318.065	93.62
318.295	98.62
318.524	82.62
318.753	78.62
318.983	91.62
319.212	98.62
319.441	110.62
319.67	110.62
319.9	106.62
320.129	94.62
320.358	88.62
320.587	93.62
320.816	93.62
321.046	82.62
321.275	97.62
321.504	84.62
321.733	107.62
321.962	95.62
322.191	100.62
322.42	100.62
322.649	106.62
322.878	116.62
323.108	130.62
323.337	128.62
323.566	126.62
323.795	139.62
324.024	208.62
324.253	390.62
324.482	826.62
324.71	1761.62
324.939	2280.62
325.168	826.62
325.397	249.62
325.626	152.62
325.855	111.62
326.084	142.62
326.313	144.62
326.542	147.62
326.77	245.62
326.999	478.62
327.228	998.62
327.457	1760.62
327.686	1413.62
327.914	370.62
328.143	186.62
328.372	137.62
328.6	118.62
328.829	117.62
329.058	125.62
329.287	142.62
329.515	110.62
329.744	104.62
329.972	100.62
330.201	100.62
330.43	101.62
330.658	131.62
330.887	130.62
331.115	123.62
331.344	104.62
331.572	100.62
331.801	114.62
332.03	96.62
332.258	83.62
332.486	82.62
332.715	95.62
332.943	75.62
333.172	96.62
333.4	106.62
333.629	104.62
333.857	111.62
334.085	108.62
334.314	81.62
334.542	99.62
334.771	83.62
334.999	84.62
335.227	94.62
335.455	106.62
335.684	87.62
335.912	100.62
336.14	101.62
336.369	105.62
336.597	94.62
336.825	86.62
337.053	96.62
337.281	97.62
337.51	92.62
337.738	97.62
337.966	98.62
338.194	93.62
338.422	81.62
338.65	79.62
338.878	92.62
339.106	93.62
339.334	90.62
339.562	91.62
339.79	85.62
340.018	94.62
340.246	80.62
340.474	79.62
340.702	94.62
340.93	99.62
341.158	85.62
341.386	89.62
341.614	102.62
341.842	100.62
342.07	94.62
342.298	84.62
342.526	103.62
342.754	84.62
342.981	90.62
343.209	94.62
343.437	89.62
343.665	89.62
343.893	87.62
344.12	91.62
344.348	88.62
344.576	85.62
344.804	97.62
345.031	97.62
345.259	102.62
345.487	101.62
345.714	87.62
345.942	84.62
346.17	82.62
346.397	105.62
346.625	94.62
346.853	96.62
347.08	101.62
347.308	96.62
347.535	94.62
347.763	91.62
347.99	93.62
348.218	100.62
348.445	105.62
348.673	97.62
348.9	87.62
349.128	108.62
349.355	98.62
349.583	80.62
349.81	99.62
350.037	94.62
350.265	103.62
350.492	106.62
350.72	107.62
350.947	91.62
351.174	112.62
351.402	109.62
351.629	88.62
351.856	98.62
352.083	88.62
352.311	91.62
352.538	100.62
352.765	101.62
352.992	113.62
353.22	112.62
353.447	101.62
353.674	103.62
353.901	97.62
354.128	76.62
354.355	100.62
354.583	95.62
354.81	93.62
355.037	97.62
355.264	91.62
355.491	90.62
355.718	97.62
355.945	85.62
356.172	109.62
356.399	89.62
356.626	92.62
356.853	93.62
357.08	95.62
357.307	82.62
357.534	104.62
357.761	96.62
357.988	80.62
358.215	86.62
358.441	86.62
358.668	89.62
358.895	108.62
359.122	92.62
359.349	103.62
359.576	102.62
359.802	102.62
360.029	101.62
360.256	113.62
360.483	101.62
360.709	87.62
360.936	92.62
361.163	91.62
361.39	95.62
361.616	100.62
361.843	91.62
362.07	92.62
362.296	98.62
362.523	88.62
362.749	100.62
362.976	88.62
363.203	104.62
363.429	90.62
363.656	81.62
363.882	91.62
364.109	91.62
364.335	96.62
364.562	84.62
364.788	84.62
365.015	93.62
365.241	94.62
365.468	110.62
365.694	97.62
365.92	98.62
366.147	88.62
366.373	84.62
366.599	93.62
366.826	93.62
367.052	77.62
367.278	94.62
367.505	107.62
367.731	105.62
367.957	100.62
368.184	94.62
368.41	114.62
368.636	110.62
368.862	127.62
369.089	94.62
369.315	96.62
369.541	93.62
369.767	74.62
369.993	85.62
370.219	98.62
370.445	91.62
370.672	89.62
370.898	99.62
371.124	107.62
371.35	80.62
371.576	86.62
371.802	86.62
372.028	85.62
372.254	89.62
372.48	88.62
372.706	87.62
372.932	97.62
373.158	94.62
373.384	94.62
373.61	100.62
373.835	105.62
374.061	81.62
374.287	90.62
374.513	92.62
374.739	103.62
374.965	83.62
375.191	103.62
375.416	90.62
375.642	93.62
375.868	83.62
376.094	89.62
376.319	80.62
376.545	90.62
376.771	87.62
376.997	76.62
377.222	84.62
377.448	90.62
377.674	98.62
377.899	87.62
378.125	89.62
378.35	91.62
378.576	83.62
378.802	90.62
379.027	93.62
379.253	98.62
379.478	90.62
379.704	94.62
379.929	87.62
380.155	89.62
380.38	80.62
380.606	95.62
380.831	105.62
381.057	94.62
381.282	100.62
381.507	90.62
381.733	108.62
381.958	94.62
382.184	90.62
382.409	112.62
382.634	96.62
382.86	82.62
383.085	101.62
383.31	104.62
383.535	100.62
383.761	105.62
383.986	92.62
384.211	99.62
384.436	97.62
384.662	101.62
384.887	107.62
385.112	100.62
385.337	105.62
385.562	89.62
385.787	95.62
386.013	110.62
386.238	101.62
386.463	109.62
386.688	110.62
386.913	99.62
387.138	98.62
387.363	107.62
387.588	89.62
387.813	95.62
388.038	100.62
388.263	99.62
388.488	101.62
388.713	102.62
388.938	90.62
389.163	90.62
389.387	91.62
389.612	80.62
389.837	98.62
390.062	94.62
390.287	97.62
390.512	100.62
390.736	91.62
390.961	88.62
391.186	101.62
391.411	103.62
391.636	99.62
391.86	90.62
392.085	80.62
392.31	89.62
392.534	87.62
392.759	83.62
392.984	89.62
393.208	92.62
393.433	81.62
393.658	70.62
393.882	73.62
394.107	80.62
394.331	88.62
394.556	92.62
394.78	98.62
395.005	100.62
395.229	76.62
395.454	94.62
395.678	93.62
395.903	73.62
396.127	88.62
396.352	90.62
396.576	84.62
396.801	95.62
397.025	80.62
397.249	84.62
397.474	76.62
397.698	86.62
397.922	87.62
398.147	90.62
398.371	74.62
398.595	94.62
398.82	87.62
399.044	81.62
399.268	72.62
399.492	85.62
399.717	86.62
399.941	95.62
400.165	89.62
400.389	97.62
400.613	87.62
400.837	96.62
401.062	98.62
401.286	85.62
401.51	96.62
401.734	90.62
401.958	96.62
402.182	136.62
402.406	155.62
402.63	114.62
402.854	92.62
403.078	72.62
403.302	88.62
403.526	96.62
403.75	94.62
403.974	92.62
404.198	88.62
404.422	94.62
404.645	85.62
404.869	95.62
405.093	103.62
405.317	91.62
405.541	90.62
405.765	96.62
405.988	126.62
406.212	172.62
406.436	224.62
406.66	115.62
406.883	104.62
407.107	89.62
407.331	80.62
407.555	92.62
407.778	109.62
408.002	85.62
408.226	101.62
408.449	82.62
408.673	108.62
408.896	89.62
409.12	77.62
409.344	64.62
409.567	78.62
409.791	88.62
410.014	95.62
410.238	88.62
410.461	86.62
410.685	75.62
410.908	78.62
411.132	94.62
411.355	101.62
411.578	94.62
411.802	104.62
412.025	89.62
412.249	93.62
412.472	101.62
412.695	107.62
412.919	96.62
413.142	92.62
413.365	88.62
413.589	96.62
413.812	100.62
414.035	84.62
414.258	90.62
414.482	85.62
414.705	81.62
414.928	86.62
415.151	96.62
415.374	91.62
415.597	76.62
415.821	89.62
416.044	99.62
416.267	88.62
416.49	88.62
416.713	81.62
416.936	80.62
417.159	83.62
417.382	94.62
417.605	87.62
417.828	98.62
418.051	83.62
418.274	84.62
418.497	98.62
418.72	92.62
418.943	92.62
419.166	82.62
419.389	97.62
419.611	79.62
419.834	78.62
420.057	94.62
420.28	80.62
420.503	82.62
420.726	90.62
420.948	87.62
421.171	92.62
421.394	85.62
421.617	86.62
421.839	98.62
422.062	97.62
422.285	91.62
422.507	99.62
422.73	112.62
422.953	95.62
423.175	85.62
423.398	85.62
423.621	80.62
423.843	86.62
424.066	96.62
424.288	93.62
424.511	91.62
424.733	90.62
424.956	79.62
425.178	96.62
425.401	97.62
425.623	85.62
425.846	93.62
426.068	92.62
426.291	94.62
426.513	84.62
426.735	88.62
426.958	89.62
427.18	96.62
427.402	123.62
427.625	133.62
427.847	130.62
428.069	91.62
428.292	79.62
428.514	90.62
428.736	94.62
428.958	83.62
429.181	88.62
429.403	86.62
429.625	87.62
429.847	89.62
430.069	85.62
430.292	100.62
430.514	84.62
430.736	84.62
430.958	73.62
431.18	74.62
431.402	82.62
431.624	86.62
431.846	76.62
432.068	77.62
432.29	70.62
432.512	84.62
432.734	74.62
432.956	93.62
433.178	92.62
433.4	91.62
433.622	91.62
433.844	82.62
434.066	93.62
434.287	92.62
434.509	91.62
434.731	102.62
434.953	84.62
435.175	91.62
435.397	97.62
435.618	98.62
435.84	92.62
436.062	121.62
436.284	118.62
436.505	90.62
436.727	96.62
436.949	81.62
437.17	82.62
437.392	78.62
437.614	90.62
437.835	111.62
438.057	104.62
438.278	98.62
438.5	96.62
438.721	112.62
438.943	104.62
439.165	85.62
439.386	90.62
439.608	91.62
439.829	93.62
440.05	108.62
440.272	133.62
440.493	89.62
440.715	93.62
440.936	84.62
441.158	97.62
441.379	90.62
441.6	84.62
441.822	92.62
442.043	100.62
442.264	80.62
442.486	105.62
442.707	100.62
442.928	100.62
443.149	120.62
443.371	120.62
443.592	103.62
443.813	103.62
444.034	99.62
444.255	94.62
444.476	89.62
444.698	99.62
444.919	98.62
445.14	145.62
445.361	111.62
445.582	113.62
445.803	126.62
446.024	132.62
446.245	120.62
446.466	112.62
446.687	93.62
446.908	90.62
447.129	102.62
447.35	84.62
447.571	95.62
447.792	90.62
448.013	102.62
448.234	108.62
448.455	94.62
448.675	105.62
448.896	112.62
449.117	108.62
449.338	101.62
449.559	107.62
449.779	117.62
450	78.62
450.221	89.62
450.442	84.62
450.662	87.62
450.883	106.62
451.104	124.62
451.324	92.62
451.545	87.62
451.766	99.62
451.986	96.62
452.207	93.62
452.428	86.62
452.648	93.62
452.869	113.62
453.089	118.62
453.31	115.62
453.53	84.62
453.751	90.62
453.971	101.62
454.192	105.62
454.412	86.62
454.633	97.62
454.853	74.62
455.073	90.62
455.294	93.62
455.514	94.62
455.734	83.62
455.955	94.62
456.175	100.62
456.395	82.62
456.616	83.62
456.836	86.62
457.056	91.62
457.276	87.62
457.497	85.62
457.717	94.62
457.937	88.62
458.157	89.62
458.377	99.62
458.598	107.62
458.818	146.62
459.038	148.62
459.258	95.62
459.478	87.62
459.698	102.62
459.918	81.62
460.138	76.62
460.358	86.62
460.578	88.62
460.798	94.62
461.018	98.62
461.238	76.62
461.458	82.62
461.678	91.62
461.898	87.62
462.118	85.62
462.338	81.62
462.558	93.62
462.777	87.62
462.997	89.62
463.217	84.62
463.437	92.62
463.657	86.62
463.876	93.62
464.096	92.62
464.316	103.62
464.536	101.62
464.755	101.62
464.975	108.62
465.195	157.62
465.414	156.62
465.634	81.62
465.854	98.62
466.073	96.62
466.293	90.62
466.512	89.62
466.732	89.62
466.951	86.62
467.171	88.62
467.391	79.62
467.61	103.62
467.829	95.62
468.049	108.62
468.268	95.62
468.488	89.62
468.707	78.62
468.927	69.62
469.146	72.62
469.365	76.62
469.585	86.62
469.804	92.62
470.023	86.62
470.243	86.62
470.462	91.62
470.681	101.62
470.901	89.62
471.12	80.62
471.339	84.62
471.558	93.62
471.777	89.62
471.997	74.62
472.216	89.62
472.435	90.62
472.654	95.62
472.873	83.62
473.092	80.62
473.311	97.62
473.53	84.62
473.749	90.62
473.968	85.62
474.187	90.62
474.406	79.62
474.625	82.62
474.844	95.62
475.063	81.62
475.282	87.62
475.501	85.62
475.72	94.62
475.939	93.62
476.158	88.62
476.377	85.62
476.596	85.62
476.814	99.62
477.033	97.62
477.252	93.62
477.471	90.62
477.69	83.62
477.908	113.62
478.127	88.62
478.346	80.62
478.564	99.62
478.783	78.62
479.002	87.62
479.22	97.62
479.439	92.62
479.658	103.62
479.876	95.62
480.095	73.62
480.313	89.62
480.532	80.62
480.751	84.62
480.969	80.62
481.188	91.62
481.406	92.62
481.624	87.62
481.843	96.62
482.061	89.62
482.28	84.62
482.498	82.62
482.717	91.62
482.935	94.62
483.153	84.62
483.372	88.62
483.59	78.62
483.808	91.62
484.027	102.62
484.245	74.62
484.463	79.62
484.681	87.62
484.9	70.62
485.118	102.62
485.336	93.62
485.554	101.62
485.772	106.62
485.99	109.62
486.209	94.62
486.427	102.62
486.645	106.62
486.863	109.62
487.081	99.62
487.299	92.62
487.517	98.62
487.735	89.62
487.953	107.62
488.171	104.62
488.389	104.62
488.607	86.62
488.825	93.62
489.043	81.62
489.261	93.62
489.479	107.62
489.696	86.62
489.914	85.62
490.132	82.62
490.35	91.62
490.568	97.62
490.786	85.62
491.003	105.62
491.221	98.62
491.439	88.62
491.657	87.62
491.874	86.62
492.092	90.62
492.31	87.62
492.527	91.62
492.745	95.62
492.963	89.62
493.18	90.62
493.398	92.62
493.615	97.62
493.833	102.62
494.05	90.62
494.268	100.62
494.485	108.62
494.703	95.62
494.92	82.62
495.138	92.62
495.355	85.62
495.573	96.62
495.79	102.62
496.008	98.62
496.225	85.62
496.442	72.62
496.66	98.62
496.877	80.62
497.094	83.62
497.312	81.62
497.529	83.62
497.746	101.62
497.963	87.62
498.181	84.62
498.398	106.62
498.615	113.62
498.832	91.62
499.049	72.62
499.267	92.62
499.484	94.62
499.701	89.62
499.918	95.62
500.135	81.62
500.352	97.62
500.569	93.62
500.786	96.62
501.003	97.62
501.22	94.62
501.437	86.62
501.654	84.62
501.871	89.62
502.088	84.62
502.305	92.62
502.522	78.62
502.739	81.62
502.956	82.62
503.172	83.62
503.389	106.62
503.606	105.62
503.823	98.62
504.04	104.62
504.256	102.62
504.473	102.62
504.69	77.62
504.907	100.62
505.123	92.62
505.34	98.62
505.557	94.62
505.773	101.62
505.99	77.62
506.207	97.62
506.423	99.62
506.64	90.62
506.856	91.62
507.073	92.62
507.289	97.62
507.506	86.62
507.722	118.62
507.939	93.62
508.155	92.62
508.372	72.62
508.588	98.62
508.805	109.62
509.021	92.62
509.238	103.62
509.454	104.62
509.67	93.62
509.887	109.62
510.103	133.62
510.319	223.62
510.536	796.62
510.752	2480.62
510.968	688.62
511.184	160.62
511.401	98.62
511.617	86.62
511.833	96.62
512.049	91.62
512.265	93.62
512.481	82.62
512.698	98.62
512.914	87.62
513.13	98.62
513.346	100.62
513.562	79.62
513.778	100.62
513.994	89.62
514.21	99.62
514.426	115.62
514.642	116.62
514.858	129.62
515.074	173.62
515.29	453.62
515.506	1415.62
515.721	548.62
515.937	144.62
