Data from Uncirc_2000_H10_HRD10591_00100.txt Node
Date: Wed Jan 03 10:48:37 EST 2024
User: Yrep
Spectrometer: HR+D1059
Trigger mode: 1
Integration Time (sec): 1.000000E-1
Scans to average: 1
Electric dark correction enabled: true
Nonlinearity correction enabled: false
Boxcar width: 0
XAxis mode: Wavelengths
Number of Pixels in Spectrum: 2048
>>>>>Begin Spectral Data<<<<<
223.165	-19
223.4	-19
223.635	-19
223.869	-17
224.104	-27
224.338	-16
224.573	-4
224.808	-14
225.042	-16
225.277	3
225.511	-12
225.746	0
225.98	9
226.215	22
226.449	35
226.683	8
226.918	26
227.152	22
227.387	21
227.621	37
227.856	51
228.09	51
228.324	49
228.559	50
228.793	56
229.027	60
229.262	73
229.496	78
229.73	83
229.964	67
230.199	72
230.433	84
230.667	82
230.901	76
231.136	66
231.37	80
231.604	71
231.838	83
232.072	70
232.306	71
232.541	76
232.775	83
233.009	90
233.243	86
233.477	81
233.711	86
233.945	80
234.179	85
234.413	78
234.647	93
234.881	88
235.115	72
235.349	64
235.583	88
235.817	95
236.051	85
236.285	93
236.519	80
236.753	78
236.987	74
237.221	74
237.455	94
237.689	84
237.922	81
238.156	69
238.39	68
238.624	85
238.858	74
239.091	82
239.325	70
239.559	82
239.793	81
240.027	74
240.26	70
240.494	88
240.728	84
240.961	67
241.195	85
241.429	70
241.662	76
241.896	77
242.13	78
242.363	70
242.597	57
242.83	79
243.064	73
243.298	68
243.531	86
243.765	83
243.998	81
244.232	89
244.465	91
244.699	69
244.932	80
245.166	68
245.399	86
245.633	89
245.866	75
246.099	68
246.333	75
246.566	75
246.8	73
247.033	86
247.266	70
247.5	69
247.733	65
247.966	68
248.2	71
248.433	78
248.666	82
248.899	74
249.133	84
249.366	93
249.599	93
249.832	86
250.066	84
250.299	84
250.532	85
250.765	72
250.998	86
251.231	71
251.465	76
251.698	78
251.931	97
252.164	77
252.397	82
252.63	67
252.863	71
253.096	86
253.329	95
253.562	77
253.795	77
254.028	69
254.261	86
254.494	79
254.727	89
254.96	70
255.193	92
255.426	78
255.659	76
255.892	91
256.124	82
256.357	77
256.59	92
256.823	80
257.056	72
257.289	82
257.521	92
257.754	89
257.987	81
258.22	94
258.452	78
258.685	81
258.918	77
259.151	70
259.383	82
259.616	72
259.849	85
260.081	88
260.314	74
260.547	75
260.779	101
261.012	72
261.244	83
261.477	96
261.71	88
261.942	104
262.175	119
262.407	89
262.64	85
262.872	95
263.105	89
263.337	81
263.57	82
263.802	74
264.035	86
264.267	73
264.499	82
264.732	86
264.964	94
265.197	69
265.429	85
265.661	89
265.894	84
266.126	88
266.358	94
266.591	72
266.823	82
267.055	80
267.287	71
267.52	81
267.752	92
267.984	86
268.216	71
268.448	77
268.681	85
268.913	94
269.145	88
269.377	84
269.609	80
269.841	89
270.073	75
270.306	84
270.538	85
270.77	84
271.002	85
271.234	84
271.466	76
271.698	88
271.93	81
272.162	74
272.394	77
272.626	92
272.858	86
273.09	87
273.322	75
273.553	87
273.785	71
274.017	95
274.249	92
274.481	82
274.713	86
274.945	76
275.176	85
275.408	75
275.64	74
275.872	89
276.104	93
276.335	98
276.567	94
276.799	110
277.031	103
277.262	78
277.494	97
277.726	86
277.957	81
278.189	81
278.421	85
278.652	76
278.884	79
279.115	74
279.347	78
279.579	85
279.81	97
280.042	93
280.273	85
280.505	110
280.736	82
280.968	81
281.199	86
281.431	81
281.662	97
281.894	81
282.125	99
282.356	107
282.588	135
282.819	110
283.051	83
283.282	75
283.513	76
283.745	83
283.976	85
284.207	73
284.439	75
284.67	77
284.901	72
285.132	86
285.364	88
285.595	92
285.826	89
286.057	96
286.288	90
286.52	86
286.751	101
286.982	88
287.213	88
287.444	102
287.675	82
287.906	107
288.138	96
288.369	98
288.6	101
288.831	101
289.062	93
289.293	81
289.524	88
289.755	82
289.986	94
290.217	93
290.448	88
290.679	70
290.91	88
291.141	76
291.371	96
291.602	90
291.833	97
292.064	81
292.295	96
292.526	90
292.757	83
292.987	90
293.218	97
293.449	77
293.68	97
293.91	87
294.141	94
294.372	95
294.603	90
294.833	80
295.064	81
295.295	97
295.525	84
295.756	106
295.987	118
296.217	126
296.448	108
296.679	92
296.909	94
297.14	92
297.37	87
297.601	88
297.831	100
298.062	95
298.292	95
298.523	91
298.753	94
298.984	89
299.214	78
299.445	100
299.675	96
299.905	94
300.136	89
300.366	89
300.597	84
300.827	98
301.057	94
301.288	97
301.518	97
301.748	105
301.979	97
302.209	91
302.439	102
302.669	91
302.9	102
303.13	88
303.36	85
303.59	92
303.82	109
304.051	88
304.281	82
304.511	96
304.741	102
304.971	84
305.201	90
305.431	78
305.661	90
305.891	101
306.121	90
306.352	102
306.582	110
306.812	92
307.042	90
307.272	96
307.502	91
307.731	106
307.961	84
308.191	84
308.421	92
308.651	90
308.881	90
309.111	98
309.341	91
309.571	87
309.8	86
310.03	103
310.26	99
310.49	90
310.72	91
310.949	92
311.179	106
311.409	96
311.639	103
311.868	76
312.098	85
312.328	90
312.557	95
312.787	94
313.017	90
313.246	86
313.476	80
313.706	85
313.935	88
314.165	94
314.394	94
314.624	99
314.853	100
315.083	100
315.312	91
315.542	91
315.771	93
316.001	81
316.23	97
316.46	92
316.689	82
316.919	91
317.148	84
317.377	73
317.607	91
317.836	92
318.065	74
318.295	85
318.524	81
318.753	86
318.983	90
319.212	101
319.441	107
319.67	109
319.9	105
320.129	98
320.358	95
320.587	85
320.816	88
321.046	94
321.275	97
321.504	103
321.733	94
321.962	101
322.191	109
322.42	110
322.649	102
322.878	107
323.108	123
323.337	122
323.566	128
323.795	163
324.024	226
324.253	382
324.482	845
324.71	1743
324.939	2268
325.168	823
325.397	241
325.626	143
325.855	130
326.084	131
326.313	122
326.542	144
326.77	236
326.999	452
327.228	935
327.457	1749
327.686	1374
327.914	388
328.143	192
328.372	146
328.6	116
328.829	117
329.058	113
329.287	130
329.515	121
329.744	104
329.972	111
330.201	94
330.43	112
330.658	123
330.887	135
331.115	116
331.344	86
331.572	113
331.801	97
332.03	95
332.258	100
332.486	96
332.715	92
332.943	102
333.172	98
333.4	93
333.629	105
333.857	108
334.085	109
334.314	82
334.542	90
334.771	94
334.999	106
335.227	98
335.455	99
335.684	101
335.912	93
336.14	99
336.369	97
336.597	103
336.825	104
337.053	105
337.281	89
337.51	85
337.738	98
337.966	102
338.194	91
338.422	89
338.65	109
338.878	103
339.106	108
339.334	99
339.562	92
339.79	99
340.018	106
340.246	99
340.474	107
340.702	95
340.93	91
341.158	103
341.386	92
341.614	102
341.842	98
342.07	81
342.298	89
342.526	92
342.754	91
342.981	78
343.209	93
343.437	97
343.665	93
343.893	91
344.12	99
344.348	76
344.576	92
344.804	91
345.031	96
345.259	102
345.487	87
345.714	90
345.942	91
346.17	88
346.397	82
346.625	82
346.853	88
347.08	84
347.308	93
347.535	104
347.763	102
347.99	103
348.218	106
348.445	97
348.673	101
348.9	87
349.128	102
349.355	95
349.583	92
349.81	89
350.037	95
350.265	98
350.492	97
350.72	90
350.947	94
351.174	113
351.402	103
351.629	93
351.856	83
352.083	93
352.311	98
352.538	114
352.765	107
352.992	117
353.22	95
353.447	97
353.674	81
353.901	109
354.128	98
354.355	97
354.583	88
354.81	99
355.037	84
355.264	100
355.491	96
355.718	100
355.945	97
356.172	83
356.399	101
356.626	86
356.853	92
357.08	98
357.307	99
357.534	94
357.761	96
357.988	100
358.215	80
358.441	95
358.668	96
358.895	104
359.122	83
359.349	93
359.576	91
359.802	99
360.029	112
360.256	115
360.483	93
360.709	93
360.936	95
361.163	77
361.39	90
361.616	92
361.843	98
362.07	94
362.296	109
362.523	74
362.749	94
362.976	83
363.203	98
363.429	101
363.656	92
363.882	95
364.109	88
364.335	100
364.562	84
364.788	82
365.015	86
365.241	88
365.468	103
365.694	113
365.92	85
366.147	79
366.373	75
366.599	115
366.826	94
367.052	104
367.278	82
367.505	84
367.731	100
367.957	91
368.184	91
368.41	113
368.636	101
368.862	100
369.089	103
369.315	121
369.541	98
369.767	97
369.993	88
370.219	105
370.445	81
370.672	86
370.898	77
371.124	99
371.35	89
371.576	94
371.802	99
372.028	80
372.254	102
372.48	102
372.706	87
372.932	92
373.158	86
373.384	77
373.61	112
373.835	104
374.061	92
374.287	80
374.513	101
374.739	100
374.965	86
375.191	89
375.416	85
375.642	76
375.868	90
376.094	103
376.319	85
376.545	80
376.771	91
376.997	83
377.222	94
377.448	82
377.674	100
377.899	81
378.125	105
378.35	104
378.576	94
378.802	81
379.027	83
379.253	94
379.478	81
379.704	97
379.929	101
380.155	88
380.38	109
380.606	86
380.831	99
381.057	85
381.282	104
381.507	92
381.733	94
381.958	101
382.184	90
382.409	107
382.634	87
382.86	98
383.085	99
383.31	108
383.535	88
383.761	101
383.986	88
384.211	94
384.436	104
384.662	87
384.887	98
385.112	92
385.337	102
385.562	92
385.787	97
386.013	110
386.238	110
386.463	99
386.688	92
386.913	90
387.138	102
387.363	108
387.588	98
387.813	104
388.038	97
388.263	113
388.488	113
388.713	97
388.938	92
389.163	91
389.387	93
389.612	91
389.837	86
390.062	94
390.287	97
390.512	93
390.736	98
390.961	88
391.186	88
391.411	92
391.636	87
391.86	88
392.085	97
392.31	78
392.534	86
392.759	92
392.984	82
393.208	92
393.433	80
393.658	86
393.882	90
394.107	96
394.331	92
394.556	96
394.78	93
395.005	90
395.229	77
395.454	97
395.678	93
395.903	82
396.127	88
396.352	79
396.576	86
396.801	86
397.025	98
397.249	91
397.474	108
397.698	80
397.922	102
398.147	75
398.371	74
398.595	86
398.82	94
399.044	93
399.268	82
399.492	88
399.717	87
399.941	90
400.165	93
400.389	85
400.613	87
400.837	101
401.062	97
401.286	99
401.51	74
401.734	77
401.958	101
402.182	112
402.406	147
402.63	106
402.854	90
403.078	89
403.302	97
403.526	85
403.75	105
403.974	85
404.198	91
404.422	102
404.645	80
404.869	102
405.093	103
405.317	99
405.541	79
405.765	108
405.988	98
406.212	158
406.436	220
406.66	148
406.883	105
407.107	100
407.331	84
407.555	89
407.778	90
408.002	98
408.226	80
408.449	92
408.673	92
408.896	85
409.12	81
409.344	100
409.567	82
409.791	91
410.014	94
410.238	81
410.461	84
410.685	91
410.908	103
411.132	119
411.355	94
411.578	91
411.802	72
412.025	89
412.249	92
412.472	103
412.695	93
412.919	89
413.142	84
413.365	85
413.589	91
413.812	83
414.035	82
414.258	81
414.482	83
414.705	105
414.928	88
415.151	90
415.374	94
415.597	88
415.821	98
416.044	84
416.267	72
416.49	91
416.713	91
416.936	84
417.159	89
417.382	92
417.605	80
417.828	85
418.051	92
418.274	78
418.497	96
418.72	93
418.943	84
419.166	104
419.389	86
419.611	78
419.834	95
420.057	98
420.28	83
420.503	85
420.726	108
420.948	97
421.171	89
421.394	95
421.617	82
421.839	72
422.062	98
422.285	97
422.507	80
422.73	99
422.953	101
423.175	88
423.398	85
423.621	96
423.843	94
424.066	87
424.288	85
424.511	88
424.733	96
424.956	102
425.178	88
425.401	104
425.623	87
425.846	88
426.068	98
426.291	99
426.513	106
426.735	94
426.958	81
427.18	106
427.402	125
427.625	133
427.847	122
428.069	94
428.292	96
428.514	78
428.736	80
428.958	94
429.181	87
429.403	93
429.625	90
429.847	93
430.069	100
430.292	98
430.514	92
430.736	77
430.958	74
431.18	75
431.402	88
431.624	102
431.846	73
432.068	93
432.29	86
432.512	90
432.734	84
432.956	80
433.178	90
433.4	87
433.622	88
433.844	102
434.066	89
434.287	96
434.509	92
434.731	89
434.953	89
435.175	73
435.397	77
435.618	100
435.84	105
436.062	111
436.284	120
436.505	102
436.727	105
436.949	92
437.17	84
437.392	89
437.614	86
437.835	94
438.057	110
438.278	102
438.5	101
438.721	113
438.943	98
439.165	84
439.386	82
439.608	98
439.829	94
440.05	119
440.272	148
440.493	118
440.715	90
440.936	86
441.158	93
441.379	82
441.6	101
441.822	99
442.043	99
442.264	92
442.486	86
442.707	105
442.928	93
443.149	132
443.371	125
443.592	107
443.813	107
444.034	108
444.255	104
444.476	105
444.698	89
444.919	102
445.14	122
445.361	118
445.582	121
445.803	124
446.024	122
446.245	128
446.466	114
446.687	72
446.908	88
447.129	93
447.35	81
447.571	84
447.792	93
448.013	92
448.234	89
448.455	99
448.675	103
448.896	89
449.117	98
449.338	116
449.559	117
449.779	121
450	90
450.221	84
450.442	90
450.662	88
450.883	105
451.104	106
451.324	99
451.545	94
451.766	81
451.986	87
452.207	75
452.428	108
452.648	105
452.869	117
453.089	102
453.31	102
453.53	99
453.751	81
453.971	98
454.192	105
454.412	93
454.633	82
454.853	98
455.073	99
455.294	97
455.514	98
455.734	95
455.955	86
456.175	92
456.395	85
456.616	84
456.836	88
457.056	73
457.276	86
457.497	82
457.717	68
457.937	90
458.157	91
458.377	92
458.598	106
458.818	134
459.038	142
459.258	108
459.478	77
459.698	72
459.918	93
460.138	78
460.358	91
460.578	82
460.798	89
461.018	76
461.238	82
461.458	86
461.678	87
461.898	83
462.118	90
462.338	76
462.558	91
462.777	96
462.997	89
463.217	93
463.437	84
463.657	93
463.876	92
464.096	89
464.316	91
464.536	76
464.755	90
464.975	104
465.195	157
465.414	144
465.634	81
465.854	92
466.073	62
466.293	89
466.512	91
466.732	88
466.951	84
467.171	94
467.391	94
467.61	75
467.829	111
468.049	86
468.268	76
468.488	80
468.707	93
468.927	92
469.146	82
469.365	87
469.585	73
469.804	77
470.023	97
470.243	92
470.462	83
470.681	93
470.901	87
471.12	91
471.339	92
471.558	81
471.777	67
471.997	74
472.216	83
472.435	89
472.654	77
472.873	91
473.092	75
473.311	86
473.53	70
473.749	97
473.968	96
474.187	96
474.406	101
474.625	92
474.844	88
475.063	81
475.282	99
475.501	75
475.72	75
475.939	98
476.158	91
476.377	88
476.596	90
476.814	80
477.033	85
477.252	86
477.471	88
477.69	92
477.908	76
478.127	84
478.346	89
478.564	90
478.783	65
479.002	103
479.22	79
479.439	93
479.658	98
479.876	101
480.095	93
480.313	86
480.532	94
480.751	88
480.969	99
481.188	102
481.406	93
481.624	68
481.843	81
482.061	79
482.28	97
482.498	93
482.717	89
482.935	73
483.153	85
483.372	82
483.59	96
483.808	90
484.027	98
484.245	84
484.463	85
484.681	96
484.9	88
485.118	93
485.336	110
485.554	90
485.772	82
485.99	92
486.209	107
486.427	99
486.645	108
486.863	122
487.081	101
487.299	101
487.517	101
487.735	94
487.953	97
488.171	95
488.389	86
488.607	82
488.825	84
489.043	90
489.261	108
489.479	92
489.696	87
489.914	80
490.132	112
490.35	77
490.568	96
490.786	92
491.003	100
491.221	97
491.439	83
491.657	94
491.874	94
492.092	87
492.31	95
492.527	86
492.745	88
492.963	100
493.18	104
493.398	95
493.615	88
493.833	88
494.05	93
494.268	94
494.485	94
494.703	99
494.92	89
495.138	86
495.355	82
495.573	92
495.79	92
496.008	97
496.225	94
496.442	106
496.66	81
496.877	96
497.094	88
497.312	101
497.529	80
497.746	91
497.963	95
498.181	90
498.398	72
498.615	98
498.832	107
499.049	91
499.267	95
499.484	83
499.701	85
499.918	90
500.135	83
500.352	88
500.569	94
500.786	98
501.003	92
501.22	93
501.437	73
501.654	92
501.871	110
502.088	83
502.305	91
502.522	101
502.739	91
502.956	87
503.172	88
503.389	87
503.606	90
503.823	105
504.04	98
504.256	89
504.473	96
504.69	78
504.907	94
505.123	85
505.34	97
505.557	88
505.773	98
505.99	89
506.207	89
506.423	70
506.64	91
506.856	82
507.073	93
507.289	97
507.506	92
507.722	115
507.939	100
508.155	98
508.372	91
508.588	77
508.805	88
509.021	98
509.238	93
509.454	77
509.67	85
509.887	105
510.103	124
510.319	224
510.536	756
510.752	2416
510.968	688
511.184	148
511.401	113
511.617	104
511.833	92
512.049	94
512.265	76
512.481	86
512.698	91
512.914	93
513.13	92
513.346	78
513.562	76
513.778	96
513.994	97
514.21	97
514.426	102
514.642	130
514.858	100
515.074	168
515.29	429
515.506	1389
515.721	509
515.937	146
516.153	106
516.369	111
516.585	109
516.801	99
517.016	85
517.232	89
517.448	107
517.664	96
517.879	92
518.095	97
518.311	90
518.527	88
518.742	80
518.958	92
519.173	96
519.389	85
519.605	93
519.82	100
520.036	105
520.251	116
520.467	104
520.682	89
520.898	109
521.113	119
521.329	146
521.544	178
521.76	521
521.975	2248
522.19	1354
522.406	287
522.621	124
522.836	93
523.052	98
523.267	87
523.482	109
523.698	104
523.913	118
524.128	105
524.343	88
524.559	86
524.774	104
524.989	105
525.204	94
525.419	95
525.634	86
525.849	98
526.064	92
526.28	91
526.495	88
526.71	90
526.925	98
527.14	85
527.355	82
527.57	99
527.785	77
527.999	92
528.214	100
528.429	83
528.644	95
528.859	88
529.074	103
529.289	129
529.503	165
529.718	112
529.933	77
530.148	98
530.363	88
530.577	93
530.792	107
531.007	106
531.221	94
531.436	89
531.651	92
531.865	83
532.08	105
532.295	94
532.509	104
532.724	77
532.938	89
533.153	87
533.367	107
533.582	98
533.796	106
534.011	74
534.225	94
534.44	102
534.654	94
534.868	92
535.083	82
535.297	119
535.511	89
535.726	94
535.94	93
536.154	94
536.369	98
536.583	81
536.797	91
537.011	89
537.225	92
537.44	94
537.654	87
537.868	87
538.082	87
538.296	81
538.51	94
538.724	78
538.938	93
539.153	75
539.367	102
539.581	105
539.795	88
540.009	82
540.222	96
540.436	92
540.65	102
540.864	86
541.078	87
541.292	102
541.506	84
541.72	91
541.934	90
542.147	93
542.361	76
542.575	82
542.789	94
543.002	93
543.216	102
543.43	90
543.644	87
543.857	71
544.071	78
544.285	85
544.498	108
544.712	101
544.925	97
545.139	85
545.352	86
545.566	72
545.779	102
545.993	93
546.206	99
546.42	84
546.633	90
546.847	92
547.06	94
547.274	82
547.487	88
547.7	84
547.914	88
548.127	76
548.34	84
548.554	82
548.767	89
548.98	84
549.193	93
549.407	94
549.62	80
549.833	76
550.046	76
550.259	84
550.473	86
550.686	79
550.899	92
551.112	84
551.325	95
551.538	77
551.751	83
551.964	88
552.177	84
552.39	102
552.603	86
552.816	106
553.029	91
553.242	95
553.455	104
553.667	115
553.88	99
554.093	86
554.306	91
554.519	76
554.732	98
554.944	101
555.157	81
555.37	91
555.583	99
555.795	84
556.008	105
556.221	95
556.433	85
556.646	100
556.859	90
557.071	100
557.284	85
557.496	91
557.709	99
557.921	82
558.134	92
558.346	95
558.559	89
558.771	86
558.984	93
559.196	85
559.409	89
559.621	89
559.833	85
560.046	87
560.258	83
560.47	90
560.683	82
560.895	81
561.107	99
561.32	87
561.532	88
561.744	83
561.956	84
562.168	101
562.381	87
562.593	86
562.805	90
563.017	89
563.229	83
563.441	78
563.653	81
563.865	76
564.077	86
564.289	102
564.501	84
564.713	94
564.925	93
565.137	98
565.349	85
565.561	92
565.773	92
565.985	81
566.197	80
566.408	82
566.62	88
566.832	74
567.044	72
567.255	82
567.467	86
567.679	90
567.891	90
568.102	98
568.314	94
568.526	88
568.737	94
568.949	86
569.161	102
569.372	94
569.584	92
569.795	100
570.007	110
570.218	249
570.43	135
570.641	100
570.853	74
571.064	76
571.276	83
571.487	81
571.698	93
571.91	84
572.121	81
572.333	84
572.544	89
572.755	82
572.966	91
573.178	98
573.389	93
573.6	83
573.811	83
574.023	95
574.234	89
574.445	102
574.656	93
574.867	95
575.078	96
575.289	97
575.501	98
575.712	86
575.923	87
576.134	91
576.345	92
576.556	105
576.767	88
576.978	95
577.188	85
577.399	85
577.61	93
577.821	114
578.032	113
578.243	279
578.454	784
578.665	217
578.875	109
579.086	98
579.297	82
579.508	91
579.718	84
579.929	90
580.14	88
580.35	86
580.561	96
580.772	99
580.982	86
581.193	95
581.403	97
581.614	81
581.825	79
582.035	86
582.246	100
582.456	78
582.667	87
582.877	93
583.087	82
583.298	84
583.508	74
583.719	84
583.929	88
584.139	97
584.35	89
584.56	88
