Data from Uncirc_2000_H10_HRD10591_00009.txt Node
Date: Wed Jan 03 10:48:19 EST 2024
User: Yrep
Spectrometer: HR+D1059
Trigger mode: 1
Integration Time (sec): 1.000000E-1
Scans to average: 1
Electric dark correction enabled: true
Nonlinearity correction enabled: false
Boxcar width: 0
XAxis mode: Wavelengths
Number of Pixels in Spectrum: 2048
>>>>>Begin Spectral Data<<<<<
223.165	-17.06
223.4	-17.06
223.635	-17.06
223.869	-27.06
224.104	-28.06
224.338	-15.06
224.573	-15.06
224.808	-9.06
225.042	-7.06
225.277	-6.06
225.511	-7.06
225.746	5.94
225.98	7.94
226.215	8.94
226.449	7.94
226.683	31.94
226.918	33.94
227.152	34.94
227.387	23.94
227.621	48.94
227.856	56.94
228.09	47.94
228.324	52.94
228.559	54.94
228.793	63.94
229.027	65.94
229.262	64.94
229.496	68.94
229.73	79.94
229.964	71.94
230.199	72.94
230.433	77.94
230.667	74.94
230.901	73.94
231.136	75.94
231.37	83.94
231.604	93.94
231.838	66.94
232.072	80.94
232.306	74.94
232.541	74.94
232.775	81.94
233.009	73.94
233.243	81.94
233.477	81.94
233.711	90.94
233.945	87.94
234.179	76.94
234.413	85.94
234.647	79.94
234.881	91.94
235.115	92.94
235.349	72.94
235.583	88.94
235.817	66.94
236.051	75.94
236.285	87.94
236.519	72.94
236.753	76.94
236.987	60.94
237.221	77.94
237.455	72.94
237.689	82.94
237.922	87.94
238.156	75.94
238.39	79.94
238.624	80.94
238.858	65.94
239.091	73.94
239.325	75.94
239.559	75.94
239.793	88.94
240.027	75.94
240.26	73.94
240.494	83.94
240.728	66.94
240.961	82.94
241.195	71.94
241.429	80.94
241.662	77.94
241.896	77.94
242.13	76.94
242.363	70.94
242.597	77.94
242.83	81.94
243.064	75.94
243.298	71.94
243.531	78.94
243.765	80.94
243.998	80.94
244.232	83.94
244.465	83.94
244.699	79.94
244.932	74.94
245.166	84.94
245.399	87.94
245.633	77.94
245.866	76.94
246.099	73.94
246.333	77.94
246.566	75.94
246.8	85.94
247.033	91.94
247.266	69.94
247.5	74.94
247.733	84.94
247.966	81.94
248.2	93.94
248.433	90.94
248.666	82.94
248.899	83.94
249.133	84.94
249.366	93.94
249.599	92.94
249.832	84.94
250.066	81.94
250.299	74.94
250.532	77.94
250.765	80.94
250.998	83.94
251.231	84.94
251.465	73.94
251.698	75.94
251.931	75.94
252.164	58.94
252.397	78.94
252.63	71.94
252.863	87.94
253.096	65.94
253.329	82.94
253.562	83.94
253.795	83.94
254.028	82.94
254.261	60.94
254.494	76.94
254.727	85.94
254.96	86.94
255.193	79.94
255.426	69.94
255.659	72.94
255.892	81.94
256.124	75.94
256.357	82.94
256.59	81.94
256.823	101.94
257.056	88.94
257.289	71.94
257.521	82.94
257.754	96.94
257.987	93.94
258.22	65.94
258.452	78.94
258.685	86.94
258.918	91.94
259.151	66.94
259.383	77.94
259.616	71.94
259.849	81.94
260.081	90.94
260.314	79.94
260.547	77.94
260.779	73.94
261.012	86.94
261.244	89.94
261.477	87.94
261.71	88.94
261.942	105.94
262.175	114.94
262.407	88.94
262.64	96.94
262.872	69.94
263.105	95.94
263.337	90.94
263.57	80.94
263.802	67.94
264.035	90.94
264.267	79.94
264.499	70.94
264.732	86.94
264.964	84.94
265.197	81.94
265.429	67.94
265.661	80.94
265.894	89.94
266.126	83.94
266.358	83.94
266.591	80.94
266.823	85.94
267.055	81.94
267.287	88.94
267.52	85.94
267.752	89.94
267.984	84.94
268.216	88.94
268.448	92.94
268.681	67.94
268.913	72.94
269.145	71.94
269.377	76.94
269.609	82.94
269.841	82.94
270.073	76.94
270.306	79.94
270.538	82.94
270.77	65.94
271.002	85.94
271.234	99.94
271.466	87.94
271.698	92.94
271.93	81.94
272.162	88.94
272.394	75.94
272.626	82.94
272.858	86.94
273.09	87.94
273.322	82.94
273.553	86.94
273.785	89.94
274.017	94.94
274.249	83.94
274.481	87.94
274.713	83.94
274.945	96.94
275.176	109.94
275.408	74.94
275.64	83.94
275.872	83.94
276.104	98.94
276.335	83.94
276.567	85.94
276.799	80.94
277.031	84.94
277.262	82.94
277.494	96.94
277.726	89.94
277.957	96.94
278.189	89.94
278.421	70.94
278.652	84.94
278.884	74.94
279.115	66.94
279.347	89.94
279.579	88.94
279.81	89.94
280.042	88.94
280.273	82.94
280.505	93.94
280.736	99.94
280.968	80.94
281.199	92.94
281.431	76.94
281.662	77.94
281.894	81.94
282.125	91.94
282.356	123.94
282.588	124.94
282.819	81.94
283.051	88.94
283.282	87.94
283.513	83.94
283.745	83.94
283.976	79.94
284.207	72.94
284.439	88.94
284.67	85.94
284.901	88.94
285.132	84.94
285.364	73.94
285.595	76.94
285.826	86.94
286.057	85.94
286.288	76.94
286.52	81.94
286.751	84.94
286.982	72.94
287.213	89.94
287.444	93.94
287.675	82.94
287.906	93.94
288.138	101.94
288.369	82.94
288.6	89.94
288.831	88.94
289.062	93.94
289.293	88.94
289.524	84.94
289.755	89.94
289.986	76.94
290.217	87.94
290.448	81.94
290.679	81.94
290.91	85.94
291.141	78.94
291.371	87.94
291.602	84.94
291.833	88.94
292.064	96.94
292.295	91.94
292.526	87.94
292.757	94.94
292.987	92.94
293.218	89.94
293.449	101.94
293.68	90.94
293.91	106.94
294.141	77.94
294.372	88.94
294.603	71.94
294.833	84.94
295.064	93.94
295.295	85.94
295.525	77.94
295.756	84.94
295.987	102.94
296.217	120.94
296.448	116.94
296.679	95.94
296.909	91.94
297.14	92.94
297.37	85.94
297.601	89.94
297.831	86.94
298.062	99.94
298.292	89.94
298.523	91.94
298.753	89.94
298.984	92.94
299.214	85.94
299.445	84.94
299.675	98.94
299.905	108.94
300.136	86.94
300.366	97.94
300.597	107.94
300.827	91.94
301.057	91.94
301.288	89.94
301.518	91.94
301.748	87.94
301.979	94.94
302.209	90.94
302.439	76.94
302.669	67.94
302.9	88.94
303.13	106.94
303.36	90.94
303.59	97.94
303.82	80.94
304.051	90.94
304.281	102.94
304.511	92.94
304.741	71.94
304.971	77.94
305.201	99.94
305.431	83.94
305.661	84.94
305.891	90.94
306.121	91.94
306.352	102.94
306.582	108.94
306.812	60.94
307.042	87.94
307.272	91.94
307.502	96.94
307.731	97.94
307.961	75.94
308.191	88.94
308.421	93.94
308.651	84.94
308.881	82.94
309.111	88.94
309.341	104.94
309.571	93.94
309.8	76.94
310.03	107.94
310.26	92.94
310.49	85.94
310.72	107.94
310.949	79.94
311.179	80.94
311.409	101.94
311.639	95.94
311.868	103.94
312.098	85.94
312.328	106.94
312.557	93.94
312.787	97.94
313.017	97.94
313.246	87.94
313.476	83.94
313.706	97.94
313.935	93.94
314.165	101.94
314.394	94.94
314.624	91.94
314.853	85.94
315.083	88.94
315.312	87.94
315.542	94.94
315.771	87.94
316.001	82.94
316.23	103.94
316.46	84.94
316.689	96.94
316.919	88.94
317.148	103.94
317.377	98.94
317.607	92.94
317.836	91.94
318.065	76.94
318.295	83.94
318.524	70.94
318.753	97.94
318.983	88.94
319.212	96.94
319.441	97.94
319.67	92.94
319.9	85.94
320.129	97.94
320.358	93.94
320.587	89.94
320.816	83.94
321.046	100.94
321.275	92.94
321.504	110.94
321.733	101.94
321.962	84.94
322.191	86.94
322.42	113.94
322.649	90.94
322.878	103.94
323.108	111.94
323.337	115.94
323.566	105.94
323.795	151.94
324.024	173.94
324.253	321.94
324.482	655.94
324.71	1346.94
324.939	1701.94
325.168	657.94
325.397	215.94
325.626	124.94
325.855	117.94
326.084	110.94
326.313	111.94
326.542	118.94
326.77	188.94
326.999	385.94
327.228	753.94
327.457	1371.94
327.686	1103.94
327.914	300.94
328.143	156.94
328.372	120.94
328.6	122.94
328.829	120.94
329.058	117.94
329.287	106.94
329.515	99.94
329.744	99.94
329.972	108.94
330.201	100.94
330.43	93.94
330.658	118.94
330.887	127.94
331.115	105.94
331.344	95.94
331.572	96.94
331.801	99.94
332.03	95.94
332.258	89.94
332.486	87.94
332.715	98.94
332.943	97.94
333.172	101.94
333.4	106.94
333.629	100.94
333.857	98.94
334.085	92.94
334.314	91.94
334.542	96.94
334.771	78.94
334.999	93.94
335.227	101.94
335.455	89.94
335.684	93.94
335.912	99.94
336.14	104.94
336.369	94.94
336.597	88.94
336.825	106.94
337.053	96.94
337.281	81.94
337.51	85.94
337.738	90.94
337.966	85.94
338.194	87.94
338.422	87.94
338.65	93.94
338.878	104.94
339.106	98.94
339.334	92.94
339.562	86.94
339.79	96.94
340.018	101.94
340.246	84.94
340.474	88.94
340.702	87.94
340.93	92.94
341.158	97.94
341.386	97.94
341.614	100.94
341.842	85.94
342.07	80.94
342.298	99.94
342.526	91.94
342.754	80.94
342.981	104.94
343.209	82.94
343.437	103.94
343.665	76.94
343.893	96.94
344.12	92.94
344.348	99.94
344.576	96.94
344.804	113.94
345.031	93.94
345.259	90.94
345.487	91.94
345.714	87.94
345.942	93.94
346.17	92.94
346.397	86.94
346.625	87.94
346.853	70.94
347.08	94.94
347.308	93.94
347.535	97.94
347.763	91.94
347.99	88.94
348.218	113.94
348.445	104.94
348.673	87.94
348.9	88.94
349.128	96.94
349.355	87.94
349.583	104.94
349.81	104.94
350.037	96.94
350.265	102.94
350.492	84.94
350.72	100.94
350.947	94.94
351.174	107.94
351.402	106.94
351.629	107.94
351.856	89.94
352.083	95.94
352.311	83.94
352.538	108.94
352.765	109.94
352.992	113.94
353.22	101.94
353.447	99.94
353.674	92.94
353.901	119.94
354.128	94.94
354.355	95.94
354.583	93.94
354.81	85.94
355.037	107.94
355.264	103.94
355.491	90.94
355.718	99.94
355.945	100.94
356.172	82.94
356.399	92.94
356.626	100.94
356.853	91.94
357.08	91.94
357.307	111.94
357.534	81.94
357.761	100.94
357.988	100.94
358.215	94.94
358.441	91.94
358.668	102.94
358.895	90.94
359.122	91.94
359.349	99.94
359.576	75.94
359.802	103.94
360.029	106.94
360.256	97.94
360.483	84.94
360.709	90.94
360.936	111.94
361.163	92.94
361.39	94.94
361.616	97.94
361.843	98.94
362.07	97.94
362.296	89.94
362.523	81.94
362.749	88.94
362.976	93.94
363.203	92.94
363.429	84.94
363.656	84.94
363.882	88.94
364.109	85.94
364.335	84.94
364.562	75.94
364.788	98.94
365.015	96.94
365.241	88.94
365.468	103.94
365.694	91.94
365.92	87.94
366.147	84.94
366.373	81.94
366.599	90.94
366.826	99.94
367.052	82.94
367.278	105.94
367.505	96.94
367.731	93.94
367.957	93.94
368.184	87.94
368.41	98.94
368.636	105.94
368.862	105.94
369.089	106.94
369.315	92.94
369.541	99.94
369.767	92.94
369.993	89.94
370.219	80.94
370.445	91.94
370.672	84.94
370.898	87.94
371.124	78.94
371.35	88.94
371.576	82.94
371.802	83.94
372.028	87.94
372.254	76.94
372.48	83.94
372.706	77.94
372.932	73.94
373.158	91.94
373.384	103.94
373.61	83.94
373.835	78.94
374.061	92.94
374.287	97.94
374.513	92.94
374.739	79.94
374.965	86.94
375.191	96.94
375.416	90.94
375.642	89.94
375.868	97.94
376.094	94.94
376.319	86.94
376.545	87.94
376.771	87.94
376.997	88.94
377.222	83.94
377.448	99.94
377.674	83.94
377.899	88.94
378.125	94.94
378.35	80.94
378.576	85.94
378.802	82.94
379.027	83.94
379.253	84.94
379.478	100.94
379.704	89.94
379.929	93.94
380.155	100.94
380.38	90.94
380.606	95.94
380.831	113.94
381.057	87.94
381.282	96.94
381.507	83.94
381.733	100.94
381.958	97.94
382.184	97.94
382.409	108.94
382.634	112.94
382.86	100.94
383.085	94.94
383.31	116.94
383.535	103.94
383.761	107.94
383.986	80.94
384.211	102.94
384.436	92.94
384.662	112.94
384.887	99.94
385.112	99.94
385.337	105.94
385.562	110.94
385.787	115.94
386.013	93.94
386.238	114.94
386.463	111.94
386.688	104.94
386.913	103.94
387.138	107.94
387.363	105.94
387.588	103.94
387.813	110.94
388.038	120.94
388.263	134.94
388.488	130.94
388.713	106.94
388.938	84.94
389.163	82.94
389.387	96.94
389.612	86.94
389.837	77.94
390.062	94.94
390.287	85.94
390.512	97.94
390.736	86.94
390.961	97.94
391.186	79.94
391.411	91.94
391.636	89.94
391.86	85.94
392.085	81.94
392.31	101.94
392.534	99.94
392.759	76.94
392.984	85.94
393.208	100.94
393.433	92.94
393.658	104.94
393.882	95.94
394.107	90.94
394.331	90.94
394.556	84.94
394.78	80.94
395.005	76.94
395.229	77.94
395.454	77.94
395.678	77.94
395.903	84.94
396.127	77.94
396.352	86.94
396.576	105.94
396.801	90.94
397.025	99.94
397.249	81.94
397.474	90.94
397.698	75.94
397.922	86.94
398.147	98.94
398.371	91.94
398.595	72.94
398.82	91.94
399.044	88.94
399.268	91.94
399.492	84.94
399.717	82.94
399.941	85.94
400.165	86.94
400.389	99.94
400.613	99.94
400.837	87.94
401.062	95.94
401.286	86.94
401.51	89.94
401.734	92.94
401.958	92.94
402.182	113.94
402.406	130.94
402.63	116.94
402.854	95.94
403.078	80.94
403.302	69.94
403.526	85.94
403.75	98.94
403.974	82.94
404.198	102.94
404.422	83.94
404.645	91.94
404.869	81.94
405.093	96.94
405.317	88.94
405.541	89.94
405.765	101.94
405.988	123.94
406.212	139.94
406.436	160.94
406.66	115.94
406.883	95.94
407.107	96.94
407.331	92.94
407.555	82.94
407.778	94.94
408.002	81.94
408.226	90.94
408.449	95.94
408.673	88.94
408.896	90.94
409.12	80.94
409.344	88.94
409.567	98.94
409.791	93.94
410.014	96.94
410.238	83.94
410.461	104.94
410.685	98.94
410.908	95.94
411.132	110.94
411.355	88.94
411.578	91.94
411.802	97.94
412.025	93.94
412.249	99.94
412.472	98.94
412.695	83.94
412.919	103.94
413.142	95.94
413.365	77.94
413.589	89.94
413.812	90.94
414.035	77.94
414.258	91.94
414.482	99.94
414.705	92.94
414.928	93.94
415.151	98.94
415.374	100.94
415.597	99.94
415.821	93.94
416.044	87.94
416.267	67.94
416.49	76.94
416.713	79.94
416.936	83.94
417.159	89.94
417.382	61.94
417.605	87.94
417.828	98.94
418.051	90.94
418.274	85.94
418.497	92.94
418.72	86.94
418.943	75.94
419.166	93.94
419.389	98.94
419.611	91.94
419.834	84.94
420.057	89.94
420.28	76.94
420.503	87.94
420.726	90.94
420.948	88.94
421.171	92.94
421.394	104.94
421.617	88.94
421.839	90.94
422.062	94.94
422.285	89.94
422.507	92.94
422.73	105.94
422.953	69.94
423.175	87.94
423.398	75.94
423.621	92.94
423.843	94.94
424.066	81.94
424.288	83.94
424.511	77.94
424.733	84.94
424.956	96.94
425.178	89.94
425.401	101.94
425.623	93.94
425.846	94.94
426.068	90.94
426.291	94.94
426.513	83.94
426.735	93.94
426.958	86.94
427.18	92.94
427.402	116.94
427.625	136.94
427.847	115.94
428.069	84.94
428.292	67.94
428.514	83.94
428.736	85.94
428.958	87.94
429.181	85.94
429.403	80.94
429.625	82.94
429.847	89.94
430.069	91.94
430.292	92.94
430.514	83.94
430.736	80.94
430.958	83.94
431.18	78.94
431.402	96.94
431.624	79.94
431.846	85.94
432.068	75.94
432.29	92.94
432.512	89.94
432.734	88.94
432.956	91.94
433.178	105.94
433.4	93.94
433.622	93.94
433.844	76.94
434.066	75.94
434.287	84.94
434.509	79.94
434.731	95.94
434.953	92.94
435.175	76.94
435.397	81.94
435.618	99.94
435.84	100.94
436.062	109.94
436.284	99.94
436.505	105.94
436.727	98.94
436.949	105.94
437.17	99.94
437.392	93.94
437.614	85.94
437.835	103.94
438.057	100.94
438.278	85.94
438.5	96.94
438.721	107.94
438.943	93.94
439.165	65.94
439.386	78.94
439.608	95.94
439.829	103.94
440.05	110.94
440.272	126.94
440.493	84.94
440.715	69.94
440.936	85.94
441.158	77.94
441.379	86.94
441.6	88.94
441.822	92.94
442.043	90.94
442.264	96.94
442.486	103.94
442.707	92.94
442.928	114.94
443.149	114.94
443.371	100.94
443.592	84.94
443.813	104.94
444.034	92.94
444.255	92.94
444.476	81.94
444.698	74.94
444.919	77.94
445.14	129.94
445.361	104.94
445.582	99.94
445.803	109.94
446.024	114.94
446.245	115.94
446.466	99.94
446.687	85.94
446.908	100.94
447.129	89.94
447.35	87.94
447.571	86.94
447.792	84.94
448.013	90.94
448.234	84.94
448.455	94.94
448.675	112.94
448.896	97.94
449.117	87.94
449.338	96.94
449.559	127.94
449.779	117.94
450	73.94
450.221	90.94
450.442	84.94
450.662	97.94
450.883	82.94
451.104	95.94
451.324	85.94
451.545	95.94
451.766	85.94
451.986	85.94
452.207	82.94
452.428	77.94
452.648	99.94
452.869	80.94
453.089	103.94
453.31	103.94
453.53	84.94
453.751	71.94
453.971	93.94
454.192	99.94
454.412	91.94
454.633	79.94
454.853	85.94
455.073	91.94
455.294	90.94
455.514	91.94
455.734	87.94
455.955	86.94
456.175	92.94
456.395	72.94
456.616	73.94
456.836	71.94
457.056	91.94
457.276	98.94
457.497	90.94
457.717	82.94
457.937	79.94
458.157	73.94
458.377	81.94
458.598	87.94
458.818	111.94
459.038	125.94
459.258	109.94
459.478	81.94
459.698	86.94
459.918	79.94
460.138	84.94
460.358	91.94
460.578	89.94
460.798	84.94
461.018	88.94
461.238	75.94
461.458	76.94
461.678	93.94
461.898	78.94
462.118	87.94
462.338	78.94
462.558	81.94
462.777	71.94
462.997	80.94
463.217	87.94
463.437	94.94
463.657	60.94
463.876	92.94
464.096	101.94
464.316	80.94
464.536	87.94
464.755	78.94
464.975	91.94
465.195	123.94
465.414	123.94
465.634	92.94
465.854	91.94
466.073	82.94
466.293	90.94
466.512	92.94
466.732	75.94
466.951	85.94
467.171	98.94
467.391	97.94
467.61	85.94
467.829	93.94
468.049	81.94
468.268	75.94
468.488	84.94
468.707	91.94
468.927	91.94
469.146	92.94
469.365	79.94
469.585	81.94
469.804	95.94
470.023	94.94
470.243	90.94
470.462	93.94
470.681	114.94
470.901	80.94
471.12	96.94
471.339	74.94
471.558	75.94
471.777	80.94
471.997	95.94
472.216	88.94
472.435	86.94
472.654	73.94
472.873	79.94
473.092	94.94
473.311	84.94
473.53	83.94
473.749	92.94
473.968	83.94
474.187	78.94
474.406	87.94
474.625	96.94
474.844	85.94
475.063	75.94
475.282	99.94
475.501	93.94
475.72	92.94
475.939	76.94
476.158	79.94
476.377	92.94
476.596	90.94
476.814	87.94
477.033	82.94
477.252	85.94
477.471	92.94
477.69	102.94
477.908	93.94
478.127	93.94
478.346	87.94
478.564	85.94
478.783	88.94
479.002	95.94
479.22	86.94
479.439	94.94
479.658	87.94
479.876	105.94
480.095	100.94
480.313	79.94
480.532	96.94
480.751	89.94
480.969	98.94
481.188	99.94
481.406	108.94
481.624	89.94
481.843	77.94
482.061	81.94
482.28	88.94
482.498	80.94
482.717	86.94
482.935	85.94
483.153	72.94
483.372	100.94
483.59	85.94
483.808	90.94
484.027	84.94
484.245	92.94
484.463	102.94
484.681	84.94
484.9	99.94
485.118	100.94
485.336	92.94
485.554	103.94
485.772	108.94
485.99	107.94
486.209	95.94
486.427	98.94
486.645	107.94
486.863	113.94
487.081	86.94
487.299	98.94
487.517	90.94
487.735	83.94
487.953	93.94
488.171	88.94
488.389	102.94
488.607	92.94
488.825	75.94
489.043	85.94
489.261	87.94
489.479	79.94
489.696	98.94
489.914	84.94
490.132	76.94
490.35	92.94
490.568	92.94
490.786	90.94
491.003	76.94
491.221	98.94
491.439	97.94
491.657	75.94
491.874	75.94
492.092	101.94
492.31	90.94
492.527	85.94
492.745	97.94
492.963	85.94
493.18	83.94
493.398	92.94
493.615	90.94
493.833	102.94
494.05	95.94
494.268	100.94
494.485	85.94
494.703	101.94
494.92	101.94
495.138	97.94
495.355	98.94
495.573	83.94
495.79	91.94
496.008	95.94
496.225	88.94
496.442	91.94
496.66	87.94
496.877	98.94
497.094	93.94
497.312	87.94
497.529	90.94
497.746	86.94
497.963	90.94
498.181	79.94
498.398	89.94
498.615	96.94
498.832	100.94
499.049	92.94
499.267	100.94
499.484	96.94
499.701	93.94
499.918	87.94
500.135	80.94
500.352	92.94
500.569	93.94
500.786	105.94
501.003	92.94
501.22	98.94
501.437	79.94
501.654	98.94
501.871	82.94
502.088	90.94
502.305	84.94
502.522	88.94
502.739	106.94
502.956	85.94
503.172	98.94
503.389	89.94
503.606	99.94
503.823	82.94
504.04	95.94
504.256	82.94
504.473	90.94
504.69	79.94
504.907	86.94
505.123	85.94
505.34	92.94
505.557	93.94
505.773	89.94
505.99	82.94
506.207	96.94
506.423	87.94
506.64	89.94
506.856	97.94
507.073	87.94
507.289	88.94
507.506	95.94
507.722	115.94
507.939	96.94
508.155	86.94
508.372	97.94
508.588	100.94
508.805	83.94
509.021	94.94
509.238	107.94
509.454	98.94
509.67	109.94
509.887	93.94
510.103	124.94
510.319	178.94
510.536	542.94
510.752	1609.94
510.968	482.94
511.184	117.94
511.401	102.94
511.617	101.94
511.833	86.94
512.049	94.94
512.265	91.94
512.481	82.94
512.698	72.94
512.914	88.94
513.13	87.94
513.346	100.94
513.562	92.94
513.778	92.94
513.994	89.94
514.21	98.94
514.426	103.94
514.642	121.94
514.858	106.94
515.074	131.94
515.29	323.94
515.506	929.94
515.721	382.94
515.937	134.94
516.153	95.94
516.369	88.94
516.585	101.94
516.801	96.94
