Data from Uncirc_2000_H10_HRD10591_00087.txt Node
Date: Wed Jan 03 10:48:34 EST 2024
User: Yrep
Spectrometer: HR+D1059
Trigger mode: 1
Integration Time (sec): 1.000000E-1
Scans to average: 1
Electric dark correction enabled: true
Nonlinearity correction enabled: false
Boxcar width: 0
XAxis mode: Wavelengths
Number of Pixels in Spectrum: 2048
>>>>>Begin Spectral Data<<<<<
223.165	-13.88
223.4	-13.88
223.635	-13.88
223.869	-23.88
224.104	-26.88
224.338	-14.88
224.573	-3.88
224.808	-12.88
225.042	-5.88
225.277	-9.88
225.511	14.12
225.746	10.12
225.98	-3.88
226.215	13.12
226.449	20.12
226.683	13.12
226.918	19.12
227.152	26.12
227.387	30.12
227.621	40.12
227.856	52.12
228.09	50.12
228.324	53.12
228.559	55.12
228.793	51.12
229.027	65.12
229.262	60.12
229.496	71.12
229.73	67.12
229.964	76.12
230.199	67.12
230.433	71.12
230.667	67.12
230.901	84.12
231.136	71.12
231.37	65.12
231.604	76.12
231.838	68.12
232.072	75.12
232.306	71.12
232.541	78.12
232.775	80.12
233.009	80.12
233.243	69.12
233.477	72.12
233.711	79.12
233.945	82.12
234.179	90.12
234.413	84.12
234.647	87.12
234.881	90.12
235.115	77.12
235.349	60.12
235.583	73.12
235.817	62.12
236.051	89.12
236.285	68.12
236.519	73.12
236.753	76.12
236.987	82.12
237.221	70.12
237.455	97.12
237.689	76.12
237.922	59.12
238.156	79.12
238.39	67.12
238.624	69.12
238.858	63.12
239.091	73.12
239.325	86.12
239.559	79.12
239.793	90.12
240.027	69.12
240.26	84.12
240.494	74.12
240.728	71.12
240.961	68.12
241.195	92.12
241.429	71.12
241.662	78.12
241.896	75.12
242.13	86.12
242.363	77.12
242.597	81.12
242.83	78.12
243.064	71.12
243.298	85.12
243.531	76.12
243.765	81.12
243.998	76.12
244.232	77.12
244.465	83.12
244.699	83.12
244.932	75.12
245.166	82.12
245.399	61.12
245.633	65.12
245.866	86.12
246.099	77.12
246.333	60.12
246.566	83.12
246.8	73.12
247.033	85.12
247.266	78.12
247.5	87.12
247.733	98.12
247.966	79.12
248.2	77.12
248.433	82.12
248.666	84.12
248.899	83.12
249.133	84.12
249.366	104.12
249.599	84.12
249.832	92.12
250.066	76.12
250.299	77.12
250.532	75.12
250.765	82.12
250.998	70.12
251.231	87.12
251.465	82.12
251.698	69.12
251.931	80.12
252.164	68.12
252.397	80.12
252.63	80.12
252.863	76.12
253.096	80.12
253.329	78.12
253.562	79.12
253.795	80.12
254.028	73.12
254.261	68.12
254.494	88.12
254.727	67.12
254.96	83.12
255.193	67.12
255.426	77.12
255.659	87.12
255.892	102.12
256.124	75.12
256.357	76.12
256.59	85.12
256.823	87.12
257.056	71.12
257.289	66.12
257.521	83.12
257.754	87.12
257.987	79.12
258.22	82.12
258.452	75.12
258.685	87.12
258.918	78.12
259.151	72.12
259.383	92.12
259.616	81.12
259.849	85.12
260.081	77.12
260.314	68.12
260.547	82.12
260.779	83.12
261.012	76.12
261.244	74.12
261.477	89.12
261.71	86.12
261.942	99.12
262.175	92.12
262.407	87.12
262.64	89.12
262.872	77.12
263.105	98.12
263.337	79.12
263.57	84.12
263.802	83.12
264.035	85.12
264.267	83.12
264.499	85.12
264.732	80.12
264.964	90.12
265.197	91.12
265.429	91.12
265.661	102.12
265.894	82.12
266.126	89.12
266.358	86.12
266.591	79.12
266.823	84.12
267.055	77.12
267.287	87.12
267.52	77.12
267.752	80.12
267.984	87.12
268.216	91.12
268.448	92.12
268.681	83.12
268.913	83.12
269.145	78.12
269.377	77.12
269.609	83.12
269.841	86.12
270.073	83.12
270.306	68.12
270.538	88.12
270.77	75.12
271.002	88.12
271.234	77.12
271.466	88.12
271.698	84.12
271.93	84.12
272.162	80.12
272.394	97.12
272.626	77.12
272.858	76.12
273.09	89.12
273.322	89.12
273.553	86.12
273.785	86.12
274.017	87.12
274.249	67.12
274.481	97.12
274.713	98.12
274.945	109.12
275.176	74.12
275.408	88.12
275.64	71.12
275.872	87.12
276.104	86.12
276.335	80.12
276.567	83.12
276.799	90.12
277.031	97.12
277.262	93.12
277.494	84.12
277.726	89.12
277.957	78.12
278.189	81.12
278.421	77.12
278.652	90.12
278.884	80.12
279.115	91.12
279.347	91.12
279.579	91.12
279.81	68.12
280.042	80.12
280.273	76.12
280.505	74.12
280.736	82.12
280.968	88.12
281.199	103.12
281.431	81.12
281.662	98.12
281.894	82.12
282.125	88.12
282.356	112.12
282.588	130.12
282.819	102.12
283.051	103.12
283.282	99.12
283.513	76.12
283.745	64.12
283.976	82.12
284.207	86.12
284.439	84.12
284.67	95.12
284.901	89.12
285.132	79.12
285.364	87.12
285.595	99.12
285.826	83.12
286.057	76.12
286.288	89.12
286.52	92.12
286.751	79.12
286.982	80.12
287.213	96.12
287.444	82.12
287.675	96.12
287.906	103.12
288.138	92.12
288.369	76.12
288.6	96.12
288.831	94.12
289.062	91.12
289.293	102.12
289.524	79.12
289.755	81.12
289.986	80.12
290.217	90.12
290.448	89.12
290.679	88.12
290.91	88.12
291.141	98.12
291.371	100.12
291.602	92.12
291.833	83.12
292.064	92.12
292.295	83.12
292.526	71.12
292.757	92.12
292.987	90.12
293.218	88.12
293.449	92.12
293.68	82.12
293.91	75.12
294.141	94.12
294.372	85.12
294.603	83.12
294.833	88.12
295.064	90.12
295.295	87.12
295.525	79.12
295.756	92.12
295.987	115.12
296.217	119.12
296.448	113.12
296.679	99.12
296.909	84.12
297.14	73.12
297.37	97.12
297.601	96.12
297.831	110.12
298.062	95.12
298.292	58.12
298.523	104.12
298.753	88.12
298.984	98.12
299.214	71.12
299.445	86.12
299.675	86.12
299.905	87.12
300.136	88.12
300.366	89.12
300.597	81.12
300.827	95.12
301.057	100.12
301.288	99.12
301.518	93.12
301.748	88.12
301.979	94.12
302.209	95.12
302.439	75.12
302.669	96.12
302.9	97.12
303.13	78.12
303.36	89.12
303.59	99.12
303.82	99.12
304.051	95.12
304.281	89.12
304.511	93.12
304.741	92.12
304.971	89.12
305.201	91.12
305.431	106.12
305.661	79.12
305.891	91.12
306.121	88.12
306.352	100.12
306.582	104.12
306.812	91.12
307.042	83.12
307.272	80.12
307.502	94.12
307.731	91.12
307.961	89.12
308.191	75.12
308.421	96.12
308.651	98.12
308.881	98.12
309.111	87.12
309.341	97.12
309.571	99.12
309.8	89.12
310.03	89.12
310.26	90.12
310.49	93.12
310.72	91.12
310.949	88.12
311.179	93.12
311.409	95.12
311.639	89.12
311.868	86.12
312.098	97.12
312.328	89.12
312.557	102.12
312.787	100.12
313.017	90.12
313.246	86.12
313.476	86.12
313.706	96.12
313.935	88.12
314.165	95.12
314.394	90.12
314.624	85.12
314.853	87.12
315.083	91.12
315.312	92.12
315.542	101.12
315.771	95.12
316.001	91.12
316.23	79.12
316.46	74.12
316.689	76.12
316.919	87.12
317.148	91.12
317.377	87.12
317.607	87.12
317.836	96.12
318.065	93.12
318.295	86.12
318.524	88.12
318.753	96.12
318.983	95.12
319.212	87.12
319.441	110.12
319.67	108.12
319.9	84.12
320.129	87.12
320.358	95.12
320.587	89.12
320.816	93.12
321.046	88.12
321.275	105.12
321.504	87.12
321.733	93.12
321.962	96.12
322.191	89.12
322.42	98.12
322.649	113.12
322.878	95.12
323.108	100.12
323.337	119.12
323.566	111.12
323.795	148.12
324.024	193.12
324.253	384.12
324.482	773.12
324.71	1641.12
324.939	2123.12
325.168	777.12
325.397	231.12
325.626	147.12
325.855	120.12
326.084	132.12
326.313	112.12
326.542	136.12
326.77	201.12
326.999	463.12
327.228	939.12
327.457	1675.12
327.686	1325.12
327.914	354.12
328.143	179.12
328.372	118.12
328.6	128.12
328.829	111.12
329.058	116.12
329.287	130.12
329.515	110.12
329.744	106.12
329.972	100.12
330.201	83.12
330.43	101.12
330.658	93.12
330.887	122.12
331.115	103.12
331.344	98.12
331.572	108.12
331.801	104.12
332.03	102.12
332.258	98.12
332.486	99.12
332.715	83.12
332.943	90.12
333.172	76.12
333.4	103.12
333.629	101.12
333.857	102.12
334.085	97.12
334.314	91.12
334.542	87.12
334.771	84.12
334.999	106.12
335.227	99.12
335.455	85.12
335.684	102.12
335.912	105.12
336.14	86.12
336.369	90.12
336.597	83.12
336.825	101.12
337.053	86.12
337.281	94.12
337.51	78.12
337.738	101.12
337.966	82.12
338.194	89.12
338.422	87.12
338.65	113.12
338.878	108.12
339.106	97.12
339.334	99.12
339.562	100.12
339.79	89.12
340.018	68.12
340.246	69.12
340.474	86.12
340.702	67.12
340.93	90.12
341.158	100.12
341.386	100.12
341.614	99.12
341.842	94.12
342.07	88.12
342.298	91.12
342.526	97.12
342.754	94.12
342.981	72.12
343.209	89.12
343.437	93.12
343.665	82.12
343.893	81.12
344.12	90.12
344.348	81.12
344.576	94.12
344.804	90.12
345.031	83.12
345.259	92.12
345.487	87.12
345.714	81.12
345.942	87.12
346.17	95.12
346.397	95.12
346.625	90.12
346.853	102.12
347.08	82.12
347.308	99.12
347.535	92.12
347.763	94.12
347.99	97.12
348.218	97.12
348.445	94.12
348.673	97.12
348.9	91.12
349.128	85.12
349.355	84.12
349.583	87.12
349.81	84.12
350.037	88.12
350.265	100.12
350.492	105.12
350.72	92.12
350.947	101.12
351.174	101.12
351.402	106.12
351.629	94.12
351.856	103.12
352.083	85.12
352.311	113.12
352.538	108.12
352.765	122.12
352.992	118.12
353.22	112.12
353.447	88.12
353.674	107.12
353.901	103.12
354.128	93.12
354.355	101.12
354.583	101.12
354.81	113.12
355.037	92.12
355.264	93.12
355.491	90.12
355.718	96.12
355.945	102.12
356.172	82.12
356.399	86.12
356.626	83.12
356.853	90.12
357.08	110.12
357.307	85.12
357.534	87.12
357.761	85.12
357.988	89.12
358.215	101.12
358.441	89.12
358.668	85.12
358.895	94.12
359.122	82.12
359.349	99.12
359.576	89.12
359.802	83.12
360.029	98.12
360.256	99.12
360.483	84.12
360.709	74.12
360.936	103.12
361.163	86.12
361.39	94.12
361.616	82.12
361.843	81.12
362.07	88.12
362.296	97.12
362.523	86.12
362.749	96.12
362.976	88.12
363.203	93.12
363.429	82.12
363.656	85.12
363.882	91.12
364.109	87.12
364.335	98.12
364.562	94.12
364.788	90.12
365.015	100.12
365.241	85.12
365.468	99.12
365.694	102.12
365.92	78.12
366.147	86.12
366.373	93.12
366.599	80.12
366.826	92.12
367.052	90.12
367.278	75.12
367.505	91.12
367.731	93.12
367.957	74.12
368.184	87.12
368.41	101.12
368.636	99.12
368.862	106.12
369.089	95.12
369.315	95.12
369.541	90.12
369.767	81.12
369.993	84.12
370.219	89.12
370.445	84.12
370.672	81.12
370.898	91.12
371.124	86.12
371.35	82.12
371.576	92.12
371.802	89.12
372.028	78.12
372.254	87.12
372.48	95.12
372.706	86.12
372.932	94.12
373.158	92.12
373.384	84.12
373.61	88.12
373.835	87.12
374.061	98.12
374.287	89.12
374.513	86.12
374.739	91.12
374.965	87.12
375.191	91.12
375.416	92.12
375.642	92.12
375.868	88.12
376.094	97.12
376.319	82.12
376.545	91.12
376.771	79.12
376.997	101.12
377.222	78.12
377.448	88.12
377.674	95.12
377.899	79.12
378.125	96.12
378.35	91.12
378.576	86.12
378.802	90.12
379.027	92.12
379.253	93.12
379.478	82.12
379.704	87.12
379.929	82.12
380.155	86.12
380.38	97.12
380.606	71.12
380.831	96.12
381.057	81.12
381.282	100.12
381.507	90.12
381.733	77.12
381.958	84.12
382.184	98.12
382.409	99.12
382.634	97.12
382.86	100.12
383.085	92.12
383.31	98.12
383.535	90.12
383.761	93.12
383.986	93.12
384.211	97.12
384.436	101.12
384.662	92.12
384.887	103.12
385.112	100.12
385.337	88.12
385.562	94.12
385.787	87.12
386.013	105.12
386.238	98.12
386.463	110.12
386.688	108.12
386.913	96.12
387.138	100.12
387.363	95.12
387.588	104.12
387.813	93.12
388.038	107.12
388.263	98.12
388.488	102.12
388.713	104.12
388.938	85.12
389.163	94.12
389.387	79.12
389.612	86.12
389.837	77.12
390.062	98.12
390.287	86.12
390.512	102.12
390.736	106.12
390.961	95.12
391.186	95.12
391.411	92.12
391.636	77.12
391.86	86.12
392.085	71.12
392.31	90.12
392.534	88.12
392.759	74.12
392.984	83.12
393.208	82.12
393.433	93.12
393.658	80.12
393.882	85.12
394.107	84.12
394.331	88.12
394.556	89.12
394.78	77.12
395.005	87.12
395.229	79.12
395.454	76.12
395.678	78.12
395.903	83.12
396.127	91.12
396.352	88.12
396.576	81.12
396.801	82.12
397.025	92.12
397.249	88.12
397.474	77.12
397.698	95.12
397.922	92.12
398.147	91.12
398.371	92.12
398.595	86.12
398.82	87.12
399.044	80.12
399.268	79.12
399.492	80.12
399.717	84.12
399.941	93.12
400.165	100.12
400.389	91.12
400.613	84.12
400.837	93.12
401.062	82.12
401.286	90.12
401.51	92.12
401.734	81.12
401.958	87.12
402.182	115.12
402.406	131.12
402.63	110.12
402.854	82.12
403.078	97.12
403.302	93.12
403.526	84.12
403.75	78.12
403.974	71.12
404.198	82.12
404.422	79.12
404.645	87.12
404.869	99.12
405.093	69.12
405.317	92.12
405.541	86.12
405.765	97.12
405.988	95.12
406.212	139.12
406.436	180.12
406.66	120.12
406.883	91.12
407.107	74.12
407.331	81.12
407.555	107.12
407.778	79.12
408.002	93.12
408.226	77.12
408.449	86.12
408.673	82.12
408.896	93.12
409.12	87.12
409.344	77.12
409.567	86.12
409.791	91.12
410.014	92.12
410.238	97.12
410.461	81.12
410.685	98.12
410.908	86.12
411.132	99.12
411.355	97.12
411.578	85.12
411.802	73.12
412.025	84.12
412.249	103.12
412.472	96.12
412.695	99.12
412.919	80.12
413.142	91.12
413.365	98.12
413.589	92.12
413.812	84.12
414.035	82.12
414.258	75.12
414.482	93.12
414.705	101.12
414.928	90.12
415.151	91.12
415.374	89.12
415.597	93.12
415.821	88.12
416.044	95.12
416.267	78.12
416.49	84.12
416.713	83.12
416.936	95.12
417.159	83.12
417.382	76.12
417.605	72.12
417.828	83.12
418.051	75.12
418.274	76.12
418.497	89.12
418.72	73.12
418.943	84.12
419.166	102.12
419.389	99.12
419.611	86.12
419.834	103.12
420.057	83.12
420.28	93.12
420.503	83.12
420.726	76.12
420.948	81.12
421.171	87.12
421.394	87.12
421.617	93.12
421.839	106.12
422.062	90.12
422.285	68.12
422.507	88.12
422.73	104.12
422.953	88.12
423.175	90.12
423.398	79.12
423.621	81.12
423.843	96.12
424.066	66.12
424.288	72.12
424.511	88.12
424.733	93.12
424.956	88.12
425.178	101.12
425.401	97.12
425.623	79.12
425.846	86.12
426.068	89.12
426.291	101.12
426.513	100.12
426.735	90.12
426.958	84.12
427.18	103.12
427.402	120.12
427.625	142.12
427.847	115.12
428.069	91.12
428.292	76.12
428.514	102.12
428.736	88.12
428.958	88.12
429.181	90.12
429.403	86.12
429.625	83.12
429.847	77.12
430.069	75.12
430.292	84.12
430.514	89.12
430.736	75.12
430.958	88.12
431.18	84.12
431.402	96.12
431.624	86.12
431.846	77.12
432.068	86.12
432.29	75.12
432.512	89.12
432.734	84.12
432.956	82.12
433.178	96.12
433.4	91.12
433.622	95.12
433.844	87.12
434.066	84.12
434.287	91.12
434.509	77.12
434.731	90.12
434.953	81.12
435.175	86.12
435.397	104.12
435.618	94.12
435.84	98.12
436.062	115.12
436.284	109.12
436.505	96.12
436.727	96.12
436.949	92.12
437.17	81.12
437.392	92.12
437.614	92.12
437.835	85.12
438.057	100.12
438.278	93.12
438.5	91.12
438.721	127.12
438.943	108.12
439.165	78.12
439.386	96.12
439.608	89.12
439.829	99.12
440.05	122.12
440.272	128.12
440.493	90.12
440.715	82.12
440.936	65.12
441.158	89.12
441.379	103.12
441.6	101.12
441.822	72.12
442.043	98.12
442.264	106.12
442.486	94.12
442.707	83.12
442.928	73.12
443.149	105.12
443.371	104.12
443.592	104.12
443.813	83.12
444.034	103.12
444.255	88.12
444.476	80.12
444.698	85.12
444.919	96.12
445.14	125.12
445.361	115.12
445.582	98.12
445.803	132.12
446.024	120.12
446.245	128.12
446.466	108.12
446.687	97.12
446.908	90.12
447.129	71.12
447.35	83.12
447.571	92.12
447.792	95.12
448.013	102.12
448.234	107.12
448.455	90.12
448.675	102.12
448.896	106.12
449.117	91.12
449.338	94.12
449.559	120.12
449.779	120.12
450	92.12
450.221	83.12
450.442	66.12
450.662	93.12
450.883	107.12
451.104	88.12
451.324	103.12
451.545	93.12
451.766	84.12
451.986	84.12
452.207	87.12
452.428	93.12
452.648	96.12
452.869	108.12
453.089	114.12
453.31	108.12
453.53	88.12
453.751	84.12
453.971	106.12
454.192	118.12
454.412	84.12
454.633	87.12
454.853	86.12
455.073	77.12
455.294	86.12
455.514	87.12
455.734	84.12
455.955	89.12
456.175	90.12
456.395	91.12
456.616	77.12
456.836	81.12
457.056	83.12
457.276	72.12
457.497	89.12
457.717	87.12
457.937	80.12
458.157	82.12
458.377	77.12
458.598	95.12
458.818	123.12
459.038	138.12
459.258	115.12
459.478	84.12
459.698	90.12
459.918	92.12
460.138	81.12
460.358	89.12
460.578	94.12
460.798	74.12
461.018	84.12
461.238	90.12
461.458	80.12
461.678	68.12
461.898	82.12
462.118	83.12
462.338	87.12
462.558	81.12
462.777	88.12
462.997	85.12
463.217	92.12
463.437	77.12
463.657	88.12
463.876	86.12
464.096	76.12
464.316	80.12
464.536	90.12
464.755	101.12
464.975	108.12
465.195	143.12
465.414	135.12
465.634	105.12
465.854	95.12
466.073	92.12
466.293	98.12
466.512	88.12
466.732	81.12
466.951	92.12
467.171	90.12
467.391	89.12
467.61	86.12
467.829	88.12
468.049	88.12
468.268	85.12
468.488	82.12
468.707	77.12
468.927	83.12
469.146	82.12
469.365	104.12
469.585	86.12
469.804	95.12
470.023	89.12
470.243	84.12
470.462	99.12
470.681	100.12
470.901	88.12
471.12	92.12
471.339	85.12
471.558	90.12
471.777	89.12
471.997	86.12
472.216	84.12
472.435	97.12
472.654	91.12
472.873	78.12
473.092	81.12
473.311	81.12
473.53	84.12
473.749	80.12
473.968	100.12
474.187	90.12
474.406	97.12
474.625	76.12
474.844	89.12
475.063	97.12
475.282	91.12
475.501	81.12
475.72	80.12
475.939	81.12
476.158	80.12
476.377	84.12
476.596	80.12
476.814	83.12
477.033	91.12
477.252	97.12
477.471	92.12
477.69	84.12
477.908	79.12
478.127	79.12
478.346	80.12
478.564	91.12
478.783	100.12
479.002	104.12
479.22	74.12
479.439	91.12
479.658	103.12
479.876	91.12
480.095	89.12
480.313	86.12
480.532	79.12
480.751	89.12
480.969	81.12
481.188	96.12
481.406	89.12
481.624	107.12
481.843	88.12
482.061	87.12
482.28	93.12
482.498	82.12
482.717	82.12
482.935	85.12
483.153	88.12
483.372	92.12
483.59	90.12
483.808	84.12
484.027	77.12
484.245	85.12
484.463	83.12
484.681	103.12
484.9	103.12
485.118	89.12
485.336	97.12
485.554	88.12
485.772	91.12
485.99	91.12
486.209	98.12
486.427	89.12
486.645	117.12
486.863	114.12
487.081	113.12
487.299	96.12
487.517	101.12
487.735	76.12
487.953	96.12
488.171	97.12
488.389	98.12
488.607	105.12
488.825	86.12
489.043	99.12
489.261	85.12
489.479	88.12
489.696	93.12
489.914	97.12
490.132	91.12
490.35	97.12
490.568	88.12
490.786	95.12
491.003	89.12
491.221	102.12
491.439	83.12
491.657	86.12
491.874	100.12
492.092	91.12
492.31	105.12
492.527	97.12
492.745	81.12
492.963	95.12
493.18	93.12
493.398	91.12
493.615	76.12
493.833	90.12
494.05	91.12
494.268	89.12
494.485	98.12
494.703	73.12
494.92	90.12
495.138	91.12
495.355	92.12
495.573	98.12
495.79	91.12
496.008	87.12
496.225	86.12
496.442	86.12
496.66	91.12
496.877	115.12
497.094	95.12
497.312	84.12
497.529	90.12
497.746	95.12
497.963	79.12
498.181	96.12
498.398	105.12
498.615	123.12
498.832	99.12
499.049	96.12
499.267	89.12
499.484	90.12
499.701	99.12
499.918	94.12
500.135	95.12
500.352	89.12
500.569	91.12
500.786	97.12
501.003	80.12
501.22	95.12
501.437	86.12
501.654	83.12
501.871	90.12
502.088	89.12
502.305	91.12
502.522	85.12
502.739	83.12
502.956	88.12
503.172	89.12
503.389	90.12
503.606	92.12
503.823	100.12
504.04	95.12
504.256	81.12
504.473	89.12
504.69	92.12
504.907	100.12
505.123	91.12
505.34	84.12
505.557	99.12
505.773	96.12
505.99	97.12
506.207	91.12
506.423	86.12
506.64	98.12
506.856	83.12
507.073	85.12
507.289	89.12
507.506	91.12
507.722	116.12
507.939	86.12
508.155	89.12
508.372	99.12
508.588	97.12
508.805	86.12
509.021	96.12
509.238	103.12
509.454	95.12
509.67	93.12
509.887	91.12
510.103	124.12
510.319	190.12
510.536	675.12
510.752	2102.12
510.968	617.12
511.184	147.12
511.401	99.12
511.617	93.12
511.833	92.12
512.049	104.12
512.265	77.12
512.481	99.12
512.698	91.12
512.914	101.12
513.13	82.12
513.346	83.12
513.562	116.12
513.778	100.12
513.994	81.12
514.21	89.12
514.426	105.12
514.642	122.12
514.858	119.12
515.074	140.12
515.29	388.12
515.506	1182.12
515.721	453.12
515.937	131.12
516.153	110.12
516.369	89.12
516.585	82.12
516.801	85.12
