Data from Uncirc_2000_H10_HRD10591_00028.txt Node
Date: Wed Jan 03 10:48:22 EST 2024
User: Yrep
Spectrometer: HR+D1059
Trigger mode: 1
Integration Time (sec): 1.000000E-1
Scans to average: 1
Electric dark correction enabled: true
Nonlinearity correction enabled: false
Boxcar width: 0
XAxis mode: Wavelengths
Number of Pixels in Spectrum: 2048
>>>>>Begin Spectral Data<<<<<
223.165	-27.62
223.4	-27.62
223.635	-27.62
223.869	-19.62
224.104	-8.62
224.338	-16.62
224.573	-14.62
224.808	-15.62
225.042	-14.62
225.277	-11.62
225.511	-11.62
225.746	-1.62
225.98	7.38
226.215	12.38
226.449	25.38
226.683	38.38
226.918	34.38
227.152	24.38
227.387	32.38
227.621	43.38
227.856	34.38
228.09	50.38
228.324	59.38
228.559	49.38
228.793	144.38
229.027	419.38
229.262	500.38
229.496	571.38
229.73	802.38
229.964	778.38
230.199	524.38
230.433	457.38
230.667	431.38
230.901	404.38
231.136	420.38
231.37	418.38
231.604	423.38
231.838	429.38
232.072	417.38
232.306	453.38
232.541	432.38
232.775	443.38
233.009	449.38
233.243	455.38
233.477	453.38
233.711	463.38
233.945	499.38
234.179	486.38
234.413	484.38
234.647	486.38
234.881	490.38
235.115	500.38
235.349	519.38
235.583	523.38
235.817	581.38
236.051	599.38
236.285	594.38
236.519	608.38
236.753	662.38
236.987	859.38
237.221	1345.38
237.455	1468.38
237.689	877.38
237.922	691.38
238.156	647.38
238.39	649.38
238.624	598.38
238.858	625.38
239.091	604.38
239.325	626.38
239.559	625.38
239.793	670.38
240.027	727.38
240.26	861.38
240.494	941.38
240.728	929.38
240.961	855.38
241.195	791.38
241.429	727.38
241.662	752.38
241.896	732.38
242.13	733.38
242.363	722.38
242.597	768.38
242.83	755.38
243.064	813.38
243.298	779.38
243.531	781.38
243.765	785.38
243.998	795.38
244.232	801.38
244.465	830.38
244.699	847.38
244.932	845.38
245.166	839.38
245.399	861.38
245.633	854.38
245.866	861.38
246.099	857.38
246.333	862.38
246.566	927.38
246.8	935.38
247.033	965.38
247.266	1008.38
247.5	1050.38
247.733	1085.38
247.966	1110.38
248.2	1061.38
248.433	1078.38
248.666	1136.38
248.899	1247.38
249.133	1363.38
249.366	1306.38
249.599	1247.38
249.832	1113.38
250.066	1161.38
250.299	1169.38
250.532	1264.38
250.765	1457.38
250.998	1613.38
251.231	1541.38
251.465	1333.38
251.698	1322.38
251.931	1321.38
252.164	1317.38
252.397	1330.38
252.63	1365.38
252.863	1461.38
253.096	1598.38
253.329	1664.38
253.562	1556.38
253.795	1480.38
254.028	1481.38
254.261	1539.38
254.494	1729.38
254.727	2038.38
254.96	2135.38
255.193	1872.38
255.426	1647.38
255.659	1513.38
255.892	1479.38
256.124	1431.38
256.357	1441.38
256.59	1413.38
256.823	1394.38
257.056	1395.38
257.289	1432.38
257.521	1471.38
257.754	1451.38
257.987	1419.38
258.22	1470.38
258.452	1451.38
258.685	1444.38
258.918	1481.38
259.151	1498.38
259.383	1637.38
259.616	1639.38
259.849	1679.38
260.081	1848.38
260.314	1976.38
260.547	1906.38
260.779	1767.38
261.012	1689.38
261.244	1640.38
261.477	1595.38
261.71	1567.38
261.942	1649.38
262.175	1685.38
262.407	1615.38
262.64	1563.38
262.872	1577.38
263.105	1555.38
263.337	1557.38
263.57	1564.38
263.802	1605.38
264.035	1592.38
264.267	1612.38
264.499	1583.38
264.732	1603.38
264.964	1621.38
265.197	1615.38
265.429	1630.38
265.661	1629.38
265.894	1635.38
266.126	1645.38
266.358	1657.38
266.591	1711.38
266.823	1778.38
267.055	1835.38
267.287	1803.38
267.52	1774.38
267.752	1721.38
267.984	1797.38
268.216	1818.38
268.448	1855.38
268.681	1905.38
268.913	2043.38
269.145	2244.38
269.377	2307.38
269.609	2175.38
269.841	2161.38
270.073	2282.38
270.306	2534.38
270.538	2656.38
270.77	2580.38
271.002	2381.38
271.234	2357.38
271.466	2449.38
271.698	2640.38
271.93	2606.38
272.162	2621.38
272.394	2565.38
272.626	2361.38
272.858	2261.38
273.09	2162.38
273.322	2165.38
273.553	2143.38
273.785	2122.38
274.017	2099.38
274.249	2149.38
274.481	2113.38
274.713	2169.38
274.945	2196.38
275.176	2175.38
275.408	2145.38
275.64	2143.38
275.872	2165.38
276.104	2202.38
276.335	2233.38
276.567	2291.38
276.799	2431.38
277.031	2672.38
277.262	2729.38
277.494	2610.38
277.726	2493.38
277.957	2396.38
278.189	2311.38
278.421	2282.38
278.652	2279.38
278.884	2286.38
279.115	2222.38
279.347	2288.38
279.579	2293.38
279.81	2275.38
280.042	2267.38
280.273	2261.38
280.505	2324.38
280.736	2297.38
280.968	2300.38
281.199	2353.38
281.431	2379.38
281.662	2408.38
281.894	2388.38
282.125	2391.38
282.356	2531.38
282.588	2682.38
282.819	2580.38
283.051	2438.38
283.282	2435.38
283.513	2445.38
283.745	2533.38
283.976	2561.38
284.207	2567.38
284.439	2517.38
284.67	2506.38
284.901	2527.38
285.132	2498.38
285.364	2513.38
285.595	2532.38
285.826	2525.38
286.057	2555.38
286.288	2516.38
286.52	2598.38
286.751	2606.38
286.982	2599.38
287.213	2636.38
287.444	2625.38
287.675	2712.38
287.906	2797.38
288.138	2833.38
288.369	2795.38
288.6	2813.38
288.831	2772.38
289.062	2723.38
289.293	2733.38
289.524	2676.38
289.755	2680.38
289.986	2653.38
290.217	2707.38
290.448	2698.38
290.679	2727.38
290.91	2674.38
291.141	2742.38
291.371	2715.38
291.602	2738.38
291.833	2741.38
292.064	2715.38
292.295	2694.38
292.526	2769.38
292.757	2746.38
292.987	2707.38
293.218	2734.38
293.449	2822.38
293.68	2711.38
293.91	2753.38
294.141	2773.38
294.372	2745.38
294.603	2738.38
294.833	2771.38
295.064	2808.38
295.295	2790.38
295.525	2800.38
295.756	2853.38
295.987	2895.38
296.217	3039.38
296.448	3018.38
296.679	2840.38
296.909	2827.38
297.14	2864.38
297.37	2947.38
297.601	2922.38
297.831	2898.38
298.062	2991.38
298.292	2957.38
298.523	3009.38
298.753	3042.38
298.984	2945.38
299.214	3006.38
299.445	2991.38
299.675	3055.38
299.905	3062.38
300.136	2992.38
300.366	3039.38
300.597	3044.38
300.827	3178.38
301.057	3236.38
301.288	3305.38
301.518	3218.38
301.748	3263.38
301.979	3321.38
302.209	3318.38
302.439	3218.38
302.669	3199.38
302.9	3167.38
303.13	3190.38
303.36	3208.38
303.59	3274.38
303.82	3310.38
304.051	3306.38
304.281	3176.38
304.511	3177.38
304.741	3167.38
304.971	3223.38
305.201	3179.38
305.431	3239.38
305.661	3174.38
305.891	3154.38
306.121	3159.38
306.352	3233.38
306.582	3211.38
306.812	3089.38
307.042	3200.38
307.272	3223.38
307.502	3159.38
307.731	3189.38
307.961	3161.38
308.191	3228.38
308.421	3182.38
308.651	3219.38
308.881	3217.38
309.111	3227.38
309.341	3279.38
309.571	3380.38
309.8	3319.38
310.03	3457.38
310.26	3440.38
310.49	3409.38
310.72	3595.38
310.949	3609.38
311.179	3731.38
311.409	3477.38
311.639	3511.38
311.868	3480.38
312.098	3545.38
312.328	3636.38
312.557	3773.38
312.787	3821.38
313.017	3711.38
313.246	3662.38
313.476	3584.38
313.706	3625.38
313.935	3712.38
314.165	3812.38
314.394	3822.38
314.624	3765.38
314.853	3722.38
315.083	3689.38
315.312	3586.38
315.542	3570.38
315.771	3597.38
316.001	3536.38
316.23	3556.38
316.46	3550.38
316.689	3585.38
316.919	3629.38
317.148	3649.38
317.377	3658.38
317.607	3597.38
317.836	3566.38
318.065	3481.38
318.295	3561.38
318.524	3512.38
318.753	3553.38
318.983	3560.38
319.212	3542.38
319.441	3602.38
319.67	3632.38
319.9	3568.38
320.129	3553.38
320.358	3554.38
320.587	3602.38
320.816	3664.38
321.046	3699.38
321.275	3686.38
321.504	3687.38
321.733	3702.38
321.962	3821.38
322.191	3854.38
322.42	3957.38
322.649	4056.38
322.878	4049.38
323.108	4145.38
323.337	4364.38
323.566	4512.38
323.795	4830.38
324.024	5282.38
324.253	6939.38
324.482	10360.38
324.71	14895.38
324.939	15611.38
325.168	12341.38
325.397	6159.38
325.626	5005.38
325.855	4694.38
326.084	4532.38
326.313	4582.38
326.542	4665.38
326.77	5349.38
326.999	6631.38
327.228	9741.38
327.457	14010.38
327.686	13161.38
327.914	6939.38
328.143	5475.38
328.372	5106.38
328.6	4960.38
328.829	4948.38
329.058	5075.38
329.287	5038.38
329.515	4745.38
329.744	4506.38
329.972	4540.38
330.201	4701.38
330.43	4888.38
330.658	5145.38
330.887	5505.38
331.115	5129.38
331.344	4734.38
331.572	4691.38
331.801	4841.38
332.03	4839.38
332.258	4738.38
332.486	4740.38
332.715	4861.38
332.943	4966.38
333.172	5138.38
333.4	5202.38
333.629	5378.38
333.857	5435.38
334.085	5364.38
334.314	5196.38
334.542	5222.38
334.771	5202.38
334.999	5050.38
335.227	5059.38
335.455	4927.38
335.684	4876.38
335.912	4861.38
336.14	4800.38
336.369	4848.38
336.597	4852.38
336.825	4822.38
337.053	4760.38
337.281	4618.38
337.51	4623.38
337.738	4608.38
337.966	4579.38
338.194	4521.38
338.422	4452.38
338.65	4390.38
338.878	4352.38
339.106	4313.38
339.334	4367.38
339.562	4331.38
339.79	4223.38
340.018	4272.38
340.246	4245.38
340.474	4255.38
340.702	4251.38
340.93	4204.38
341.158	4255.38
341.386	4242.38
341.614	4280.38
341.842	4222.38
342.07	4187.38
342.298	4219.38
342.526	4184.38
342.754	4128.38
342.981	4224.38
343.209	4371.38
343.437	4579.38
343.665	4789.38
343.893	5107.38
344.12	5025.38
344.348	4835.38
344.576	4649.38
344.804	4589.38
345.031	4501.38
345.259	4461.38
345.487	4270.38
345.714	4201.38
345.942	4138.38
346.17	4060.38
346.397	4101.38
346.625	4079.38
346.853	4102.38
347.08	4095.38
347.308	4110.38
347.535	4208.38
347.763	4168.38
347.99	4161.38
348.218	4197.38
348.445	4135.38
348.673	4089.38
348.9	4023.38
349.128	3974.38
349.355	3948.38
349.583	3927.38
349.81	3898.38
350.037	3924.38
350.265	3939.38
350.492	3901.38
350.72	3917.38
350.947	3991.38
351.174	4082.38
351.402	4088.38
351.629	3994.38
351.856	4018.38
352.083	4093.38
352.311	4081.38
352.538	4103.38
352.765	4098.38
352.992	4018.38
353.22	3966.38
353.447	3945.38
353.674	3855.38
353.901	3830.38
354.128	3870.38
354.355	3839.38
354.583	3874.38
354.81	3870.38
355.037	3894.38
355.264	3867.38
355.491	3868.38
355.718	3863.38
355.945	3839.38
356.172	3831.38
356.399	3854.38
356.626	3896.38
356.853	3833.38
357.08	3801.38
357.307	3838.38
357.534	3874.38
357.761	3843.38
357.988	3836.38
358.215	3886.38
358.441	3783.38
358.668	3850.38
358.895	3967.38
359.122	3954.38
359.349	4062.38
359.576	4103.38
359.802	4277.38
360.029	4466.38
360.256	4449.38
360.483	4328.38
360.709	4115.38
360.936	4049.38
361.163	4018.38
361.39	4087.38
361.616	4077.38
361.843	4062.38
362.07	4072.38
362.296	4072.38
362.523	4078.38
362.749	4050.38
362.976	3991.38
363.203	3978.38
363.429	3977.38
363.656	4029.38
363.882	3928.38
364.109	3904.38
364.335	3881.38
364.562	3945.38
364.788	3884.38
365.015	3928.38
365.241	3955.38
365.468	3957.38
365.694	4010.38
365.92	3942.38
366.147	3924.38
366.373	3991.38
366.599	3840.38
366.826	3910.38
367.052	3838.38
367.278	3974.38
367.505	3972.38
367.731	3898.38
367.957	3956.38
368.184	4037.38
368.41	4019.38
368.636	4094.38
368.862	4150.38
369.089	4032.38
369.315	4029.38
369.541	4057.38
369.767	4123.38
369.993	4079.38
370.219	4078.38
370.445	4079.38
370.672	4132.38
370.898	4109.38
371.124	4176.38
371.35	4222.38
371.576	4209.38
371.802	4165.38
372.028	4187.38
372.254	4179.38
372.48	4237.38
372.706	4389.38
372.932	4332.38
373.158	4322.38
373.384	4286.38
373.61	4196.38
373.835	4270.38
374.061	4211.38
374.287	4339.38
374.513	4402.38
374.739	4497.38
374.965	4555.38
375.191	4558.38
375.416	4582.38
375.642	4385.38
375.868	4293.38
376.094	4302.38
376.319	4281.38
376.545	4320.38
376.771	4250.38
376.997	4235.38
377.222	4231.38
377.448	4191.38
377.674	4164.38
377.899	4168.38
378.125	4186.38
378.35	4145.38
378.576	4194.38
378.802	4164.38
379.027	4235.38
379.253	4210.38
379.478	4130.38
379.704	4166.38
379.929	4160.38
380.155	4219.38
380.38	4198.38
380.606	4246.38
380.831	4191.38
381.057	4265.38
381.282	4222.38
381.507	4301.38
381.733	4318.38
381.958	4309.38
382.184	4358.38
382.409	4405.38
382.634	4454.38
382.86	4498.38
383.085	4529.38
383.31	4526.38
383.535	4694.38
383.761	4656.38
383.986	4763.38
384.211	4848.38
384.436	4934.38
384.662	5022.38
384.887	5055.38
385.112	5046.38
385.337	5107.38
385.562	5098.38
385.787	5087.38
386.013	5115.38
386.238	5256.38
386.463	5204.38
386.688	5125.38
386.913	5053.38
387.138	5076.38
387.363	5089.38
387.588	5018.38
387.813	4962.38
388.038	5043.38
388.263	5037.38
388.488	5048.38
388.713	5052.38
388.938	5037.38
389.163	5037.38
389.387	5069.38
389.612	4990.38
389.837	5006.38
390.062	4945.38
390.287	4978.38
390.512	4984.38
390.736	5026.38
390.961	5159.38
391.186	5210.38
391.411	5365.38
391.636	5478.38
391.86	5642.38
392.085	5750.38
392.31	5572.38
392.534	5424.38
392.759	5285.38
392.984	5348.38
393.208	5229.38
393.433	5252.38
393.658	5194.38
393.882	5255.38
394.107	5299.38
394.331	5317.38
394.556	5296.38
394.78	5327.38
395.005	5367.38
395.229	5480.38
395.454	5527.38
395.678	5671.38
395.903	5715.38
396.127	5786.38
396.352	5471.38
396.576	5350.38
396.801	5345.38
397.025	5466.38
397.249	5479.38
397.474	5600.38
397.698	5659.38
397.922	5911.38
398.147	5939.38
398.371	6015.38
398.595	6094.38
398.82	6424.38
399.044	7008.38
399.268	7767.38
399.492	8905.38
399.717	9469.38
399.941	9260.38
400.165	8584.38
400.389	7889.38
400.613	7161.38
400.837	6640.38
401.062	6508.38
401.286	6436.38
401.51	6354.38
401.734	6361.38
401.958	6443.38
402.182	6555.38
402.406	6681.38
402.63	6759.38
402.854	6902.38
403.078	6914.38
403.302	7082.38
403.526	7178.38
403.75	7189.38
403.974	7259.38
404.198	7184.38
404.422	7329.38
404.645	7268.38
404.869	7168.38
405.093	7207.38
405.317	7398.38
405.541	7322.38
405.765	7074.38
405.988	7108.38
406.212	7135.38
406.436	7413.38
406.66	7519.38
406.883	7537.38
407.107	8161.38
407.331	8694.38
407.555	9167.38
407.778	8907.38
408.002	8077.38
408.226	7615.38
408.449	7621.38
408.673	7558.38
408.896	7665.38
409.12	7789.38
409.344	7337.38
409.567	6962.38
409.791	6989.38
410.014	6936.38
410.238	6816.38
410.461	6879.38
410.685	6834.38
410.908	6992.38
411.132	7266.38
411.355	7241.38
411.578	6833.38
411.802	6512.38
412.025	6581.38
412.249	6658.38
412.472	6617.38
412.695	6513.38
412.919	6282.38
413.142	6335.38
413.365	6249.38
413.589	6340.38
413.812	6240.38
414.035	6147.38
414.258	6127.38
414.482	6219.38
414.705	6300.38
414.928	6254.38
415.151	6256.38
415.374	6306.38
415.597	6220.38
415.821	6198.38
416.044	6187.38
416.267	6160.38
416.49	6053.38
416.713	6029.38
416.936	6108.38
417.159	6097.38
417.382	6165.38
417.605	6225.38
417.828	6382.38
418.051	6479.38
418.274	6397.38
418.497	6308.38
418.72	6371.38
418.943	6332.38
419.166	6688.38
419.389	7067.38
419.611	6956.38
419.834	6728.38
420.057	6601.38
420.28	6443.38
420.503	6210.38
420.726	6341.38
420.948	6387.38
421.171	6915.38
421.394	6863.38
421.617	6426.38
421.839	6420.38
422.062	6462.38
422.285	6628.38
422.507	7268.38
422.73	7840.38
422.953	7197.38
423.175	6863.38
423.398	6765.38
423.621	6848.38
423.843	7149.38
424.066	7053.38
424.288	6973.38
424.511	7209.38
424.733	7739.38
424.956	8132.38
425.178	7602.38
425.401	7751.38
425.623	7503.38
425.846	6669.38
426.068	6413.38
426.291	6381.38
426.513	6381.38
426.735	6553.38
426.958	6885.38
427.18	7771.38
427.402	8785.38
427.625	8871.38
427.847	7338.38
428.069	6566.38
428.292	6289.38
428.514	5935.38
428.736	5834.38
428.958	5861.38
429.181	5644.38
429.403	5706.38
429.625	5877.38
429.847	6241.38
430.069	6706.38
430.292	6205.38
430.514	5750.38
430.736	5752.38
430.958	5609.38
431.18	5499.38
431.402	5535.38
431.624	5536.38
431.846	5641.38
432.068	5593.38
432.29	5742.38
432.512	5605.38
432.734	5746.38
432.956	5640.38
433.178	5713.38
433.4	5705.38
433.622	5577.38
433.844	5647.38
434.066	5661.38
434.287	5786.38
434.509	6051.38
434.731	6182.38
434.953	6283.38
435.175	6406.38
435.397	6509.38
435.618	6427.38
435.84	6868.38
436.062	7731.38
436.284	7619.38
436.505	6430.38
436.727	6077.38
436.949	5853.38
437.17	5751.38
437.392	5673.38
437.614	5824.38
437.835	6128.38
438.057	7162.38
438.278	7923.38
438.5	7793.38
438.721	8609.38
438.943	7529.38
439.165	6285.38
439.386	6087.38
439.608	6156.38
439.829	6256.38
440.05	6587.38
440.272	6936.38
440.493	6338.38
440.715	6021.38
440.936	5967.38
441.158	6059.38
441.379	6132.38
441.6	6439.38
441.822	6673.38
442.043	7131.38
442.264	7878.38
442.486	7597.38
442.707	6795.38
442.928	6606.38
443.149	6826.38
443.371	7059.38
443.592	7559.38
443.813	8647.38
444.034	8482.38
444.255	7286.38
444.476	7160.38
444.698	7445.38
444.919	7477.38
445.14	7300.38
445.361	7087.38
445.582	7232.38
445.803	7857.38
446.024	8538.38
446.245	8085.38
446.466	7181.38
446.687	6337.38
446.908	6030.38
447.129	5724.38
447.35	5541.38
447.571	5515.38
447.792	5380.38
448.013	5630.38
448.234	5638.38
448.455	6443.38
448.675	7538.38
448.896	8050.38
449.117	6605.38
449.338	6837.38
449.559	8157.38
449.779	8302.38
450	6315.38
450.221	5663.38
450.442	5376.38
450.662	5350.38
450.883	5446.38
451.104	5502.38
451.324	5300.38
451.545	5242.38
451.766	5130.38
451.986	5017.38
452.207	4932.38
452.428	4977.38
452.648	4950.38
452.869	5025.38
453.089	5078.38
453.31	5120.38
453.53	4983.38
453.751	4883.38
453.971	4984.38
454.192	5019.38
454.412	4919.38
454.633	4752.38
454.853	4799.38
455.073	4792.38
455.294	5223.38
455.514	5819.38
455.734	5205.38
455.955	4674.38
456.175	4640.38
456.395	4474.38
456.616	4513.38
456.836	4496.38
457.056	4562.38
457.276	4421.38
457.497	4655.38
457.717	4619.38
457.937	4734.38
458.157	4783.38
458.377	4878.38
458.598	5185.38
458.818	5862.38
459.038	6564.38
459.258	6402.38
459.478	5871.38
459.698	5710.38
459.918	5740.38
460.138	5993.38
460.358	6137.38
460.578	6122.38
460.798	6263.38
461.018	6209.38
461.238	6057.38
461.458	6070.38
461.678	6091.38
461.898	6252.38
462.118	6232.38
462.338	6642.38
462.558	6734.38
462.777	6998.38
462.997	7554.38
463.217	7937.38
463.437	7815.38
463.657	7127.38
463.876	7009.38
464.096	7053.38
464.316	7080.38
464.536	7160.38
464.755	6789.38
464.975	6781.38
465.195	6874.38
465.414	6909.38
465.634	6077.38
465.854	5780.38
466.073	5509.38
466.293	5352.38
466.512	5179.38
466.732	5099.38
466.951	5174.38
467.171	5157.38
467.391	5143.38
467.61	5237.38
467.829	5173.38
468.049	5105.38
468.268	4940.38
468.488	4946.38
468.707	4875.38
468.927	4927.38
469.146	4826.38
469.365	4969.38
469.585	4955.38
469.804	5165.38
470.023	5335.38
470.243	5305.38
470.462	5384.38
470.681	5485.38
470.901	5403.38
471.12	5261.38
471.339	5206.38
471.558	5124.38
471.777	5073.38
471.997	4961.38
472.216	4909.38
472.435	4895.38
472.654	4806.38
472.873	4726.38
473.092	4835.38
473.311	4811.38
473.53	4892.38
473.749	5014.38
473.968	5568.38
474.187	6463.38
474.406	6063.38
474.625	5150.38
474.844	4859.38
475.063	4868.38
475.282	4919.38
475.501	4987.38
475.72	5022.38
475.939	5011.38
476.158	5037.38
476.377	5044.38
476.596	5117.38
476.814	5210.38
477.033	5257.38
477.252	5356.38
477.471	5428.38
477.69	5478.38
477.908	5665.38
478.127	5773.38
478.346	5863.38
478.564	5997.38
478.783	6079.38
479.002	6266.38
479.22	6171.38
479.439	6319.38
479.658	6402.38
479.876	6506.38
480.095	6621.38
480.313	7005.38
480.532	6888.38
480.751	6694.38
480.969	6698.38
481.188	6433.38
481.406	6278.38
481.624	6115.38
481.843	5979.38
482.061	5856.38
482.28	5810.38
482.498	5790.38
482.717	5708.38
482.935	5674.38
483.153	5721.38
483.372	5677.38
483.59	5658.38
483.808	5704.38
484.027	5777.38
484.245	5829.38
484.463	5824.38
484.681	5903.38
484.9	5965.38
485.118	6009.38
485.336	5975.38
485.554	6104.38
485.772	6110.38
485.99	6049.38
486.209	6142.38
486.427	6091.38
486.645	6168.38
486.863	6350.38
487.081	6182.38
487.299	6186.38
487.517	6162.38
487.735	6140.38
