Data from Uncirc_2000_H10_HRD10591_00065.txt Node
Date: Wed Jan 03 10:48:30 EST 2024
User: Yrep
Spectrometer: HR+D1059
Trigger mode: 1
Integration Time (sec): 1.000000E-1
Scans to average: 1
Electric dark correction enabled: true
Nonlinearity correction enabled: false
Boxcar width: 0
XAxis mode: Wavelengths
Number of Pixels in Spectrum: 2048
>>>>>Begin Spectral Data<<<<<
223.165	-29.88
223.4	-29.88
223.635	-29.88
223.869	-20.88
224.104	-23.88
224.338	-14.88
224.573	-22.88
224.808	-0.88
225.042	-10.88
225.277	-1.88
225.511	4.12
225.746	5.12
225.98	8.12
226.215	22.12
226.449	4.12
226.683	16.12
226.918	29.12
227.152	37.12
227.387	33.12
227.621	45.12
227.856	43.12
228.09	50.12
228.324	41.12
228.559	39.12
228.793	49.12
229.027	57.12
229.262	57.12
229.496	72.12
229.73	74.12
229.964	71.12
230.199	72.12
230.433	67.12
230.667	82.12
230.901	80.12
231.136	80.12
231.37	63.12
231.604	66.12
231.838	94.12
232.072	84.12
232.306	74.12
232.541	79.12
232.775	80.12
233.009	80.12
233.243	85.12
233.477	77.12
233.711	76.12
233.945	80.12
234.179	60.12
234.413	81.12
234.647	85.12
234.881	78.12
235.115	72.12
235.349	73.12
235.583	70.12
235.817	65.12
236.051	80.12
236.285	86.12
236.519	76.12
236.753	73.12
236.987	90.12
237.221	64.12
237.455	76.12
237.689	78.12
237.922	71.12
238.156	72.12
238.39	71.12
238.624	75.12
238.858	69.12
239.091	81.12
239.325	73.12
239.559	82.12
239.793	67.12
240.027	76.12
240.26	75.12
240.494	73.12
240.728	69.12
240.961	69.12
241.195	75.12
241.429	69.12
241.662	67.12
241.896	78.12
242.13	64.12
242.363	76.12
242.597	71.12
242.83	82.12
243.064	68.12
243.298	78.12
243.531	69.12
243.765	76.12
243.998	71.12
244.232	84.12
244.465	81.12
244.699	80.12
244.932	86.12
245.166	72.12
245.399	79.12
245.633	69.12
245.866	66.12
246.099	64.12
246.333	67.12
246.566	78.12
246.8	64.12
247.033	78.12
247.266	68.12
247.5	75.12
247.733	68.12
247.966	84.12
248.2	72.12
248.433	74.12
248.666	66.12
248.899	66.12
249.133	85.12
249.366	103.12
249.599	100.12
249.832	77.12
250.066	92.12
250.299	83.12
250.532	81.12
250.765	72.12
250.998	80.12
251.231	89.12
251.465	60.12
251.698	80.12
251.931	69.12
252.164	85.12
252.397	72.12
252.63	66.12
252.863	73.12
253.096	80.12
253.329	71.12
253.562	75.12
253.795	68.12
254.028	69.12
254.261	85.12
254.494	77.12
254.727	65.12
254.96	74.12
255.193	87.12
255.426	77.12
255.659	82.12
255.892	77.12
256.124	82.12
256.357	79.12
256.59	72.12
256.823	79.12
257.056	70.12
257.289	83.12
257.521	90.12
257.754	75.12
257.987	84.12
258.22	81.12
258.452	80.12
258.685	60.12
258.918	86.12
259.151	77.12
259.383	79.12
259.616	81.12
259.849	80.12
260.081	65.12
260.314	78.12
260.547	80.12
260.779	74.12
261.012	81.12
261.244	83.12
261.477	76.12
261.71	98.12
261.942	97.12
262.175	101.12
262.407	86.12
262.64	79.12
262.872	70.12
263.105	81.12
263.337	88.12
263.57	87.12
263.802	80.12
264.035	76.12
264.267	77.12
264.499	79.12
264.732	86.12
264.964	79.12
265.197	78.12
265.429	89.12
265.661	74.12
265.894	65.12
266.126	80.12
266.358	78.12
266.591	80.12
266.823	93.12
267.055	77.12
267.287	85.12
267.52	83.12
267.752	72.12
267.984	91.12
268.216	81.12
268.448	91.12
268.681	80.12
268.913	81.12
269.145	81.12
269.377	88.12
269.609	80.12
269.841	70.12
270.073	61.12
270.306	98.12
270.538	84.12
270.77	79.12
271.002	88.12
271.234	86.12
271.466	83.12
271.698	76.12
271.93	78.12
272.162	82.12
272.394	87.12
272.626	92.12
272.858	64.12
273.09	83.12
273.322	82.12
273.553	88.12
273.785	76.12
274.017	84.12
274.249	81.12
274.481	80.12
274.713	64.12
274.945	59.12
275.176	83.12
275.408	101.12
275.64	76.12
275.872	80.12
276.104	95.12
276.335	77.12
276.567	92.12
276.799	111.12
277.031	98.12
277.262	86.12
277.494	87.12
277.726	80.12
277.957	92.12
278.189	80.12
278.421	77.12
278.652	73.12
278.884	82.12
279.115	72.12
279.347	66.12
279.579	84.12
279.81	76.12
280.042	79.12
280.273	89.12
280.505	88.12
280.736	96.12
280.968	80.12
281.199	79.12
281.431	81.12
281.662	72.12
281.894	76.12
282.125	96.12
282.356	109.12
282.588	121.12
282.819	98.12
283.051	86.12
283.282	82.12
283.513	90.12
283.745	86.12
283.976	73.12
284.207	70.12
284.439	78.12
284.67	74.12
284.901	87.12
285.132	73.12
285.364	88.12
285.595	91.12
285.826	83.12
286.057	80.12
286.288	76.12
286.52	82.12
286.751	77.12
286.982	67.12
287.213	65.12
287.444	69.12
287.675	80.12
287.906	82.12
288.138	76.12
288.369	102.12
288.6	82.12
288.831	80.12
289.062	89.12
289.293	86.12
289.524	94.12
289.755	82.12
289.986	72.12
290.217	87.12
290.448	83.12
290.679	90.12
290.91	90.12
291.141	81.12
291.371	76.12
291.602	78.12
291.833	92.12
292.064	79.12
292.295	83.12
292.526	95.12
292.757	90.12
292.987	71.12
293.218	78.12
293.449	87.12
293.68	78.12
293.91	81.12
294.141	79.12
294.372	89.12
294.603	84.12
294.833	79.12
295.064	80.12
295.295	93.12
295.525	79.12
295.756	98.12
295.987	103.12
296.217	147.12
296.448	132.12
296.679	97.12
296.909	86.12
297.14	92.12
297.37	90.12
297.601	98.12
297.831	84.12
298.062	109.12
298.292	80.12
298.523	76.12
298.753	92.12
298.984	77.12
299.214	80.12
299.445	79.12
299.675	79.12
299.905	86.12
300.136	92.12
300.366	82.12
300.597	94.12
300.827	94.12
301.057	108.12
301.288	97.12
301.518	89.12
301.748	96.12
301.979	102.12
302.209	87.12
302.439	91.12
302.669	83.12
302.9	94.12
303.13	93.12
303.36	80.12
303.59	105.12
303.82	80.12
304.051	90.12
304.281	67.12
304.511	90.12
304.741	84.12
304.971	88.12
305.201	88.12
305.431	89.12
305.661	72.12
305.891	91.12
306.121	96.12
306.352	95.12
306.582	95.12
306.812	84.12
307.042	92.12
307.272	97.12
307.502	94.12
307.731	93.12
307.961	77.12
308.191	81.12
308.421	90.12
308.651	82.12
308.881	80.12
309.111	86.12
309.341	93.12
309.571	86.12
309.8	98.12
310.03	95.12
310.26	97.12
310.49	84.12
310.72	84.12
310.949	78.12
311.179	90.12
311.409	81.12
311.639	85.12
311.868	89.12
312.098	98.12
312.328	82.12
312.557	98.12
312.787	94.12
313.017	102.12
313.246	76.12
313.476	81.12
313.706	85.12
313.935	99.12
314.165	84.12
314.394	107.12
314.624	80.12
314.853	90.12
315.083	76.12
315.312	93.12
315.542	89.12
315.771	85.12
316.001	93.12
316.23	81.12
316.46	76.12
316.689	81.12
316.919	84.12
317.148	86.12
317.377	94.12
317.607	94.12
317.836	105.12
318.065	80.12
318.295	83.12
318.524	89.12
318.753	71.12
318.983	89.12
319.212	97.12
319.441	105.12
319.67	88.12
319.9	89.12
320.129	101.12
320.358	94.12
320.587	90.12
320.816	86.12
321.046	99.12
321.275	83.12
321.504	104.12
321.733	100.12
321.962	97.12
322.191	108.12
322.42	110.12
322.649	98.12
322.878	100.12
323.108	107.12
323.337	116.12
323.566	122.12
323.795	132.12
324.024	193.12
324.253	346.12
324.482	764.12
324.71	1514.12
324.939	1970.12
325.168	771.12
325.397	214.12
325.626	130.12
325.855	137.12
326.084	109.12
326.313	113.12
326.542	153.12
326.77	211.12
326.999	414.12
327.228	869.12
327.457	1513.12
327.686	1222.12
327.914	326.12
328.143	171.12
328.372	144.12
328.6	116.12
328.829	100.12
329.058	133.12
329.287	100.12
329.515	106.12
329.744	96.12
329.972	86.12
330.201	78.12
330.43	87.12
330.658	97.12
330.887	114.12
331.115	104.12
331.344	86.12
331.572	86.12
331.801	100.12
332.03	89.12
332.258	83.12
332.486	93.12
332.715	86.12
332.943	77.12
333.172	74.12
333.4	88.12
333.629	98.12
333.857	104.12
334.085	87.12
334.314	100.12
334.542	83.12
334.771	89.12
334.999	85.12
335.227	84.12
335.455	96.12
335.684	89.12
335.912	76.12
336.14	92.12
336.369	87.12
336.597	99.12
336.825	105.12
337.053	77.12
337.281	97.12
337.51	94.12
337.738	83.12
337.966	84.12
338.194	86.12
338.422	85.12
338.65	100.12
338.878	80.12
339.106	79.12
339.334	88.12
339.562	85.12
339.79	68.12
340.018	90.12
340.246	83.12
340.474	89.12
340.702	75.12
340.93	87.12
341.158	85.12
341.386	85.12
341.614	84.12
341.842	86.12
342.07	80.12
342.298	100.12
342.526	96.12
342.754	94.12
342.981	77.12
343.209	91.12
343.437	102.12
343.665	72.12
343.893	88.12
344.12	88.12
344.348	74.12
344.576	82.12
344.804	73.12
345.031	76.12
345.259	92.12
345.487	87.12
345.714	92.12
345.942	79.12
346.17	95.12
346.397	94.12
346.625	71.12
346.853	87.12
347.08	86.12
347.308	74.12
347.535	83.12
347.763	103.12
347.99	100.12
348.218	104.12
348.445	98.12
348.673	92.12
348.9	87.12
349.128	83.12
349.355	72.12
349.583	85.12
349.81	94.12
350.037	99.12
350.265	98.12
350.492	85.12
350.72	99.12
350.947	87.12
351.174	93.12
351.402	112.12
351.629	101.12
351.856	92.12
352.083	101.12
352.311	96.12
352.538	113.12
352.765	87.12
352.992	104.12
353.22	103.12
353.447	97.12
353.674	93.12
353.901	103.12
354.128	79.12
354.355	89.12
354.583	90.12
354.81	100.12
355.037	95.12
355.264	94.12
355.491	100.12
355.718	91.12
355.945	85.12
356.172	72.12
356.399	89.12
356.626	86.12
356.853	89.12
357.08	96.12
357.307	78.12
357.534	83.12
357.761	95.12
357.988	112.12
358.215	97.12
358.441	89.12
358.668	91.12
358.895	76.12
359.122	79.12
359.349	86.12
359.576	80.12
359.802	94.12
360.029	98.12
360.256	88.12
360.483	89.12
360.709	87.12
360.936	84.12
361.163	83.12
361.39	94.12
361.616	93.12
361.843	84.12
362.07	89.12
362.296	75.12
362.523	87.12
362.749	93.12
362.976	85.12
363.203	106.12
363.429	89.12
363.656	84.12
363.882	67.12
364.109	90.12
364.335	84.12
364.562	91.12
364.788	91.12
365.015	79.12
365.241	91.12
365.468	96.12
365.694	105.12
365.92	103.12
366.147	88.12
366.373	89.12
366.599	82.12
366.826	85.12
367.052	88.12
367.278	85.12
367.505	84.12
367.731	96.12
367.957	75.12
368.184	79.12
368.41	90.12
368.636	105.12
368.862	113.12
369.089	104.12
369.315	84.12
369.541	84.12
369.767	80.12
369.993	89.12
370.219	92.12
370.445	74.12
370.672	83.12
370.898	85.12
371.124	84.12
371.35	87.12
371.576	106.12
371.802	82.12
372.028	78.12
372.254	78.12
372.48	73.12
372.706	79.12
372.932	85.12
373.158	80.12
373.384	90.12
373.61	88.12
373.835	98.12
374.061	82.12
374.287	84.12
374.513	82.12
374.739	85.12
374.965	80.12
375.191	84.12
375.416	79.12
375.642	85.12
375.868	96.12
376.094	87.12
376.319	79.12
376.545	100.12
376.771	84.12
376.997	74.12
377.222	99.12
377.448	78.12
377.674	88.12
377.899	81.12
378.125	88.12
378.35	92.12
378.576	90.12
378.802	85.12
379.027	86.12
379.253	87.12
379.478	96.12
379.704	70.12
379.929	72.12
380.155	91.12
380.38	80.12
380.606	85.12
380.831	82.12
381.057	79.12
381.282	87.12
381.507	89.12
381.733	90.12
381.958	85.12
382.184	90.12
382.409	92.12
382.634	92.12
382.86	105.12
383.085	92.12
383.31	88.12
383.535	100.12
383.761	79.12
383.986	94.12
384.211	81.12
384.436	88.12
384.662	94.12
384.887	89.12
385.112	93.12
385.337	93.12
385.562	101.12
385.787	87.12
386.013	100.12
386.238	112.12
386.463	91.12
386.688	93.12
386.913	104.12
387.138	98.12
387.363	101.12
387.588	97.12
387.813	97.12
388.038	90.12
388.263	116.12
388.488	96.12
388.713	88.12
388.938	100.12
389.163	97.12
389.387	102.12
389.612	100.12
389.837	93.12
390.062	88.12
390.287	85.12
390.512	83.12
390.736	81.12
390.961	96.12
391.186	96.12
391.411	100.12
391.636	78.12
391.86	63.12
392.085	83.12
392.31	77.12
392.534	79.12
392.759	91.12
392.984	81.12
393.208	93.12
393.433	94.12
393.658	81.12
393.882	81.12
394.107	76.12
394.331	73.12
394.556	85.12
394.78	73.12
395.005	83.12
395.229	61.12
395.454	84.12
395.678	74.12
395.903	89.12
396.127	97.12
396.352	76.12
396.576	71.12
396.801	84.12
397.025	95.12
397.249	73.12
397.474	91.12
397.698	90.12
397.922	86.12
398.147	92.12
398.371	88.12
398.595	93.12
398.82	81.12
399.044	86.12
399.268	78.12
399.492	89.12
399.717	76.12
399.941	90.12
400.165	90.12
400.389	68.12
400.613	81.12
400.837	88.12
401.062	79.12
401.286	67.12
401.51	88.12
401.734	83.12
401.958	85.12
402.182	116.12
402.406	142.12
402.63	109.12
402.854	89.12
403.078	74.12
403.302	74.12
403.526	83.12
403.75	87.12
403.974	86.12
404.198	86.12
404.422	82.12
404.645	84.12
404.869	84.12
405.093	96.12
405.317	84.12
405.541	82.12
405.765	79.12
405.988	103.12
406.212	150.12
406.436	214.12
406.66	119.12
406.883	83.12
407.107	97.12
407.331	92.12
407.555	94.12
407.778	81.12
408.002	77.12
408.226	96.12
408.449	82.12
408.673	72.12
408.896	84.12
409.12	79.12
409.344	81.12
409.567	79.12
409.791	89.12
410.014	81.12
410.238	86.12
410.461	83.12
410.685	80.12
410.908	93.12
411.132	92.12
411.355	89.12
411.578	89.12
411.802	82.12
412.025	86.12
412.249	92.12
412.472	87.12
412.695	94.12
412.919	84.12
413.142	81.12
413.365	87.12
413.589	83.12
413.812	84.12
414.035	77.12
414.258	78.12
414.482	90.12
414.705	69.12
414.928	79.12
415.151	96.12
415.374	83.12
415.597	80.12
415.821	68.12
416.044	88.12
416.267	83.12
416.49	88.12
416.713	81.12
416.936	84.12
417.159	85.12
417.382	70.12
417.605	77.12
417.828	81.12
418.051	88.12
418.274	94.12
418.497	93.12
418.72	83.12
418.943	95.12
419.166	81.12
419.389	85.12
419.611	82.12
419.834	80.12
420.057	82.12
420.28	78.12
420.503	84.12
420.726	76.12
420.948	82.12
421.171	85.12
421.394	78.12
421.617	88.12
421.839	85.12
422.062	85.12
422.285	98.12
422.507	96.12
422.73	98.12
422.953	90.12
423.175	86.12
423.398	88.12
423.621	96.12
423.843	84.12
424.066	81.12
424.288	85.12
424.511	88.12
424.733	93.12
424.956	100.12
425.178	88.12
425.401	71.12
425.623	84.12
425.846	88.12
426.068	85.12
426.291	101.12
426.513	92.12
426.735	94.12
426.958	81.12
427.18	113.12
427.402	137.12
427.625	148.12
427.847	106.12
428.069	94.12
428.292	85.12
428.514	90.12
428.736	88.12
428.958	81.12
429.181	84.12
429.403	75.12
429.625	69.12
429.847	90.12
430.069	90.12
430.292	86.12
430.514	69.12
430.736	78.12
430.958	70.12
431.18	66.12
431.402	84.12
431.624	80.12
431.846	95.12
432.068	80.12
432.29	72.12
432.512	86.12
432.734	90.12
432.956	68.12
433.178	104.12
433.4	83.12
433.622	90.12
433.844	81.12
434.066	88.12
434.287	80.12
434.509	87.12
434.731	76.12
434.953	83.12
435.175	79.12
435.397	94.12
435.618	95.12
435.84	86.12
436.062	104.12
436.284	113.12
436.505	100.12
436.727	96.12
436.949	100.12
437.17	85.12
437.392	84.12
437.614	92.12
437.835	94.12
438.057	103.12
438.278	101.12
438.5	89.12
438.721	96.12
438.943	97.12
439.165	93.12
439.386	75.12
439.608	79.12
439.829	95.12
440.05	127.12
440.272	109.12
440.493	87.12
440.715	79.12
440.936	92.12
441.158	73.12
441.379	88.12
441.6	90.12
441.822	72.12
442.043	90.12
442.264	105.12
442.486	82.12
442.707	84.12
442.928	93.12
443.149	102.12
443.371	120.12
443.592	94.12
443.813	109.12
444.034	109.12
444.255	98.12
444.476	71.12
444.698	81.12
444.919	82.12
445.14	124.12
445.361	108.12
445.582	106.12
445.803	128.12
446.024	112.12
446.245	110.12
446.466	104.12
446.687	80.12
446.908	77.12
447.129	96.12
447.35	89.12
447.571	95.12
447.792	94.12
448.013	92.12
448.234	91.12
448.455	88.12
448.675	97.12
448.896	121.12
449.117	89.12
449.338	105.12
449.559	118.12
449.779	127.12
450	88.12
450.221	94.12
450.442	84.12
450.662	99.12
450.883	100.12
451.104	114.12
451.324	96.12
451.545	90.12
451.766	87.12
451.986	87.12
452.207	86.12
452.428	95.12
452.648	90.12
452.869	106.12
453.089	101.12
453.31	100.12
453.53	90.12
453.751	90.12
453.971	95.12
454.192	99.12
454.412	89.12
454.633	87.12
454.853	80.12
455.073	81.12
455.294	86.12
455.514	96.12
455.734	95.12
455.955	95.12
456.175	83.12
456.395	77.12
456.616	92.12
456.836	88.12
457.056	74.12
457.276	85.12
457.497	93.12
457.717	73.12
457.937	78.12
458.157	87.12
458.377	83.12
458.598	90.12
458.818	137.12
459.038	148.12
459.258	102.12
459.478	77.12
459.698	79.12
459.918	78.12
460.138	85.12
460.358	72.12
460.578	98.12
460.798	90.12
461.018	87.12
461.238	90.12
461.458	68.12
461.678	88.12
461.898	73.12
462.118	96.12
462.338	88.12
462.558	85.12
462.777	69.12
462.997	84.12
463.217	73.12
463.437	74.12
463.657	84.12
463.876	97.12
464.096	92.12
464.316	81.12
464.536	87.12
464.755	100.12
464.975	104.12
465.195	127.12
465.414	142.12
465.634	94.12
465.854	87.12
466.073	82.12
466.293	80.12
466.512	73.12
466.732	82.12
466.951	97.12
467.171	94.12
467.391	95.12
467.61	98.12
467.829	86.12
468.049	85.12
468.268	88.12
468.488	78.12
468.707	84.12
468.927	94.12
469.146	74.12
469.365	82.12
469.585	81.12
469.804	90.12
470.023	80.12
470.243	96.12
470.462	92.12
470.681	104.12
470.901	87.12
471.12	83.12
471.339	94.12
471.558	81.12
471.777	91.12
471.997	99.12
472.216	81.12
472.435	97.12
472.654	85.12
472.873	77.12
473.092	81.12
473.311	63.12
473.53	78.12
473.749	83.12
473.968	89.12
474.187	98.12
474.406	86.12
474.625	100.12
474.844	78.12
475.063	70.12
475.282	76.12
475.501	85.12
475.72	89.12
475.939	71.12
476.158	84.12
476.377	87.12
476.596	85.12
476.814	87.12
477.033	87.12
477.252	85.12
477.471	77.12
477.69	86.12
477.908	95.12
478.127	93.12
478.346	87.12
478.564	93.12
478.783	85.12
479.002	86.12
479.22	89.12
479.439	83.12
479.658	87.12
479.876	94.12
480.095	81.12
480.313	73.12
480.532	77.12
480.751	72.12
480.969	90.12
481.188	78.12
481.406	75.12
481.624	81.12
481.843	78.12
482.061	83.12
482.28	94.12
482.498	91.12
482.717	73.12
482.935	88.12
483.153	92.12
483.372	85.12
483.59	89.12
483.808	84.12
484.027	88.12
484.245	82.12
484.463	107.12
484.681	80.12
484.9	95.12
485.118	103.12
485.336	86.12
485.554	85.12
485.772	90.12
485.99	88.12
486.209	91.12
486.427	103.12
486.645	97.12
486.863	90.12
487.081	95.12
487.299	92.12
487.517	94.12
487.735	98.12
487.953	92.12
488.171	74.12
488.389	86.12
488.607	88.12
488.825	76.12
489.043	92.12
489.261	84.12
489.479	89.12
489.696	96.12
489.914	90.12
490.132	86.12
490.35	101.12
490.568	72.12
490.786	79.12
491.003	77.12
491.221	86.12
491.439	99.12
491.657	90.12
491.874	90.12
492.092	93.12
492.31	83.12
492.527	84.12
492.745	81.12
492.963	84.12
493.18	86.12
493.398	84.12
493.615	80.12
493.833	98.12
494.05	82.12
494.268	85.12
494.485	88.12
494.703	96.12
494.92	87.12
495.138	87.12
495.355	95.12
495.573	102.12
495.79	75.12
496.008	88.12
496.225	77.12
496.442	88.12
496.66	92.12
496.877	85.12
497.094	97.12
497.312	88.12
497.529	96.12
497.746	78.12
497.963	79.12
498.181	101.12
498.398	68.12
498.615	91.12
498.832	99.12
499.049	96.12
499.267	96.12
499.484	90.12
499.701	85.12
499.918	91.12
500.135	87.12
500.352	87.12
500.569	84.12
500.786	87.12
501.003	80.12
501.22	86.12
501.437	82.12
501.654	97.12
501.871	92.12
502.088	99.12
502.305	97.12
502.522	87.12
502.739	81.12
502.956	84.12
503.172	94.12
503.389	83.12
503.606	88.12
503.823	82.12
504.04	88.12
504.256	93.12
504.473	88.12
504.69	81.12
504.907	92.12
505.123	88.12
505.34	90.12
505.557	84.12
505.773	92.12
505.99	73.12
506.207	92.12
506.423	90.12
506.64	70.12
506.856	89.12
507.073	88.12
507.289	83.12
507.506	86.12
507.722	90.12
507.939	100.12
508.155	89.12
508.372	93.12
508.588	97.12
508.805	100.12
509.021	96.12
509.238	78.12
509.454	102.12
509.67	105.12
509.887	98.12
510.103	118.12
510.319	211.12
510.536	689.12
510.752	2233.12
510.968	626.12
511.184	146.12
511.401	99.12
511.617	81.12
511.833	89.12
512.049	82.12
512.265	89.12
512.481	87.12
512.698	84.12
512.914	93.12
513.13	86.12
513.346	83.12
513.562	107.12
513.778	91.12
513.994	94.12
514.21	96.12
514.426	111.12
514.642	124.12
514.858	97.12
515.074	143.12
515.29	408.12
515.506	1258.12
515.721	481.12
515.937	141.12
516.153	113.12
516.369	84.12
516.585	78.12
516.801	84.12
517.016	96.12
517.232	84.12
517.448	109.12
517.664	99.12
