Data from Uncirc_2000_H10_HRD10591_00021.txt Node
Date: Wed Jan 03 10:48:21 EST 2024
User: Yrep
Spectrometer: HR+D1059
Trigger mode: 1
Integration Time (sec): 1.000000E-1
Scans to average: 1
Electric dark correction enabled: true
Nonlinearity correction enabled: false
Boxcar width: 0
XAxis mode: Wavelengths
Number of Pixels in Spectrum: 2048
>>>>>Begin Spectral Data<<<<<
223.165	-14.5
223.4	-14.5
223.635	-14.5
223.869	-18.5
224.104	-4.5
224.338	-13.5
224.573	-7.5
224.808	-29.5
225.042	-14.5
225.277	7.5
225.511	-3.5
225.746	-14.5
225.98	10.5
226.215	12.5
226.449	12.5
226.683	27.5
226.918	23.5
227.152	26.5
227.387	44.5
227.621	40.5
227.856	26.5
228.09	37.5
228.324	31.5
228.559	52.5
228.793	55.5
229.027	64.5
229.262	58.5
229.496	61.5
229.73	75.5
229.964	77.5
230.199	81.5
230.433	73.5
230.667	82.5
230.901	61.5
231.136	80.5
231.37	86.5
231.604	70.5
231.838	86.5
232.072	84.5
232.306	81.5
232.541	82.5
232.775	70.5
233.009	84.5
233.243	79.5
233.477	80.5
233.711	82.5
233.945	66.5
234.179	69.5
234.413	79.5
234.647	69.5
234.881	76.5
235.115	76.5
235.349	90.5
235.583	86.5
235.817	84.5
236.051	68.5
236.285	74.5
236.519	76.5
236.753	76.5
236.987	70.5
237.221	69.5
237.455	80.5
237.689	71.5
237.922	54.5
238.156	62.5
238.39	65.5
238.624	72.5
238.858	68.5
239.091	70.5
239.325	74.5
239.559	74.5
239.793	62.5
240.027	65.5
240.26	64.5
240.494	73.5
240.728	68.5
240.961	73.5
241.195	73.5
241.429	80.5
241.662	81.5
241.896	75.5
242.13	62.5
242.363	80.5
242.597	69.5
242.83	77.5
243.064	79.5
243.298	82.5
243.531	70.5
243.765	74.5
243.998	78.5
244.232	58.5
244.465	87.5
244.699	84.5
244.932	77.5
245.166	69.5
245.399	77.5
245.633	72.5
245.866	73.5
246.099	69.5
246.333	56.5
246.566	73.5
246.8	64.5
247.033	71.5
247.266	74.5
247.5	80.5
247.733	76.5
247.966	70.5
248.2	80.5
248.433	66.5
248.666	73.5
248.899	82.5
249.133	84.5
249.366	90.5
249.599	96.5
249.832	70.5
250.066	72.5
250.299	68.5
250.532	66.5
250.765	70.5
250.998	69.5
251.231	68.5
251.465	72.5
251.698	73.5
251.931	76.5
252.164	57.5
252.397	68.5
252.63	91.5
252.863	67.5
253.096	71.5
253.329	77.5
253.562	78.5
253.795	73.5
254.028	88.5
254.261	84.5
254.494	74.5
254.727	71.5
254.96	81.5
255.193	85.5
255.426	71.5
255.659	68.5
255.892	78.5
256.124	72.5
256.357	71.5
256.59	61.5
256.823	78.5
257.056	64.5
257.289	85.5
257.521	72.5
257.754	82.5
257.987	82.5
258.22	82.5
258.452	85.5
258.685	84.5
258.918	84.5
259.151	64.5
259.383	67.5
259.616	82.5
259.849	68.5
260.081	74.5
260.314	81.5
260.547	68.5
260.779	81.5
261.012	82.5
261.244	90.5
261.477	84.5
261.71	100.5
261.942	98.5
262.175	107.5
262.407	74.5
262.64	76.5
262.872	86.5
263.105	78.5
263.337	82.5
263.57	71.5
263.802	89.5
264.035	92.5
264.267	74.5
264.499	85.5
264.732	69.5
264.964	70.5
265.197	83.5
265.429	83.5
265.661	69.5
265.894	89.5
266.126	84.5
266.358	70.5
266.591	86.5
266.823	60.5
267.055	95.5
267.287	76.5
267.52	81.5
267.752	85.5
267.984	81.5
268.216	76.5
268.448	81.5
268.681	81.5
268.913	71.5
269.145	71.5
269.377	83.5
269.609	81.5
269.841	77.5
270.073	85.5
270.306	81.5
270.538	77.5
270.77	84.5
271.002	76.5
271.234	80.5
271.466	78.5
271.698	75.5
271.93	86.5
272.162	87.5
272.394	85.5
272.626	81.5
272.858	85.5
273.09	84.5
273.322	84.5
273.553	85.5
273.785	79.5
274.017	78.5
274.249	84.5
274.481	88.5
274.713	80.5
274.945	88.5
275.176	81.5
275.408	82.5
275.64	88.5
275.872	85.5
276.104	66.5
276.335	89.5
276.567	84.5
276.799	79.5
277.031	93.5
277.262	80.5
277.494	104.5
277.726	85.5
277.957	86.5
278.189	88.5
278.421	80.5
278.652	82.5
278.884	85.5
279.115	85.5
279.347	86.5
279.579	94.5
279.81	79.5
280.042	69.5
280.273	78.5
280.505	93.5
280.736	96.5
280.968	100.5
281.199	76.5
281.431	84.5
281.662	89.5
281.894	89.5
282.125	86.5
282.356	107.5
282.588	116.5
282.819	98.5
283.051	86.5
283.282	87.5
283.513	85.5
283.745	72.5
283.976	90.5
284.207	79.5
284.439	88.5
284.67	82.5
284.901	91.5
285.132	88.5
285.364	93.5
285.595	80.5
285.826	87.5
286.057	80.5
286.288	79.5
286.52	75.5
286.751	64.5
286.982	77.5
287.213	71.5
287.444	90.5
287.675	83.5
287.906	80.5
288.138	68.5
288.369	102.5
288.6	95.5
288.831	84.5
289.062	88.5
289.293	100.5
289.524	77.5
289.755	81.5
289.986	82.5
290.217	85.5
290.448	76.5
290.679	81.5
290.91	84.5
291.141	91.5
291.371	100.5
291.602	90.5
291.833	86.5
292.064	92.5
292.295	82.5
292.526	89.5
292.757	93.5
292.987	86.5
293.218	96.5
293.449	83.5
293.68	92.5
293.91	90.5
294.141	91.5
294.372	80.5
294.603	88.5
294.833	91.5
295.064	89.5
295.295	87.5
295.525	85.5
295.756	79.5
295.987	103.5
296.217	116.5
296.448	96.5
296.679	85.5
296.909	84.5
297.14	75.5
297.37	76.5
297.601	84.5
297.831	81.5
298.062	88.5
298.292	88.5
298.523	86.5
298.753	84.5
298.984	70.5
299.214	69.5
299.445	88.5
299.675	98.5
299.905	105.5
300.136	97.5
300.366	89.5
300.597	73.5
300.827	86.5
301.057	94.5
301.288	86.5
301.518	88.5
301.748	96.5
301.979	100.5
302.209	84.5
302.439	101.5
302.669	78.5
302.9	75.5
303.13	83.5
303.36	102.5
303.59	89.5
303.82	98.5
304.051	81.5
304.281	79.5
304.511	76.5
304.741	80.5
304.971	97.5
305.201	87.5
305.431	85.5
305.661	80.5
305.891	81.5
306.121	94.5
306.352	78.5
306.582	82.5
306.812	82.5
307.042	91.5
307.272	93.5
307.502	77.5
307.731	99.5
307.961	64.5
308.191	74.5
308.421	84.5
308.651	85.5
308.881	84.5
309.111	90.5
309.341	65.5
309.571	87.5
309.8	91.5
310.03	83.5
310.26	90.5
310.49	76.5
310.72	90.5
310.949	97.5
311.179	92.5
311.409	84.5
311.639	84.5
311.868	98.5
312.098	94.5
312.328	90.5
312.557	100.5
312.787	91.5
313.017	99.5
313.246	99.5
313.476	86.5
313.706	83.5
313.935	83.5
314.165	98.5
314.394	96.5
314.624	90.5
314.853	88.5
315.083	96.5
315.312	87.5
315.542	88.5
315.771	97.5
316.001	105.5
316.23	84.5
316.46	73.5
316.689	84.5
316.919	86.5
317.148	94.5
317.377	87.5
317.607	95.5
317.836	79.5
318.065	100.5
318.295	88.5
318.524	78.5
318.753	80.5
318.983	93.5
319.212	87.5
319.441	104.5
319.67	114.5
319.9	90.5
320.129	91.5
320.358	79.5
320.587	84.5
320.816	95.5
321.046	93.5
321.275	96.5
321.504	100.5
321.733	85.5
321.962	107.5
322.191	93.5
322.42	90.5
322.649	100.5
322.878	101.5
323.108	100.5
323.337	104.5
323.566	129.5
323.795	148.5
324.024	168.5
324.253	329.5
324.482	709.5
324.71	1381.5
324.939	1820.5
325.168	663.5
325.397	222.5
325.626	146.5
325.855	140.5
326.084	119.5
326.313	130.5
326.542	133.5
326.77	198.5
326.999	382.5
327.228	806.5
327.457	1457.5
327.686	1159.5
327.914	314.5
328.143	171.5
328.372	127.5
328.6	105.5
328.829	106.5
329.058	104.5
329.287	101.5
329.515	96.5
329.744	87.5
329.972	90.5
330.201	107.5
330.43	92.5
330.658	102.5
330.887	122.5
331.115	94.5
331.344	92.5
331.572	102.5
331.801	85.5
332.03	84.5
332.258	105.5
332.486	82.5
332.715	95.5
332.943	100.5
333.172	99.5
333.4	73.5
333.629	104.5
333.857	93.5
334.085	97.5
334.314	81.5
334.542	81.5
334.771	91.5
334.999	84.5
335.227	96.5
335.455	93.5
335.684	86.5
335.912	88.5
336.14	86.5
336.369	100.5
336.597	97.5
336.825	89.5
337.053	96.5
337.281	80.5
337.51	80.5
337.738	91.5
337.966	81.5
338.194	73.5
338.422	105.5
338.65	80.5
338.878	87.5
339.106	74.5
339.334	96.5
339.562	84.5
339.79	71.5
340.018	76.5
340.246	74.5
340.474	84.5
340.702	76.5
340.93	81.5
341.158	90.5
341.386	85.5
341.614	86.5
341.842	100.5
342.07	80.5
342.298	84.5
342.526	102.5
342.754	81.5
342.981	67.5
343.209	83.5
343.437	87.5
343.665	87.5
343.893	94.5
344.12	79.5
344.348	91.5
344.576	84.5
344.804	95.5
345.031	84.5
345.259	94.5
345.487	88.5
345.714	74.5
345.942	95.5
346.17	80.5
346.397	88.5
346.625	98.5
346.853	81.5
347.08	83.5
347.308	87.5
347.535	89.5
347.763	93.5
347.99	102.5
348.218	86.5
348.445	106.5
348.673	92.5
348.9	87.5
349.128	90.5
349.355	83.5
349.583	82.5
349.81	81.5
350.037	101.5
350.265	94.5
350.492	84.5
350.72	93.5
350.947	89.5
351.174	101.5
351.402	115.5
351.629	92.5
351.856	105.5
352.083	89.5
352.311	103.5
352.538	97.5
352.765	113.5
352.992	104.5
353.22	106.5
353.447	96.5
353.674	111.5
353.901	107.5
354.128	101.5
354.355	90.5
354.583	94.5
354.81	94.5
355.037	96.5
355.264	96.5
355.491	87.5
355.718	82.5
355.945	97.5
356.172	85.5
356.399	92.5
356.626	91.5
356.853	87.5
357.08	84.5
357.307	87.5
357.534	82.5
357.761	94.5
357.988	97.5
358.215	87.5
358.441	81.5
358.668	85.5
358.895	78.5
359.122	77.5
359.349	78.5
359.576	69.5
359.802	94.5
360.029	95.5
360.256	100.5
360.483	91.5
360.709	80.5
360.936	95.5
361.163	83.5
361.39	111.5
361.616	86.5
361.843	74.5
362.07	89.5
362.296	94.5
362.523	84.5
362.749	88.5
362.976	87.5
363.203	82.5
363.429	92.5
363.656	86.5
363.882	91.5
364.109	87.5
364.335	82.5
364.562	72.5
364.788	73.5
365.015	86.5
365.241	96.5
365.468	92.5
365.694	95.5
365.92	81.5
366.147	86.5
366.373	96.5
366.599	88.5
366.826	89.5
367.052	86.5
367.278	83.5
367.505	90.5
367.731	86.5
367.957	69.5
368.184	60.5
368.41	94.5
368.636	102.5
368.862	104.5
369.089	84.5
369.315	92.5
369.541	82.5
369.767	93.5
369.993	78.5
370.219	88.5
370.445	84.5
370.672	82.5
370.898	89.5
371.124	96.5
371.35	84.5
371.576	89.5
371.802	85.5
372.028	78.5
372.254	88.5
372.48	83.5
372.706	79.5
372.932	75.5
373.158	85.5
373.384	73.5
373.61	72.5
373.835	81.5
374.061	90.5
374.287	84.5
374.513	80.5
374.739	85.5
374.965	90.5
375.191	89.5
375.416	84.5
375.642	83.5
375.868	87.5
376.094	73.5
376.319	97.5
376.545	82.5
376.771	82.5
376.997	86.5
377.222	95.5
377.448	81.5
377.674	94.5
377.899	84.5
378.125	88.5
378.35	84.5
378.576	82.5
378.802	88.5
379.027	91.5
379.253	95.5
379.478	75.5
379.704	74.5
379.929	94.5
380.155	64.5
380.38	84.5
380.606	98.5
380.831	91.5
381.057	84.5
381.282	89.5
381.507	91.5
381.733	93.5
381.958	98.5
382.184	97.5
382.409	107.5
382.634	97.5
382.86	89.5
383.085	89.5
383.31	84.5
383.535	91.5
383.761	79.5
383.986	89.5
384.211	95.5
384.436	91.5
384.662	98.5
384.887	115.5
385.112	104.5
385.337	101.5
385.562	105.5
385.787	95.5
386.013	102.5
386.238	117.5
386.463	90.5
386.688	102.5
386.913	96.5
387.138	118.5
387.363	88.5
387.588	92.5
387.813	90.5
388.038	93.5
388.263	98.5
388.488	110.5
388.713	94.5
388.938	96.5
389.163	85.5
389.387	95.5
389.612	93.5
389.837	78.5
390.062	82.5
390.287	93.5
390.512	93.5
390.736	81.5
390.961	74.5
391.186	74.5
391.411	104.5
391.636	90.5
391.86	85.5
392.085	96.5
392.31	101.5
392.534	92.5
392.759	90.5
392.984	84.5
393.208	90.5
393.433	101.5
393.658	98.5
393.882	73.5
394.107	77.5
394.331	92.5
394.556	77.5
394.78	88.5
395.005	70.5
395.229	79.5
395.454	85.5
395.678	87.5
395.903	88.5
396.127	75.5
396.352	72.5
396.576	76.5
396.801	84.5
397.025	99.5
397.249	90.5
397.474	72.5
397.698	89.5
397.922	77.5
398.147	75.5
398.371	82.5
398.595	82.5
398.82	83.5
399.044	62.5
399.268	97.5
399.492	98.5
399.717	77.5
399.941	87.5
400.165	93.5
400.389	89.5
400.613	87.5
400.837	81.5
401.062	77.5
401.286	88.5
401.51	77.5
401.734	87.5
401.958	90.5
402.182	100.5
402.406	136.5
402.63	105.5
402.854	83.5
403.078	74.5
403.302	76.5
403.526	80.5
403.75	86.5
403.974	100.5
404.198	99.5
404.422	80.5
404.645	85.5
404.869	88.5
405.093	91.5
405.317	86.5
405.541	82.5
405.765	81.5
405.988	119.5
406.212	150.5
406.436	186.5
406.66	119.5
406.883	93.5
407.107	87.5
407.331	90.5
407.555	82.5
407.778	92.5
408.002	91.5
408.226	91.5
408.449	84.5
408.673	86.5
408.896	77.5
409.12	96.5
409.344	82.5
409.567	94.5
409.791	91.5
410.014	97.5
410.238	98.5
410.461	90.5
410.685	103.5
410.908	89.5
411.132	88.5
411.355	87.5
411.578	87.5
411.802	81.5
412.025	90.5
412.249	83.5
412.472	82.5
412.695	90.5
412.919	77.5
413.142	80.5
413.365	88.5
413.589	79.5
413.812	79.5
414.035	76.5
414.258	92.5
414.482	89.5
414.705	94.5
414.928	74.5
415.151	86.5
415.374	82.5
415.597	68.5
415.821	83.5
416.044	85.5
416.267	96.5
416.49	79.5
416.713	87.5
416.936	79.5
417.159	77.5
417.382	81.5
417.605	71.5
417.828	90.5
418.051	85.5
418.274	82.5
418.497	84.5
418.72	83.5
418.943	101.5
419.166	83.5
419.389	88.5
419.611	99.5
419.834	77.5
420.057	92.5
420.28	94.5
420.503	86.5
420.726	63.5
420.948	82.5
421.171	77.5
421.394	87.5
421.617	107.5
421.839	94.5
422.062	86.5
422.285	70.5
422.507	81.5
422.73	109.5
422.953	86.5
423.175	97.5
423.398	95.5
423.621	79.5
423.843	90.5
424.066	88.5
424.288	80.5
424.511	98.5
424.733	88.5
424.956	105.5
425.178	92.5
425.401	117.5
425.623	93.5
425.846	80.5
426.068	91.5
426.291	78.5
426.513	79.5
426.735	86.5
426.958	79.5
427.18	97.5
427.402	119.5
427.625	141.5
427.847	102.5
428.069	94.5
428.292	87.5
428.514	88.5
428.736	78.5
428.958	81.5
429.181	76.5
429.403	89.5
429.625	77.5
429.847	91.5
430.069	95.5
430.292	80.5
430.514	87.5
430.736	86.5
430.958	75.5
431.18	88.5
431.402	84.5
431.624	93.5
431.846	82.5
432.068	75.5
432.29	77.5
432.512	76.5
432.734	93.5
432.956	85.5
433.178	80.5
433.4	88.5
433.622	86.5
433.844	82.5
434.066	87.5
434.287	78.5
434.509	82.5
434.731	97.5
434.953	91.5
435.175	95.5
435.397	92.5
435.618	83.5
435.84	107.5
436.062	113.5
436.284	101.5
436.505	92.5
436.727	100.5
436.949	90.5
437.17	94.5
437.392	71.5
437.614	81.5
437.835	94.5
438.057	103.5
438.278	83.5
438.5	96.5
438.721	81.5
438.943	96.5
439.165	90.5
439.386	84.5
439.608	84.5
439.829	88.5
440.05	92.5
440.272	107.5
440.493	94.5
440.715	85.5
440.936	82.5
441.158	88.5
441.379	90.5
441.6	85.5
441.822	82.5
442.043	91.5
442.264	83.5
442.486	94.5
442.707	80.5
442.928	101.5
443.149	101.5
443.371	96.5
443.592	85.5
443.813	108.5
444.034	94.5
444.255	79.5
444.476	80.5
444.698	81.5
444.919	88.5
445.14	127.5
445.361	119.5
445.582	96.5
445.803	108.5
446.024	104.5
446.245	133.5
446.466	97.5
446.687	104.5
446.908	80.5
447.129	90.5
447.35	66.5
447.571	84.5
447.792	87.5
448.013	86.5
448.234	86.5
448.455	94.5
448.675	90.5
448.896	86.5
449.117	97.5
449.338	111.5
449.559	115.5
449.779	118.5
450	96.5
450.221	78.5
450.442	86.5
450.662	90.5
450.883	86.5
451.104	101.5
451.324	73.5
451.545	80.5
451.766	68.5
451.986	86.5
452.207	96.5
452.428	92.5
452.648	86.5
452.869	117.5
453.089	107.5
453.31	92.5
453.53	88.5
453.751	88.5
453.971	89.5
454.192	93.5
454.412	84.5
454.633	79.5
454.853	80.5
455.073	87.5
455.294	86.5
455.514	80.5
455.734	83.5
455.955	85.5
456.175	84.5
456.395	78.5
456.616	78.5
456.836	88.5
457.056	91.5
457.276	84.5
457.497	86.5
457.717	75.5
457.937	87.5
458.157	79.5
458.377	86.5
458.598	103.5
458.818	130.5
459.038	135.5
459.258	92.5
459.478	76.5
459.698	88.5
459.918	76.5
460.138	80.5
460.358	70.5
460.578	95.5
460.798	89.5
461.018	90.5
461.238	97.5
461.458	85.5
461.678	76.5
461.898	80.5
462.118	82.5
462.338	90.5
462.558	78.5
462.777	73.5
462.997	87.5
463.217	84.5
463.437	77.5
463.657	70.5
463.876	81.5
464.096	89.5
464.316	80.5
464.536	97.5
464.755	86.5
464.975	92.5
465.195	117.5
465.414	116.5
465.634	88.5
465.854	90.5
466.073	84.5
466.293	85.5
466.512	82.5
466.732	85.5
466.951	79.5
467.171	74.5
467.391	72.5
467.61	87.5
467.829	97.5
468.049	86.5
468.268	75.5
468.488	65.5
468.707	80.5
468.927	100.5
469.146	94.5
469.365	70.5
469.585	95.5
469.804	93.5
470.023	86.5
470.243	97.5
470.462	84.5
470.681	90.5
470.901	77.5
471.12	80.5
471.339	84.5
471.558	75.5
471.777	89.5
471.997	82.5
472.216	86.5
472.435	90.5
472.654	85.5
472.873	81.5
473.092	79.5
473.311	84.5
473.53	87.5
473.749	83.5
473.968	105.5
474.187	82.5
474.406	77.5
474.625	73.5
474.844	76.5
475.063	86.5
475.282	81.5
475.501	79.5
475.72	90.5
475.939	83.5
476.158	83.5
476.377	86.5
476.596	90.5
476.814	102.5
477.033	81.5
477.252	79.5
477.471	82.5
477.69	100.5
477.908	86.5
478.127	92.5
478.346	73.5
478.564	81.5
478.783	83.5
479.002	91.5
479.22	93.5
479.439	97.5
479.658	99.5
479.876	93.5
480.095	85.5
480.313	84.5
480.532	76.5
480.751	84.5
480.969	90.5
481.188	81.5
481.406	81.5
481.624	83.5
481.843	81.5
482.061	89.5
482.28	86.5
482.498	83.5
482.717	61.5
482.935	88.5
483.153	69.5
483.372	89.5
483.59	86.5
483.808	76.5
484.027	87.5
484.245	97.5
484.463	92.5
484.681	93.5
484.9	99.5
485.118	106.5
485.336	94.5
485.554	100.5
485.772	90.5
485.99	97.5
486.209	97.5
486.427	85.5
486.645	99.5
486.863	94.5
487.081	97.5
487.299	92.5
487.517	94.5
487.735	84.5
487.953	74.5
488.171	89.5
488.389	90.5
488.607	88.5
488.825	104.5
489.043	85.5
489.261	90.5
489.479	89.5
489.696	88.5
489.914	82.5
490.132	82.5
490.35	96.5
490.568	79.5
490.786	77.5
491.003	94.5
491.221	88.5
491.439	92.5
491.657	80.5
491.874	85.5
492.092	69.5
492.31	82.5
492.527	98.5
492.745	85.5
492.963	93.5
493.18	105.5
493.398	93.5
493.615	97.5
493.833	82.5
494.05	83.5
494.268	82.5
494.485	95.5
494.703	87.5
494.92	78.5
495.138	94.5
495.355	101.5
495.573	98.5
495.79	97.5
496.008	88.5
496.225	100.5
496.442	79.5
496.66	77.5
496.877	80.5
497.094	108.5
497.312	65.5
497.529	87.5
497.746	90.5
497.963	86.5
498.181	89.5
498.398	86.5
498.615	92.5
498.832	97.5
499.049	90.5
499.267	80.5
499.484	93.5
499.701	97.5
499.918	97.5
500.135	81.5
500.352	81.5
500.569	88.5
500.786	88.5
501.003	77.5
501.22	83.5
501.437	81.5
501.654	91.5
501.871	86.5
502.088	84.5
502.305	92.5
502.522	88.5
502.739	89.5
502.956	83.5
503.172	77.5
503.389	81.5
503.606	94.5
503.823	105.5
504.04	85.5
504.256	86.5
504.473	85.5
504.69	73.5
504.907	83.5
505.123	71.5
505.34	87.5
505.557	88.5
505.773	96.5
505.99	83.5
506.207	77.5
506.423	92.5
506.64	86.5
506.856	96.5
507.073	92.5
507.289	87.5
507.506	100.5
507.722	111.5
507.939	93.5
508.155	73.5
508.372	94.5
508.588	84.5
508.805	83.5
509.021	88.5
509.238	97.5
509.454	96.5
509.67	95.5
509.887	97.5
510.103	110.5
510.319	188.5
510.536	598.5
510.752	1881.5
510.968	549.5
511.184	141.5
511.401	114.5
511.617	95.5
511.833	73.5
512.049	87.5
512.265	81.5
512.481	95.5
512.698	92.5
512.914	90.5
513.13	105.5
513.346	78.5
513.562	79.5
513.778	91.5
513.994	87.5
514.21	79.5
514.426	102.5
514.642	130.5
514.858	115.5
515.074	144.5
515.29	339.5
515.506	1067.5
515.721	398.5
515.937	131.5
516.153	96.5
516.369	89.5
516.585	85.5
516.801	80.5
517.016	77.5
517.232	78.5
517.448	96.5
517.664	90.5
517.879	100.5
518.095	99.5
518.311	89.5
518.527	77.5
518.742	86.5
518.958	90.5
519.173	96.5
519.389	95.5
519.605	91.5
519.82	93.5
520.036	101.5
520.251	103.5
520.467	108.5
520.682	98.5
520.898	92.5
521.113	109.5
521.329	116.5
521.544	162.5
521.76	423.5
521.975	1760.5
522.19	1102.5
522.406	250.5
522.621	108.5
522.836	90.5
523.052	93.5
523.267	87.5
523.482	98.5
523.698	96.5
523.913	113.5
524.128	104.5
524.343	88.5
524.559	106.5
524.774	94.5
524.989	83.5
525.204	104.5
525.419	85.5
525.634	90.5
525.849	91.5
526.064	84.5
526.28	87.5
526.495	93.5
526.71	80.5
526.925	76.5
527.14	77.5
527.355	83.5
527.57	91.5
527.785	85.5
527.999	88.5
528.214	91.5
528.429	89.5
528.644	73.5
528.859	90.5
529.074	100.5
529.289	114.5
529.503	137.5
529.718	96.5
529.933	78.5
530.148	85.5
530.363	91.5
530.577	81.5
530.792	84.5
531.007	78.5
531.221	89.5
531.436	79.5
531.651	94.5
531.865	96.5
532.08	89.5
532.295	99.5
532.509	80.5
532.724	84.5
532.938	85.5
533.153	104.5
533.367	87.5
533.582	90.5
533.796	94.5
534.011	88.5
534.225	76.5
534.44	76.5
534.654	88.5
534.868	93.5
535.083	88.5
535.297	102.5
535.511	88.5
535.726	88.5
535.94	92.5
536.154	93.5
536.369	85.5
536.583	96.5
536.797	75.5
537.011	104.5
537.225	86.5
537.44	81.5
537.654	85.5
