Data from Uncirc_2000_H10_HRD10591_00082.txt Node
Date: Wed Jan 03 10:48:33 EST 2024
User: Yrep
Spectrometer: HR+D1059
Trigger mode: 1
Integration Time (sec): 1.000000E-1
Scans to average: 1
Electric dark correction enabled: true
Nonlinearity correction enabled: false
Boxcar width: 0
XAxis mode: Wavelengths
Number of Pixels in Spectrum: 2048
>>>>>Begin Spectral Data<<<<<
223.165	-26.56
223.4	-26.56
223.635	-26.56
223.869	-10.56
224.104	-18.56
224.338	-3.56
224.573	-13.56
224.808	-9.56
225.042	-14.56
225.277	-9.56
225.511	8.44
225.746	6.44
225.98	6.44
226.215	15.44
226.449	2.44
226.683	31.44
226.918	13.44
227.152	22.44
227.387	28.44
227.621	30.44
227.856	53.44
228.09	39.44
228.324	53.44
228.559	54.44
228.793	62.44
229.027	76.44
229.262	63.44
229.496	78.44
229.73	83.44
229.964	88.44
230.199	69.44
230.433	75.44
230.667	78.44
230.901	92.44
231.136	85.44
231.37	80.44
231.604	89.44
231.838	80.44
232.072	86.44
232.306	73.44
232.541	88.44
232.775	86.44
233.009	72.44
233.243	98.44
233.477	70.44
233.711	92.44
233.945	71.44
234.179	83.44
234.413	74.44
234.647	95.44
234.881	78.44
235.115	82.44
235.349	82.44
235.583	88.44
235.817	70.44
236.051	73.44
236.285	84.44
236.519	86.44
236.753	80.44
236.987	102.44
237.221	75.44
237.455	92.44
237.689	87.44
237.922	83.44
238.156	80.44
238.39	83.44
238.624	74.44
238.858	82.44
239.091	81.44
239.325	66.44
239.559	76.44
239.793	77.44
240.027	76.44
240.26	73.44
240.494	82.44
240.728	73.44
240.961	84.44
241.195	91.44
241.429	81.44
241.662	74.44
241.896	90.44
242.13	92.44
242.363	82.44
242.597	89.44
242.83	103.44
243.064	81.44
243.298	90.44
243.531	76.44
243.765	82.44
243.998	73.44
244.232	89.44
244.465	79.44
244.699	76.44
244.932	84.44
245.166	79.44
245.399	83.44
245.633	81.44
245.866	80.44
246.099	78.44
246.333	89.44
246.566	75.44
246.8	79.44
247.033	92.44
247.266	79.44
247.5	76.44
247.733	85.44
247.966	70.44
248.2	81.44
248.433	78.44
248.666	89.44
248.899	85.44
249.133	80.44
249.366	94.44
249.599	105.44
249.832	95.44
250.066	77.44
250.299	74.44
250.532	90.44
250.765	86.44
250.998	85.44
251.231	79.44
251.465	83.44
251.698	76.44
251.931	90.44
252.164	70.44
252.397	81.44
252.63	83.44
252.863	78.44
253.096	74.44
253.329	88.44
253.562	80.44
253.795	75.44
254.028	88.44
254.261	75.44
254.494	79.44
254.727	84.44
254.96	88.44
255.193	76.44
255.426	80.44
255.659	85.44
255.892	91.44
256.124	86.44
256.357	79.44
256.59	88.44
256.823	92.44
257.056	82.44
257.289	88.44
257.521	94.44
257.754	94.44
257.987	90.44
258.22	83.44
258.452	81.44
258.685	64.44
258.918	82.44
259.151	98.44
259.383	82.44
259.616	80.44
259.849	95.44
260.081	81.44
260.314	83.44
260.547	80.44
260.779	88.44
261.012	70.44
261.244	73.44
261.477	81.44
261.71	93.44
261.942	111.44
262.175	133.44
262.407	96.44
262.64	85.44
262.872	87.44
263.105	102.44
263.337	87.44
263.57	79.44
263.802	93.44
264.035	89.44
264.267	85.44
264.499	88.44
264.732	90.44
264.964	75.44
265.197	90.44
265.429	78.44
265.661	85.44
265.894	77.44
266.126	88.44
266.358	89.44
266.591	88.44
266.823	82.44
267.055	101.44
267.287	93.44
267.52	74.44
267.752	81.44
267.984	93.44
268.216	88.44
268.448	103.44
268.681	82.44
268.913	80.44
269.145	88.44
269.377	93.44
269.609	91.44
269.841	76.44
270.073	82.44
270.306	88.44
270.538	92.44
270.77	76.44
271.002	87.44
271.234	86.44
271.466	83.44
271.698	86.44
271.93	87.44
272.162	86.44
272.394	101.44
272.626	87.44
272.858	75.44
273.09	80.44
273.322	78.44
273.553	95.44
273.785	99.44
274.017	89.44
274.249	72.44
274.481	95.44
274.713	76.44
274.945	89.44
275.176	90.44
275.408	95.44
275.64	83.44
275.872	102.44
276.104	81.44
276.335	98.44
276.567	89.44
276.799	125.44
277.031	103.44
277.262	87.44
277.494	86.44
277.726	84.44
277.957	91.44
278.189	79.44
278.421	99.44
278.652	95.44
278.884	84.44
279.115	85.44
279.347	74.44
279.579	76.44
279.81	96.44
280.042	84.44
280.273	94.44
280.505	89.44
280.736	91.44
280.968	79.44
281.199	88.44
281.431	88.44
281.662	98.44
281.894	102.44
282.125	117.44
282.356	118.44
282.588	140.44
282.819	117.44
283.051	89.44
283.282	82.44
283.513	94.44
283.745	94.44
283.976	105.44
284.207	91.44
284.439	79.44
284.67	90.44
284.901	85.44
285.132	89.44
285.364	99.44
285.595	85.44
285.826	96.44
286.057	91.44
286.288	113.44
286.52	85.44
286.751	87.44
286.982	80.44
287.213	85.44
287.444	86.44
287.675	90.44
287.906	100.44
288.138	89.44
288.369	108.44
288.6	93.44
288.831	84.44
289.062	98.44
289.293	109.44
289.524	91.44
289.755	101.44
289.986	88.44
290.217	91.44
290.448	94.44
290.679	97.44
290.91	90.44
291.141	100.44
291.371	89.44
291.602	90.44
291.833	102.44
292.064	101.44
292.295	78.44
292.526	94.44
292.757	91.44
292.987	89.44
293.218	97.44
293.449	105.44
293.68	98.44
293.91	79.44
294.141	87.44
294.372	98.44
294.603	109.44
294.833	99.44
295.064	93.44
295.295	90.44
295.525	99.44
295.756	108.44
295.987	115.44
296.217	140.44
296.448	109.44
296.679	95.44
296.909	98.44
297.14	96.44
297.37	85.44
297.601	98.44
297.831	90.44
298.062	90.44
298.292	81.44
298.523	89.44
298.753	77.44
298.984	73.44
299.214	100.44
299.445	99.44
299.675	97.44
299.905	93.44
300.136	112.44
300.366	102.44
300.597	105.44
300.827	93.44
301.057	94.44
301.288	100.44
301.518	96.44
301.748	87.44
301.979	109.44
302.209	90.44
302.439	103.44
302.669	90.44
302.9	105.44
303.13	81.44
303.36	81.44
303.59	97.44
303.82	105.44
304.051	86.44
304.281	90.44
304.511	101.44
304.741	78.44
304.971	92.44
305.201	79.44
305.431	98.44
305.661	96.44
305.891	102.44
306.121	104.44
306.352	114.44
306.582	106.44
306.812	93.44
307.042	94.44
307.272	84.44
307.502	101.44
307.731	87.44
307.961	98.44
308.191	96.44
308.421	88.44
308.651	97.44
308.881	96.44
309.111	106.44
309.341	105.44
309.571	109.44
309.8	126.44
310.03	97.44
310.26	94.44
310.49	98.44
310.72	97.44
310.949	74.44
311.179	97.44
311.409	93.44
311.639	96.44
311.868	107.44
312.098	101.44
312.328	92.44
312.557	103.44
312.787	100.44
313.017	95.44
313.246	103.44
313.476	96.44
313.706	104.44
313.935	94.44
314.165	104.44
314.394	103.44
314.624	100.44
314.853	108.44
315.083	96.44
315.312	98.44
315.542	98.44
315.771	102.44
316.001	106.44
316.23	79.44
316.46	94.44
316.689	97.44
316.919	93.44
317.148	104.44
317.377	94.44
317.607	105.44
317.836	103.44
318.065	93.44
318.295	95.44
318.524	90.44
318.753	89.44
318.983	96.44
319.212	106.44
319.441	110.44
319.67	115.44
319.9	94.44
320.129	95.44
320.358	92.44
320.587	93.44
320.816	99.44
321.046	96.44
321.275	83.44
321.504	93.44
321.733	109.44
321.962	115.44
322.191	90.44
322.42	121.44
322.649	131.44
322.878	118.44
323.108	120.44
323.337	131.44
323.566	149.44
323.795	150.44
324.024	205.44
324.253	393.44
324.482	825.44
324.71	1676.44
324.939	2165.44
325.168	806.44
325.397	249.44
325.626	154.44
325.855	133.44
326.084	120.44
326.313	134.44
326.542	149.44
326.77	253.44
326.999	464.44
327.228	957.44
327.457	1715.44
327.686	1389.44
327.914	366.44
328.143	194.44
328.372	133.44
328.6	120.44
328.829	124.44
329.058	148.44
329.287	118.44
329.515	109.44
329.744	103.44
329.972	114.44
330.201	106.44
330.43	118.44
330.658	127.44
330.887	131.44
331.115	118.44
331.344	106.44
331.572	104.44
331.801	113.44
332.03	97.44
332.258	112.44
332.486	95.44
332.715	87.44
332.943	92.44
333.172	89.44
333.4	100.44
333.629	110.44
333.857	118.44
334.085	109.44
334.314	104.44
334.542	95.44
334.771	103.44
334.999	106.44
335.227	97.44
335.455	95.44
335.684	113.44
335.912	108.44
336.14	114.44
336.369	111.44
336.597	90.44
336.825	107.44
337.053	97.44
337.281	97.44
337.51	105.44
337.738	93.44
337.966	88.44
338.194	98.44
338.422	92.44
338.65	106.44
338.878	97.44
339.106	93.44
339.334	84.44
339.562	102.44
339.79	103.44
340.018	91.44
340.246	101.44
340.474	90.44
340.702	98.44
340.93	96.44
341.158	97.44
341.386	83.44
341.614	93.44
341.842	95.44
342.07	98.44
342.298	96.44
342.526	98.44
342.754	90.44
342.981	92.44
343.209	99.44
343.437	86.44
343.665	103.44
343.893	112.44
344.12	95.44
344.348	99.44
344.576	98.44
344.804	96.44
345.031	102.44
345.259	93.44
345.487	103.44
345.714	110.44
345.942	93.44
346.17	106.44
346.397	109.44
346.625	99.44
346.853	93.44
347.08	114.44
347.308	95.44
347.535	100.44
347.763	106.44
347.99	106.44
348.218	102.44
348.445	114.44
348.673	100.44
348.9	94.44
349.128	91.44
349.355	100.44
349.583	103.44
349.81	106.44
350.037	93.44
350.265	105.44
350.492	97.44
350.72	104.44
350.947	102.44
351.174	110.44
351.402	99.44
351.629	115.44
351.856	115.44
352.083	116.44
352.311	98.44
352.538	97.44
352.765	104.44
352.992	124.44
353.22	119.44
353.447	112.44
353.674	87.44
353.901	103.44
354.128	93.44
354.355	98.44
354.583	110.44
354.81	102.44
355.037	95.44
355.264	91.44
355.491	99.44
355.718	111.44
355.945	101.44
356.172	108.44
356.399	91.44
356.626	85.44
356.853	99.44
357.08	99.44
357.307	88.44
357.534	80.44
357.761	93.44
357.988	91.44
358.215	101.44
358.441	93.44
358.668	91.44
358.895	90.44
359.122	93.44
359.349	95.44
359.576	90.44
359.802	106.44
360.029	110.44
360.256	118.44
360.483	113.44
360.709	108.44
360.936	89.44
361.163	94.44
361.39	113.44
361.616	102.44
361.843	110.44
362.07	93.44
362.296	110.44
362.523	79.44
362.749	89.44
362.976	102.44
363.203	88.44
363.429	97.44
363.656	82.44
363.882	90.44
364.109	100.44
364.335	85.44
364.562	96.44
364.788	85.44
365.015	88.44
365.241	95.44
365.468	112.44
365.694	100.44
365.92	108.44
366.147	96.44
366.373	100.44
366.599	82.44
366.826	99.44
367.052	90.44
367.278	97.44
367.505	93.44
367.731	90.44
367.957	101.44
368.184	94.44
368.41	91.44
368.636	124.44
368.862	110.44
369.089	99.44
369.315	84.44
369.541	108.44
369.767	98.44
369.993	99.44
370.219	103.44
370.445	93.44
370.672	99.44
370.898	97.44
371.124	94.44
371.35	99.44
371.576	106.44
371.802	99.44
372.028	95.44
372.254	92.44
372.48	93.44
372.706	90.44
372.932	90.44
373.158	96.44
373.384	82.44
373.61	94.44
373.835	105.44
374.061	109.44
374.287	76.44
374.513	105.44
374.739	91.44
374.965	90.44
375.191	82.44
375.416	94.44
375.642	89.44
375.868	84.44
376.094	83.44
376.319	76.44
376.545	93.44
376.771	94.44
376.997	100.44
377.222	88.44
377.448	96.44
377.674	86.44
377.899	97.44
378.125	97.44
378.35	94.44
378.576	97.44
378.802	95.44
379.027	105.44
379.253	90.44
379.478	100.44
379.704	93.44
379.929	97.44
380.155	91.44
380.38	98.44
380.606	96.44
380.831	101.44
381.057	108.44
381.282	91.44
381.507	103.44
381.733	96.44
381.958	91.44
382.184	96.44
382.409	106.44
382.634	114.44
382.86	103.44
383.085	98.44
383.31	97.44
383.535	88.44
383.761	96.44
383.986	86.44
384.211	98.44
384.436	78.44
384.662	105.44
384.887	103.44
385.112	90.44
385.337	102.44
385.562	101.44
385.787	102.44
386.013	103.44
386.238	127.44
386.463	101.44
386.688	94.44
386.913	103.44
387.138	115.44
387.363	99.44
387.588	115.44
387.813	103.44
388.038	98.44
388.263	110.44
388.488	99.44
388.713	95.44
388.938	96.44
389.163	97.44
389.387	105.44
389.612	98.44
389.837	96.44
390.062	86.44
390.287	91.44
390.512	109.44
390.736	93.44
390.961	99.44
391.186	104.44
391.411	92.44
391.636	89.44
391.86	88.44
392.085	70.44
392.31	96.44
392.534	90.44
392.759	88.44
392.984	91.44
393.208	94.44
393.433	91.44
393.658	79.44
393.882	88.44
394.107	94.44
394.331	100.44
394.556	90.44
394.78	91.44
395.005	91.44
395.229	98.44
395.454	90.44
395.678	101.44
395.903	88.44
396.127	90.44
396.352	87.44
396.576	94.44
396.801	92.44
397.025	86.44
397.249	81.44
397.474	86.44
397.698	82.44
397.922	96.44
398.147	94.44
398.371	89.44
398.595	109.44
398.82	97.44
399.044	104.44
399.268	94.44
399.492	87.44
399.717	81.44
399.941	89.44
400.165	107.44
400.389	94.44
400.613	89.44
400.837	97.44
401.062	110.44
401.286	93.44
401.51	104.44
401.734	97.44
401.958	113.44
402.182	126.44
402.406	159.44
402.63	122.44
402.854	109.44
403.078	99.44
403.302	99.44
403.526	114.44
403.75	85.44
403.974	99.44
404.198	95.44
404.422	103.44
404.645	95.44
404.869	103.44
405.093	104.44
405.317	103.44
405.541	110.44
405.765	116.44
405.988	110.44
406.212	163.44
406.436	209.44
406.66	141.44
406.883	109.44
407.107	104.44
407.331	96.44
407.555	109.44
407.778	88.44
408.002	90.44
408.226	96.44
408.449	93.44
408.673	96.44
408.896	107.44
409.12	96.44
409.344	91.44
409.567	99.44
409.791	85.44
410.014	98.44
410.238	95.44
410.461	99.44
410.685	90.44
410.908	102.44
411.132	99.44
411.355	113.44
411.578	108.44
411.802	95.44
412.025	94.44
412.249	92.44
412.472	102.44
412.695	92.44
412.919	90.44
413.142	94.44
413.365	86.44
413.589	93.44
413.812	97.44
414.035	90.44
414.258	99.44
414.482	94.44
414.705	101.44
414.928	97.44
415.151	91.44
415.374	99.44
415.597	109.44
415.821	86.44
416.044	97.44
416.267	97.44
416.49	112.44
416.713	94.44
416.936	107.44
417.159	104.44
417.382	80.44
417.605	98.44
417.828	94.44
418.051	90.44
418.274	111.44
418.497	96.44
418.72	93.44
418.943	102.44
419.166	94.44
419.389	87.44
419.611	94.44
419.834	94.44
420.057	101.44
420.28	88.44
420.503	92.44
420.726	96.44
420.948	98.44
421.171	102.44
421.394	96.44
421.617	93.44
421.839	98.44
422.062	96.44
422.285	96.44
422.507	97.44
422.73	113.44
422.953	89.44
423.175	81.44
423.398	86.44
423.621	91.44
423.843	96.44
424.066	90.44
424.288	87.44
424.511	96.44
424.733	98.44
424.956	114.44
425.178	107.44
425.401	104.44
425.623	98.44
425.846	103.44
426.068	97.44
426.291	115.44
426.513	106.44
426.735	86.44
426.958	85.44
427.18	90.44
427.402	142.44
427.625	154.44
427.847	129.44
428.069	94.44
428.292	91.44
428.514	89.44
428.736	90.44
428.958	85.44
429.181	94.44
429.403	86.44
429.625	86.44
429.847	90.44
430.069	98.44
430.292	102.44
430.514	84.44
430.736	97.44
430.958	97.44
431.18	89.44
431.402	78.44
431.624	105.44
431.846	90.44
432.068	83.44
432.29	102.44
432.512	78.44
432.734	84.44
432.956	90.44
433.178	90.44
433.4	98.44
433.622	88.44
433.844	95.44
434.066	94.44
434.287	105.44
434.509	97.44
434.731	93.44
434.953	95.44
435.175	87.44
435.397	101.44
435.618	110.44
435.84	109.44
436.062	111.44
436.284	114.44
436.505	107.44
436.727	104.44
436.949	96.44
437.17	109.44
437.392	96.44
437.614	98.44
437.835	98.44
438.057	111.44
438.278	104.44
438.5	114.44
438.721	135.44
438.943	124.44
439.165	96.44
439.386	94.44
439.608	100.44
439.829	106.44
440.05	125.44
440.272	133.44
440.493	86.44
440.715	106.44
440.936	97.44
441.158	90.44
441.379	86.44
441.6	94.44
441.822	77.44
442.043	97.44
442.264	112.44
442.486	106.44
442.707	121.44
442.928	107.44
443.149	121.44
443.371	122.44
443.592	106.44
443.813	105.44
444.034	110.44
444.255	95.44
444.476	96.44
444.698	85.44
444.919	105.44
445.14	123.44
445.361	124.44
445.582	130.44
445.803	140.44
446.024	122.44
446.245	129.44
446.466	109.44
446.687	90.44
446.908	98.44
447.129	89.44
447.35	77.44
447.571	88.44
447.792	105.44
448.013	109.44
448.234	122.44
448.455	101.44
448.675	102.44
448.896	119.44
449.117	98.44
449.338	115.44
449.559	124.44
449.779	131.44
450	89.44
450.221	99.44
450.442	104.44
450.662	102.44
450.883	107.44
451.104	109.44
451.324	92.44
451.545	97.44
451.766	111.44
451.986	92.44
452.207	89.44
452.428	104.44
452.648	104.44
452.869	120.44
453.089	124.44
453.31	126.44
453.53	108.44
453.751	110.44
453.971	107.44
454.192	112.44
454.412	108.44
454.633	88.44
454.853	95.44
455.073	97.44
455.294	92.44
455.514	98.44
455.734	98.44
455.955	101.44
456.175	95.44
456.395	103.44
456.616	91.44
456.836	85.44
457.056	93.44
457.276	91.44
457.497	95.44
457.717	92.44
457.937	94.44
458.157	94.44
458.377	103.44
458.598	98.44
458.818	149.44
459.038	145.44
459.258	120.44
459.478	90.44
459.698	92.44
459.918	82.44
460.138	88.44
460.358	75.44
460.578	106.44
460.798	91.44
461.018	99.44
461.238	95.44
461.458	91.44
461.678	81.44
461.898	96.44
462.118	93.44
462.338	88.44
462.558	91.44
462.777	82.44
462.997	103.44
463.217	96.44
463.437	86.44
463.657	91.44
463.876	102.44
464.096	90.44
464.316	97.44
464.536	100.44
464.755	99.44
464.975	96.44
465.195	165.44
465.414	146.44
465.634	94.44
465.854	102.44
466.073	85.44
466.293	95.44
466.512	87.44
466.732	101.44
466.951	90.44
467.171	107.44
467.391	99.44
467.61	108.44
467.829	79.44
468.049	88.44
468.268	87.44
468.488	98.44
468.707	109.44
468.927	78.44
469.146	83.44
469.365	89.44
469.585	105.44
469.804	110.44
470.023	108.44
470.243	97.44
470.462	104.44
470.681	116.44
470.901	104.44
471.12	95.44
471.339	103.44
471.558	78.44
471.777	103.44
471.997	102.44
472.216	96.44
472.435	92.44
472.654	99.44
472.873	83.44
473.092	83.44
473.311	96.44
473.53	91.44
473.749	105.44
473.968	107.44
474.187	103.44
474.406	108.44
474.625	74.44
474.844	69.44
475.063	97.44
475.282	85.44
475.501	86.44
475.72	98.44
475.939	95.44
476.158	93.44
476.377	85.44
476.596	91.44
476.814	90.44
477.033	101.44
477.252	94.44
477.471	92.44
477.69	102.44
477.908	88.44
478.127	97.44
478.346	87.44
478.564	102.44
478.783	96.44
479.002	105.44
479.22	97.44
479.439	106.44
479.658	102.44
479.876	106.44
480.095	95.44
480.313	98.44
480.532	95.44
480.751	81.44
480.969	88.44
481.188	85.44
481.406	103.44
481.624	97.44
481.843	85.44
482.061	86.44
482.28	82.44
482.498	89.44
482.717	98.44
482.935	83.44
483.153	99.44
483.372	94.44
483.59	84.44
483.808	88.44
484.027	98.44
484.245	91.44
484.463	99.44
484.681	116.44
484.9	108.44
485.118	89.44
485.336	94.44
485.554	113.44
485.772	105.44
485.99	104.44
486.209	115.44
486.427	101.44
486.645	101.44
486.863	106.44
487.081	113.44
487.299	92.44
487.517	90.44
487.735	108.44
487.953	88.44
488.171	99.44
488.389	109.44
488.607	91.44
488.825	92.44
489.043	89.44
489.261	115.44
489.479	93.44
489.696	93.44
489.914	96.44
490.132	101.44
490.35	101.44
490.568	88.44
490.786	95.44
491.003	83.44
491.221	102.44
491.439	96.44
491.657	85.44
491.874	91.44
492.092	100.44
492.31	86.44
492.527	92.44
492.745	99.44
492.963	93.44
493.18	106.44
493.398	97.44
493.615	99.44
493.833	97.44
494.05	97.44
494.268	85.44
494.485	104.44
494.703	92.44
494.92	92.44
495.138	96.44
495.355	94.44
495.573	94.44
495.79	93.44
496.008	99.44
496.225	104.44
496.442	95.44
496.66	81.44
496.877	78.44
497.094	100.44
497.312	103.44
497.529	94.44
497.746	105.44
497.963	92.44
498.181	96.44
498.398	114.44
498.615	112.44
498.832	102.44
499.049	94.44
499.267	97.44
499.484	84.44
499.701	92.44
499.918	101.44
500.135	107.44
500.352	97.44
500.569	80.44
500.786	88.44
501.003	102.44
501.22	86.44
501.437	88.44
501.654	103.44
501.871	109.44
502.088	94.44
502.305	105.44
502.522	100.44
502.739	94.44
502.956	92.44
503.172	119.44
503.389	93.44
503.606	80.44
503.823	89.44
504.04	97.44
504.256	96.44
504.473	85.44
504.69	92.44
504.907	78.44
505.123	85.44
505.34	101.44
505.557	94.44
505.773	115.44
505.99	97.44
506.207	101.44
506.423	88.44
506.64	93.44
506.856	86.44
507.073	102.44
507.289	98.44
507.506	103.44
507.722	118.44
507.939	115.44
508.155	105.44
508.372	95.44
508.588	89.44
508.805	109.44
509.021	97.44
509.238	117.44
509.454	111.44
509.67	103.44
509.887	123.44
510.103	136.44
510.319	215.44
510.536	778.44
510.752	2344.44
510.968	641.44
511.184	163.44
511.401	121.44
511.617	109.44
511.833	94.44
512.049	102.44
512.265	100.44
512.481	97.44
512.698	70.44
512.914	107.44
513.13	99.44
513.346	94.44
513.562	104.44
513.778	94.44
513.994	101.44
