Data from Uncirc_2000_H10_HRD10591_00045.txt Node
Date: Wed Jan 03 10:48:26 EST 2024
User: Yrep
Spectrometer: HR+D1059
Trigger mode: 1
Integration Time (sec): 1.000000E-1
Scans to average: 1
Electric dark correction enabled: true
Nonlinearity correction enabled: false
Boxcar width: 0
XAxis mode: Wavelengths
Number of Pixels in Spectrum: 2048
>>>>>Begin Spectral Data<<<<<
223.165	-31
223.4	-31
223.635	-31
223.869	-23
224.104	-18
224.338	-3
224.573	-21
224.808	-15
225.042	-1
225.277	-13
225.511	-11
225.746	5
225.98	15
226.215	5
226.449	20
226.683	15
226.918	33
227.152	43
227.387	30
227.621	28
227.856	46
228.09	48
228.324	57
228.559	53
228.793	56
229.027	50
229.262	65
229.496	67
229.73	82
229.964	78
230.199	80
230.433	65
230.667	68
230.901	75
231.136	83
231.37	72
231.604	82
231.838	82
232.072	84
232.306	83
232.541	81
232.775	88
233.009	82
233.243	77
233.477	85
233.711	76
233.945	80
234.179	84
234.413	83
234.647	75
234.881	73
235.115	69
235.349	83
235.583	76
235.817	77
236.051	73
236.285	74
236.519	70
236.753	81
236.987	75
237.221	78
237.455	82
237.689	65
237.922	69
238.156	81
238.39	73
238.624	79
238.858	75
239.091	52
239.325	73
239.559	70
239.793	72
240.027	76
240.26	84
240.494	89
240.728	79
240.961	81
241.195	75
241.429	83
241.662	72
241.896	71
242.13	79
242.363	75
242.597	75
242.83	83
243.064	80
243.298	71
243.531	68
243.765	63
243.998	64
244.232	90
244.465	74
244.699	83
244.932	88
245.166	84
245.399	76
245.633	76
245.866	64
246.099	55
246.333	75
246.566	84
246.8	67
247.033	73
247.266	75
247.5	72
247.733	73
247.966	82
248.2	67
248.433	86
248.666	79
248.899	73
249.133	74
249.366	91
249.599	88
249.832	85
250.066	83
250.299	96
250.532	79
250.765	91
250.998	89
251.231	77
251.465	79
251.698	75
251.931	79
252.164	73
252.397	73
252.63	76
252.863	76
253.096	88
253.329	76
253.562	83
253.795	76
254.028	75
254.261	74
254.494	88
254.727	83
254.96	75
255.193	77
255.426	68
255.659	82
255.892	88
256.124	79
256.357	81
256.59	88
256.823	73
257.056	79
257.289	79
257.521	74
257.754	83
257.987	67
258.22	92
258.452	67
258.685	71
258.918	78
259.151	73
259.383	82
259.616	88
259.849	85
260.081	80
260.314	82
260.547	56
260.779	89
261.012	86
261.244	92
261.477	101
261.71	80
261.942	99
262.175	97
262.407	76
262.64	96
262.872	89
263.105	92
263.337	75
263.57	62
263.802	89
264.035	73
264.267	82
264.499	87
264.732	85
264.964	87
265.197	81
265.429	75
265.661	80
265.894	80
266.126	89
266.358	84
266.591	85
266.823	83
267.055	80
267.287	83
267.52	85
267.752	82
267.984	76
268.216	89
268.448	85
268.681	79
268.913	81
269.145	79
269.377	89
269.609	83
269.841	88
270.073	81
270.306	82
270.538	64
270.77	80
271.002	94
271.234	82
271.466	76
271.698	71
271.93	73
272.162	72
272.394	87
272.626	86
272.858	95
273.09	84
273.322	84
273.553	80
273.785	69
274.017	94
274.249	82
274.481	66
274.713	82
274.945	73
275.176	81
275.408	80
275.64	85
275.872	78
276.104	81
276.335	89
276.567	95
276.799	111
277.031	111
277.262	100
277.494	86
277.726	75
277.957	72
278.189	70
278.421	72
278.652	69
278.884	75
279.115	74
279.347	88
279.579	80
279.81	77
280.042	72
280.273	77
280.505	76
280.736	88
280.968	89
281.199	98
281.431	74
281.662	99
281.894	84
282.125	98
282.356	109
282.588	140
282.819	106
283.051	86
283.282	87
283.513	84
283.745	74
283.976	75
284.207	77
284.439	90
284.67	89
284.901	92
285.132	81
285.364	71
285.595	81
285.826	84
286.057	88
286.288	83
286.52	98
286.751	92
286.982	89
287.213	99
287.444	85
287.675	87
287.906	84
288.138	81
288.369	86
288.6	87
288.831	83
289.062	90
289.293	92
289.524	89
289.755	76
289.986	85
290.217	86
290.448	81
290.679	104
290.91	81
291.141	83
291.371	87
291.602	69
291.833	90
292.064	89
292.295	78
292.526	83
292.757	95
292.987	100
293.218	80
293.449	93
293.68	93
293.91	88
294.141	89
294.372	94
294.603	87
294.833	79
295.064	90
295.295	95
295.525	93
295.756	84
295.987	92
296.217	128
296.448	124
296.679	88
296.909	84
297.14	78
297.37	83
297.601	85
297.831	94
298.062	85
298.292	97
298.523	86
298.753	98
298.984	83
299.214	79
299.445	81
299.675	90
299.905	93
300.136	83
300.366	84
300.597	79
300.827	93
301.057	101
301.288	84
301.518	93
301.748	97
301.979	119
302.209	101
302.439	90
302.669	81
302.9	74
303.13	89
303.36	104
303.59	89
303.82	97
304.051	84
304.281	83
304.511	89
304.741	89
304.971	85
305.201	87
305.431	81
305.661	83
305.891	88
306.121	85
306.352	110
306.582	106
306.812	91
307.042	93
307.272	101
307.502	86
307.731	92
307.961	94
308.191	84
308.421	82
308.651	103
308.881	92
309.111	88
309.341	91
309.571	77
309.8	90
310.03	92
310.26	94
310.49	104
310.72	100
310.949	103
311.179	100
311.409	103
311.639	98
311.868	84
312.098	100
312.328	101
312.557	95
312.787	102
313.017	102
313.246	81
313.476	85
313.706	89
313.935	89
314.165	84
314.394	99
314.624	106
314.853	98
315.083	87
315.312	85
315.542	91
315.771	103
316.001	85
316.23	88
316.46	83
316.689	92
316.919	89
317.148	89
317.377	95
317.607	100
317.836	96
318.065	93
318.295	92
318.524	90
318.753	88
318.983	97
319.212	97
319.441	88
319.67	85
319.9	85
320.129	92
320.358	92
320.587	89
320.816	89
321.046	87
321.275	76
321.504	88
321.733	82
321.962	95
322.191	90
322.42	109
322.649	106
322.878	114
323.108	106
323.337	113
323.566	121
323.795	144
324.024	199
324.253	374
324.482	791
324.71	1591
324.939	2100
325.168	757
325.397	232
325.626	144
325.855	122
326.084	124
326.313	128
326.542	157
326.77	232
326.999	452
327.228	895
327.457	1608
327.686	1273
327.914	348
328.143	186
328.372	136
328.6	121
328.829	115
329.058	128
329.287	125
329.515	118
329.744	101
329.972	82
330.201	91
330.43	96
330.658	131
330.887	132
331.115	128
331.344	107
331.572	95
331.801	102
332.03	92
332.258	89
332.486	93
332.715	99
332.943	91
333.172	102
333.4	93
333.629	92
333.857	106
334.085	92
334.314	98
334.542	95
334.771	111
334.999	97
335.227	97
335.455	90
335.684	98
335.912	98
336.14	105
336.369	96
336.597	88
336.825	88
337.053	94
337.281	91
337.51	76
337.738	82
337.966	84
338.194	84
338.422	99
338.65	105
338.878	87
339.106	102
339.334	95
339.562	93
339.79	81
340.018	96
340.246	88
340.474	92
340.702	92
340.93	85
341.158	72
341.386	88
341.614	90
341.842	86
342.07	93
342.298	101
342.526	89
342.754	90
342.981	93
343.209	81
343.437	90
343.665	91
343.893	91
344.12	95
344.348	84
344.576	97
344.804	92
345.031	107
345.259	94
345.487	89
345.714	99
345.942	89
346.17	97
346.397	102
346.625	107
346.853	87
347.08	96
347.308	103
347.535	78
347.763	76
347.99	92
348.218	96
348.445	93
348.673	115
348.9	97
349.128	85
349.355	95
349.583	113
349.81	90
350.037	96
350.265	90
350.492	98
350.72	95
350.947	93
351.174	95
351.402	101
351.629	96
351.856	97
352.083	90
352.311	97
352.538	104
352.765	104
352.992	121
353.22	107
353.447	100
353.674	106
353.901	98
354.128	91
354.355	94
354.583	93
354.81	99
355.037	102
355.264	82
355.491	90
355.718	78
355.945	90
356.172	109
356.399	97
356.626	104
356.853	96
357.08	94
357.307	89
357.534	95
357.761	84
357.988	108
358.215	97
358.441	83
358.668	94
358.895	90
359.122	97
359.349	104
359.576	92
359.802	93
360.029	102
360.256	95
360.483	100
360.709	88
360.936	110
361.163	94
361.39	101
361.616	101
361.843	82
362.07	96
362.296	91
362.523	97
362.749	87
362.976	86
363.203	96
363.429	88
363.656	99
363.882	102
364.109	98
364.335	86
364.562	84
364.788	91
365.015	92
365.241	104
365.468	95
365.694	105
365.92	99
366.147	89
366.373	88
366.599	88
366.826	91
367.052	80
367.278	96
367.505	91
367.731	85
367.957	94
368.184	85
368.41	95
368.636	103
368.862	111
369.089	107
369.315	106
369.541	87
369.767	86
369.993	90
370.219	102
370.445	91
370.672	93
370.898	89
371.124	83
371.35	82
371.576	79
371.802	83
372.028	79
372.254	81
372.48	83
372.706	104
372.932	83
373.158	88
373.384	90
373.61	94
373.835	98
374.061	91
374.287	87
374.513	92
374.739	85
374.965	85
375.191	81
375.416	86
375.642	80
375.868	72
376.094	93
376.319	87
376.545	91
376.771	83
376.997	92
377.222	95
377.448	85
377.674	83
377.899	83
378.125	97
378.35	94
378.576	92
378.802	94
379.027	100
379.253	94
379.478	80
379.704	93
379.929	78
380.155	84
380.38	84
380.606	76
380.831	91
381.057	107
381.282	92
381.507	80
381.733	110
381.958	97
382.184	97
382.409	128
382.634	101
382.86	87
383.085	93
383.31	99
383.535	96
383.761	89
383.986	103
384.211	98
384.436	96
384.662	104
384.887	93
385.112	91
385.337	111
385.562	112
385.787	105
386.013	104
386.238	89
386.463	108
386.688	106
386.913	87
387.138	97
387.363	93
387.588	95
387.813	105
388.038	99
388.263	99
388.488	101
388.713	100
388.938	98
389.163	102
389.387	100
389.612	93
389.837	104
390.062	86
390.287	93
390.512	83
390.736	81
390.961	94
391.186	90
391.411	103
391.636	93
391.86	89
392.085	92
392.31	86
392.534	91
392.759	86
392.984	87
393.208	83
393.433	90
393.658	75
393.882	96
394.107	78
394.331	96
394.556	72
394.78	93
395.005	72
395.229	89
395.454	97
395.678	66
395.903	71
396.127	77
396.352	88
396.576	102
396.801	91
397.025	80
397.249	85
397.474	92
397.698	94
397.922	90
398.147	90
398.371	82
398.595	88
398.82	77
399.044	87
399.268	72
399.492	72
399.717	87
399.941	85
400.165	84
400.389	82
400.613	96
400.837	82
401.062	81
401.286	98
401.51	89
401.734	89
401.958	93
402.182	108
402.406	142
402.63	97
402.854	91
403.078	73
403.302	85
403.526	83
403.75	83
403.974	74
404.198	88
404.422	87
404.645	93
404.869	92
405.093	97
405.317	91
405.541	96
405.765	103
405.988	116
406.212	165
406.436	207
406.66	140
406.883	76
407.107	100
407.331	103
407.555	109
407.778	88
408.002	80
408.226	68
408.449	75
408.673	87
408.896	92
409.12	81
409.344	105
409.567	88
409.791	102
410.014	89
410.238	94
410.461	80
410.685	94
410.908	84
411.132	97
411.355	101
411.578	109
411.802	77
412.025	79
412.249	79
412.472	96
412.695	92
412.919	84
413.142	83
413.365	92
413.589	89
413.812	89
414.035	85
414.258	87
414.482	86
414.705	92
414.928	100
415.151	90
415.374	79
415.597	100
415.821	97
416.044	80
416.267	69
416.49	79
416.713	85
416.936	103
417.159	75
417.382	92
417.605	91
417.828	84
418.051	82
418.274	94
418.497	93
418.72	89
418.943	80
419.166	100
419.389	88
419.611	93
419.834	85
420.057	95
420.28	90
420.503	79
420.726	79
420.948	85
421.171	83
421.394	84
421.617	78
421.839	91
422.062	91
422.285	81
422.507	88
422.73	100
422.953	101
423.175	79
423.398	93
423.621	83
423.843	75
424.066	81
424.288	85
424.511	87
424.733	93
424.956	101
425.178	100
425.401	90
425.623	103
425.846	77
426.068	98
426.291	106
426.513	98
426.735	93
426.958	90
427.18	111
427.402	112
427.625	153
427.847	106
428.069	93
428.292	100
428.514	91
428.736	83
428.958	92
429.181	84
429.403	74
429.625	84
429.847	89
430.069	78
430.292	71
430.514	85
430.736	85
430.958	88
431.18	75
431.402	80
431.624	68
431.846	84
432.068	85
432.29	89
432.512	96
432.734	86
432.956	103
433.178	92
433.4	100
433.622	82
433.844	73
434.066	75
434.287	99
434.509	93
434.731	96
434.953	85
435.175	101
435.397	88
435.618	99
435.84	117
436.062	97
436.284	110
436.505	105
436.727	99
436.949	97
437.17	83
437.392	80
437.614	90
437.835	96
438.057	111
438.278	98
438.5	110
438.721	113
438.943	97
439.165	89
439.386	89
439.608	99
439.829	91
440.05	112
440.272	132
440.493	97
440.715	90
440.936	97
441.158	96
441.379	79
441.6	101
441.822	103
442.043	89
442.264	99
442.486	89
442.707	87
442.928	95
443.149	111
443.371	130
443.592	105
443.813	101
444.034	92
444.255	101
444.476	95
444.698	85
444.919	96
445.14	143
445.361	108
445.582	111
445.803	121
446.024	112
446.245	127
446.466	110
446.687	81
446.908	95
447.129	83
447.35	93
447.571	92
447.792	91
448.013	109
448.234	111
448.455	104
448.675	108
448.896	97
449.117	92
449.338	102
449.559	136
449.779	133
450	95
450.221	92
450.442	95
450.662	88
450.883	103
451.104	98
451.324	96
451.545	78
451.766	89
451.986	80
452.207	85
452.428	87
452.648	115
452.869	113
453.089	119
453.31	106
453.53	88
453.751	101
453.971	90
454.192	104
454.412	92
454.633	88
454.853	80
455.073	74
455.294	90
455.514	104
455.734	84
455.955	96
456.175	86
456.395	77
456.616	73
456.836	88
457.056	86
457.276	80
457.497	83
457.717	93
457.937	94
458.157	104
458.377	104
458.598	109
458.818	145
459.038	151
459.258	113
459.478	86
459.698	85
459.918	83
460.138	76
460.358	94
460.578	85
460.798	80
461.018	88
461.238	85
461.458	88
461.678	97
461.898	85
462.118	91
462.338	90
462.558	82
462.777	81
462.997	85
463.217	90
463.437	92
463.657	75
463.876	94
464.096	89
464.316	85
464.536	85
464.755	88
464.975	107
465.195	149
465.414	145
465.634	100
465.854	89
466.073	90
466.293	84
466.512	78
466.732	91
466.951	94
467.171	98
467.391	84
467.61	99
467.829	87
468.049	91
468.268	84
468.488	88
468.707	75
468.927	89
469.146	93
469.365	92
469.585	87
469.804	106
470.023	84
470.243	87
470.462	104
470.681	107
470.901	92
471.12	88
471.339	92
471.558	101
471.777	91
471.997	102
472.216	99
472.435	72
472.654	88
472.873	89
473.092	88
473.311	97
473.53	85
473.749	82
473.968	95
474.187	97
474.406	75
474.625	102
474.844	90
475.063	74
475.282	98
475.501	83
475.72	84
475.939	85
476.158	65
476.377	83
476.596	84
476.814	88
477.033	88
477.252	95
477.471	69
477.69	96
477.908	91
478.127	97
478.346	89
478.564	99
478.783	99
479.002	93
479.22	92
479.439	92
479.658	103
479.876	101
480.095	77
480.313	91
480.532	89
480.751	107
480.969	90
481.188	90
481.406	103
481.624	88
481.843	85
482.061	95
482.28	73
482.498	82
482.717	90
482.935	85
483.153	89
483.372	93
483.59	88
483.808	81
484.027	99
484.245	77
484.463	81
484.681	96
484.9	82
485.118	90
485.336	88
485.554	91
485.772	88
485.99	106
486.209	97
486.427	101
486.645	99
486.863	122
487.081	96
487.299	100
487.517	94
487.735	106
487.953	92
488.171	80
488.389	86
488.607	97
488.825	90
489.043	63
489.261	100
489.479	92
489.696	90
489.914	84
490.132	81
490.35	83
490.568	86
490.786	83
491.003	70
491.221	84
491.439	89
491.657	86
491.874	86
492.092	85
492.31	105
492.527	92
492.745	81
492.963	91
493.18	93
493.398	90
493.615	91
493.833	111
494.05	96
494.268	104
494.485	92
494.703	75
494.92	92
495.138	89
495.355	88
495.573	92
495.79	85
496.008	90
496.225	88
496.442	89
496.66	86
496.877	86
497.094	95
497.312	92
497.529	92
497.746	95
497.963	94
498.181	99
498.398	90
498.615	104
498.832	111
499.049	84
499.267	85
499.484	103
499.701	83
499.918	91
500.135	93
500.352	90
500.569	93
500.786	86
501.003	85
501.22	91
501.437	83
501.654	102
501.871	107
502.088	90
502.305	80
502.522	91
502.739	79
502.956	91
503.172	90
503.389	91
503.606	92
503.823	99
504.04	95
504.256	80
504.473	85
504.69	88
504.907	92
505.123	90
505.34	97
505.557	82
505.773	79
505.99	85
506.207	87
506.423	97
506.64	94
506.856	93
507.073	98
507.289	93
507.506	92
507.722	98
507.939	91
508.155	96
508.372	92
508.588	100
508.805	84
509.021	87
509.238	91
509.454	102
509.67	91
509.887	108
510.103	132
510.319	210
510.536	715
510.752	2203
510.968	626
511.184	150
511.401	105
511.617	99
511.833	86
512.049	104
512.265	101
512.481	95
512.698	94
512.914	84
513.13	93
513.346	92
513.562	92
513.778	87
513.994	95
514.21	100
514.426	97
514.642	129
514.858	122
515.074	141
515.29	403
515.506	1309
515.721	476
515.937	139
516.153	99
516.369	103
516.585	99
516.801	98
517.016	83
517.232	97
517.448	94
517.664	106
517.879	93
518.095	92
518.311	74
518.527	95
518.742	96
518.958	97
519.173	90
519.389	94
519.605	93
519.82	90
520.036	109
520.251	120
520.467	117
520.682	104
520.898	115
521.113	107
521.329	114
521.544	176
521.76	492
521.975	2119
522.19	1279
522.406	286
522.621	123
522.836	101
523.052	87
523.267	102
523.482	90
523.698	90
523.913	121
524.128	123
524.343	81
524.559	103
524.774	68
524.989	86
525.204	96
525.419	92
525.634	90
525.849	89
526.064	103
526.28	99
526.495	89
526.71	83
526.925	83
527.14	89
527.355	96
527.57	90
527.785	92
527.999	100
528.214	86
528.429	98
528.644	90
528.859	94
529.074	96
529.289	115
529.503	165
529.718	116
529.933	81
530.148	98
530.363	97
530.577	79
530.792	101
531.007	91
531.221	91
531.436	75
531.651	95
531.865	100
532.08	87
532.295	84
532.509	99
532.724	86
532.938	89
533.153	98
533.367	95
533.582	99
533.796	79
534.011	88
534.225	76
534.44	90
534.654	106
534.868	96
535.083	98
535.297	79
535.511	97
535.726	91
535.94	81
536.154	106
536.369	108
536.583	85
536.797	85
537.011	91
537.225	103
537.44	81
537.654	84
537.868	91
538.082	83
538.296	84
538.51	88
538.724	97
538.938	96
539.153	101
539.367	103
539.581	87
539.795	95
540.009	91
540.222	81
540.436	88
540.65	101
540.864	92
541.078	101
541.292	96
541.506	97
541.72	93
541.934	86
542.147	80
542.361	100
542.575	91
542.789	91
543.002	92
543.216	91
543.43	100
543.644	103
543.857	85
544.071	75
544.285	91
544.498	91
544.712	93
544.925	74
545.139	87
545.352	88
545.566	84
545.779	93
545.993	87
546.206	105
546.42	93
546.633	84
546.847	101
547.06	76
547.274	92
547.487	88
547.7	85
547.914	103
548.127	93
548.34	88
548.554	80
548.767	88
548.98	93
549.193	93
549.407	76
549.62	81
549.833	105
550.046	97
550.259	81
550.473	85
550.686	91
550.899	71
551.112	106
551.325	86
551.538	86
551.751	95
551.964	88
552.177	85
552.39	78
552.603	91
552.816	74
553.029	91
553.242	82
553.455	86
553.667	93
553.88	99
554.093	97
554.306	90
554.519	92
554.732	85
554.944	81
555.157	86
555.37	83
555.583	89
555.795	98
556.008	89
556.221	87
556.433	92
556.646	85
556.859	99
557.071	83
557.284	104
557.496	86
557.709	103
557.921	85
558.134	98
558.346	102
558.559	87
558.771	81
558.984	100
559.196	79
559.409	102
559.621	89
559.833	97
560.046	89
560.258	82
560.47	81
560.683	96
560.895	92
561.107	86
561.32	81
561.532	70
561.744	81
561.956	86
562.168	91
562.381	82
562.593	84
562.805	102
563.017	92
563.229	90
563.441	86
563.653	83
563.865	81
564.077	88
564.289	86
564.501	84
564.713	88
564.925	98
565.137	89
565.349	99
565.561	87
565.773	79
565.985	78
566.197	102
566.408	86
566.62	76
566.832	96
567.044	92
567.255	96
567.467	92
567.679	85
567.891	79
568.102	83
568.314	97
568.526	79
568.737	86
568.949	86
569.161	94
569.372	95
569.584	97
569.795	94
570.007	113
570.218	251
570.43	130
570.641	76
570.853	93
571.064	80
571.276	93
571.487	88
571.698	79
571.91	100
572.121	90
572.333	78
572.544	79
572.755	85
572.966	90
573.178	89
573.389	88
573.6	84
573.811	83
574.023	76
574.234	89
574.445	103
574.656	90
574.867	86
575.078	91
575.289	85
575.501	89
575.712	79
575.923	95
576.134	86
576.345	88
576.556	96
576.767	94
576.978	82
577.188	102
577.399	84
577.61	89
577.821	112
578.032	115
578.243	265
578.454	743
578.665	219
578.875	106
579.086	104
579.297	91
579.508	84
579.718	100
579.929	84
580.14	84
580.35	77
580.561	88
580.772	94
580.982	79
581.193	80
581.403	96
581.614	85
581.825	93
582.035	77
582.246	87
582.456	89
582.667	87
582.877	76
583.087	86
583.298	86
583.508	103
583.719	89
583.929	86
584.139	82
584.35	93
584.56	83
584.77	82
584.981	82
585.191	90
