Data from Uncirc_2000_H10_HRD10591_00003.txt Node
Date: Wed Jan 03 10:48:17 EST 2024
User: Yrep
Spectrometer: HR+D1059
Trigger mode: 1
Integration Time (sec): 1.000000E-1
Scans to average: 1
Electric dark correction enabled: true
Nonlinearity correction enabled: false
Boxcar width: 0
XAxis mode: Wavelengths
Number of Pixels in Spectrum: 2048
>>>>>Begin Spectral Data<<<<<
223.165	-17.81
223.4	-17.81
223.635	-17.81
223.869	-25.81
224.104	-26.81
224.338	-26.81
224.573	-18.81
224.808	-13.81
225.042	-7.81
225.277	10.19
225.511	-5.81
225.746	6.19
225.98	16.19
226.215	11.19
226.449	18.19
226.683	32.19
226.918	24.19
227.152	25.19
227.387	16.19
227.621	37.19
227.856	28.19
228.09	52.19
228.324	45.19
228.559	53.19
228.793	70.19
229.027	78.19
229.262	75.19
229.496	66.19
229.73	88.19
229.964	64.19
230.199	69.19
230.433	76.19
230.667	71.19
230.901	82.19
231.136	76.19
231.37	76.19
231.604	76.19
231.838	77.19
232.072	89.19
232.306	84.19
232.541	77.19
232.775	79.19
233.009	80.19
233.243	72.19
233.477	73.19
233.711	74.19
233.945	80.19
234.179	69.19
234.413	84.19
234.647	84.19
234.881	80.19
235.115	81.19
235.349	79.19
235.583	77.19
235.817	77.19
236.051	80.19
236.285	77.19
236.519	87.19
236.753	66.19
236.987	67.19
237.221	93.19
237.455	91.19
237.689	75.19
237.922	96.19
238.156	71.19
238.39	67.19
238.624	73.19
238.858	72.19
239.091	76.19
239.325	73.19
239.559	83.19
239.793	80.19
240.027	84.19
240.26	80.19
240.494	73.19
240.728	76.19
240.961	85.19
241.195	81.19
241.429	84.19
241.662	72.19
241.896	70.19
242.13	70.19
242.363	74.19
242.597	82.19
242.83	81.19
243.064	70.19
243.298	76.19
243.531	71.19
243.765	69.19
243.998	77.19
244.232	73.19
244.465	74.19
244.699	86.19
244.932	91.19
245.166	67.19
245.399	71.19
245.633	66.19
245.866	84.19
246.099	81.19
246.333	77.19
246.566	65.19
246.8	80.19
247.033	85.19
247.266	82.19
247.5	80.19
247.733	88.19
247.966	78.19
248.2	72.19
248.433	71.19
248.666	69.19
248.899	73.19
249.133	89.19
249.366	97.19
249.599	93.19
249.832	82.19
250.066	83.19
250.299	72.19
250.532	79.19
250.765	86.19
250.998	86.19
251.231	81.19
251.465	84.19
251.698	78.19
251.931	76.19
252.164	88.19
252.397	68.19
252.63	77.19
252.863	79.19
253.096	79.19
253.329	82.19
253.562	69.19
253.795	82.19
254.028	75.19
254.261	85.19
254.494	72.19
254.727	54.19
254.96	90.19
255.193	77.19
255.426	80.19
255.659	79.19
255.892	84.19
256.124	85.19
256.357	80.19
256.59	76.19
256.823	76.19
257.056	71.19
257.289	99.19
257.521	77.19
257.754	59.19
257.987	78.19
258.22	84.19
258.452	54.19
258.685	87.19
258.918	80.19
259.151	91.19
259.383	86.19
259.616	77.19
259.849	81.19
260.081	84.19
260.314	73.19
260.547	71.19
260.779	75.19
261.012	82.19
261.244	86.19
261.477	99.19
261.71	99.19
261.942	104.19
262.175	93.19
262.407	81.19
262.64	89.19
262.872	72.19
263.105	80.19
263.337	90.19
263.57	81.19
263.802	93.19
264.035	90.19
264.267	92.19
264.499	85.19
264.732	92.19
264.964	87.19
265.197	81.19
265.429	77.19
265.661	70.19
265.894	94.19
266.126	73.19
266.358	83.19
266.591	91.19
266.823	79.19
267.055	84.19
267.287	74.19
267.52	89.19
267.752	94.19
267.984	95.19
268.216	76.19
268.448	84.19
268.681	90.19
268.913	85.19
269.145	73.19
269.377	85.19
269.609	93.19
269.841	59.19
270.073	80.19
270.306	82.19
270.538	90.19
270.77	90.19
271.002	88.19
271.234	69.19
271.466	91.19
271.698	85.19
271.93	94.19
272.162	77.19
272.394	75.19
272.626	61.19
272.858	86.19
273.09	76.19
273.322	77.19
273.553	85.19
273.785	85.19
274.017	85.19
274.249	86.19
274.481	96.19
274.713	87.19
274.945	74.19
275.176	84.19
275.408	81.19
275.64	84.19
275.872	81.19
276.104	74.19
276.335	85.19
276.567	84.19
276.799	93.19
277.031	81.19
277.262	85.19
277.494	105.19
277.726	97.19
277.957	68.19
278.189	66.19
278.421	97.19
278.652	87.19
278.884	76.19
279.115	84.19
279.347	88.19
279.579	93.19
279.81	91.19
280.042	85.19
280.273	89.19
280.505	80.19
280.736	81.19
280.968	83.19
281.199	85.19
281.431	88.19
281.662	81.19
281.894	86.19
282.125	100.19
282.356	102.19
282.588	89.19
282.819	96.19
283.051	73.19
283.282	86.19
283.513	98.19
283.745	89.19
283.976	82.19
284.207	90.19
284.439	84.19
284.67	75.19
284.901	88.19
285.132	80.19
285.364	89.19
285.595	74.19
285.826	77.19
286.057	96.19
286.288	85.19
286.52	85.19
286.751	90.19
286.982	84.19
287.213	84.19
287.444	91.19
287.675	87.19
287.906	98.19
288.138	84.19
288.369	96.19
288.6	85.19
288.831	90.19
289.062	99.19
289.293	90.19
289.524	85.19
289.755	87.19
289.986	85.19
290.217	97.19
290.448	74.19
290.679	89.19
290.91	70.19
291.141	76.19
291.371	89.19
291.602	82.19
291.833	85.19
292.064	88.19
292.295	91.19
292.526	87.19
292.757	87.19
292.987	92.19
293.218	86.19
293.449	80.19
293.68	91.19
293.91	90.19
294.141	91.19
294.372	79.19
294.603	84.19
294.833	86.19
295.064	100.19
295.295	94.19
295.525	89.19
295.756	87.19
295.987	107.19
296.217	109.19
296.448	117.19
296.679	84.19
296.909	87.19
297.14	83.19
297.37	90.19
297.601	90.19
297.831	90.19
298.062	93.19
298.292	82.19
298.523	87.19
298.753	74.19
298.984	106.19
299.214	97.19
299.445	81.19
299.675	97.19
299.905	92.19
300.136	75.19
300.366	78.19
300.597	93.19
300.827	93.19
301.057	94.19
301.288	92.19
301.518	87.19
301.748	92.19
301.979	97.19
302.209	73.19
302.439	86.19
302.669	91.19
302.9	80.19
303.13	96.19
303.36	85.19
303.59	94.19
303.82	83.19
304.051	100.19
304.281	84.19
304.511	100.19
304.741	100.19
304.971	84.19
305.201	76.19
305.431	86.19
305.661	101.19
305.891	88.19
306.121	78.19
306.352	85.19
306.582	88.19
306.812	72.19
307.042	80.19
307.272	91.19
307.502	82.19
307.731	88.19
307.961	85.19
308.191	87.19
308.421	104.19
308.651	93.19
308.881	89.19
309.111	86.19
309.341	87.19
309.571	85.19
309.8	89.19
310.03	95.19
310.26	81.19
310.49	82.19
310.72	95.19
310.949	97.19
311.179	72.19
311.409	91.19
311.639	95.19
311.868	91.19
312.098	86.19
312.328	89.19
312.557	90.19
312.787	81.19
313.017	74.19
313.246	83.19
313.476	87.19
313.706	100.19
313.935	101.19
314.165	92.19
314.394	89.19
314.624	91.19
314.853	84.19
315.083	86.19
315.312	81.19
315.542	91.19
315.771	108.19
316.001	103.19
316.23	74.19
316.46	80.19
316.689	88.19
316.919	90.19
317.148	98.19
317.377	93.19
317.607	92.19
317.836	95.19
318.065	90.19
318.295	87.19
318.524	85.19
318.753	96.19
318.983	102.19
319.212	100.19
319.441	92.19
319.67	96.19
319.9	97.19
320.129	89.19
320.358	82.19
320.587	70.19
320.816	88.19
321.046	96.19
321.275	100.19
321.504	98.19
321.733	102.19
321.962	94.19
322.191	86.19
322.42	87.19
322.649	94.19
322.878	105.19
323.108	119.19
323.337	109.19
323.566	116.19
323.795	131.19
324.024	166.19
324.253	302.19
324.482	584.19
324.71	1158.19
324.939	1483.19
325.168	572.19
325.397	188.19
325.626	123.19
325.855	118.19
326.084	111.19
326.313	99.19
326.542	125.19
326.77	183.19
326.999	349.19
327.228	710.19
327.457	1220.19
327.686	943.19
327.914	264.19
328.143	145.19
328.372	122.19
328.6	117.19
328.829	107.19
329.058	115.19
329.287	102.19
329.515	120.19
329.744	101.19
329.972	90.19
330.201	90.19
330.43	88.19
330.658	100.19
330.887	110.19
331.115	100.19
331.344	90.19
331.572	92.19
331.801	87.19
332.03	96.19
332.258	88.19
332.486	91.19
332.715	91.19
332.943	93.19
333.172	84.19
333.4	90.19
333.629	99.19
333.857	107.19
334.085	109.19
334.314	90.19
334.542	94.19
334.771	97.19
334.999	94.19
335.227	93.19
335.455	81.19
335.684	98.19
335.912	97.19
336.14	91.19
336.369	97.19
336.597	90.19
336.825	102.19
337.053	94.19
337.281	99.19
337.51	93.19
337.738	86.19
337.966	88.19
338.194	82.19
338.422	96.19
338.65	89.19
338.878	88.19
339.106	90.19
339.334	82.19
339.562	96.19
339.79	114.19
340.018	101.19
340.246	107.19
340.474	100.19
340.702	92.19
340.93	86.19
341.158	80.19
341.386	84.19
341.614	82.19
341.842	94.19
342.07	92.19
342.298	86.19
342.526	81.19
342.754	84.19
342.981	91.19
343.209	90.19
343.437	84.19
343.665	92.19
343.893	99.19
344.12	99.19
344.348	110.19
344.576	90.19
344.804	90.19
345.031	93.19
345.259	90.19
345.487	93.19
345.714	88.19
345.942	85.19
346.17	86.19
346.397	90.19
346.625	82.19
346.853	86.19
347.08	95.19
347.308	88.19
347.535	81.19
347.763	89.19
347.99	100.19
348.218	88.19
348.445	101.19
348.673	99.19
348.9	99.19
349.128	92.19
349.355	104.19
349.583	90.19
349.81	91.19
350.037	89.19
350.265	99.19
350.492	97.19
350.72	93.19
350.947	92.19
351.174	96.19
351.402	102.19
351.629	97.19
351.856	104.19
352.083	96.19
352.311	96.19
352.538	88.19
352.765	90.19
352.992	109.19
353.22	99.19
353.447	99.19
353.674	97.19
353.901	99.19
354.128	92.19
354.355	101.19
354.583	98.19
354.81	100.19
355.037	97.19
355.264	114.19
355.491	90.19
355.718	95.19
355.945	86.19
356.172	96.19
356.399	93.19
356.626	94.19
356.853	95.19
357.08	96.19
357.307	86.19
357.534	100.19
357.761	106.19
357.988	92.19
358.215	76.19
358.441	88.19
358.668	91.19
358.895	89.19
359.122	86.19
359.349	93.19
359.576	88.19
359.802	91.19
360.029	93.19
360.256	91.19
360.483	93.19
360.709	102.19
360.936	78.19
361.163	73.19
361.39	77.19
361.616	91.19
361.843	92.19
362.07	94.19
362.296	88.19
362.523	98.19
362.749	81.19
362.976	87.19
363.203	77.19
363.429	93.19
363.656	93.19
363.882	84.19
364.109	101.19
364.335	80.19
364.562	86.19
364.788	93.19
365.015	86.19
365.241	91.19
365.468	96.19
365.694	88.19
365.92	89.19
366.147	82.19
366.373	80.19
366.599	106.19
366.826	95.19
367.052	87.19
367.278	83.19
367.505	91.19
367.731	70.19
367.957	101.19
368.184	98.19
368.41	100.19
368.636	101.19
368.862	100.19
369.089	93.19
369.315	72.19
369.541	93.19
369.767	84.19
369.993	91.19
370.219	82.19
370.445	82.19
370.672	93.19
370.898	89.19
371.124	96.19
371.35	84.19
371.576	89.19
371.802	77.19
372.028	75.19
372.254	92.19
372.48	82.19
372.706	93.19
372.932	80.19
373.158	88.19
373.384	87.19
373.61	87.19
373.835	81.19
374.061	86.19
374.287	86.19
374.513	85.19
374.739	92.19
374.965	89.19
375.191	92.19
375.416	98.19
375.642	90.19
375.868	87.19
376.094	67.19
376.319	90.19
376.545	96.19
376.771	82.19
376.997	97.19
377.222	75.19
377.448	102.19
377.674	112.19
377.899	92.19
378.125	97.19
378.35	85.19
378.576	89.19
378.802	97.19
379.027	93.19
379.253	87.19
379.478	99.19
379.704	84.19
379.929	98.19
380.155	94.19
380.38	92.19
380.606	92.19
380.831	91.19
381.057	100.19
381.282	110.19
381.507	105.19
381.733	92.19
381.958	95.19
382.184	91.19
382.409	102.19
382.634	89.19
382.86	106.19
383.085	109.19
383.31	100.19
383.535	108.19
383.761	113.19
383.986	111.19
384.211	104.19
384.436	101.19
384.662	113.19
384.887	111.19
385.112	113.19
385.337	123.19
385.562	110.19
385.787	101.19
386.013	115.19
386.238	106.19
386.463	122.19
386.688	121.19
386.913	129.19
387.138	116.19
387.363	123.19
387.588	102.19
387.813	90.19
388.038	116.19
388.263	121.19
388.488	116.19
388.713	105.19
388.938	96.19
389.163	109.19
389.387	93.19
389.612	81.19
389.837	65.19
390.062	89.19
390.287	91.19
390.512	98.19
390.736	91.19
390.961	85.19
391.186	91.19
391.411	92.19
391.636	98.19
391.86	92.19
392.085	83.19
392.31	86.19
392.534	74.19
392.759	92.19
392.984	101.19
393.208	100.19
393.433	100.19
393.658	94.19
393.882	91.19
394.107	88.19
394.331	98.19
394.556	77.19
394.78	90.19
395.005	83.19
395.229	72.19
395.454	71.19
395.678	91.19
395.903	97.19
396.127	87.19
396.352	88.19
396.576	79.19
396.801	89.19
397.025	96.19
397.249	100.19
397.474	90.19
397.698	100.19
397.922	76.19
398.147	83.19
398.371	90.19
398.595	85.19
398.82	94.19
399.044	84.19
399.268	83.19
399.492	80.19
399.717	77.19
399.941	90.19
400.165	96.19
400.389	80.19
400.613	93.19
400.837	88.19
401.062	80.19
401.286	77.19
401.51	95.19
401.734	88.19
401.958	104.19
402.182	103.19
402.406	109.19
402.63	107.19
402.854	92.19
403.078	94.19
403.302	87.19
403.526	86.19
403.75	80.19
403.974	84.19
404.198	88.19
404.422	85.19
404.645	68.19
404.869	87.19
405.093	92.19
405.317	101.19
405.541	64.19
405.765	80.19
405.988	93.19
406.212	116.19
406.436	144.19
406.66	111.19
406.883	97.19
407.107	95.19
407.331	89.19
407.555	96.19
407.778	92.19
408.002	85.19
408.226	89.19
408.449	91.19
408.673	88.19
408.896	89.19
409.12	95.19
409.344	85.19
409.567	92.19
409.791	76.19
410.014	87.19
410.238	95.19
410.461	93.19
410.685	83.19
410.908	105.19
411.132	98.19
411.355	100.19
411.578	88.19
411.802	94.19
412.025	94.19
412.249	94.19
412.472	93.19
412.695	81.19
412.919	90.19
413.142	93.19
413.365	68.19
413.589	75.19
413.812	83.19
414.035	95.19
414.258	81.19
414.482	94.19
414.705	81.19
414.928	99.19
415.151	96.19
415.374	93.19
415.597	86.19
415.821	73.19
416.044	101.19
416.267	93.19
416.49	82.19
416.713	98.19
416.936	93.19
417.159	76.19
417.382	68.19
417.605	91.19
417.828	88.19
418.051	84.19
418.274	96.19
418.497	88.19
418.72	94.19
418.943	85.19
419.166	89.19
419.389	87.19
419.611	91.19
419.834	94.19
420.057	86.19
420.28	96.19
420.503	72.19
420.726	94.19
420.948	87.19
421.171	90.19
421.394	81.19
421.617	87.19
421.839	88.19
422.062	95.19
422.285	98.19
422.507	106.19
422.73	107.19
422.953	87.19
423.175	98.19
423.398	96.19
423.621	88.19
423.843	93.19
424.066	95.19
424.288	90.19
424.511	77.19
424.733	86.19
424.956	97.19
425.178	95.19
425.401	78.19
425.623	84.19
425.846	93.19
426.068	94.19
426.291	96.19
426.513	86.19
426.735	97.19
426.958	91.19
427.18	89.19
427.402	114.19
427.625	121.19
427.847	104.19
428.069	85.19
428.292	90.19
428.514	85.19
428.736	78.19
428.958	81.19
429.181	85.19
429.403	90.19
429.625	89.19
429.847	76.19
430.069	88.19
430.292	101.19
430.514	89.19
430.736	75.19
430.958	90.19
431.18	79.19
431.402	92.19
431.624	86.19
431.846	94.19
432.068	83.19
432.29	73.19
432.512	96.19
432.734	87.19
432.956	92.19
433.178	90.19
433.4	93.19
433.622	81.19
433.844	85.19
434.066	84.19
434.287	86.19
434.509	80.19
434.731	90.19
434.953	72.19
435.175	92.19
435.397	92.19
435.618	84.19
435.84	102.19
436.062	99.19
436.284	100.19
436.505	84.19
436.727	83.19
436.949	101.19
437.17	97.19
437.392	85.19
437.614	83.19
437.835	96.19
438.057	100.19
438.278	104.19
438.5	81.19
438.721	108.19
438.943	88.19
439.165	93.19
439.386	83.19
439.608	89.19
439.829	99.19
440.05	98.19
440.272	110.19
440.493	84.19
440.715	72.19
440.936	91.19
441.158	98.19
441.379	92.19
441.6	89.19
441.822	77.19
442.043	105.19
442.264	95.19
442.486	96.19
442.707	91.19
442.928	78.19
443.149	116.19
443.371	91.19
443.592	100.19
443.813	102.19
444.034	101.19
444.255	88.19
444.476	80.19
444.698	69.19
444.919	85.19
445.14	132.19
445.361	114.19
445.582	112.19
445.803	95.19
446.024	103.19
446.245	115.19
446.466	102.19
446.687	88.19
446.908	87.19
447.129	79.19
447.35	79.19
447.571	100.19
447.792	93.19
448.013	75.19
448.234	89.19
448.455	99.19
448.675	94.19
448.896	96.19
449.117	91.19
449.338	96.19
449.559	115.19
449.779	107.19
450	97.19
450.221	79.19
450.442	88.19
450.662	95.19
450.883	94.19
451.104	106.19
451.324	100.19
451.545	83.19
451.766	91.19
451.986	95.19
452.207	82.19
452.428	79.19
452.648	94.19
452.869	99.19
453.089	92.19
453.31	99.19
453.53	94.19
453.751	89.19
453.971	90.19
454.192	80.19
454.412	97.19
454.633	106.19
454.853	93.19
455.073	92.19
455.294	101.19
455.514	78.19
455.734	84.19
455.955	94.19
456.175	89.19
456.395	76.19
456.616	78.19
456.836	96.19
457.056	88.19
457.276	84.19
457.497	88.19
457.717	92.19
457.937	88.19
458.157	105.19
458.377	84.19
458.598	104.19
458.818	117.19
459.038	121.19
459.258	92.19
459.478	87.19
459.698	84.19
459.918	100.19
460.138	93.19
460.358	85.19
460.578	72.19
460.798	77.19
461.018	99.19
461.238	80.19
461.458	84.19
461.678	81.19
461.898	80.19
462.118	85.19
462.338	92.19
462.558	100.19
462.777	92.19
462.997	102.19
463.217	76.19
463.437	86.19
463.657	90.19
463.876	94.19
464.096	92.19
464.316	80.19
464.536	95.19
464.755	78.19
464.975	98.19
465.195	124.19
465.414	124.19
465.634	85.19
465.854	87.19
466.073	88.19
466.293	95.19
466.512	85.19
466.732	74.19
466.951	84.19
467.171	78.19
467.391	76.19
467.61	96.19
467.829	88.19
468.049	89.19
468.268	88.19
468.488	87.19
468.707	70.19
468.927	72.19
469.146	79.19
469.365	97.19
469.585	86.19
469.804	101.19
470.023	77.19
470.243	86.19
470.462	90.19
470.681	98.19
470.901	81.19
471.12	93.19
471.339	84.19
471.558	89.19
471.777	89.19
471.997	94.19
472.216	92.19
472.435	94.19
472.654	78.19
472.873	102.19
473.092	79.19
473.311	80.19
473.53	84.19
473.749	93.19
473.968	92.19
474.187	98.19
474.406	92.19
474.625	89.19
474.844	87.19
475.063	74.19
475.282	80.19
475.501	86.19
475.72	94.19
475.939	94.19
476.158	85.19
476.377	82.19
476.596	99.19
476.814	88.19
477.033	90.19
477.252	74.19
477.471	84.19
477.69	93.19
477.908	84.19
478.127	79.19
478.346	79.19
478.564	76.19
478.783	97.19
479.002	84.19
479.22	91.19
479.439	87.19
479.658	86.19
479.876	97.19
480.095	88.19
480.313	87.19
480.532	99.19
480.751	73.19
480.969	93.19
481.188	81.19
481.406	99.19
481.624	82.19
481.843	83.19
482.061	83.19
482.28	96.19
482.498	74.19
482.717	80.19
482.935	68.19
483.153	96.19
483.372	97.19
483.59	90.19
483.808	98.19
484.027	84.19
484.245	99.19
484.463	91.19
484.681	80.19
484.9	88.19
485.118	97.19
485.336	93.19
485.554	93.19
485.772	109.19
485.99	89.19
486.209	100.19
486.427	97.19
486.645	85.19
486.863	92.19
487.081	99.19
487.299	84.19
487.517	101.19
487.735	84.19
487.953	91.19
488.171	99.19
488.389	82.19
488.607	89.19
488.825	93.19
489.043	83.19
489.261	94.19
489.479	97.19
489.696	103.19
489.914	87.19
490.132	88.19
490.35	86.19
490.568	88.19
490.786	84.19
491.003	106.19
491.221	79.19
491.439	81.19
491.657	86.19
491.874	92.19
492.092	95.19
492.31	89.19
492.527	91.19
492.745	85.19
492.963	82.19
493.18	96.19
493.398	89.19
493.615	100.19
493.833	90.19
494.05	74.19
494.268	95.19
494.485	85.19
494.703	84.19
494.92	80.19
495.138	93.19
495.355	102.19
495.573	83.19
495.79	81.19
496.008	98.19
496.225	93.19
496.442	88.19
496.66	97.19
496.877	95.19
497.094	84.19
497.312	80.19
497.529	84.19
497.746	100.19
497.963	79.19
498.181	89.19
498.398	87.19
498.615	102.19
498.832	94.19
499.049	89.19
499.267	91.19
499.484	99.19
499.701	94.19
499.918	92.19
500.135	91.19
500.352	78.19
500.569	94.19
500.786	95.19
501.003	94.19
501.22	98.19
501.437	96.19
501.654	88.19
501.871	100.19
502.088	87.19
502.305	98.19
502.522	96.19
502.739	88.19
502.956	94.19
503.172	68.19
503.389	90.19
503.606	84.19
503.823	87.19
504.04	103.19
504.256	88.19
504.473	97.19
504.69	81.19
504.907	73.19
505.123	95.19
505.34	76.19
505.557	85.19
505.773	97.19
505.99	84.19
506.207	61.19
506.423	88.19
506.64	86.19
506.856	91.19
507.073	98.19
507.289	102.19
507.506	79.19
507.722	105.19
507.939	97.19
508.155	107.19
508.372	92.19
508.588	76.19
508.805	87.19
509.021	89.19
509.238	107.19
509.454	90.19
509.67	99.19
509.887	95.19
510.103	116.19
510.319	163.19
510.536	459.19
510.752	1337.19
510.968	388.19
511.184	104.19
511.401	118.19
511.617	105.19
511.833	103.19
512.049	92.19
512.265	88.19
512.481	86.19
512.698	100.19
512.914	85.19
513.13	89.19
513.346	90.19
513.562	96.19
513.778	82.19
513.994	89.19
514.21	87.19
514.426	91.19
514.642	103.19
514.858	106.19
515.074	120.19
515.29	258.19
515.506	761.19
515.721	319.19
515.937	126.19
516.153	91.19
516.369	90.19
516.585	91.19
516.801	81.19
517.016	104.19
517.232	81.19
