Data from Uncirc_2000_H10_HRD10591_00011.txt Node
Date: Wed Jan 03 10:48:19 EST 2024
User: Yrep
Spectrometer: HR+D1059
Trigger mode: 1
Integration Time (sec): 1.000000E-1
Scans to average: 1
Electric dark correction enabled: true
Nonlinearity correction enabled: false
Boxcar width: 0
XAxis mode: Wavelengths
Number of Pixels in Spectrum: 2048
>>>>>Begin Spectral Data<<<<<
223.165	-12
223.4	-12
223.635	-12
223.869	-26
224.104	-8
224.338	-25
224.573	-7
224.808	-15
225.042	-11
225.277	-11
225.511	-10
225.746	2
225.98	-2
226.215	24
226.449	23
226.683	25
226.918	18
227.152	35
227.387	39
227.621	36
227.856	47
228.09	49
228.324	48
228.559	63
228.793	73
229.027	69
229.262	55
229.496	83
229.73	88
229.964	81
230.199	85
230.433	78
230.667	79
230.901	80
231.136	71
231.37	84
231.604	94
231.838	69
232.072	87
232.306	94
232.541	85
232.775	91
233.009	98
233.243	74
233.477	83
233.711	98
233.945	91
234.179	78
234.413	84
234.647	100
234.881	105
235.115	78
235.349	86
235.583	87
235.817	73
236.051	81
236.285	90
236.519	84
236.753	79
236.987	82
237.221	91
237.455	87
237.689	82
237.922	74
238.156	79
238.39	94
238.624	91
238.858	90
239.091	66
239.325	73
239.559	88
239.793	69
240.027	98
240.26	75
240.494	89
240.728	73
240.961	84
241.195	89
241.429	90
241.662	76
241.896	86
242.13	77
242.363	82
242.597	90
242.83	92
243.064	90
243.298	80
243.531	94
243.765	72
243.998	76
244.232	75
244.465	88
244.699	73
244.932	78
245.166	87
245.399	83
245.633	81
245.866	98
246.099	89
246.333	91
246.566	85
246.8	78
247.033	81
247.266	86
247.5	73
247.733	77
247.966	85
248.2	90
248.433	85
248.666	98
248.899	102
249.133	76
249.366	94
249.599	99
249.832	86
250.066	89
250.299	81
250.532	84
250.765	73
250.998	91
251.231	75
251.465	91
251.698	85
251.931	78
252.164	73
252.397	78
252.63	86
252.863	77
253.096	88
253.329	87
253.562	93
253.795	77
254.028	81
254.261	87
254.494	88
254.727	86
254.96	83
255.193	77
255.426	73
255.659	77
255.892	88
256.124	96
256.357	87
256.59	93
256.823	87
257.056	81
257.289	92
257.521	79
257.754	86
257.987	87
258.22	73
258.452	87
258.685	83
258.918	96
259.151	81
259.383	80
259.616	94
259.849	85
260.081	85
260.314	95
260.547	82
260.779	81
261.012	86
261.244	91
261.477	74
261.71	88
261.942	107
262.175	96
262.407	89
262.64	89
262.872	97
263.105	82
263.337	87
263.57	86
263.802	75
264.035	88
264.267	80
264.499	78
264.732	84
264.964	69
265.197	87
265.429	95
265.661	84
265.894	92
266.126	105
266.358	83
266.591	90
266.823	82
267.055	77
267.287	83
267.52	83
267.752	87
267.984	90
268.216	83
268.448	100
268.681	93
268.913	85
269.145	82
269.377	83
269.609	86
269.841	96
270.073	91
270.306	94
270.538	91
270.77	95
271.002	97
271.234	81
271.466	93
271.698	85
271.93	93
272.162	89
272.394	103
272.626	85
272.858	96
273.09	78
273.322	86
273.553	89
273.785	79
274.017	94
274.249	94
274.481	83
274.713	87
274.945	92
275.176	90
275.408	94
275.64	87
275.872	97
276.104	85
276.335	83
276.567	95
276.799	104
277.031	85
277.262	82
277.494	97
277.726	77
277.957	80
278.189	87
278.421	94
278.652	93
278.884	91
279.115	77
279.347	87
279.579	101
279.81	94
280.042	96
280.273	95
280.505	81
280.736	93
280.968	86
281.199	95
281.431	97
281.662	92
281.894	102
282.125	108
282.356	101
282.588	129
282.819	103
283.051	103
283.282	104
283.513	107
283.745	102
283.976	94
284.207	85
284.439	97
284.67	86
284.901	80
285.132	92
285.364	99
285.595	96
285.826	97
286.057	93
286.288	76
286.52	87
286.751	90
286.982	86
287.213	85
287.444	80
287.675	96
287.906	91
288.138	99
288.369	93
288.6	100
288.831	85
289.062	86
289.293	91
289.524	81
289.755	99
289.986	92
290.217	85
290.448	95
290.679	104
290.91	91
291.141	90
291.371	88
291.602	93
291.833	97
292.064	105
292.295	94
292.526	99
292.757	115
292.987	84
293.218	94
293.449	97
293.68	85
293.91	100
294.141	93
294.372	94
294.603	86
294.833	95
295.064	93
295.295	88
295.525	88
295.756	105
295.987	100
296.217	130
296.448	116
296.679	94
296.909	94
297.14	97
297.37	75
297.601	99
297.831	94
298.062	84
298.292	88
298.523	93
298.753	88
298.984	105
299.214	94
299.445	93
299.675	84
299.905	108
300.136	81
300.366	87
300.597	87
300.827	90
301.057	103
301.288	86
301.518	98
301.748	90
301.979	106
302.209	97
302.439	104
302.669	86
302.9	95
303.13	85
303.36	83
303.59	117
303.82	115
304.051	98
304.281	89
304.511	91
304.741	92
304.971	91
305.201	94
305.431	96
305.661	99
305.891	75
306.121	98
306.352	91
306.582	91
306.812	94
307.042	101
307.272	88
307.502	100
307.731	94
307.961	89
308.191	104
308.421	90
308.651	94
308.881	105
309.111	106
309.341	94
309.571	82
309.8	87
310.03	103
310.26	88
310.49	90
310.72	101
310.949	110
311.179	85
311.409	94
311.639	108
311.868	96
312.098	92
312.328	96
312.557	98
312.787	104
313.017	94
313.246	95
313.476	89
313.706	98
313.935	89
314.165	87
314.394	83
314.624	93
314.853	89
315.083	82
315.312	99
315.542	98
315.771	91
316.001	88
316.23	102
316.46	93
316.689	85
316.919	89
317.148	99
317.377	95
317.607	82
317.836	103
318.065	99
318.295	101
318.524	100
318.753	99
318.983	98
319.212	98
319.441	117
319.67	89
319.9	97
320.129	72
320.358	104
320.587	98
320.816	86
321.046	102
321.275	87
321.504	95
321.733	94
321.962	102
322.191	97
322.42	108
322.649	106
322.878	118
323.108	121
323.337	112
323.566	130
323.795	145
324.024	194
324.253	346
324.482	718
324.71	1407
324.939	1794
325.168	668
325.397	218
325.626	134
325.855	138
326.084	129
326.313	127
326.542	142
326.77	225
326.999	415
327.228	819
327.457	1442
327.686	1145
327.914	315
328.143	158
328.372	120
328.6	111
328.829	102
329.058	106
329.287	112
329.515	113
329.744	111
329.972	95
330.201	99
330.43	100
330.658	103
330.887	116
331.115	108
331.344	84
331.572	85
331.801	105
332.03	97
332.258	90
332.486	82
332.715	97
332.943	93
333.172	113
333.4	109
333.629	102
333.857	102
334.085	114
334.314	89
334.542	98
334.771	100
334.999	97
335.227	99
335.455	99
335.684	96
335.912	108
336.14	114
336.369	98
336.597	78
336.825	106
337.053	88
337.281	92
337.51	88
337.738	92
337.966	97
338.194	86
338.422	100
338.65	98
338.878	94
339.106	95
339.334	90
339.562	102
339.79	94
340.018	90
340.246	92
340.474	88
340.702	102
340.93	97
341.158	94
341.386	89
341.614	91
341.842	96
342.07	85
342.298	98
342.526	82
342.754	105
342.981	104
343.209	96
343.437	102
343.665	98
343.893	98
344.12	97
344.348	101
344.576	103
344.804	100
345.031	90
345.259	105
345.487	89
345.714	90
345.942	92
346.17	89
346.397	97
346.625	91
346.853	106
347.08	95
347.308	106
347.535	85
347.763	85
347.99	94
348.218	81
348.445	88
348.673	99
348.9	107
349.128	101
349.355	105
349.583	90
349.81	107
350.037	106
350.265	102
350.492	99
350.72	96
350.947	102
351.174	106
351.402	104
351.629	108
351.856	91
352.083	93
352.311	111
352.538	111
352.765	113
352.992	105
353.22	110
353.447	104
353.674	109
353.901	92
354.128	97
354.355	115
354.583	109
354.81	104
355.037	103
355.264	97
355.491	90
355.718	107
355.945	102
356.172	106
356.399	115
356.626	90
356.853	93
357.08	94
357.307	94
357.534	100
357.761	102
357.988	93
358.215	103
358.441	102
358.668	89
358.895	91
359.122	81
359.349	107
359.576	110
359.802	98
360.029	100
360.256	105
360.483	99
360.709	98
360.936	91
361.163	99
361.39	92
361.616	89
361.843	92
362.07	81
362.296	96
362.523	95
362.749	95
362.976	92
363.203	103
363.429	92
363.656	109
363.882	89
364.109	86
364.335	91
364.562	87
364.788	80
365.015	95
365.241	92
365.468	105
365.694	94
365.92	108
366.147	88
366.373	102
366.599	96
366.826	87
367.052	93
367.278	94
367.505	89
367.731	94
367.957	93
368.184	85
368.41	80
368.636	99
368.862	112
369.089	101
369.315	89
369.541	79
369.767	90
369.993	95
370.219	87
370.445	91
370.672	82
370.898	96
371.124	94
371.35	87
371.576	90
371.802	100
372.028	114
372.254	98
372.48	100
372.706	89
372.932	92
373.158	98
373.384	96
373.61	110
373.835	95
374.061	90
374.287	99
374.513	106
374.739	98
374.965	90
375.191	87
375.416	86
375.642	97
375.868	99
376.094	99
376.319	107
376.545	82
376.771	111
376.997	98
377.222	89
377.448	115
377.674	117
377.899	89
378.125	94
378.35	81
378.576	102
378.802	101
379.027	96
379.253	106
379.478	94
379.704	97
379.929	96
380.155	91
380.38	110
380.606	100
380.831	103
381.057	106
381.282	99
381.507	109
381.733	105
381.958	97
382.184	102
382.409	109
382.634	101
382.86	116
383.085	113
383.31	118
383.535	109
383.761	111
383.986	105
384.211	102
384.436	113
384.662	105
384.887	91
385.112	117
385.337	102
385.562	101
385.787	97
386.013	102
386.238	111
386.463	101
386.688	119
386.913	102
387.138	114
387.363	116
387.588	119
387.813	104
388.038	113
388.263	113
388.488	121
388.713	116
388.938	103
389.163	103
389.387	117
389.612	105
389.837	99
390.062	99
390.287	100
390.512	92
390.736	103
390.961	102
391.186	99
391.411	102
391.636	98
391.86	86
392.085	96
392.31	93
392.534	102
392.759	100
392.984	93
393.208	102
393.433	117
393.658	92
393.882	104
394.107	105
394.331	93
394.556	93
394.78	105
395.005	96
395.229	87
395.454	97
395.678	86
395.903	104
396.127	90
396.352	98
396.576	90
396.801	98
397.025	90
397.249	103
397.474	80
397.698	88
397.922	109
398.147	94
398.371	96
398.595	86
398.82	93
399.044	97
399.268	98
399.492	90
399.717	104
399.941	104
400.165	80
400.389	91
400.613	92
400.837	90
401.062	97
401.286	92
401.51	96
401.734	97
401.958	102
402.182	121
402.406	135
402.63	122
402.854	91
403.078	89
403.302	81
403.526	85
403.75	104
403.974	94
404.198	99
404.422	88
404.645	103
404.869	93
405.093	82
405.317	110
405.541	105
405.765	90
405.988	110
406.212	148
406.436	173
406.66	127
406.883	104
407.107	88
407.331	98
407.555	106
407.778	97
408.002	75
408.226	77
408.449	91
408.673	86
408.896	102
409.12	88
409.344	90
409.567	96
409.791	105
410.014	97
410.238	102
410.461	90
410.685	105
410.908	104
411.132	96
411.355	100
411.578	103
411.802	92
412.025	88
412.249	97
412.472	79
412.695	96
412.919	90
413.142	90
413.365	102
413.589	98
413.812	77
414.035	100
414.258	99
414.482	89
414.705	105
414.928	99
415.151	88
415.374	89
415.597	83
415.821	92
416.044	102
416.267	96
416.49	83
416.713	99
416.936	92
417.159	91
417.382	89
417.605	89
417.828	96
418.051	94
418.274	99
418.497	91
418.72	86
418.943	92
419.166	77
419.389	85
419.611	87
419.834	93
420.057	90
420.28	91
420.503	95
420.726	74
420.948	96
421.171	98
421.394	90
421.617	96
421.839	105
422.062	86
422.285	81
422.507	110
422.73	92
422.953	93
423.175	94
423.398	93
423.621	96
423.843	85
424.066	100
424.288	102
424.511	98
424.733	95
424.956	117
425.178	109
425.401	91
425.623	103
425.846	89
426.068	90
426.291	85
426.513	98
426.735	96
426.958	91
427.18	111
427.402	130
427.625	142
427.847	105
428.069	109
428.292	95
428.514	100
428.736	89
428.958	98
429.181	97
429.403	89
429.625	83
429.847	99
430.069	87
430.292	97
430.514	97
430.736	86
430.958	96
431.18	90
431.402	86
431.624	88
431.846	95
432.068	73
432.29	88
432.512	96
432.734	91
432.956	92
433.178	105
433.4	108
433.622	88
433.844	106
434.066	86
434.287	110
434.509	85
434.731	84
434.953	99
435.175	97
435.397	77
435.618	92
435.84	112
436.062	112
436.284	109
436.505	100
436.727	95
436.949	94
437.17	98
437.392	107
437.614	107
437.835	87
438.057	112
438.278	105
438.5	113
438.721	113
438.943	110
439.165	75
439.386	85
439.608	89
439.829	104
440.05	113
440.272	137
440.493	113
440.715	98
440.936	98
441.158	86
441.379	86
441.6	100
441.822	89
442.043	94
442.264	90
442.486	96
442.707	98
442.928	109
443.149	106
443.371	120
443.592	99
443.813	118
444.034	111
444.255	95
444.476	91
444.698	90
444.919	89
445.14	139
445.361	127
445.582	105
445.803	116
446.024	117
446.245	119
446.466	111
446.687	101
446.908	84
447.129	101
447.35	90
447.571	98
447.792	90
448.013	98
448.234	102
448.455	109
448.675	113
448.896	118
449.117	92
449.338	93
449.559	113
449.779	134
450	98
450.221	92
450.442	80
450.662	109
450.883	96
451.104	98
451.324	98
451.545	93
451.766	94
451.986	109
452.207	82
452.428	85
452.648	93
452.869	117
453.089	79
453.31	114
453.53	103
453.751	90
453.971	120
454.192	120
454.412	100
454.633	88
454.853	87
455.073	75
455.294	81
455.514	82
455.734	98
455.955	88
456.175	99
456.395	87
456.616	94
456.836	90
457.056	77
457.276	86
457.497	90
457.717	77
457.937	81
458.157	88
458.377	74
458.598	105
458.818	113
459.038	125
459.258	99
459.478	86
459.698	81
459.918	85
460.138	99
460.358	91
460.578	100
460.798	117
461.018	94
461.238	92
461.458	89
461.678	98
461.898	97
462.118	89
462.338	86
462.558	97
462.777	94
462.997	93
463.217	86
463.437	101
463.657	92
463.876	82
464.096	96
464.316	95
464.536	89
464.755	96
464.975	104
465.195	122
465.414	133
465.634	101
465.854	101
466.073	92
466.293	99
466.512	82
466.732	94
466.951	107
467.171	100
467.391	113
467.61	111
467.829	94
468.049	91
468.268	98
468.488	96
468.707	85
468.927	95
469.146	82
469.365	89
469.585	95
469.804	85
470.023	90
470.243	96
470.462	90
470.681	110
470.901	99
471.12	92
471.339	89
471.558	75
471.777	98
471.997	86
472.216	93
472.435	92
472.654	83
472.873	89
473.092	99
473.311	94
473.53	94
473.749	93
473.968	106
474.187	92
474.406	91
474.625	92
474.844	88
475.063	92
475.282	85
475.501	94
475.72	98
475.939	97
476.158	95
476.377	91
476.596	74
476.814	81
477.033	105
477.252	99
477.471	96
477.69	93
477.908	102
478.127	101
478.346	96
478.564	99
478.783	91
479.002	88
479.22	103
479.439	101
479.658	105
479.876	98
480.095	92
480.313	91
480.532	88
480.751	99
480.969	94
481.188	92
481.406	97
481.624	94
481.843	95
482.061	97
482.28	99
482.498	89
482.717	108
482.935	112
483.153	94
483.372	94
483.59	98
483.808	89
484.027	99
484.245	89
484.463	93
484.681	111
484.9	103
485.118	91
485.336	107
485.554	110
485.772	88
485.99	110
486.209	114
486.427	95
486.645	112
486.863	109
487.081	100
487.299	93
487.517	107
487.735	94
487.953	94
488.171	104
488.389	102
488.607	97
488.825	90
489.043	88
489.261	89
489.479	87
489.696	86
489.914	100
490.132	92
490.35	100
490.568	104
490.786	94
491.003	101
491.221	96
491.439	104
491.657	98
491.874	99
492.092	98
492.31	102
492.527	92
492.745	110
492.963	105
493.18	102
493.398	94
493.615	101
493.833	105
494.05	94
494.268	80
494.485	80
494.703	97
494.92	95
495.138	92
495.355	92
495.573	113
495.79	87
496.008	102
496.225	109
496.442	95
496.66	104
496.877	99
497.094	89
497.312	105
497.529	97
497.746	93
497.963	101
498.181	92
498.398	104
498.615	92
498.832	109
499.049	92
499.267	98
499.484	92
499.701	91
499.918	93
500.135	97
500.352	80
500.569	80
500.786	97
501.003	99
501.22	76
501.437	106
501.654	107
501.871	94
502.088	91
502.305	95
502.522	94
502.739	96
502.956	94
503.172	99
503.389	102
503.606	105
503.823	93
504.04	88
504.256	96
504.473	98
504.69	93
504.907	89
505.123	93
505.34	104
505.557	89
505.773	100
505.99	104
506.207	85
506.423	93
506.64	81
506.856	94
507.073	83
507.289	91
507.506	94
507.722	119
507.939	91
508.155	80
508.372	87
508.588	114
508.805	102
509.021	94
509.238	110
509.454	117
509.67	115
509.887	109
510.103	112
510.319	170
510.536	566
510.752	1658
510.968	482
511.184	147
511.401	121
511.617	97
511.833	97
512.049	89
512.265	94
512.481	91
512.698	99
512.914	89
513.13	101
513.346	109
513.562	108
513.778	104
513.994	98
514.21	119
514.426	110
514.642	120
514.858	122
515.074	136
515.29	324
515.506	943
515.721	368
515.937	144
516.153	109
516.369	93
516.585	103
516.801	98
517.016	87
517.232	78
517.448	97
517.664	109
517.879	90
518.095	104
518.311	111
518.527	93
518.742	101
518.958	94
519.173	83
519.389	102
519.605	87
519.82	101
520.036	110
520.251	125
520.467	116
520.682	99
520.898	110
521.113	97
521.329	127
521.544	174
521.76	364
521.975	1569
522.19	958
522.406	232
522.621	126
522.836	115
523.052	104
523.267	99
523.482	94
523.698	107
523.913	114
524.128	96
524.343	107
524.559	107
524.774	96
524.989	97
525.204	105
525.419	109
525.634	95
525.849	83
526.064	96
526.28	103
526.495	83
526.71	98
526.925	92
527.14	111
527.355	95
527.57	90
527.785	97
527.999	100
528.214	89
528.429	90
528.644	103
528.859	85
529.074	93
529.289	120
529.503	157
529.718	108
529.933	98
530.148	87
530.363	101
530.577	102
530.792	93
531.007	105
531.221	100
531.436	103
531.651	78
531.865	106
532.08	95
532.295	92
532.509	76
532.724	90
532.938	105
533.153	96
533.367	105
533.582	93
533.796	104
534.011	100
534.225	107
534.44	103
534.654	95
534.868	107
535.083	107
535.297	93
535.511	99
535.726	99
535.94	107
536.154	105
536.369	90
536.583	89
536.797	97
537.011	95
537.225	96
537.44	104
537.654	110
537.868	89
538.082	90
538.296	102
538.51	103
538.724	91
538.938	100
539.153	99
539.367	101
539.581	109
539.795	103
540.009	103
540.222	94
540.436	88
540.65	100
540.864	94
541.078	98
541.292	93
541.506	105
541.72	89
541.934	90
542.147	98
542.361	97
542.575	97
542.789	86
543.002	111
543.216	97
543.43	98
543.644	90
543.857	99
544.071	89
544.285	95
544.498	94
544.712	102
544.925	105
545.139	99
545.352	96
545.566	89
545.779	96
545.993	96
546.206	76
546.42	84
546.633	85
546.847	105
547.06	91
547.274	88
547.487	103
547.7	102
547.914	83
548.127	104
548.34	95
548.554	83
548.767	82
548.98	102
549.193	85
549.407	96
549.62	101
549.833	104
550.046	106
550.259	111
550.473	99
550.686	110
550.899	91
551.112	87
551.325	87
551.538	81
551.751	95
551.964	90
552.177	93
552.39	110
552.603	88
552.816	103
553.029	101
553.242	93
553.455	99
553.667	101
553.88	110
554.093	118
554.306	103
554.519	92
554.732	90
554.944	90
555.157	90
555.37	85
555.583	94
555.795	103
556.008	95
556.221	79
556.433	96
556.646	103
556.859	112
557.071	96
557.284	94
557.496	98
557.709	106
557.921	103
558.134	87
558.346	87
558.559	94
558.771	98
558.984	86
559.196	93
559.409	101
559.621	116
559.833	106
560.046	86
560.258	97
560.47	76
560.683	94
560.895	101
561.107	95
561.32	107
561.532	100
561.744	101
561.956	93
562.168	98
562.381	104
562.593	106
562.805	100
563.017	107
563.229	101
563.441	88
563.653	95
563.865	79
564.077	96
564.289	95
564.501	95
564.713	102
564.925	95
565.137	109
565.349	91
565.561	87
565.773	95
565.985	89
566.197	95
566.408	85
566.62	89
566.832	92
567.044	103
567.255	92
567.467	100
567.679	97
567.891	91
568.102	75
568.314	82
568.526	98
568.737	93
568.949	98
569.161	93
569.372	76
569.584	81
569.795	101
570.007	100
570.218	202
570.43	126
570.641	95
570.853	107
571.064	97
571.276	89
571.487	96
571.698	96
571.91	106
572.121	88
572.333	99
572.544	96
572.755	79
572.966	102
573.178	90
573.389	98
573.6	97
573.811	112
574.023	105
574.234	96
574.445	104
574.656	103
574.867	107
575.078	89
575.289	90
575.501	102
575.712	92
575.923	104
576.134	94
576.345	108
576.556	96
576.767	110
576.978	81
577.188	91
577.399	89
577.61	89
577.821	106
578.032	122
578.243	223
578.454	597
578.665	192
578.875	104
579.086	113
579.297	87
579.508	96
579.718	90
579.929	96
580.14	95
580.35	87
580.561	88
580.772	101
580.982	103
581.193	82
581.403	110
581.614	105
