Data from Uncirc_2000_H10_HRD10591_00017.txt Node
Date: Wed Jan 03 10:48:20 EST 2024
User: Yrep
Spectrometer: HR+D1059
Trigger mode: 1
Integration Time (sec): 1.000000E-1
Scans to average: 1
Electric dark correction enabled: true
Nonlinearity correction enabled: false
Boxcar width: 0
XAxis mode: Wavelengths
Number of Pixels in Spectrum: 2048
>>>>>Begin Spectral Data<<<<<
223.165	-24.38
223.4	-24.38
223.635	-24.38
223.869	-15.38
224.104	-19.38
224.338	-20.38
224.573	-9.38
224.808	-27.38
225.042	-3.38
225.277	-9.38
225.511	-6.38
225.746	-13.38
225.98	13.62
226.215	7.62
226.449	26.62
226.683	32.62
226.918	26.62
227.152	41.62
227.387	48.62
227.621	34.62
227.856	41.62
228.09	42.62
228.324	46.62
228.559	56.62
228.793	64.62
229.027	71.62
229.262	70.62
229.496	78.62
229.73	73.62
229.964	85.62
230.199	64.62
230.433	79.62
230.667	72.62
230.901	93.62
231.136	82.62
231.37	76.62
231.604	82.62
231.838	70.62
232.072	87.62
232.306	76.62
232.541	64.62
232.775	86.62
233.009	81.62
233.243	93.62
233.477	100.62
233.711	75.62
233.945	80.62
234.179	59.62
234.413	75.62
234.647	74.62
234.881	82.62
235.115	71.62
235.349	62.62
235.583	73.62
235.817	80.62
236.051	68.62
236.285	72.62
236.519	89.62
236.753	75.62
236.987	78.62
237.221	73.62
237.455	81.62
237.689	61.62
237.922	80.62
238.156	68.62
238.39	62.62
238.624	72.62
238.858	75.62
239.091	76.62
239.325	68.62
239.559	75.62
239.793	75.62
240.027	80.62
240.26	77.62
240.494	97.62
240.728	70.62
240.961	60.62
241.195	92.62
241.429	85.62
241.662	67.62
241.896	82.62
242.13	73.62
242.363	79.62
242.597	74.62
242.83	86.62
243.064	83.62
243.298	86.62
243.531	85.62
243.765	76.62
243.998	84.62
244.232	76.62
244.465	73.62
244.699	67.62
244.932	71.62
245.166	71.62
245.399	77.62
245.633	80.62
245.866	77.62
246.099	76.62
246.333	81.62
246.566	86.62
246.8	92.62
247.033	76.62
247.266	71.62
247.5	92.62
247.733	93.62
247.966	91.62
248.2	80.62
248.433	73.62
248.666	81.62
248.899	76.62
249.133	81.62
249.366	96.62
249.599	86.62
249.832	84.62
250.066	89.62
250.299	95.62
250.532	97.62
250.765	73.62
250.998	74.62
251.231	84.62
251.465	80.62
251.698	71.62
251.931	77.62
252.164	70.62
252.397	83.62
252.63	69.62
252.863	67.62
253.096	72.62
253.329	83.62
253.562	92.62
253.795	73.62
254.028	92.62
254.261	84.62
254.494	87.62
254.727	80.62
254.96	61.62
255.193	59.62
255.426	84.62
255.659	79.62
255.892	71.62
256.124	77.62
256.357	61.62
256.59	86.62
256.823	75.62
257.056	94.62
257.289	90.62
257.521	80.62
257.754	74.62
257.987	68.62
258.22	84.62
258.452	84.62
258.685	66.62
258.918	71.62
259.151	77.62
259.383	92.62
259.616	67.62
259.849	85.62
260.081	91.62
260.314	78.62
260.547	81.62
260.779	78.62
261.012	92.62
261.244	81.62
261.477	81.62
261.71	97.62
261.942	92.62
262.175	111.62
262.407	84.62
262.64	100.62
262.872	81.62
263.105	75.62
263.337	76.62
263.57	82.62
263.802	104.62
264.035	82.62
264.267	81.62
264.499	90.62
264.732	85.62
264.964	91.62
265.197	77.62
265.429	84.62
265.661	76.62
265.894	84.62
266.126	86.62
266.358	84.62
266.591	77.62
266.823	74.62
267.055	83.62
267.287	87.62
267.52	75.62
267.752	82.62
267.984	79.62
268.216	87.62
268.448	68.62
268.681	89.62
268.913	80.62
269.145	78.62
269.377	80.62
269.609	98.62
269.841	87.62
270.073	74.62
270.306	82.62
270.538	74.62
270.77	80.62
271.002	81.62
271.234	87.62
271.466	80.62
271.698	80.62
271.93	91.62
272.162	92.62
272.394	78.62
272.626	92.62
272.858	71.62
273.09	88.62
273.322	77.62
273.553	87.62
273.785	101.62
274.017	66.62
274.249	84.62
274.481	92.62
274.713	89.62
274.945	91.62
275.176	81.62
275.408	79.62
275.64	76.62
275.872	85.62
276.104	100.62
276.335	89.62
276.567	91.62
276.799	105.62
277.031	89.62
277.262	84.62
277.494	93.62
277.726	93.62
277.957	85.62
278.189	88.62
278.421	80.62
278.652	92.62
278.884	81.62
279.115	93.62
279.347	97.62
279.579	77.62
279.81	84.62
280.042	96.62
280.273	93.62
280.505	101.62
280.736	84.62
280.968	84.62
281.199	84.62
281.431	82.62
281.662	88.62
281.894	94.62
282.125	104.62
282.356	102.62
282.588	114.62
282.819	108.62
283.051	87.62
283.282	93.62
283.513	90.62
283.745	100.62
283.976	86.62
284.207	76.62
284.439	94.62
284.67	100.62
284.901	94.62
285.132	93.62
285.364	86.62
285.595	92.62
285.826	88.62
286.057	85.62
286.288	88.62
286.52	97.62
286.751	107.62
286.982	90.62
287.213	93.62
287.444	89.62
287.675	86.62
287.906	88.62
288.138	93.62
288.369	84.62
288.6	85.62
288.831	101.62
289.062	81.62
289.293	88.62
289.524	86.62
289.755	86.62
289.986	87.62
290.217	81.62
290.448	78.62
290.679	87.62
290.91	84.62
291.141	76.62
291.371	93.62
291.602	88.62
291.833	94.62
292.064	94.62
292.295	97.62
292.526	73.62
292.757	86.62
292.987	92.62
293.218	88.62
293.449	88.62
293.68	76.62
293.91	82.62
294.141	85.62
294.372	97.62
294.603	92.62
294.833	95.62
295.064	92.62
295.295	84.62
295.525	99.62
295.756	101.62
295.987	100.62
296.217	111.62
296.448	117.62
296.679	79.62
296.909	91.62
297.14	90.62
297.37	94.62
297.601	82.62
297.831	94.62
298.062	81.62
298.292	86.62
298.523	93.62
298.753	80.62
298.984	88.62
299.214	98.62
299.445	88.62
299.675	92.62
299.905	80.62
300.136	94.62
300.366	80.62
300.597	88.62
300.827	90.62
301.057	86.62
301.288	100.62
301.518	86.62
301.748	87.62
301.979	99.62
302.209	88.62
302.439	88.62
302.669	89.62
302.9	116.62
303.13	92.62
303.36	85.62
303.59	89.62
303.82	86.62
304.051	103.62
304.281	84.62
304.511	99.62
304.741	96.62
304.971	92.62
305.201	91.62
305.431	91.62
305.661	87.62
305.891	86.62
306.121	83.62
306.352	82.62
306.582	101.62
306.812	97.62
307.042	83.62
307.272	75.62
307.502	93.62
307.731	103.62
307.961	97.62
308.191	86.62
308.421	92.62
308.651	101.62
308.881	99.62
309.111	91.62
309.341	98.62
309.571	92.62
309.8	80.62
310.03	88.62
310.26	89.62
310.49	100.62
310.72	78.62
310.949	117.62
311.179	86.62
311.409	92.62
311.639	106.62
311.868	90.62
312.098	91.62
312.328	98.62
312.557	99.62
312.787	105.62
313.017	100.62
313.246	101.62
313.476	99.62
313.706	91.62
313.935	106.62
314.165	102.62
314.394	97.62
314.624	99.62
314.853	82.62
315.083	88.62
315.312	73.62
315.542	105.62
315.771	88.62
316.001	86.62
316.23	97.62
316.46	95.62
316.689	83.62
316.919	89.62
317.148	99.62
317.377	98.62
317.607	91.62
317.836	100.62
318.065	100.62
318.295	97.62
318.524	90.62
318.753	88.62
318.983	93.62
319.212	98.62
319.441	96.62
319.67	113.62
319.9	107.62
320.129	92.62
320.358	99.62
320.587	94.62
320.816	93.62
321.046	95.62
321.275	101.62
321.504	90.62
321.733	108.62
321.962	119.62
322.191	106.62
322.42	95.62
322.649	96.62
322.878	91.62
323.108	106.62
323.337	108.62
323.566	133.62
323.795	153.62
324.024	198.62
324.253	361.62
324.482	728.62
324.71	1496.62
324.939	1886.62
325.168	699.62
325.397	220.62
325.626	142.62
325.855	142.62
326.084	118.62
326.313	128.62
326.542	147.62
326.77	210.62
326.999	428.62
327.228	844.62
327.457	1524.62
327.686	1186.62
327.914	318.62
328.143	170.62
328.372	129.62
328.6	106.62
328.829	108.62
329.058	107.62
329.287	116.62
329.515	120.62
329.744	103.62
329.972	99.62
330.201	93.62
330.43	80.62
330.658	94.62
330.887	115.62
331.115	120.62
331.344	99.62
331.572	91.62
331.801	113.62
332.03	94.62
332.258	98.62
332.486	102.62
332.715	82.62
332.943	89.62
333.172	88.62
333.4	95.62
333.629	98.62
333.857	106.62
334.085	108.62
334.314	113.62
334.542	98.62
334.771	90.62
334.999	99.62
335.227	100.62
335.455	91.62
335.684	94.62
335.912	92.62
336.14	98.62
336.369	100.62
336.597	98.62
336.825	90.62
337.053	94.62
337.281	82.62
337.51	82.62
337.738	104.62
337.966	106.62
338.194	97.62
338.422	88.62
338.65	88.62
338.878	99.62
339.106	94.62
339.334	90.62
339.562	98.62
339.79	101.62
340.018	93.62
340.246	97.62
340.474	82.62
340.702	87.62
340.93	97.62
341.158	100.62
341.386	91.62
341.614	97.62
341.842	90.62
342.07	82.62
342.298	83.62
342.526	89.62
342.754	89.62
342.981	77.62
343.209	82.62
343.437	93.62
343.665	96.62
343.893	96.62
344.12	88.62
344.348	94.62
344.576	94.62
344.804	90.62
345.031	97.62
345.259	94.62
345.487	97.62
345.714	89.62
345.942	77.62
346.17	84.62
346.397	92.62
346.625	98.62
346.853	77.62
347.08	100.62
347.308	93.62
347.535	99.62
347.763	108.62
347.99	91.62
348.218	102.62
348.445	107.62
348.673	98.62
348.9	99.62
349.128	87.62
349.355	94.62
349.583	100.62
349.81	101.62
350.037	98.62
350.265	100.62
350.492	96.62
350.72	107.62
350.947	99.62
351.174	107.62
351.402	102.62
351.629	106.62
351.856	108.62
352.083	108.62
352.311	114.62
352.538	98.62
352.765	81.62
352.992	109.62
353.22	100.62
353.447	116.62
353.674	93.62
353.901	102.62
354.128	86.62
354.355	91.62
354.583	100.62
354.81	95.62
355.037	98.62
355.264	96.62
355.491	95.62
355.718	110.62
355.945	96.62
356.172	85.62
356.399	90.62
356.626	93.62
356.853	69.62
357.08	91.62
357.307	92.62
357.534	87.62
357.761	86.62
357.988	117.62
358.215	94.62
358.441	84.62
358.668	96.62
358.895	91.62
359.122	89.62
359.349	89.62
359.576	90.62
359.802	100.62
360.029	105.62
360.256	106.62
360.483	107.62
360.709	99.62
360.936	93.62
361.163	89.62
361.39	77.62
361.616	75.62
361.843	92.62
362.07	100.62
362.296	86.62
362.523	85.62
362.749	98.62
362.976	83.62
363.203	94.62
363.429	70.62
363.656	100.62
363.882	88.62
364.109	97.62
364.335	95.62
364.562	99.62
364.788	93.62
365.015	89.62
365.241	98.62
365.468	95.62
365.694	93.62
365.92	102.62
366.147	104.62
366.373	92.62
366.599	97.62
366.826	104.62
367.052	92.62
367.278	100.62
367.505	97.62
367.731	91.62
367.957	84.62
368.184	77.62
368.41	94.62
368.636	95.62
368.862	110.62
369.089	109.62
369.315	84.62
369.541	99.62
369.767	91.62
369.993	97.62
370.219	94.62
370.445	78.62
370.672	85.62
370.898	70.62
371.124	86.62
371.35	93.62
371.576	92.62
371.802	81.62
372.028	94.62
372.254	75.62
372.48	103.62
372.706	90.62
372.932	68.62
373.158	97.62
373.384	98.62
373.61	93.62
373.835	86.62
374.061	92.62
374.287	92.62
374.513	94.62
374.739	87.62
374.965	81.62
375.191	94.62
375.416	85.62
375.642	103.62
375.868	105.62
376.094	85.62
376.319	81.62
376.545	90.62
376.771	86.62
376.997	86.62
377.222	93.62
377.448	81.62
377.674	92.62
377.899	91.62
378.125	89.62
378.35	98.62
378.576	86.62
378.802	93.62
379.027	92.62
379.253	93.62
379.478	94.62
379.704	100.62
379.929	94.62
380.155	93.62
380.38	82.62
380.606	93.62
380.831	98.62
381.057	104.62
381.282	92.62
381.507	101.62
381.733	91.62
381.958	90.62
382.184	93.62
382.409	103.62
382.634	100.62
382.86	95.62
383.085	100.62
383.31	91.62
383.535	114.62
383.761	111.62
383.986	99.62
384.211	102.62
384.436	102.62
384.662	108.62
384.887	90.62
385.112	104.62
385.337	105.62
385.562	102.62
385.787	115.62
386.013	108.62
386.238	117.62
386.463	104.62
386.688	99.62
386.913	107.62
387.138	96.62
387.363	96.62
387.588	102.62
387.813	84.62
388.038	104.62
388.263	109.62
388.488	115.62
388.713	92.62
388.938	107.62
389.163	91.62
389.387	104.62
389.612	98.62
389.837	89.62
390.062	80.62
390.287	94.62
390.512	100.62
390.736	99.62
390.961	98.62
391.186	98.62
391.411	105.62
391.636	100.62
391.86	95.62
392.085	72.62
392.31	87.62
392.534	84.62
392.759	80.62
392.984	88.62
393.208	94.62
393.433	94.62
393.658	83.62
393.882	100.62
394.107	77.62
394.331	86.62
394.556	78.62
394.78	82.62
395.005	104.62
395.229	98.62
395.454	87.62
395.678	91.62
395.903	94.62
396.127	89.62
396.352	89.62
396.576	76.62
396.801	82.62
397.025	101.62
397.249	73.62
397.474	98.62
397.698	84.62
397.922	83.62
398.147	83.62
398.371	91.62
398.595	88.62
398.82	81.62
399.044	93.62
399.268	87.62
399.492	93.62
399.717	93.62
399.941	83.62
400.165	106.62
400.389	87.62
400.613	82.62
400.837	76.62
401.062	96.62
401.286	93.62
401.51	72.62
401.734	91.62
401.958	93.62
402.182	126.62
402.406	149.62
402.63	117.62
402.854	105.62
403.078	75.62
403.302	80.62
403.526	93.62
403.75	75.62
403.974	83.62
404.198	80.62
404.422	89.62
404.645	88.62
404.869	100.62
405.093	90.62
405.317	100.62
405.541	96.62
405.765	90.62
405.988	108.62
406.212	141.62
406.436	192.62
406.66	117.62
406.883	112.62
407.107	101.62
407.331	90.62
407.555	101.62
407.778	99.62
408.002	93.62
408.226	91.62
408.449	93.62
408.673	88.62
408.896	101.62
409.12	100.62
409.344	97.62
409.567	97.62
409.791	101.62
410.014	95.62
410.238	97.62
410.461	91.62
410.685	91.62
410.908	85.62
411.132	91.62
411.355	100.62
411.578	99.62
411.802	98.62
412.025	100.62
412.249	73.62
412.472	79.62
412.695	78.62
412.919	99.62
413.142	95.62
413.365	89.62
413.589	93.62
413.812	88.62
414.035	88.62
414.258	98.62
414.482	97.62
414.705	90.62
414.928	103.62
415.151	103.62
415.374	97.62
415.597	84.62
415.821	91.62
416.044	90.62
416.267	82.62
416.49	108.62
416.713	87.62
416.936	95.62
417.159	87.62
417.382	82.62
417.605	94.62
417.828	94.62
418.051	92.62
418.274	86.62
418.497	93.62
418.72	91.62
418.943	81.62
419.166	91.62
419.389	89.62
419.611	80.62
419.834	81.62
420.057	95.62
420.28	98.62
420.503	111.62
420.726	82.62
420.948	91.62
421.171	95.62
421.394	93.62
421.617	95.62
421.839	93.62
422.062	89.62
422.285	105.62
422.507	97.62
422.73	94.62
422.953	94.62
423.175	88.62
423.398	79.62
423.621	96.62
423.843	90.62
424.066	90.62
424.288	83.62
424.511	91.62
424.733	91.62
424.956	101.62
425.178	90.62
425.401	92.62
425.623	98.62
425.846	98.62
426.068	101.62
426.291	97.62
426.513	84.62
426.735	105.62
426.958	104.62
427.18	87.62
427.402	138.62
427.625	134.62
427.847	118.62
428.069	82.62
428.292	76.62
428.514	87.62
428.736	75.62
428.958	68.62
429.181	78.62
429.403	84.62
429.625	83.62
429.847	83.62
430.069	104.62
430.292	97.62
430.514	86.62
430.736	98.62
430.958	85.62
431.18	84.62
431.402	86.62
431.624	91.62
431.846	94.62
432.068	84.62
432.29	80.62
432.512	84.62
432.734	87.62
432.956	72.62
433.178	86.62
433.4	97.62
433.622	91.62
433.844	77.62
434.066	99.62
434.287	101.62
434.509	89.62
434.731	98.62
434.953	85.62
435.175	84.62
435.397	84.62
435.618	72.62
435.84	99.62
436.062	121.62
436.284	97.62
436.505	100.62
436.727	101.62
436.949	99.62
437.17	87.62
437.392	103.62
437.614	96.62
437.835	85.62
438.057	104.62
438.278	120.62
438.5	90.62
438.721	93.62
438.943	105.62
439.165	92.62
439.386	105.62
439.608	80.62
439.829	96.62
440.05	120.62
440.272	131.62
440.493	103.62
440.715	100.62
440.936	90.62
441.158	98.62
441.379	86.62
441.6	98.62
441.822	89.62
442.043	78.62
442.264	107.62
442.486	98.62
442.707	81.62
442.928	91.62
443.149	111.62
443.371	116.62
443.592	110.62
443.813	106.62
444.034	100.62
444.255	98.62
444.476	91.62
444.698	87.62
444.919	82.62
445.14	121.62
445.361	121.62
445.582	103.62
445.803	103.62
446.024	117.62
446.245	133.62
446.466	107.62
446.687	83.62
446.908	93.62
447.129	85.62
447.35	79.62
447.571	89.62
447.792	89.62
448.013	98.62
448.234	88.62
448.455	100.62
448.675	125.62
448.896	106.62
449.117	92.62
449.338	93.62
449.559	114.62
449.779	123.62
450	92.62
450.221	84.62
450.442	98.62
450.662	98.62
450.883	107.62
451.104	110.62
451.324	108.62
451.545	98.62
451.766	97.62
451.986	90.62
452.207	83.62
452.428	101.62
452.648	92.62
452.869	104.62
453.089	95.62
453.31	109.62
453.53	100.62
453.751	101.62
453.971	86.62
454.192	93.62
454.412	93.62
454.633	85.62
454.853	89.62
455.073	88.62
455.294	88.62
455.514	95.62
455.734	84.62
455.955	80.62
456.175	84.62
456.395	95.62
456.616	82.62
456.836	84.62
457.056	86.62
457.276	79.62
457.497	88.62
457.717	89.62
457.937	90.62
458.157	84.62
458.377	86.62
458.598	99.62
458.818	121.62
459.038	134.62
459.258	102.62
459.478	76.62
459.698	90.62
459.918	90.62
460.138	85.62
460.358	81.62
460.578	90.62
460.798	92.62
461.018	83.62
461.238	102.62
461.458	88.62
461.678	88.62
461.898	87.62
462.118	69.62
462.338	97.62
462.558	85.62
462.777	84.62
462.997	82.62
463.217	90.62
463.437	92.62
463.657	88.62
463.876	74.62
464.096	75.62
464.316	91.62
464.536	92.62
464.755	76.62
464.975	82.62
465.195	129.62
465.414	136.62
465.634	89.62
465.854	93.62
466.073	85.62
466.293	91.62
466.512	77.62
466.732	85.62
466.951	92.62
467.171	90.62
467.391	93.62
467.61	98.62
467.829	104.62
468.049	90.62
468.268	82.62
468.488	87.62
468.707	80.62
468.927	74.62
469.146	80.62
469.365	68.62
469.585	96.62
469.804	84.62
470.023	98.62
470.243	85.62
470.462	98.62
470.681	108.62
470.901	81.62
471.12	91.62
471.339	74.62
471.558	93.62
471.777	94.62
471.997	86.62
472.216	84.62
472.435	89.62
472.654	87.62
472.873	92.62
473.092	81.62
473.311	86.62
473.53	93.62
473.749	82.62
473.968	82.62
474.187	98.62
474.406	109.62
474.625	80.62
474.844	90.62
475.063	77.62
475.282	89.62
475.501	100.62
475.72	94.62
475.939	92.62
476.158	105.62
476.377	94.62
476.596	76.62
476.814	81.62
477.033	106.62
477.252	78.62
477.471	86.62
477.69	92.62
477.908	93.62
478.127	93.62
478.346	92.62
478.564	91.62
478.783	99.62
479.002	74.62
479.22	84.62
479.439	101.62
479.658	104.62
479.876	80.62
480.095	82.62
480.313	82.62
480.532	91.62
480.751	87.62
480.969	101.62
481.188	105.62
481.406	108.62
481.624	92.62
481.843	96.62
482.061	87.62
482.28	80.62
482.498	88.62
482.717	77.62
482.935	80.62
483.153	89.62
483.372	77.62
483.59	89.62
483.808	90.62
484.027	73.62
484.245	88.62
484.463	114.62
484.681	101.62
484.9	94.62
485.118	99.62
485.336	104.62
485.554	93.62
485.772	95.62
485.99	96.62
486.209	93.62
486.427	103.62
486.645	86.62
486.863	110.62
487.081	88.62
487.299	94.62
487.517	92.62
487.735	93.62
487.953	86.62
488.171	91.62
488.389	89.62
488.607	94.62
488.825	92.62
489.043	100.62
489.261	84.62
489.479	82.62
489.696	92.62
489.914	99.62
490.132	69.62
490.35	88.62
490.568	102.62
490.786	90.62
491.003	77.62
491.221	97.62
491.439	109.62
491.657	99.62
491.874	84.62
492.092	83.62
492.31	85.62
492.527	84.62
492.745	92.62
492.963	86.62
493.18	94.62
493.398	96.62
493.615	98.62
493.833	88.62
494.05	89.62
494.268	93.62
494.485	89.62
494.703	84.62
494.92	85.62
495.138	93.62
495.355	96.62
495.573	109.62
495.79	98.62
496.008	92.62
496.225	95.62
496.442	100.62
496.66	94.62
496.877	76.62
497.094	91.62
497.312	90.62
497.529	77.62
497.746	94.62
497.963	94.62
498.181	94.62
498.398	103.62
498.615	103.62
498.832	101.62
499.049	87.62
499.267	82.62
499.484	105.62
499.701	96.62
499.918	92.62
500.135	91.62
500.352	83.62
500.569	95.62
500.786	101.62
501.003	100.62
501.22	79.62
501.437	92.62
501.654	88.62
501.871	98.62
502.088	91.62
502.305	96.62
502.522	93.62
502.739	96.62
502.956	88.62
503.172	93.62
503.389	89.62
503.606	108.62
503.823	97.62
504.04	89.62
504.256	84.62
504.473	77.62
504.69	90.62
504.907	94.62
505.123	76.62
505.34	81.62
505.557	90.62
505.773	106.62
505.99	98.62
506.207	89.62
506.423	103.62
506.64	91.62
506.856	87.62
507.073	94.62
507.289	89.62
507.506	99.62
507.722	109.62
507.939	119.62
508.155	90.62
508.372	99.62
508.588	98.62
508.805	103.62
509.021	92.62
509.238	99.62
509.454	102.62
509.67	99.62
509.887	105.62
510.103	118.62
510.319	189.62
510.536	616.62
510.752	1890.62
510.968	565.62
511.184	158.62
511.401	108.62
511.617	112.62
511.833	86.62
512.049	95.62
512.265	98.62
512.481	83.62
512.698	92.62
512.914	104.62
513.13	90.62
513.346	94.62
513.562	105.62
513.778	102.62
513.994	91.62
514.21	92.62
514.426	128.62
514.642	121.62
514.858	122.62
515.074	140.62
515.29	326.62
515.506	1054.62
515.721	400.62
515.937	138.62
