Data from Uncirc_2000_H10_HRD10591_00067.txt Node
Date: Wed Jan 03 10:48:30 EST 2024
User: Yrep
Spectrometer: HR+D1059
Trigger mode: 1
Integration Time (sec): 1.000000E-1
Scans to average: 1
Electric dark correction enabled: true
Nonlinearity correction enabled: false
Boxcar width: 0
XAxis mode: Wavelengths
Number of Pixels in Spectrum: 2048
>>>>>Begin Spectral Data<<<<<
223.165	-15.62
223.4	-15.62
223.635	-15.62
223.869	-9.62
224.104	-23.62
224.338	-21.62
224.573	-13.62
224.808	-11.62
225.042	-24.62
225.277	-15.62
225.511	3.38
225.746	-1.62
225.98	4.38
226.215	9.38
226.449	20.38
226.683	35.38
226.918	23.38
227.152	41.38
227.387	25.38
227.621	21.38
227.856	40.38
228.09	44.38
228.324	32.38
228.559	66.38
228.793	57.38
229.027	44.38
229.262	55.38
229.496	54.38
229.73	83.38
229.964	75.38
230.199	78.38
230.433	71.38
230.667	83.38
230.901	63.38
231.136	70.38
231.37	69.38
231.604	81.38
231.838	87.38
232.072	65.38
232.306	77.38
232.541	75.38
232.775	71.38
233.009	79.38
233.243	70.38
233.477	72.38
233.711	84.38
233.945	77.38
234.179	75.38
234.413	80.38
234.647	76.38
234.881	75.38
235.115	77.38
235.349	79.38
235.583	70.38
235.817	82.38
236.051	72.38
236.285	77.38
236.519	74.38
236.753	81.38
236.987	66.38
237.221	81.38
237.455	78.38
237.689	60.38
237.922	72.38
238.156	68.38
238.39	72.38
238.624	69.38
238.858	79.38
239.091	69.38
239.325	67.38
239.559	73.38
239.793	64.38
240.027	69.38
240.26	74.38
240.494	62.38
240.728	78.38
240.961	73.38
241.195	73.38
241.429	69.38
241.662	76.38
241.896	64.38
242.13	65.38
242.363	68.38
242.597	81.38
242.83	70.38
243.064	80.38
243.298	70.38
243.531	66.38
243.765	74.38
243.998	66.38
244.232	77.38
244.465	86.38
244.699	64.38
244.932	66.38
245.166	72.38
245.399	68.38
245.633	93.38
245.866	66.38
246.099	74.38
246.333	87.38
246.566	69.38
246.8	69.38
247.033	78.38
247.266	76.38
247.5	80.38
247.733	84.38
247.966	71.38
248.2	71.38
248.433	65.38
248.666	63.38
248.899	67.38
249.133	63.38
249.366	77.38
249.599	80.38
249.832	61.38
250.066	67.38
250.299	72.38
250.532	81.38
250.765	74.38
250.998	68.38
251.231	63.38
251.465	76.38
251.698	62.38
251.931	67.38
252.164	65.38
252.397	75.38
252.63	78.38
252.863	74.38
253.096	78.38
253.329	78.38
253.562	82.38
253.795	76.38
254.028	77.38
254.261	77.38
254.494	85.38
254.727	87.38
254.96	80.38
255.193	81.38
255.426	86.38
255.659	77.38
255.892	73.38
256.124	77.38
256.357	87.38
256.59	87.38
256.823	68.38
257.056	67.38
257.289	72.38
257.521	82.38
257.754	83.38
257.987	80.38
258.22	88.38
258.452	88.38
258.685	64.38
258.918	88.38
259.151	76.38
259.383	63.38
259.616	82.38
259.849	82.38
260.081	88.38
260.314	78.38
260.547	71.38
260.779	76.38
261.012	71.38
261.244	82.38
261.477	88.38
261.71	80.38
261.942	113.38
262.175	115.38
262.407	94.38
262.64	81.38
262.872	84.38
263.105	70.38
263.337	71.38
263.57	77.38
263.802	81.38
264.035	81.38
264.267	76.38
264.499	86.38
264.732	88.38
264.964	90.38
265.197	78.38
265.429	80.38
265.661	78.38
265.894	78.38
266.126	98.38
266.358	79.38
266.591	90.38
266.823	80.38
267.055	82.38
267.287	67.38
267.52	94.38
267.752	68.38
267.984	84.38
268.216	82.38
268.448	82.38
268.681	82.38
268.913	78.38
269.145	63.38
269.377	89.38
269.609	61.38
269.841	90.38
270.073	78.38
270.306	78.38
270.538	83.38
270.77	90.38
271.002	88.38
271.234	75.38
271.466	66.38
271.698	81.38
271.93	88.38
272.162	74.38
272.394	85.38
272.626	70.38
272.858	82.38
273.09	76.38
273.322	72.38
273.553	85.38
273.785	74.38
274.017	73.38
274.249	83.38
274.481	68.38
274.713	83.38
274.945	102.38
275.176	88.38
275.408	76.38
275.64	77.38
275.872	78.38
276.104	81.38
276.335	90.38
276.567	89.38
276.799	95.38
277.031	94.38
277.262	84.38
277.494	88.38
277.726	73.38
277.957	77.38
278.189	79.38
278.421	79.38
278.652	79.38
278.884	73.38
279.115	68.38
279.347	79.38
279.579	58.38
279.81	84.38
280.042	87.38
280.273	80.38
280.505	77.38
280.736	78.38
280.968	80.38
281.199	89.38
281.431	86.38
281.662	85.38
281.894	92.38
282.125	82.38
282.356	116.38
282.588	126.38
282.819	103.38
283.051	85.38
283.282	81.38
283.513	71.38
283.745	74.38
283.976	84.38
284.207	70.38
284.439	82.38
284.67	80.38
284.901	81.38
285.132	78.38
285.364	81.38
285.595	81.38
285.826	84.38
286.057	85.38
286.288	74.38
286.52	76.38
286.751	86.38
286.982	87.38
287.213	84.38
287.444	70.38
287.675	75.38
287.906	94.38
288.138	53.38
288.369	84.38
288.6	76.38
288.831	76.38
289.062	90.38
289.293	87.38
289.524	91.38
289.755	72.38
289.986	78.38
290.217	85.38
290.448	81.38
290.679	90.38
290.91	71.38
291.141	71.38
291.371	84.38
291.602	78.38
291.833	77.38
292.064	78.38
292.295	70.38
292.526	83.38
292.757	77.38
292.987	81.38
293.218	74.38
293.449	76.38
293.68	94.38
293.91	73.38
294.141	88.38
294.372	79.38
294.603	88.38
294.833	89.38
295.064	79.38
295.295	74.38
295.525	76.38
295.756	104.38
295.987	106.38
296.217	128.38
296.448	108.38
296.679	89.38
296.909	92.38
297.14	85.38
297.37	84.38
297.601	67.38
297.831	72.38
298.062	77.38
298.292	86.38
298.523	76.38
298.753	85.38
298.984	76.38
299.214	92.38
299.445	76.38
299.675	85.38
299.905	92.38
300.136	94.38
300.366	78.38
300.597	90.38
300.827	86.38
301.057	84.38
301.288	105.38
301.518	84.38
301.748	89.38
301.979	90.38
302.209	74.38
302.439	82.38
302.669	81.38
302.9	95.38
303.13	96.38
303.36	97.38
303.59	73.38
303.82	91.38
304.051	97.38
304.281	82.38
304.511	89.38
304.741	73.38
304.971	80.38
305.201	85.38
305.431	85.38
305.661	83.38
305.891	77.38
306.121	88.38
306.352	90.38
306.582	99.38
306.812	87.38
307.042	92.38
307.272	94.38
307.502	118.38
307.731	88.38
307.961	90.38
308.191	86.38
308.421	83.38
308.651	96.38
308.881	83.38
309.111	80.38
309.341	78.38
309.571	95.38
309.8	89.38
310.03	82.38
310.26	103.38
310.49	87.38
310.72	88.38
310.949	106.38
311.179	101.38
311.409	76.38
311.639	88.38
311.868	84.38
312.098	87.38
312.328	80.38
312.557	90.38
312.787	97.38
313.017	98.38
313.246	107.38
313.476	104.38
313.706	94.38
313.935	84.38
314.165	91.38
314.394	94.38
314.624	91.38
314.853	88.38
315.083	90.38
315.312	88.38
315.542	71.38
315.771	76.38
316.001	92.38
316.23	76.38
316.46	113.38
316.689	80.38
316.919	87.38
317.148	82.38
317.377	101.38
317.607	94.38
317.836	92.38
318.065	88.38
318.295	86.38
318.524	99.38
318.753	91.38
318.983	89.38
319.212	99.38
319.441	95.38
319.67	91.38
319.9	94.38
320.129	83.38
320.358	79.38
320.587	97.38
320.816	101.38
321.046	88.38
321.275	99.38
321.504	94.38
321.733	96.38
321.962	86.38
322.191	80.38
322.42	107.38
322.649	101.38
322.878	112.38
323.108	117.38
323.337	112.38
323.566	127.38
323.795	150.38
324.024	193.38
324.253	388.38
324.482	810.38
324.71	1724.38
324.939	2178.38
325.168	778.38
325.397	239.38
325.626	148.38
325.855	115.38
326.084	105.38
326.313	136.38
326.542	149.38
326.77	231.38
326.999	459.38
327.228	915.38
327.457	1681.38
327.686	1314.38
327.914	351.38
328.143	173.38
328.372	125.38
328.6	106.38
328.829	104.38
329.058	114.38
329.287	115.38
329.515	92.38
329.744	90.38
329.972	104.38
330.201	88.38
330.43	105.38
330.658	106.38
330.887	124.38
331.115	140.38
331.344	105.38
331.572	97.38
331.801	99.38
332.03	85.38
332.258	83.38
332.486	81.38
332.715	89.38
332.943	96.38
333.172	70.38
333.4	87.38
333.629	90.38
333.857	98.38
334.085	105.38
334.314	90.38
334.542	91.38
334.771	100.38
334.999	91.38
335.227	108.38
335.455	101.38
335.684	91.38
335.912	90.38
336.14	86.38
336.369	99.38
336.597	96.38
336.825	88.38
337.053	78.38
337.281	97.38
337.51	98.38
337.738	96.38
337.966	80.38
338.194	87.38
338.422	87.38
338.65	79.38
338.878	105.38
339.106	100.38
339.334	101.38
339.562	94.38
339.79	73.38
340.018	81.38
340.246	87.38
340.474	74.38
340.702	100.38
340.93	84.38
341.158	95.38
341.386	88.38
341.614	103.38
341.842	87.38
342.07	81.38
342.298	81.38
342.526	101.38
342.754	88.38
342.981	81.38
343.209	79.38
343.437	88.38
343.665	91.38
343.893	81.38
344.12	93.38
344.348	91.38
344.576	93.38
344.804	90.38
345.031	94.38
345.259	87.38
345.487	87.38
345.714	86.38
345.942	80.38
346.17	72.38
346.397	98.38
346.625	99.38
346.853	87.38
347.08	88.38
347.308	97.38
347.535	89.38
347.763	96.38
347.99	80.38
348.218	86.38
348.445	97.38
348.673	112.38
348.9	97.38
349.128	93.38
349.355	94.38
349.583	93.38
349.81	100.38
350.037	99.38
350.265	74.38
350.492	94.38
350.72	88.38
350.947	94.38
351.174	110.38
351.402	99.38
351.629	80.38
351.856	97.38
352.083	105.38
352.311	108.38
352.538	112.38
352.765	98.38
352.992	104.38
353.22	105.38
353.447	99.38
353.674	82.38
353.901	89.38
354.128	101.38
354.355	91.38
354.583	106.38
354.81	101.38
355.037	100.38
355.264	77.38
355.491	88.38
355.718	95.38
355.945	83.38
356.172	89.38
356.399	88.38
356.626	104.38
356.853	95.38
357.08	99.38
357.307	90.38
357.534	89.38
357.761	86.38
357.988	86.38
358.215	97.38
358.441	84.38
358.668	88.38
358.895	81.38
359.122	75.38
359.349	78.38
359.576	84.38
359.802	100.38
360.029	109.38
360.256	93.38
360.483	104.38
360.709	78.38
360.936	90.38
361.163	93.38
361.39	79.38
361.616	65.38
361.843	78.38
362.07	88.38
362.296	87.38
362.523	85.38
362.749	87.38
362.976	85.38
363.203	88.38
363.429	92.38
363.656	86.38
363.882	82.38
364.109	88.38
364.335	85.38
364.562	86.38
364.788	81.38
365.015	78.38
365.241	93.38
365.468	91.38
365.694	109.38
365.92	85.38
366.147	71.38
366.373	68.38
366.599	84.38
366.826	94.38
367.052	74.38
367.278	78.38
367.505	91.38
367.731	62.38
367.957	77.38
368.184	88.38
368.41	79.38
368.636	96.38
368.862	114.38
369.089	104.38
369.315	85.38
369.541	83.38
369.767	85.38
369.993	86.38
370.219	85.38
370.445	85.38
370.672	101.38
370.898	93.38
371.124	74.38
371.35	84.38
371.576	86.38
371.802	79.38
372.028	98.38
372.254	87.38
372.48	87.38
372.706	94.38
372.932	88.38
373.158	84.38
373.384	93.38
373.61	81.38
373.835	82.38
374.061	73.38
374.287	92.38
374.513	94.38
374.739	76.38
374.965	86.38
375.191	87.38
375.416	77.38
375.642	89.38
375.868	80.38
376.094	99.38
376.319	96.38
376.545	84.38
376.771	74.38
376.997	91.38
377.222	82.38
377.448	77.38
377.674	89.38
377.899	76.38
378.125	105.38
378.35	88.38
378.576	96.38
378.802	89.38
379.027	78.38
379.253	87.38
379.478	84.38
379.704	87.38
379.929	85.38
380.155	76.38
380.38	89.38
380.606	98.38
380.831	90.38
381.057	91.38
381.282	86.38
381.507	81.38
381.733	100.38
381.958	92.38
382.184	95.38
382.409	96.38
382.634	88.38
382.86	84.38
383.085	92.38
383.31	90.38
383.535	92.38
383.761	100.38
383.986	92.38
384.211	81.38
384.436	88.38
384.662	99.38
384.887	103.38
385.112	79.38
385.337	99.38
385.562	99.38
385.787	84.38
386.013	91.38
386.238	116.38
386.463	93.38
386.688	85.38
386.913	86.38
387.138	105.38
387.363	95.38
387.588	94.38
387.813	90.38
388.038	100.38
388.263	86.38
388.488	80.38
388.713	99.38
388.938	90.38
389.163	88.38
389.387	87.38
389.612	96.38
389.837	99.38
390.062	92.38
390.287	87.38
390.512	90.38
390.736	83.38
390.961	82.38
391.186	91.38
391.411	88.38
391.636	84.38
391.86	90.38
392.085	73.38
392.31	78.38
392.534	71.38
392.759	81.38
392.984	85.38
393.208	87.38
393.433	80.38
393.658	93.38
393.882	83.38
394.107	79.38
394.331	83.38
394.556	81.38
394.78	87.38
395.005	81.38
395.229	77.38
395.454	81.38
395.678	76.38
395.903	92.38
396.127	86.38
396.352	83.38
396.576	72.38
396.801	76.38
397.025	85.38
397.249	73.38
397.474	90.38
397.698	84.38
397.922	81.38
398.147	88.38
398.371	84.38
398.595	91.38
398.82	68.38
399.044	79.38
399.268	78.38
399.492	82.38
399.717	84.38
399.941	89.38
400.165	88.38
400.389	78.38
400.613	90.38
400.837	71.38
401.062	72.38
401.286	94.38
401.51	87.38
401.734	80.38
401.958	90.38
402.182	112.38
402.406	144.38
402.63	110.38
402.854	83.38
403.078	98.38
403.302	79.38
403.526	68.38
403.75	88.38
403.974	80.38
404.198	87.38
404.422	97.38
404.645	78.38
404.869	82.38
405.093	79.38
405.317	75.38
405.541	94.38
405.765	87.38
405.988	95.38
406.212	164.38
406.436	218.38
406.66	128.38
406.883	76.38
407.107	85.38
407.331	86.38
407.555	92.38
407.778	93.38
408.002	97.38
408.226	85.38
408.449	60.38
408.673	88.38
408.896	92.38
409.12	99.38
409.344	73.38
409.567	79.38
409.791	89.38
410.014	89.38
410.238	78.38
410.461	87.38
410.685	94.38
410.908	88.38
411.132	91.38
411.355	84.38
411.578	95.38
411.802	84.38
412.025	85.38
412.249	92.38
412.472	87.38
412.695	83.38
412.919	71.38
413.142	73.38
413.365	83.38
413.589	79.38
413.812	82.38
414.035	90.38
414.258	82.38
414.482	87.38
414.705	87.38
414.928	77.38
415.151	85.38
415.374	94.38
415.597	99.38
415.821	82.38
416.044	66.38
416.267	86.38
416.49	71.38
416.713	78.38
416.936	88.38
417.159	85.38
417.382	89.38
417.605	85.38
417.828	108.38
418.051	80.38
418.274	76.38
418.497	73.38
418.72	82.38
418.943	86.38
419.166	74.38
419.389	74.38
419.611	77.38
419.834	94.38
420.057	90.38
420.28	95.38
420.503	80.38
420.726	72.38
420.948	101.38
421.171	95.38
421.394	80.38
421.617	98.38
421.839	84.38
422.062	84.38
422.285	80.38
422.507	86.38
422.73	95.38
422.953	76.38
423.175	84.38
423.398	86.38
423.621	90.38
423.843	84.38
424.066	95.38
424.288	71.38
424.511	93.38
424.733	97.38
424.956	108.38
425.178	100.38
425.401	94.38
425.623	97.38
425.846	93.38
426.068	94.38
426.291	85.38
426.513	88.38
426.735	106.38
426.958	88.38
427.18	100.38
427.402	116.38
427.625	146.38
427.847	106.38
428.069	98.38
428.292	79.38
428.514	76.38
428.736	94.38
428.958	78.38
429.181	79.38
429.403	79.38
429.625	73.38
429.847	79.38
430.069	88.38
430.292	88.38
430.514	77.38
430.736	71.38
430.958	78.38
431.18	82.38
431.402	70.38
431.624	82.38
431.846	69.38
432.068	64.38
432.29	76.38
432.512	81.38
432.734	67.38
432.956	88.38
433.178	87.38
433.4	94.38
433.622	92.38
433.844	69.38
434.066	80.38
434.287	76.38
434.509	83.38
434.731	90.38
434.953	82.38
435.175	81.38
435.397	100.38
435.618	77.38
435.84	101.38
436.062	112.38
436.284	109.38
436.505	79.38
436.727	90.38
436.949	85.38
437.17	91.38
437.392	82.38
437.614	88.38
437.835	114.38
438.057	100.38
438.278	100.38
438.5	103.38
438.721	109.38
438.943	88.38
439.165	93.38
439.386	84.38
439.608	89.38
439.829	98.38
440.05	113.38
440.272	113.38
440.493	103.38
440.715	91.38
440.936	80.38
441.158	76.38
441.379	85.38
441.6	68.38
441.822	80.38
442.043	93.38
442.264	86.38
442.486	90.38
442.707	92.38
442.928	85.38
443.149	108.38
443.371	127.38
443.592	96.38
443.813	104.38
444.034	103.38
444.255	81.38
444.476	81.38
444.698	82.38
444.919	77.38
445.14	121.38
445.361	120.38
445.582	98.38
445.803	104.38
446.024	129.38
446.245	127.38
446.466	96.38
446.687	75.38
446.908	90.38
447.129	78.38
447.35	84.38
447.571	76.38
447.792	89.38
448.013	95.38
448.234	103.38
448.455	98.38
448.675	111.38
448.896	117.38
449.117	79.38
449.338	86.38
449.559	124.38
449.779	127.38
450	95.38
450.221	80.38
450.442	86.38
450.662	94.38
450.883	86.38
451.104	97.38
451.324	86.38
451.545	86.38
451.766	77.38
451.986	79.38
452.207	85.38
452.428	87.38
452.648	84.38
452.869	116.38
453.089	108.38
453.31	118.38
453.53	92.38
453.751	78.38
453.971	97.38
454.192	88.38
454.412	92.38
454.633	82.38
454.853	94.38
455.073	87.38
455.294	92.38
455.514	84.38
455.734	73.38
455.955	84.38
456.175	72.38
456.395	61.38
456.616	76.38
456.836	76.38
457.056	79.38
457.276	85.38
457.497	79.38
457.717	70.38
457.937	80.38
458.157	86.38
458.377	90.38
458.598	96.38
458.818	124.38
459.038	143.38
459.258	113.38
459.478	68.38
459.698	70.38
459.918	71.38
460.138	89.38
460.358	89.38
460.578	67.38
460.798	86.38
461.018	87.38
461.238	78.38
461.458	73.38
461.678	79.38
461.898	84.38
462.118	64.38
462.338	96.38
462.558	85.38
462.777	83.38
462.997	75.38
463.217	86.38
463.437	89.38
463.657	87.38
463.876	83.38
464.096	86.38
464.316	71.38
464.536	84.38
464.755	80.38
464.975	104.38
465.195	160.38
465.414	144.38
465.634	72.38
465.854	74.38
466.073	76.38
466.293	80.38
466.512	76.38
466.732	96.38
466.951	85.38
467.171	77.38
467.391	113.38
467.61	98.38
467.829	98.38
468.049	95.38
468.268	77.38
468.488	79.38
468.707	74.38
468.927	78.38
469.146	70.38
469.365	92.38
469.585	97.38
469.804	96.38
470.023	92.38
470.243	85.38
470.462	88.38
470.681	95.38
470.901	91.38
471.12	84.38
471.339	78.38
471.558	66.38
471.777	75.38
471.997	91.38
472.216	72.38
472.435	94.38
472.654	84.38
472.873	86.38
473.092	89.38
473.311	95.38
473.53	90.38
473.749	91.38
473.968	86.38
474.187	98.38
474.406	82.38
474.625	94.38
474.844	91.38
475.063	82.38
475.282	78.38
475.501	76.38
475.72	87.38
475.939	80.38
476.158	82.38
476.377	84.38
476.596	86.38
476.814	89.38
477.033	93.38
477.252	83.38
477.471	69.38
477.69	91.38
477.908	88.38
478.127	76.38
478.346	77.38
478.564	90.38
478.783	87.38
479.002	84.38
479.22	87.38
479.439	97.38
479.658	101.38
479.876	91.38
480.095	89.38
480.313	84.38
480.532	76.38
480.751	90.38
480.969	92.38
481.188	86.38
481.406	86.38
481.624	95.38
481.843	86.38
482.061	82.38
482.28	91.38
482.498	82.38
482.717	76.38
482.935	86.38
483.153	84.38
483.372	94.38
483.59	87.38
483.808	87.38
484.027	85.38
484.245	96.38
484.463	75.38
484.681	94.38
484.9	81.38
485.118	87.38
485.336	89.38
485.554	97.38
485.772	95.38
485.99	85.38
486.209	94.38
486.427	84.38
486.645	116.38
486.863	112.38
487.081	97.38
487.299	91.38
487.517	99.38
487.735	84.38
487.953	76.38
488.171	95.38
488.389	92.38
488.607	84.38
488.825	77.38
489.043	80.38
489.261	77.38
489.479	85.38
489.696	72.38
489.914	90.38
490.132	81.38
490.35	97.38
490.568	90.38
490.786	86.38
491.003	86.38
491.221	68.38
491.439	81.38
491.657	84.38
491.874	91.38
492.092	88.38
492.31	87.38
492.527	89.38
492.745	92.38
492.963	80.38
493.18	86.38
493.398	93.38
493.615	102.38
493.833	89.38
494.05	82.38
494.268	75.38
494.485	101.38
494.703	88.38
494.92	72.38
495.138	84.38
495.355	90.38
495.573	75.38
495.79	87.38
496.008	93.38
496.225	84.38
496.442	87.38
496.66	79.38
496.877	103.38
497.094	84.38
497.312	79.38
497.529	87.38
497.746	96.38
497.963	85.38
498.181	82.38
498.398	96.38
498.615	92.38
498.832	109.38
499.049	96.38
499.267	94.38
499.484	81.38
499.701	72.38
499.918	100.38
500.135	81.38
500.352	101.38
500.569	82.38
500.786	92.38
501.003	81.38
501.22	78.38
501.437	94.38
501.654	95.38
501.871	101.38
502.088	92.38
502.305	100.38
502.522	88.38
502.739	73.38
502.956	94.38
503.172	92.38
503.389	91.38
503.606	99.38
503.823	98.38
504.04	98.38
504.256	87.38
504.473	82.38
504.69	72.38
504.907	86.38
505.123	82.38
505.34	89.38
505.557	83.38
505.773	88.38
505.99	87.38
506.207	74.38
506.423	64.38
506.64	86.38
506.856	77.38
507.073	98.38
507.289	88.38
507.506	91.38
507.722	100.38
507.939	110.38
508.155	87.38
508.372	80.38
508.588	86.38
508.805	94.38
509.021	91.38
509.238	94.38
509.454	94.38
509.67	108.38
509.887	115.38
510.103	118.38
510.319	208.38
510.536	780.38
510.752	2438.38
510.968	674.38
511.184	146.38
511.401	102.38
511.617	88.38
511.833	87.38
512.049	85.38
512.265	96.38
512.481	90.38
512.698	89.38
512.914	85.38
513.13	82.38
513.346	87.38
513.562	87.38
513.778	94.38
513.994	79.38
514.21	90.38
514.426	102.38
514.642	121.38
514.858	110.38
515.074	150.38
515.29	422.38
515.506	1443.38
515.721	518.38
515.937	142.38
516.153	102.38
516.369	92.38
516.585	100.38
516.801	85.38
517.016	90.38
517.232	92.38
517.448	97.38
