Data from Uncirc_2000_H10_HRD10591_00022.txt Node
Date: Wed Jan 03 10:48:21 EST 2024
User: Yrep
Spectrometer: HR+D1059
Trigger mode: 1
Integration Time (sec): 1.000000E-1
Scans to average: 1
Electric dark correction enabled: true
Nonlinearity correction enabled: false
Boxcar width: 0
XAxis mode: Wavelengths
Number of Pixels in Spectrum: 2048
>>>>>Begin Spectral Data<<<<<
223.165	-12.81
223.4	-12.81
223.635	-12.81
223.869	-10.81
224.104	-13.81
224.338	-9.81
224.573	-9.81
224.808	-7.81
225.042	-14.81
225.277	-15.81
225.511	-4.81
225.746	4.19
225.98	14.19
226.215	9.19
226.449	14.19
226.683	10.19
226.918	27.19
227.152	21.19
227.387	30.19
227.621	34.19
227.856	38.19
228.09	60.19
228.324	62.19
228.559	63.19
228.793	54.19
229.027	75.19
229.262	56.19
229.496	90.19
229.73	79.19
229.964	75.19
230.199	61.19
230.433	85.19
230.667	79.19
230.901	75.19
231.136	88.19
231.37	75.19
231.604	84.19
231.838	91.19
232.072	99.19
232.306	73.19
232.541	81.19
232.775	72.19
233.009	79.19
233.243	90.19
233.477	85.19
233.711	65.19
233.945	71.19
234.179	67.19
234.413	72.19
234.647	82.19
234.881	75.19
235.115	82.19
235.349	74.19
235.583	79.19
235.817	83.19
236.051	68.19
236.285	68.19
236.519	64.19
236.753	75.19
236.987	72.19
237.221	78.19
237.455	104.19
237.689	84.19
237.922	72.19
238.156	75.19
238.39	93.19
238.624	87.19
238.858	91.19
239.091	80.19
239.325	72.19
239.559	82.19
239.793	85.19
240.027	76.19
240.26	71.19
240.494	88.19
240.728	70.19
240.961	72.19
241.195	94.19
241.429	67.19
241.662	81.19
241.896	83.19
242.13	85.19
242.363	82.19
242.597	85.19
242.83	81.19
243.064	61.19
243.298	72.19
243.531	82.19
243.765	95.19
243.998	61.19
244.232	73.19
244.465	74.19
244.699	76.19
244.932	76.19
245.166	70.19
245.399	71.19
245.633	68.19
245.866	80.19
246.099	73.19
246.333	81.19
246.566	89.19
246.8	91.19
247.033	75.19
247.266	80.19
247.5	87.19
247.733	90.19
247.966	74.19
248.2	68.19
248.433	87.19
248.666	63.19
248.899	78.19
249.133	82.19
249.366	80.19
249.599	86.19
249.832	77.19
250.066	76.19
250.299	76.19
250.532	93.19
250.765	71.19
250.998	79.19
251.231	87.19
251.465	87.19
251.698	90.19
251.931	85.19
252.164	75.19
252.397	74.19
252.63	74.19
252.863	79.19
253.096	79.19
253.329	87.19
253.562	70.19
253.795	68.19
254.028	78.19
254.261	77.19
254.494	76.19
254.727	88.19
254.96	76.19
255.193	90.19
255.426	83.19
255.659	86.19
255.892	79.19
256.124	78.19
256.357	76.19
256.59	80.19
256.823	83.19
257.056	85.19
257.289	78.19
257.521	93.19
257.754	82.19
257.987	69.19
258.22	68.19
258.452	88.19
258.685	97.19
258.918	90.19
259.151	88.19
259.383	91.19
259.616	84.19
259.849	100.19
260.081	88.19
260.314	88.19
260.547	81.19
260.779	83.19
261.012	75.19
261.244	90.19
261.477	86.19
261.71	97.19
261.942	111.19
262.175	116.19
262.407	95.19
262.64	85.19
262.872	77.19
263.105	82.19
263.337	86.19
263.57	79.19
263.802	73.19
264.035	86.19
264.267	87.19
264.499	81.19
264.732	90.19
264.964	87.19
265.197	84.19
265.429	96.19
265.661	99.19
265.894	93.19
266.126	102.19
266.358	88.19
266.591	77.19
266.823	78.19
267.055	76.19
267.287	91.19
267.52	83.19
267.752	85.19
267.984	88.19
268.216	75.19
268.448	83.19
268.681	85.19
268.913	80.19
269.145	80.19
269.377	78.19
269.609	82.19
269.841	70.19
270.073	74.19
270.306	98.19
270.538	83.19
270.77	78.19
271.002	70.19
271.234	94.19
271.466	94.19
271.698	78.19
271.93	84.19
272.162	92.19
272.394	91.19
272.626	85.19
272.858	90.19
273.09	95.19
273.322	92.19
273.553	77.19
273.785	92.19
274.017	84.19
274.249	85.19
274.481	84.19
274.713	72.19
274.945	82.19
275.176	93.19
275.408	91.19
275.64	79.19
275.872	92.19
276.104	102.19
276.335	94.19
276.567	94.19
276.799	93.19
277.031	97.19
277.262	80.19
277.494	91.19
277.726	85.19
277.957	96.19
278.189	91.19
278.421	90.19
278.652	77.19
278.884	90.19
279.115	78.19
279.347	90.19
279.579	89.19
279.81	92.19
280.042	78.19
280.273	84.19
280.505	94.19
280.736	96.19
280.968	94.19
281.199	107.19
281.431	83.19
281.662	113.19
281.894	78.19
282.125	95.19
282.356	119.19
282.588	134.19
282.819	116.19
283.051	99.19
283.282	89.19
283.513	93.19
283.745	90.19
283.976	81.19
284.207	83.19
284.439	87.19
284.67	96.19
284.901	95.19
285.132	86.19
285.364	82.19
285.595	93.19
285.826	101.19
286.057	99.19
286.288	89.19
286.52	95.19
286.751	91.19
286.982	97.19
287.213	78.19
287.444	79.19
287.675	84.19
287.906	107.19
288.138	82.19
288.369	101.19
288.6	117.19
288.831	89.19
289.062	87.19
289.293	92.19
289.524	86.19
289.755	74.19
289.986	89.19
290.217	89.19
290.448	92.19
290.679	90.19
290.91	92.19
291.141	98.19
291.371	102.19
291.602	91.19
291.833	93.19
292.064	87.19
292.295	77.19
292.526	80.19
292.757	92.19
292.987	88.19
293.218	90.19
293.449	80.19
293.68	100.19
293.91	103.19
294.141	88.19
294.372	95.19
294.603	80.19
294.833	98.19
295.064	88.19
295.295	91.19
295.525	94.19
295.756	106.19
295.987	104.19
296.217	121.19
296.448	106.19
296.679	92.19
296.909	90.19
297.14	97.19
297.37	94.19
297.601	95.19
297.831	82.19
298.062	87.19
298.292	88.19
298.523	102.19
298.753	90.19
298.984	95.19
299.214	87.19
299.445	104.19
299.675	95.19
299.905	92.19
300.136	99.19
300.366	87.19
300.597	95.19
300.827	97.19
301.057	111.19
301.288	108.19
301.518	95.19
301.748	84.19
301.979	97.19
302.209	82.19
302.439	88.19
302.669	87.19
302.9	80.19
303.13	99.19
303.36	108.19
303.59	101.19
303.82	93.19
304.051	89.19
304.281	88.19
304.511	95.19
304.741	92.19
304.971	95.19
305.201	84.19
305.431	97.19
305.661	90.19
305.891	95.19
306.121	84.19
306.352	101.19
306.582	97.19
306.812	104.19
307.042	85.19
307.272	83.19
307.502	82.19
307.731	94.19
307.961	85.19
308.191	91.19
308.421	93.19
308.651	91.19
308.881	87.19
309.111	85.19
309.341	92.19
309.571	103.19
309.8	102.19
310.03	93.19
310.26	111.19
310.49	90.19
310.72	92.19
310.949	91.19
311.179	89.19
311.409	88.19
311.639	91.19
311.868	74.19
312.098	89.19
312.328	108.19
312.557	92.19
312.787	110.19
313.017	107.19
313.246	94.19
313.476	76.19
313.706	92.19
313.935	99.19
314.165	86.19
314.394	83.19
314.624	93.19
314.853	86.19
315.083	91.19
315.312	97.19
315.542	92.19
315.771	93.19
316.001	102.19
316.23	88.19
316.46	89.19
316.689	89.19
316.919	83.19
317.148	88.19
317.377	99.19
317.607	95.19
317.836	100.19
318.065	99.19
318.295	110.19
318.524	104.19
318.753	90.19
318.983	98.19
319.212	86.19
319.441	97.19
319.67	100.19
319.9	85.19
320.129	106.19
320.358	78.19
320.587	93.19
320.816	89.19
321.046	88.19
321.275	94.19
321.504	89.19
321.733	89.19
321.962	99.19
322.191	107.19
322.42	105.19
322.649	105.19
322.878	120.19
323.108	113.19
323.337	114.19
323.566	125.19
323.795	150.19
324.024	184.19
324.253	362.19
324.482	772.19
324.71	1539.19
324.939	2105.19
325.168	782.19
325.397	239.19
325.626	144.19
325.855	134.19
326.084	113.19
326.313	130.19
326.542	146.19
326.77	219.19
326.999	436.19
327.228	903.19
327.457	1643.19
327.686	1293.19
327.914	343.19
328.143	181.19
328.372	127.19
328.6	113.19
328.829	102.19
329.058	125.19
329.287	108.19
329.515	96.19
329.744	106.19
329.972	111.19
330.201	107.19
330.43	121.19
330.658	116.19
330.887	123.19
331.115	109.19
331.344	103.19
331.572	102.19
331.801	102.19
332.03	90.19
332.258	104.19
332.486	102.19
332.715	94.19
332.943	88.19
333.172	98.19
333.4	80.19
333.629	117.19
333.857	92.19
334.085	103.19
334.314	91.19
334.542	88.19
334.771	93.19
334.999	105.19
335.227	88.19
335.455	89.19
335.684	102.19
335.912	110.19
336.14	95.19
336.369	105.19
336.597	94.19
336.825	90.19
337.053	88.19
337.281	92.19
337.51	97.19
337.738	90.19
337.966	77.19
338.194	91.19
338.422	87.19
338.65	93.19
338.878	92.19
339.106	107.19
339.334	93.19
339.562	103.19
339.79	91.19
340.018	90.19
340.246	95.19
340.474	93.19
340.702	94.19
340.93	85.19
341.158	97.19
341.386	103.19
341.614	93.19
341.842	95.19
342.07	90.19
342.298	93.19
342.526	107.19
342.754	94.19
342.981	96.19
343.209	85.19
343.437	95.19
343.665	81.19
343.893	90.19
344.12	95.19
344.348	91.19
344.576	90.19
344.804	103.19
345.031	103.19
345.259	106.19
345.487	91.19
345.714	98.19
345.942	80.19
346.17	104.19
346.397	84.19
346.625	105.19
346.853	93.19
347.08	104.19
347.308	92.19
347.535	99.19
347.763	91.19
347.99	86.19
348.218	100.19
348.445	102.19
348.673	89.19
348.9	88.19
349.128	103.19
349.355	106.19
349.583	105.19
349.81	92.19
350.037	106.19
350.265	89.19
350.492	104.19
350.72	100.19
350.947	100.19
351.174	114.19
351.402	96.19
351.629	94.19
351.856	95.19
352.083	102.19
352.311	108.19
352.538	102.19
352.765	118.19
352.992	107.19
353.22	120.19
353.447	98.19
353.674	94.19
353.901	99.19
354.128	96.19
354.355	106.19
354.583	91.19
354.81	103.19
355.037	96.19
355.264	110.19
355.491	91.19
355.718	78.19
355.945	103.19
356.172	106.19
356.399	98.19
356.626	104.19
356.853	111.19
357.08	114.19
357.307	110.19
357.534	86.19
357.761	79.19
357.988	93.19
358.215	99.19
358.441	100.19
358.668	94.19
358.895	96.19
359.122	103.19
359.349	99.19
359.576	101.19
359.802	102.19
360.029	95.19
360.256	115.19
360.483	104.19
360.709	87.19
360.936	97.19
361.163	87.19
361.39	93.19
361.616	100.19
361.843	83.19
362.07	87.19
362.296	84.19
362.523	91.19
362.749	100.19
362.976	94.19
363.203	95.19
363.429	98.19
363.656	91.19
363.882	87.19
364.109	79.19
364.335	84.19
364.562	90.19
364.788	77.19
365.015	91.19
365.241	102.19
365.468	101.19
365.694	92.19
365.92	100.19
366.147	103.19
366.373	84.19
366.599	81.19
366.826	95.19
367.052	90.19
367.278	96.19
367.505	93.19
367.731	80.19
367.957	98.19
368.184	97.19
368.41	97.19
368.636	106.19
368.862	102.19
369.089	104.19
369.315	94.19
369.541	100.19
369.767	96.19
369.993	83.19
370.219	87.19
370.445	96.19
370.672	93.19
370.898	97.19
371.124	85.19
371.35	81.19
371.576	92.19
371.802	90.19
372.028	85.19
372.254	93.19
372.48	97.19
372.706	106.19
372.932	83.19
373.158	108.19
373.384	82.19
373.61	100.19
373.835	83.19
374.061	87.19
374.287	102.19
374.513	93.19
374.739	91.19
374.965	95.19
375.191	93.19
375.416	98.19
375.642	93.19
375.868	82.19
376.094	99.19
376.319	100.19
376.545	90.19
376.771	87.19
376.997	94.19
377.222	90.19
377.448	99.19
377.674	84.19
377.899	92.19
378.125	100.19
378.35	84.19
378.576	99.19
378.802	101.19
379.027	94.19
379.253	94.19
379.478	92.19
379.704	87.19
379.929	98.19
380.155	110.19
380.38	89.19
380.606	95.19
380.831	97.19
381.057	99.19
381.282	97.19
381.507	95.19
381.733	93.19
381.958	103.19
382.184	77.19
382.409	105.19
382.634	94.19
382.86	95.19
383.085	91.19
383.31	87.19
383.535	97.19
383.761	105.19
383.986	98.19
384.211	102.19
384.436	99.19
384.662	106.19
384.887	95.19
385.112	95.19
385.337	115.19
385.562	101.19
385.787	120.19
386.013	109.19
386.238	102.19
386.463	101.19
386.688	112.19
386.913	101.19
387.138	101.19
387.363	100.19
387.588	96.19
387.813	108.19
388.038	100.19
388.263	118.19
388.488	106.19
388.713	87.19
388.938	102.19
389.163	92.19
389.387	100.19
389.612	84.19
389.837	88.19
390.062	98.19
390.287	89.19
390.512	92.19
390.736	91.19
390.961	94.19
391.186	98.19
391.411	99.19
391.636	101.19
391.86	93.19
392.085	88.19
392.31	87.19
392.534	99.19
392.759	103.19
392.984	93.19
393.208	93.19
393.433	91.19
393.658	100.19
393.882	84.19
394.107	84.19
394.331	92.19
394.556	94.19
394.78	74.19
395.005	88.19
395.229	96.19
395.454	91.19
395.678	85.19
395.903	98.19
396.127	100.19
396.352	97.19
396.576	90.19
396.801	94.19
397.025	103.19
397.249	103.19
397.474	90.19
397.698	92.19
397.922	77.19
398.147	86.19
398.371	90.19
398.595	83.19
398.82	78.19
399.044	87.19
399.268	77.19
399.492	78.19
399.717	96.19
399.941	79.19
400.165	70.19
400.389	90.19
400.613	88.19
400.837	85.19
401.062	86.19
401.286	80.19
401.51	96.19
401.734	77.19
401.958	105.19
402.182	118.19
402.406	156.19
402.63	103.19
402.854	84.19
403.078	83.19
403.302	93.19
403.526	89.19
403.75	93.19
403.974	93.19
404.198	92.19
404.422	94.19
404.645	105.19
404.869	96.19
405.093	90.19
405.317	83.19
405.541	96.19
405.765	81.19
405.988	111.19
406.212	156.19
406.436	205.19
406.66	127.19
406.883	92.19
407.107	105.19
407.331	98.19
407.555	106.19
407.778	101.19
408.002	100.19
408.226	95.19
408.449	101.19
408.673	93.19
408.896	91.19
409.12	100.19
409.344	99.19
409.567	96.19
409.791	96.19
410.014	95.19
410.238	84.19
410.461	94.19
410.685	95.19
410.908	93.19
411.132	100.19
411.355	105.19
411.578	93.19
411.802	93.19
412.025	94.19
412.249	88.19
412.472	80.19
412.695	92.19
412.919	78.19
413.142	93.19
413.365	101.19
413.589	91.19
413.812	98.19
414.035	92.19
414.258	95.19
414.482	94.19
414.705	86.19
414.928	100.19
415.151	104.19
415.374	99.19
415.597	87.19
415.821	93.19
416.044	103.19
416.267	89.19
416.49	78.19
416.713	91.19
416.936	93.19
417.159	82.19
417.382	93.19
417.605	70.19
417.828	87.19
418.051	88.19
418.274	99.19
418.497	91.19
418.72	82.19
418.943	80.19
419.166	91.19
419.389	90.19
419.611	95.19
419.834	97.19
420.057	91.19
420.28	93.19
420.503	86.19
420.726	82.19
420.948	87.19
421.171	82.19
421.394	82.19
421.617	99.19
421.839	91.19
422.062	68.19
422.285	91.19
422.507	114.19
422.73	106.19
422.953	92.19
423.175	88.19
423.398	105.19
423.621	90.19
423.843	85.19
424.066	82.19
424.288	93.19
424.511	76.19
424.733	100.19
424.956	108.19
425.178	101.19
425.401	98.19
425.623	98.19
425.846	94.19
426.068	88.19
426.291	96.19
426.513	101.19
426.735	93.19
426.958	101.19
427.18	110.19
427.402	123.19
427.625	124.19
427.847	115.19
428.069	101.19
428.292	95.19
428.514	103.19
428.736	88.19
428.958	91.19
429.181	95.19
429.403	94.19
429.625	84.19
429.847	93.19
430.069	96.19
430.292	80.19
430.514	102.19
430.736	89.19
430.958	100.19
431.18	91.19
431.402	87.19
431.624	85.19
431.846	91.19
432.068	88.19
432.29	76.19
432.512	67.19
432.734	90.19
432.956	94.19
433.178	103.19
433.4	104.19
433.622	93.19
433.844	91.19
434.066	110.19
434.287	93.19
434.509	100.19
434.731	96.19
434.953	91.19
435.175	91.19
435.397	81.19
435.618	98.19
435.84	85.19
436.062	110.19
436.284	98.19
436.505	98.19
436.727	106.19
436.949	90.19
437.17	91.19
437.392	92.19
437.614	84.19
437.835	108.19
438.057	108.19
438.278	106.19
438.5	90.19
438.721	111.19
438.943	97.19
439.165	88.19
439.386	70.19
439.608	85.19
439.829	96.19
440.05	105.19
440.272	128.19
440.493	78.19
440.715	91.19
440.936	89.19
441.158	94.19
441.379	92.19
441.6	80.19
441.822	90.19
442.043	104.19
442.264	100.19
442.486	100.19
442.707	81.19
442.928	103.19
443.149	112.19
443.371	124.19
443.592	105.19
443.813	103.19
444.034	102.19
444.255	91.19
444.476	100.19
444.698	96.19
444.919	75.19
445.14	126.19
445.361	124.19
445.582	113.19
445.803	126.19
446.024	122.19
446.245	136.19
446.466	115.19
446.687	104.19
446.908	107.19
447.129	102.19
447.35	91.19
447.571	91.19
447.792	108.19
448.013	102.19
448.234	100.19
448.455	101.19
448.675	108.19
448.896	99.19
449.117	115.19
449.338	108.19
449.559	119.19
449.779	115.19
450	109.19
450.221	104.19
450.442	101.19
450.662	103.19
450.883	110.19
451.104	93.19
451.324	87.19
451.545	79.19
451.766	88.19
451.986	93.19
452.207	96.19
452.428	85.19
452.648	99.19
452.869	93.19
453.089	102.19
453.31	91.19
453.53	90.19
453.751	93.19
453.971	105.19
454.192	93.19
454.412	93.19
454.633	81.19
454.853	102.19
455.073	86.19
455.294	95.19
455.514	96.19
455.734	97.19
455.955	96.19
456.175	91.19
456.395	92.19
456.616	83.19
456.836	99.19
457.056	81.19
457.276	98.19
457.497	102.19
457.717	91.19
457.937	79.19
458.157	87.19
458.377	85.19
458.598	94.19
458.818	121.19
459.038	142.19
459.258	110.19
459.478	83.19
459.698	89.19
459.918	95.19
460.138	83.19
460.358	90.19
460.578	95.19
460.798	93.19
461.018	96.19
461.238	95.19
461.458	92.19
461.678	100.19
461.898	96.19
462.118	89.19
462.338	85.19
462.558	96.19
462.777	90.19
462.997	86.19
463.217	89.19
463.437	90.19
463.657	81.19
463.876	93.19
464.096	80.19
464.316	88.19
464.536	112.19
464.755	97.19
464.975	93.19
465.195	126.19
465.414	132.19
465.634	82.19
465.854	93.19
466.073	95.19
466.293	91.19
466.512	74.19
466.732	94.19
466.951	92.19
467.171	99.19
467.391	95.19
467.61	100.19
467.829	103.19
468.049	98.19
468.268	85.19
468.488	79.19
468.707	84.19
468.927	83.19
469.146	86.19
469.365	70.19
469.585	96.19
469.804	87.19
470.023	97.19
470.243	105.19
470.462	114.19
470.681	79.19
470.901	86.19
471.12	80.19
471.339	107.19
471.558	93.19
471.777	82.19
471.997	86.19
472.216	91.19
472.435	82.19
472.654	76.19
472.873	98.19
473.092	88.19
473.311	90.19
473.53	102.19
473.749	83.19
473.968	94.19
474.187	98.19
474.406	80.19
474.625	96.19
474.844	98.19
475.063	90.19
475.282	86.19
475.501	95.19
475.72	107.19
475.939	94.19
476.158	98.19
476.377	94.19
476.596	90.19
476.814	82.19
477.033	102.19
477.252	91.19
477.471	82.19
477.69	88.19
477.908	84.19
478.127	112.19
478.346	96.19
478.564	91.19
478.783	86.19
479.002	92.19
479.22	98.19
479.439	110.19
479.658	99.19
479.876	96.19
480.095	90.19
480.313	95.19
480.532	92.19
480.751	93.19
480.969	89.19
481.188	85.19
481.406	78.19
481.624	86.19
481.843	76.19
482.061	101.19
482.28	80.19
482.498	84.19
482.717	80.19
482.935	85.19
483.153	95.19
483.372	84.19
483.59	93.19
483.808	95.19
484.027	91.19
484.245	99.19
484.463	97.19
484.681	104.19
484.9	94.19
485.118	103.19
485.336	87.19
485.554	102.19
485.772	92.19
485.99	106.19
486.209	116.19
486.427	101.19
486.645	107.19
486.863	105.19
487.081	98.19
487.299	100.19
487.517	90.19
487.735	94.19
487.953	102.19
488.171	101.19
488.389	100.19
488.607	106.19
488.825	93.19
489.043	96.19
489.261	91.19
489.479	95.19
489.696	92.19
489.914	85.19
490.132	93.19
490.35	87.19
490.568	89.19
490.786	83.19
491.003	86.19
491.221	86.19
491.439	109.19
491.657	106.19
491.874	93.19
492.092	79.19
492.31	104.19
492.527	94.19
492.745	99.19
492.963	92.19
493.18	92.19
493.398	101.19
493.615	110.19
493.833	95.19
494.05	82.19
494.268	85.19
494.485	77.19
494.703	92.19
494.92	79.19
495.138	87.19
495.355	90.19
495.573	95.19
495.79	94.19
496.008	99.19
496.225	93.19
496.442	86.19
496.66	87.19
496.877	87.19
497.094	91.19
497.312	83.19
497.529	94.19
497.746	88.19
497.963	108.19
498.181	111.19
498.398	88.19
498.615	102.19
498.832	90.19
499.049	96.19
499.267	105.19
499.484	97.19
499.701	98.19
499.918	86.19
500.135	96.19
500.352	87.19
500.569	93.19
500.786	101.19
501.003	102.19
501.22	87.19
501.437	91.19
501.654	95.19
501.871	119.19
502.088	99.19
502.305	96.19
502.522	89.19
502.739	102.19
502.956	87.19
503.172	104.19
503.389	91.19
503.606	100.19
503.823	85.19
504.04	92.19
504.256	93.19
504.473	87.19
504.69	94.19
504.907	101.19
505.123	92.19
505.34	101.19
505.557	93.19
505.773	104.19
505.99	83.19
506.207	86.19
506.423	96.19
506.64	90.19
506.856	96.19
507.073	94.19
507.289	94.19
507.506	91.19
507.722	105.19
507.939	102.19
508.155	87.19
508.372	86.19
508.588	107.19
508.805	111.19
509.021	99.19
509.238	89.19
509.454	96.19
509.67	107.19
509.887	102.19
510.103	122.19
510.319	214.19
510.536	683.19
510.752	2073.19
510.968	604.19
511.184	142.19
511.401	99.19
511.617	110.19
511.833	93.19
512.049	97.19
512.265	99.19
512.481	94.19
512.698	100.19
512.914	108.19
513.13	106.19
513.346	107.19
513.562	94.19
513.778	102.19
513.994	91.19
514.21	116.19
514.426	96.19
514.642	120.19
514.858	122.19
515.074	141.19
515.29	380.19
