Data from Uncirc_2000_H10_HRD10591_00019.txt Node
Date: Wed Jan 03 10:48:21 EST 2024
User: Yrep
Spectrometer: HR+D1059
Trigger mode: 1
Integration Time (sec): 1.000000E-1
Scans to average: 1
Electric dark correction enabled: true
Nonlinearity correction enabled: false
Boxcar width: 0
XAxis mode: Wavelengths
Number of Pixels in Spectrum: 2048
>>>>>Begin Spectral Data<<<<<
223.165	-23.31
223.4	-23.31
223.635	-23.31
223.869	-22.31
224.104	-13.31
224.338	-18.31
224.573	-14.31
224.808	-14.31
225.042	-5.31
225.277	-7.31
225.511	-15.31
225.746	-0.31
225.98	12.69
226.215	21.69
226.449	15.69
226.683	19.69
226.918	29.69
227.152	34.69
227.387	42.69
227.621	39.69
227.856	43.69
228.09	44.69
228.324	58.69
228.559	42.69
228.793	47.69
229.027	66.69
229.262	76.69
229.496	68.69
229.73	67.69
229.964	79.69
230.199	76.69
230.433	74.69
230.667	77.69
230.901	66.69
231.136	83.69
231.37	75.69
231.604	86.69
231.838	78.69
232.072	87.69
232.306	88.69
232.541	79.69
232.775	83.69
233.009	70.69
233.243	99.69
233.477	83.69
233.711	60.69
233.945	74.69
234.179	86.69
234.413	69.69
234.647	68.69
234.881	83.69
235.115	73.69
235.349	71.69
235.583	83.69
235.817	71.69
236.051	73.69
236.285	79.69
236.519	86.69
236.753	82.69
236.987	77.69
237.221	74.69
237.455	81.69
237.689	66.69
237.922	83.69
238.156	87.69
238.39	78.69
238.624	64.69
238.858	80.69
239.091	71.69
239.325	72.69
239.559	71.69
239.793	77.69
240.027	79.69
240.26	70.69
240.494	78.69
240.728	76.69
240.961	86.69
241.195	82.69
241.429	69.69
241.662	77.69
241.896	81.69
242.13	85.69
242.363	66.69
242.597	74.69
242.83	79.69
243.064	75.69
243.298	79.69
243.531	71.69
243.765	79.69
243.998	73.69
244.232	76.69
244.465	76.69
244.699	70.69
244.932	77.69
245.166	73.69
245.399	81.69
245.633	68.69
245.866	80.69
246.099	91.69
246.333	77.69
246.566	86.69
246.8	69.69
247.033	86.69
247.266	84.69
247.5	72.69
247.733	75.69
247.966	76.69
248.2	82.69
248.433	67.69
248.666	64.69
248.899	82.69
249.133	91.69
249.366	98.69
249.599	78.69
249.832	67.69
250.066	69.69
250.299	75.69
250.532	70.69
250.765	74.69
250.998	71.69
251.231	72.69
251.465	80.69
251.698	102.69
251.931	83.69
252.164	83.69
252.397	81.69
252.63	68.69
252.863	73.69
253.096	91.69
253.329	64.69
253.562	86.69
253.795	77.69
254.028	71.69
254.261	78.69
254.494	75.69
254.727	84.69
254.96	80.69
255.193	81.69
255.426	69.69
255.659	68.69
255.892	72.69
256.124	70.69
256.357	87.69
256.59	68.69
256.823	65.69
257.056	96.69
257.289	80.69
257.521	74.69
257.754	72.69
257.987	77.69
258.22	90.69
258.452	98.69
258.685	79.69
258.918	77.69
259.151	93.69
259.383	80.69
259.616	85.69
259.849	77.69
260.081	86.69
260.314	86.69
260.547	79.69
260.779	86.69
261.012	83.69
261.244	86.69
261.477	75.69
261.71	91.69
261.942	105.69
262.175	114.69
262.407	75.69
262.64	80.69
262.872	69.69
263.105	68.69
263.337	79.69
263.57	69.69
263.802	85.69
264.035	96.69
264.267	75.69
264.499	87.69
264.732	81.69
264.964	93.69
265.197	82.69
265.429	71.69
265.661	60.69
265.894	70.69
266.126	91.69
266.358	87.69
266.591	82.69
266.823	77.69
267.055	85.69
267.287	89.69
267.52	70.69
267.752	71.69
267.984	86.69
268.216	77.69
268.448	89.69
268.681	84.69
268.913	88.69
269.145	88.69
269.377	66.69
269.609	80.69
269.841	78.69
270.073	81.69
270.306	77.69
270.538	97.69
270.77	81.69
271.002	88.69
271.234	90.69
271.466	87.69
271.698	79.69
271.93	78.69
272.162	82.69
272.394	82.69
272.626	89.69
272.858	98.69
273.09	76.69
273.322	82.69
273.553	91.69
273.785	84.69
274.017	83.69
274.249	71.69
274.481	77.69
274.713	81.69
274.945	93.69
275.176	88.69
275.408	86.69
275.64	86.69
275.872	78.69
276.104	91.69
276.335	86.69
276.567	95.69
276.799	91.69
277.031	98.69
277.262	95.69
277.494	84.69
277.726	94.69
277.957	77.69
278.189	81.69
278.421	82.69
278.652	78.69
278.884	80.69
279.115	70.69
279.347	71.69
279.579	75.69
279.81	78.69
280.042	98.69
280.273	82.69
280.505	90.69
280.736	82.69
280.968	91.69
281.199	81.69
281.431	80.69
281.662	73.69
281.894	96.69
282.125	89.69
282.356	105.69
282.588	121.69
282.819	114.69
283.051	112.69
283.282	98.69
283.513	86.69
283.745	79.69
283.976	84.69
284.207	75.69
284.439	80.69
284.67	85.69
284.901	89.69
285.132	93.69
285.364	94.69
285.595	91.69
285.826	86.69
286.057	79.69
286.288	91.69
286.52	82.69
286.751	91.69
286.982	91.69
287.213	87.69
287.444	65.69
287.675	71.69
287.906	84.69
288.138	98.69
288.369	102.69
288.6	106.69
288.831	83.69
289.062	81.69
289.293	78.69
289.524	72.69
289.755	96.69
289.986	74.69
290.217	81.69
290.448	97.69
290.679	91.69
290.91	99.69
291.141	92.69
291.371	92.69
291.602	84.69
291.833	95.69
292.064	86.69
292.295	78.69
292.526	69.69
292.757	88.69
292.987	99.69
293.218	83.69
293.449	84.69
293.68	82.69
293.91	90.69
294.141	69.69
294.372	95.69
294.603	85.69
294.833	94.69
295.064	96.69
295.295	97.69
295.525	90.69
295.756	105.69
295.987	118.69
296.217	121.69
296.448	103.69
296.679	95.69
296.909	73.69
297.14	90.69
297.37	87.69
297.601	78.69
297.831	80.69
298.062	72.69
298.292	69.69
298.523	80.69
298.753	80.69
298.984	92.69
299.214	89.69
299.445	97.69
299.675	81.69
299.905	81.69
300.136	92.69
300.366	88.69
300.597	79.69
300.827	89.69
301.057	84.69
301.288	86.69
301.518	103.69
301.748	84.69
301.979	88.69
302.209	87.69
302.439	88.69
302.669	68.69
302.9	97.69
303.13	83.69
303.36	99.69
303.59	89.69
303.82	88.69
304.051	91.69
304.281	95.69
304.511	101.69
304.741	92.69
304.971	84.69
305.201	87.69
305.431	78.69
305.661	84.69
305.891	95.69
306.121	115.69
306.352	88.69
306.582	98.69
306.812	88.69
307.042	91.69
307.272	98.69
307.502	96.69
307.731	86.69
307.961	84.69
308.191	100.69
308.421	85.69
308.651	91.69
308.881	89.69
309.111	88.69
309.341	112.69
309.571	100.69
309.8	88.69
310.03	103.69
310.26	92.69
310.49	98.69
310.72	101.69
310.949	99.69
311.179	100.69
311.409	115.69
311.639	97.69
311.868	91.69
312.098	82.69
312.328	85.69
312.557	87.69
312.787	103.69
313.017	104.69
313.246	87.69
313.476	77.69
313.706	83.69
313.935	98.69
314.165	82.69
314.394	84.69
314.624	100.69
314.853	92.69
315.083	90.69
315.312	92.69
315.542	94.69
315.771	90.69
316.001	91.69
316.23	84.69
316.46	97.69
316.689	102.69
316.919	85.69
317.148	96.69
317.377	88.69
317.607	82.69
317.836	91.69
318.065	98.69
318.295	90.69
318.524	91.69
318.753	83.69
318.983	82.69
319.212	93.69
319.441	105.69
319.67	103.69
319.9	96.69
320.129	81.69
320.358	81.69
320.587	81.69
320.816	99.69
321.046	91.69
321.275	98.69
321.504	83.69
321.733	92.69
321.962	90.69
322.191	91.69
322.42	102.69
322.649	103.69
322.878	113.69
323.108	98.69
323.337	115.69
323.566	116.69
323.795	136.69
324.024	178.69
324.253	352.69
324.482	744.69
324.71	1569.69
324.939	1969.69
325.168	721.69
325.397	226.69
325.626	144.69
325.855	123.69
326.084	108.69
326.313	131.69
326.542	154.69
326.77	214.69
326.999	411.69
327.228	858.69
327.457	1568.69
327.686	1212.69
327.914	312.69
328.143	174.69
328.372	139.69
328.6	110.69
328.829	110.69
329.058	111.69
329.287	121.69
329.515	94.69
329.744	90.69
329.972	79.69
330.201	95.69
330.43	99.69
330.658	121.69
330.887	123.69
331.115	111.69
331.344	100.69
331.572	92.69
331.801	87.69
332.03	96.69
332.258	80.69
332.486	83.69
332.715	95.69
332.943	87.69
333.172	105.69
333.4	89.69
333.629	90.69
333.857	110.69
334.085	96.69
334.314	88.69
334.542	86.69
334.771	101.69
334.999	92.69
335.227	87.69
335.455	103.69
335.684	81.69
335.912	89.69
336.14	99.69
336.369	93.69
336.597	85.69
336.825	101.69
337.053	86.69
337.281	96.69
337.51	90.69
337.738	86.69
337.966	82.69
338.194	94.69
338.422	83.69
338.65	102.69
338.878	87.69
339.106	91.69
339.334	92.69
339.562	94.69
339.79	55.69
340.018	72.69
340.246	102.69
340.474	92.69
340.702	102.69
340.93	92.69
341.158	85.69
341.386	98.69
341.614	72.69
341.842	81.69
342.07	85.69
342.298	78.69
342.526	102.69
342.754	86.69
342.981	82.69
343.209	83.69
343.437	94.69
343.665	91.69
343.893	91.69
344.12	85.69
344.348	100.69
344.576	88.69
344.804	88.69
345.031	90.69
345.259	87.69
345.487	91.69
345.714	91.69
345.942	107.69
346.17	75.69
346.397	104.69
346.625	99.69
346.853	95.69
347.08	105.69
347.308	90.69
347.535	93.69
347.763	84.69
347.99	100.69
348.218	110.69
348.445	98.69
348.673	99.69
348.9	100.69
349.128	96.69
349.355	101.69
349.583	92.69
349.81	80.69
350.037	82.69
350.265	93.69
350.492	77.69
350.72	88.69
350.947	105.69
351.174	99.69
351.402	95.69
351.629	107.69
351.856	93.69
352.083	110.69
352.311	114.69
352.538	106.69
352.765	108.69
352.992	122.69
353.22	111.69
353.447	95.69
353.674	92.69
353.901	89.69
354.128	98.69
354.355	103.69
354.583	99.69
354.81	100.69
355.037	104.69
355.264	103.69
355.491	96.69
355.718	91.69
355.945	104.69
356.172	97.69
356.399	92.69
356.626	103.69
356.853	96.69
357.08	83.69
357.307	95.69
357.534	98.69
357.761	80.69
357.988	97.69
358.215	87.69
358.441	99.69
358.668	86.69
358.895	89.69
359.122	87.69
359.349	94.69
359.576	95.69
359.802	88.69
360.029	96.69
360.256	108.69
360.483	89.69
360.709	86.69
360.936	85.69
361.163	84.69
361.39	89.69
361.616	92.69
361.843	93.69
362.07	90.69
362.296	92.69
362.523	96.69
362.749	83.69
362.976	94.69
363.203	102.69
363.429	74.69
363.656	89.69
363.882	93.69
364.109	89.69
364.335	92.69
364.562	95.69
364.788	79.69
365.015	95.69
365.241	98.69
365.468	98.69
365.694	97.69
365.92	96.69
366.147	68.69
366.373	82.69
366.599	80.69
366.826	77.69
367.052	81.69
367.278	106.69
367.505	98.69
367.731	87.69
367.957	84.69
368.184	79.69
368.41	85.69
368.636	109.69
368.862	113.69
369.089	98.69
369.315	89.69
369.541	84.69
369.767	88.69
369.993	84.69
370.219	67.69
370.445	91.69
370.672	83.69
370.898	84.69
371.124	82.69
371.35	82.69
371.576	86.69
371.802	86.69
372.028	78.69
372.254	87.69
372.48	84.69
372.706	90.69
372.932	84.69
373.158	83.69
373.384	85.69
373.61	80.69
373.835	92.69
374.061	102.69
374.287	98.69
374.513	75.69
374.739	78.69
374.965	79.69
375.191	98.69
375.416	92.69
375.642	96.69
375.868	91.69
376.094	76.69
376.319	79.69
376.545	82.69
376.771	84.69
376.997	104.69
377.222	82.69
377.448	103.69
377.674	85.69
377.899	90.69
378.125	87.69
378.35	100.69
378.576	92.69
378.802	96.69
379.027	89.69
379.253	102.69
379.478	96.69
379.704	96.69
379.929	88.69
380.155	84.69
380.38	86.69
380.606	97.69
380.831	102.69
381.057	88.69
381.282	87.69
381.507	91.69
381.733	84.69
381.958	91.69
382.184	86.69
382.409	99.69
382.634	100.69
382.86	101.69
383.085	94.69
383.31	96.69
383.535	100.69
383.761	103.69
383.986	82.69
384.211	87.69
384.436	102.69
384.662	98.69
384.887	103.69
385.112	100.69
385.337	103.69
385.562	88.69
385.787	103.69
386.013	123.69
386.238	118.69
386.463	104.69
386.688	107.69
386.913	93.69
387.138	95.69
387.363	106.69
387.588	94.69
387.813	95.69
388.038	106.69
388.263	111.69
388.488	115.69
388.713	85.69
388.938	83.69
389.163	92.69
389.387	95.69
389.612	104.69
389.837	100.69
390.062	101.69
390.287	92.69
390.512	90.69
390.736	88.69
390.961	94.69
391.186	92.69
391.411	100.69
391.636	90.69
391.86	84.69
392.085	91.69
392.31	92.69
392.534	90.69
392.759	95.69
392.984	78.69
393.208	86.69
393.433	104.69
393.658	75.69
393.882	89.69
394.107	89.69
394.331	86.69
394.556	83.69
394.78	94.69
395.005	85.69
395.229	76.69
395.454	92.69
395.678	88.69
395.903	86.69
396.127	86.69
396.352	79.69
396.576	83.69
396.801	80.69
397.025	99.69
397.249	88.69
397.474	84.69
397.698	86.69
397.922	98.69
398.147	94.69
398.371	94.69
398.595	80.69
398.82	89.69
399.044	91.69
399.268	84.69
399.492	79.69
399.717	87.69
399.941	79.69
400.165	94.69
400.389	90.69
400.613	84.69
400.837	84.69
401.062	82.69
401.286	88.69
401.51	82.69
401.734	79.69
401.958	80.69
402.182	107.69
402.406	138.69
402.63	100.69
402.854	97.69
403.078	95.69
403.302	92.69
403.526	78.69
403.75	89.69
403.974	91.69
404.198	92.69
404.422	93.69
404.645	67.69
404.869	92.69
405.093	94.69
405.317	81.69
405.541	88.69
405.765	98.69
405.988	110.69
406.212	135.69
406.436	197.69
406.66	118.69
406.883	102.69
407.107	103.69
407.331	90.69
407.555	90.69
407.778	99.69
408.002	87.69
408.226	92.69
408.449	92.69
408.673	81.69
408.896	93.69
409.12	102.69
409.344	86.69
409.567	90.69
409.791	80.69
410.014	87.69
410.238	95.69
410.461	108.69
410.685	98.69
410.908	99.69
411.132	107.69
411.355	85.69
411.578	91.69
411.802	86.69
412.025	78.69
412.249	82.69
412.472	93.69
412.695	86.69
412.919	86.69
413.142	97.69
413.365	88.69
413.589	86.69
413.812	85.69
414.035	78.69
414.258	91.69
414.482	106.69
414.705	89.69
414.928	80.69
415.151	87.69
415.374	87.69
415.597	70.69
415.821	72.69
416.044	86.69
416.267	89.69
416.49	81.69
416.713	78.69
416.936	89.69
417.159	93.69
417.382	84.69
417.605	74.69
417.828	84.69
418.051	87.69
418.274	92.69
418.497	95.69
418.72	89.69
418.943	92.69
419.166	96.69
419.389	99.69
419.611	76.69
419.834	90.69
420.057	103.69
420.28	78.69
420.503	82.69
420.726	75.69
420.948	85.69
421.171	92.69
421.394	101.69
421.617	81.69
421.839	89.69
422.062	89.69
422.285	87.69
422.507	97.69
422.73	101.69
422.953	78.69
423.175	93.69
423.398	96.69
423.621	92.69
423.843	91.69
424.066	87.69
424.288	78.69
424.511	94.69
424.733	86.69
424.956	115.69
425.178	87.69
425.401	95.69
425.623	86.69
425.846	89.69
426.068	90.69
426.291	87.69
426.513	80.69
426.735	79.69
426.958	102.69
427.18	99.69
427.402	122.69
427.625	144.69
427.847	107.69
428.069	87.69
428.292	91.69
428.514	89.69
428.736	92.69
428.958	76.69
429.181	92.69
429.403	82.69
429.625	81.69
429.847	96.69
430.069	94.69
430.292	88.69
430.514	78.69
430.736	80.69
430.958	99.69
431.18	77.69
431.402	85.69
431.624	83.69
431.846	71.69
432.068	87.69
432.29	92.69
432.512	88.69
432.734	84.69
432.956	107.69
433.178	80.69
433.4	75.69
433.622	80.69
433.844	75.69
434.066	89.69
434.287	99.69
434.509	95.69
434.731	94.69
434.953	92.69
435.175	102.69
435.397	85.69
435.618	89.69
435.84	94.69
436.062	102.69
436.284	106.69
436.505	97.69
436.727	100.69
436.949	78.69
437.17	86.69
437.392	83.69
437.614	106.69
437.835	107.69
438.057	108.69
438.278	110.69
438.5	96.69
438.721	119.69
438.943	96.69
439.165	91.69
439.386	85.69
439.608	84.69
439.829	96.69
440.05	101.69
440.272	144.69
440.493	90.69
440.715	93.69
440.936	86.69
441.158	86.69
441.379	72.69
441.6	86.69
441.822	83.69
442.043	87.69
442.264	97.69
442.486	108.69
442.707	92.69
442.928	100.69
443.149	112.69
443.371	103.69
443.592	115.69
443.813	115.69
444.034	86.69
444.255	88.69
444.476	84.69
444.698	87.69
444.919	91.69
445.14	116.69
445.361	102.69
445.582	101.69
445.803	122.69
446.024	111.69
446.245	126.69
446.466	95.69
446.687	80.69
446.908	81.69
447.129	88.69
447.35	86.69
447.571	97.69
447.792	90.69
448.013	100.69
448.234	98.69
448.455	94.69
448.675	98.69
448.896	99.69
449.117	91.69
449.338	87.69
449.559	103.69
449.779	121.69
450	95.69
450.221	94.69
450.442	98.69
450.662	94.69
450.883	105.69
451.104	109.69
451.324	84.69
451.545	83.69
451.766	77.69
451.986	89.69
452.207	83.69
452.428	87.69
452.648	106.69
452.869	91.69
453.089	104.69
453.31	105.69
453.53	92.69
453.751	98.69
453.971	103.69
454.192	95.69
454.412	98.69
454.633	89.69
454.853	88.69
455.073	81.69
455.294	76.69
455.514	99.69
455.734	86.69
455.955	77.69
456.175	81.69
456.395	71.69
456.616	78.69
456.836	87.69
457.056	88.69
457.276	85.69
457.497	98.69
457.717	92.69
457.937	92.69
458.157	92.69
458.377	105.69
458.598	107.69
458.818	151.69
459.038	140.69
459.258	89.69
459.478	82.69
459.698	95.69
459.918	81.69
460.138	84.69
460.358	88.69
460.578	83.69
460.798	74.69
461.018	78.69
461.238	85.69
461.458	88.69
461.678	96.69
461.898	83.69
462.118	91.69
462.338	95.69
462.558	99.69
462.777	88.69
462.997	80.69
463.217	87.69
463.437	89.69
463.657	73.69
463.876	102.69
464.096	81.69
464.316	95.69
464.536	83.69
464.755	91.69
464.975	87.69
465.195	137.69
465.414	141.69
465.634	95.69
465.854	84.69
466.073	101.69
466.293	86.69
466.512	83.69
466.732	83.69
466.951	96.69
467.171	82.69
467.391	75.69
467.61	93.69
467.829	96.69
468.049	95.69
468.268	64.69
468.488	96.69
468.707	78.69
468.927	75.69
469.146	86.69
469.365	83.69
469.585	87.69
469.804	83.69
470.023	74.69
470.243	75.69
470.462	91.69
470.681	94.69
470.901	90.69
471.12	76.69
471.339	87.69
471.558	78.69
471.777	74.69
471.997	80.69
472.216	72.69
472.435	78.69
472.654	87.69
472.873	90.69
473.092	80.69
473.311	92.69
473.53	88.69
473.749	83.69
473.968	82.69
474.187	94.69
474.406	83.69
474.625	65.69
474.844	81.69
475.063	82.69
475.282	90.69
475.501	94.69
475.72	96.69
475.939	86.69
476.158	85.69
476.377	75.69
476.596	100.69
476.814	85.69
477.033	90.69
477.252	99.69
477.471	75.69
477.69	86.69
477.908	92.69
478.127	88.69
478.346	86.69
478.564	90.69
478.783	85.69
479.002	86.69
479.22	97.69
479.439	84.69
479.658	96.69
479.876	102.69
480.095	89.69
480.313	84.69
480.532	97.69
480.751	79.69
480.969	79.69
481.188	104.69
481.406	88.69
481.624	84.69
481.843	89.69
482.061	74.69
482.28	102.69
482.498	79.69
482.717	91.69
482.935	80.69
483.153	79.69
483.372	87.69
483.59	85.69
483.808	76.69
484.027	95.69
484.245	82.69
484.463	90.69
484.681	89.69
484.9	82.69
485.118	91.69
485.336	107.69
485.554	97.69
485.772	117.69
485.99	91.69
486.209	107.69
486.427	110.69
486.645	107.69
486.863	105.69
487.081	100.69
487.299	92.69
487.517	90.69
487.735	85.69
487.953	99.69
488.171	93.69
488.389	79.69
488.607	89.69
488.825	88.69
489.043	84.69
489.261	94.69
489.479	97.69
489.696	87.69
489.914	105.69
490.132	82.69
490.35	92.69
490.568	97.69
490.786	99.69
491.003	88.69
491.221	97.69
491.439	85.69
491.657	90.69
491.874	80.69
492.092	84.69
492.31	84.69
492.527	84.69
492.745	100.69
492.963	90.69
493.18	78.69
493.398	90.69
493.615	100.69
493.833	89.69
494.05	87.69
494.268	87.69
494.485	83.69
494.703	99.69
494.92	84.69
495.138	82.69
495.355	79.69
495.573	91.69
495.79	90.69
496.008	86.69
496.225	76.69
496.442	86.69
496.66	84.69
496.877	82.69
497.094	95.69
497.312	88.69
497.529	79.69
497.746	102.69
497.963	93.69
498.181	89.69
498.398	92.69
498.615	107.69
498.832	106.69
499.049	104.69
499.267	93.69
499.484	91.69
499.701	99.69
499.918	87.69
500.135	95.69
500.352	84.69
500.569	94.69
500.786	95.69
501.003	77.69
501.22	96.69
501.437	93.69
501.654	82.69
501.871	91.69
502.088	84.69
502.305	85.69
502.522	74.69
502.739	92.69
502.956	87.69
503.172	85.69
503.389	98.69
503.606	113.69
503.823	87.69
504.04	90.69
504.256	99.69
504.473	98.69
504.69	92.69
504.907	85.69
505.123	102.69
505.34	103.69
505.557	85.69
505.773	76.69
505.99	78.69
506.207	84.69
506.423	84.69
506.64	100.69
506.856	87.69
507.073	78.69
507.289	88.69
507.506	86.69
507.722	104.69
507.939	101.69
508.155	99.69
508.372	96.69
508.588	90.69
508.805	90.69
509.021	87.69
509.238	92.69
509.454	101.69
509.67	83.69
509.887	108.69
510.103	111.69
510.319	199.69
510.536	640.69
510.752	1982.69
510.968	558.69
511.184	137.69
511.401	100.69
511.617	100.69
511.833	95.69
512.049	84.69
512.265	85.69
512.481	84.69
512.698	89.69
512.914	88.69
513.13	96.69
513.346	93.69
513.562	92.69
513.778	83.69
513.994	87.69
514.21	106.69
514.426	110.69
514.642	133.69
514.858	104.69
515.074	152.69
515.29	385.69
515.506	1132.69
515.721	414.69
515.937	130.69
516.153	97.69
516.369	95.69
516.585	89.69
516.801	101.69
