Data from Uncirc_2000_H10_HRD10591_00070.txt Node
Date: Wed Jan 03 10:48:31 EST 2024
User: Yrep
Spectrometer: HR+D1059
Trigger mode: 1
Integration Time (sec): 1.000000E-1
Scans to average: 1
Electric dark correction enabled: true
Nonlinearity correction enabled: false
Boxcar width: 0
XAxis mode: Wavelengths
Number of Pixels in Spectrum: 2048
>>>>>Begin Spectral Data<<<<<
223.165	-5.25
223.4	-5.25
223.635	-5.25
223.869	-30.25
224.104	-18.25
224.338	-19.25
224.573	-14.25
224.808	3.75
225.042	-17.25
225.277	-14.25
225.511	-0.25
225.746	-2.25
225.98	18.75
226.215	-6.25
226.449	25.75
226.683	21.75
226.918	29.75
227.152	27.75
227.387	30.75
227.621	37.75
227.856	34.75
228.09	60.75
228.324	48.75
228.559	51.75
228.793	65.75
229.027	56.75
229.262	72.75
229.496	60.75
229.73	83.75
229.964	82.75
230.199	77.75
230.433	86.75
230.667	87.75
230.901	72.75
231.136	72.75
231.37	72.75
231.604	94.75
231.838	75.75
232.072	83.75
232.306	68.75
232.541	67.75
232.775	77.75
233.009	79.75
233.243	84.75
233.477	74.75
233.711	76.75
233.945	78.75
234.179	85.75
234.413	84.75
234.647	84.75
234.881	90.75
235.115	85.75
235.349	65.75
235.583	82.75
235.817	78.75
236.051	70.75
236.285	66.75
236.519	95.75
236.753	85.75
236.987	77.75
237.221	86.75
237.455	83.75
237.689	73.75
237.922	80.75
238.156	73.75
238.39	81.75
238.624	77.75
238.858	68.75
239.091	75.75
239.325	74.75
239.559	89.75
239.793	77.75
240.027	86.75
240.26	80.75
240.494	82.75
240.728	98.75
240.961	69.75
241.195	67.75
241.429	73.75
241.662	72.75
241.896	83.75
242.13	74.75
242.363	71.75
242.597	63.75
242.83	67.75
243.064	56.75
243.298	82.75
243.531	80.75
243.765	72.75
243.998	72.75
244.232	85.75
244.465	84.75
244.699	78.75
244.932	84.75
245.166	78.75
245.399	85.75
245.633	82.75
245.866	88.75
246.099	71.75
246.333	78.75
246.566	72.75
246.8	82.75
247.033	88.75
247.266	72.75
247.5	75.75
247.733	90.75
247.966	85.75
248.2	69.75
248.433	85.75
248.666	70.75
248.899	85.75
249.133	87.75
249.366	104.75
249.599	80.75
249.832	91.75
250.066	69.75
250.299	70.75
250.532	79.75
250.765	74.75
250.998	86.75
251.231	76.75
251.465	90.75
251.698	80.75
251.931	88.75
252.164	69.75
252.397	73.75
252.63	78.75
252.863	82.75
253.096	84.75
253.329	92.75
253.562	80.75
253.795	81.75
254.028	75.75
254.261	70.75
254.494	82.75
254.727	84.75
254.96	84.75
255.193	89.75
255.426	82.75
255.659	81.75
255.892	83.75
256.124	84.75
256.357	88.75
256.59	98.75
256.823	78.75
257.056	92.75
257.289	89.75
257.521	80.75
257.754	82.75
257.987	69.75
258.22	84.75
258.452	76.75
258.685	77.75
258.918	80.75
259.151	91.75
259.383	76.75
259.616	75.75
259.849	79.75
260.081	82.75
260.314	79.75
260.547	73.75
260.779	85.75
261.012	83.75
261.244	93.75
261.477	97.75
261.71	85.75
261.942	108.75
262.175	107.75
262.407	78.75
262.64	86.75
262.872	88.75
263.105	72.75
263.337	84.75
263.57	76.75
263.802	76.75
264.035	73.75
264.267	77.75
264.499	81.75
264.732	68.75
264.964	77.75
265.197	82.75
265.429	72.75
265.661	92.75
265.894	91.75
266.126	77.75
266.358	96.75
266.591	90.75
266.823	82.75
267.055	85.75
267.287	73.75
267.52	75.75
267.752	84.75
267.984	83.75
268.216	66.75
268.448	85.75
268.681	75.75
268.913	97.75
269.145	80.75
269.377	100.75
269.609	87.75
269.841	85.75
270.073	98.75
270.306	88.75
270.538	86.75
270.77	87.75
271.002	65.75
271.234	88.75
271.466	81.75
271.698	89.75
271.93	76.75
272.162	89.75
272.394	96.75
272.626	82.75
272.858	85.75
273.09	86.75
273.322	82.75
273.553	87.75
273.785	86.75
274.017	83.75
274.249	85.75
274.481	79.75
274.713	75.75
274.945	95.75
275.176	85.75
275.408	85.75
275.64	75.75
275.872	96.75
276.104	83.75
276.335	88.75
276.567	84.75
276.799	117.75
277.031	99.75
277.262	86.75
277.494	89.75
277.726	84.75
277.957	72.75
278.189	78.75
278.421	84.75
278.652	83.75
278.884	87.75
279.115	78.75
279.347	77.75
279.579	89.75
279.81	85.75
280.042	80.75
280.273	93.75
280.505	95.75
280.736	80.75
280.968	80.75
281.199	83.75
281.431	78.75
281.662	87.75
281.894	103.75
282.125	89.75
282.356	102.75
282.588	137.75
282.819	94.75
283.051	82.75
283.282	82.75
283.513	98.75
283.745	85.75
283.976	88.75
284.207	86.75
284.439	88.75
284.67	93.75
284.901	93.75
285.132	75.75
285.364	82.75
285.595	109.75
285.826	90.75
286.057	88.75
286.288	85.75
286.52	79.75
286.751	73.75
286.982	90.75
287.213	94.75
287.444	78.75
287.675	89.75
287.906	80.75
288.138	93.75
288.369	89.75
288.6	88.75
288.831	91.75
289.062	88.75
289.293	86.75
289.524	83.75
289.755	79.75
289.986	88.75
290.217	75.75
290.448	77.75
290.679	79.75
290.91	88.75
291.141	80.75
291.371	82.75
291.602	96.75
291.833	83.75
292.064	83.75
292.295	86.75
292.526	88.75
292.757	88.75
292.987	99.75
293.218	99.75
293.449	92.75
293.68	73.75
293.91	87.75
294.141	82.75
294.372	85.75
294.603	104.75
294.833	89.75
295.064	73.75
295.295	93.75
295.525	84.75
295.756	93.75
295.987	113.75
296.217	125.75
296.448	109.75
296.679	88.75
296.909	81.75
297.14	92.75
297.37	93.75
297.601	102.75
297.831	86.75
298.062	103.75
298.292	81.75
298.523	82.75
298.753	77.75
298.984	80.75
299.214	86.75
299.445	91.75
299.675	84.75
299.905	99.75
300.136	100.75
300.366	99.75
300.597	87.75
300.827	86.75
301.057	89.75
301.288	92.75
301.518	81.75
301.748	98.75
301.979	91.75
302.209	90.75
302.439	92.75
302.669	89.75
302.9	94.75
303.13	81.75
303.36	92.75
303.59	97.75
303.82	105.75
304.051	108.75
304.281	98.75
304.511	92.75
304.741	87.75
304.971	85.75
305.201	83.75
305.431	83.75
305.661	97.75
305.891	80.75
306.121	87.75
306.352	97.75
306.582	93.75
306.812	98.75
307.042	90.75
307.272	89.75
307.502	90.75
307.731	85.75
307.961	81.75
308.191	94.75
308.421	94.75
308.651	89.75
308.881	89.75
309.111	85.75
309.341	94.75
309.571	86.75
309.8	98.75
310.03	100.75
310.26	92.75
310.49	90.75
310.72	100.75
310.949	99.75
311.179	93.75
311.409	88.75
311.639	94.75
311.868	86.75
312.098	114.75
312.328	89.75
312.557	104.75
312.787	89.75
313.017	87.75
313.246	87.75
313.476	87.75
313.706	94.75
313.935	88.75
314.165	101.75
314.394	95.75
314.624	110.75
314.853	96.75
315.083	75.75
315.312	98.75
315.542	100.75
315.771	98.75
316.001	91.75
316.23	102.75
316.46	93.75
316.689	90.75
316.919	99.75
317.148	88.75
317.377	94.75
317.607	98.75
317.836	84.75
318.065	79.75
318.295	94.75
318.524	88.75
318.753	95.75
318.983	104.75
319.212	110.75
319.441	117.75
319.67	103.75
319.9	86.75
320.129	76.75
320.358	88.75
320.587	99.75
320.816	101.75
321.046	102.75
321.275	104.75
321.504	86.75
321.733	106.75
321.962	89.75
322.191	105.75
322.42	85.75
322.649	108.75
322.878	117.75
323.108	125.75
323.337	123.75
323.566	127.75
323.795	156.75
324.024	221.75
324.253	401.75
324.482	828.75
324.71	1713.75
324.939	2278.75
325.168	807.75
325.397	233.75
325.626	162.75
325.855	118.75
326.084	127.75
326.313	122.75
326.542	143.75
326.77	235.75
326.999	454.75
327.228	970.75
327.457	1756.75
327.686	1360.75
327.914	366.75
328.143	200.75
328.372	159.75
328.6	114.75
328.829	124.75
329.058	111.75
329.287	125.75
329.515	113.75
329.744	119.75
329.972	107.75
330.201	103.75
330.43	115.75
330.658	108.75
330.887	139.75
331.115	112.75
331.344	100.75
331.572	99.75
331.801	98.75
332.03	101.75
332.258	80.75
332.486	88.75
332.715	86.75
332.943	88.75
333.172	95.75
333.4	96.75
333.629	102.75
333.857	109.75
334.085	106.75
334.314	83.75
334.542	87.75
334.771	99.75
334.999	90.75
335.227	89.75
335.455	93.75
335.684	109.75
335.912	100.75
336.14	96.75
336.369	87.75
336.597	97.75
336.825	92.75
337.053	91.75
337.281	85.75
337.51	93.75
337.738	101.75
337.966	101.75
338.194	104.75
338.422	68.75
338.65	80.75
338.878	78.75
339.106	90.75
339.334	100.75
339.562	91.75
339.79	93.75
340.018	83.75
340.246	92.75
340.474	80.75
340.702	91.75
340.93	97.75
341.158	93.75
341.386	83.75
341.614	100.75
341.842	108.75
342.07	83.75
342.298	89.75
342.526	85.75
342.754	87.75
342.981	87.75
343.209	84.75
343.437	92.75
343.665	104.75
343.893	87.75
344.12	90.75
344.348	96.75
344.576	75.75
344.804	94.75
345.031	111.75
345.259	95.75
345.487	78.75
345.714	78.75
345.942	105.75
346.17	83.75
346.397	96.75
346.625	88.75
346.853	98.75
347.08	100.75
347.308	90.75
347.535	93.75
347.763	101.75
347.99	97.75
348.218	91.75
348.445	108.75
348.673	99.75
348.9	93.75
349.128	97.75
349.355	100.75
349.583	91.75
349.81	108.75
350.037	94.75
350.265	90.75
350.492	89.75
350.72	117.75
350.947	111.75
351.174	102.75
351.402	110.75
351.629	115.75
351.856	100.75
352.083	112.75
352.311	100.75
352.538	98.75
352.765	116.75
352.992	109.75
353.22	100.75
353.447	106.75
353.674	120.75
353.901	91.75
354.128	115.75
354.355	91.75
354.583	91.75
354.81	85.75
355.037	79.75
355.264	92.75
355.491	85.75
355.718	99.75
355.945	98.75
356.172	97.75
356.399	92.75
356.626	96.75
356.853	87.75
357.08	84.75
357.307	85.75
357.534	90.75
357.761	84.75
357.988	80.75
358.215	80.75
358.441	82.75
358.668	102.75
358.895	96.75
359.122	93.75
359.349	87.75
359.576	96.75
359.802	91.75
360.029	99.75
360.256	103.75
360.483	93.75
360.709	85.75
360.936	92.75
361.163	87.75
361.39	87.75
361.616	85.75
361.843	88.75
362.07	86.75
362.296	105.75
362.523	94.75
362.749	108.75
362.976	89.75
363.203	75.75
363.429	85.75
363.656	81.75
363.882	92.75
364.109	91.75
364.335	98.75
364.562	91.75
364.788	79.75
365.015	97.75
365.241	101.75
365.468	105.75
365.694	99.75
365.92	92.75
366.147	80.75
366.373	81.75
366.599	102.75
366.826	71.75
367.052	85.75
367.278	93.75
367.505	86.75
367.731	81.75
367.957	94.75
368.184	96.75
368.41	99.75
368.636	102.75
368.862	110.75
369.089	106.75
369.315	89.75
369.541	80.75
369.767	94.75
369.993	89.75
370.219	85.75
370.445	89.75
370.672	84.75
370.898	91.75
371.124	88.75
371.35	80.75
371.576	87.75
371.802	71.75
372.028	74.75
372.254	90.75
372.48	80.75
372.706	88.75
372.932	94.75
373.158	94.75
373.384	97.75
373.61	97.75
373.835	77.75
374.061	85.75
374.287	101.75
374.513	90.75
374.739	96.75
374.965	88.75
375.191	102.75
375.416	87.75
375.642	99.75
375.868	69.75
376.094	76.75
376.319	83.75
376.545	102.75
376.771	84.75
376.997	96.75
377.222	91.75
377.448	100.75
377.674	93.75
377.899	86.75
378.125	85.75
378.35	90.75
378.576	100.75
378.802	80.75
379.027	64.75
379.253	78.75
379.478	81.75
379.704	84.75
379.929	93.75
380.155	96.75
380.38	79.75
380.606	87.75
380.831	104.75
381.057	91.75
381.282	82.75
381.507	85.75
381.733	93.75
381.958	96.75
382.184	94.75
382.409	111.75
382.634	96.75
382.86	85.75
383.085	108.75
383.31	97.75
383.535	105.75
383.761	95.75
383.986	104.75
384.211	100.75
384.436	97.75
384.662	99.75
384.887	100.75
385.112	88.75
385.337	107.75
385.562	107.75
385.787	99.75
386.013	97.75
386.238	114.75
386.463	107.75
386.688	121.75
386.913	99.75
387.138	86.75
387.363	105.75
387.588	106.75
387.813	105.75
388.038	106.75
388.263	104.75
388.488	103.75
388.713	92.75
388.938	102.75
389.163	100.75
389.387	91.75
389.612	90.75
389.837	80.75
390.062	96.75
390.287	89.75
390.512	86.75
390.736	98.75
390.961	87.75
391.186	97.75
391.411	94.75
391.636	93.75
391.86	90.75
392.085	89.75
392.31	95.75
392.534	93.75
392.759	84.75
392.984	84.75
393.208	98.75
393.433	83.75
393.658	98.75
393.882	93.75
394.107	85.75
394.331	75.75
394.556	83.75
394.78	92.75
395.005	90.75
395.229	57.75
395.454	91.75
395.678	81.75
395.903	73.75
396.127	90.75
396.352	101.75
396.576	66.75
396.801	93.75
397.025	81.75
397.249	72.75
397.474	81.75
397.698	89.75
397.922	90.75
398.147	87.75
398.371	78.75
398.595	73.75
398.82	105.75
399.044	88.75
399.268	73.75
399.492	87.75
399.717	94.75
399.941	96.75
400.165	99.75
400.389	89.75
400.613	86.75
400.837	75.75
401.062	84.75
401.286	97.75
401.51	82.75
401.734	102.75
401.958	98.75
402.182	111.75
402.406	152.75
402.63	102.75
402.854	94.75
403.078	79.75
403.302	75.75
403.526	91.75
403.75	79.75
403.974	89.75
404.198	88.75
404.422	89.75
404.645	94.75
404.869	100.75
405.093	97.75
405.317	105.75
405.541	85.75
405.765	88.75
405.988	118.75
406.212	176.75
406.436	218.75
406.66	149.75
406.883	104.75
407.107	96.75
407.331	90.75
407.555	90.75
407.778	90.75
408.002	77.75
408.226	90.75
408.449	100.75
408.673	86.75
408.896	112.75
409.12	98.75
409.344	93.75
409.567	91.75
409.791	95.75
410.014	109.75
410.238	89.75
410.461	94.75
410.685	103.75
410.908	94.75
411.132	99.75
411.355	97.75
411.578	94.75
411.802	97.75
412.025	93.75
412.249	87.75
412.472	82.75
412.695	84.75
412.919	78.75
413.142	84.75
413.365	75.75
413.589	88.75
413.812	93.75
414.035	83.75
414.258	89.75
414.482	85.75
414.705	95.75
414.928	89.75
415.151	99.75
415.374	88.75
415.597	78.75
415.821	86.75
416.044	80.75
416.267	84.75
416.49	92.75
416.713	89.75
416.936	88.75
417.159	98.75
417.382	105.75
417.605	93.75
417.828	107.75
418.051	98.75
418.274	94.75
418.497	99.75
418.72	77.75
418.943	92.75
419.166	88.75
419.389	89.75
419.611	92.75
419.834	89.75
420.057	85.75
420.28	92.75
420.503	98.75
420.726	90.75
420.948	101.75
421.171	93.75
421.394	96.75
421.617	98.75
421.839	81.75
422.062	81.75
422.285	99.75
422.507	77.75
422.73	101.75
422.953	87.75
423.175	95.75
423.398	81.75
423.621	83.75
423.843	86.75
424.066	87.75
424.288	88.75
424.511	82.75
424.733	82.75
424.956	108.75
425.178	96.75
425.401	112.75
425.623	105.75
425.846	87.75
426.068	101.75
426.291	93.75
426.513	79.75
426.735	91.75
426.958	91.75
427.18	96.75
427.402	120.75
427.625	170.75
427.847	109.75
428.069	102.75
428.292	100.75
428.514	65.75
428.736	82.75
428.958	85.75
429.181	76.75
429.403	94.75
429.625	93.75
429.847	88.75
430.069	101.75
430.292	90.75
430.514	86.75
430.736	88.75
430.958	84.75
431.18	97.75
431.402	72.75
431.624	98.75
431.846	86.75
432.068	76.75
432.29	92.75
432.512	83.75
432.734	84.75
432.956	90.75
433.178	100.75
433.4	89.75
433.622	101.75
433.844	90.75
434.066	84.75
434.287	85.75
434.509	77.75
434.731	97.75
434.953	92.75
435.175	103.75
435.397	91.75
435.618	105.75
435.84	84.75
436.062	120.75
436.284	103.75
436.505	105.75
436.727	110.75
436.949	99.75
437.17	92.75
437.392	91.75
437.614	94.75
437.835	108.75
438.057	116.75
438.278	113.75
438.5	107.75
438.721	122.75
438.943	108.75
439.165	80.75
439.386	97.75
439.608	91.75
439.829	102.75
440.05	107.75
440.272	141.75
440.493	103.75
440.715	86.75
440.936	81.75
441.158	74.75
441.379	94.75
441.6	82.75
441.822	96.75
442.043	100.75
442.264	98.75
442.486	103.75
442.707	74.75
442.928	105.75
443.149	136.75
443.371	130.75
443.592	108.75
443.813	102.75
444.034	98.75
444.255	87.75
444.476	94.75
444.698	92.75
444.919	103.75
445.14	128.75
445.361	104.75
445.582	111.75
445.803	125.75
446.024	122.75
446.245	150.75
446.466	115.75
446.687	84.75
446.908	89.75
447.129	87.75
447.35	83.75
447.571	91.75
447.792	92.75
448.013	101.75
448.234	101.75
448.455	112.75
448.675	109.75
448.896	119.75
449.117	105.75
449.338	105.75
449.559	122.75
449.779	125.75
450	94.75
450.221	79.75
450.442	85.75
450.662	96.75
450.883	88.75
451.104	114.75
451.324	92.75
451.545	85.75
451.766	77.75
451.986	80.75
452.207	84.75
452.428	102.75
452.648	89.75
452.869	123.75
453.089	95.75
453.31	104.75
453.53	88.75
453.751	79.75
453.971	104.75
454.192	106.75
454.412	101.75
454.633	91.75
454.853	77.75
455.073	62.75
455.294	98.75
455.514	92.75
455.734	94.75
455.955	86.75
456.175	91.75
456.395	85.75
456.616	96.75
456.836	88.75
457.056	87.75
457.276	84.75
457.497	93.75
457.717	77.75
457.937	85.75
458.157	90.75
458.377	95.75
458.598	102.75
458.818	145.75
459.038	150.75
459.258	112.75
459.478	77.75
459.698	95.75
459.918	88.75
460.138	94.75
460.358	74.75
460.578	87.75
460.798	78.75
461.018	85.75
461.238	94.75
461.458	81.75
461.678	87.75
461.898	93.75
462.118	82.75
462.338	89.75
462.558	79.75
462.777	88.75
462.997	79.75
463.217	92.75
463.437	83.75
463.657	97.75
463.876	83.75
464.096	84.75
464.316	90.75
464.536	90.75
464.755	102.75
464.975	117.75
465.195	131.75
465.414	158.75
465.634	88.75
465.854	88.75
466.073	89.75
466.293	86.75
466.512	81.75
466.732	93.75
466.951	88.75
467.171	93.75
467.391	83.75
467.61	113.75
467.829	91.75
468.049	94.75
468.268	81.75
468.488	83.75
468.707	84.75
468.927	84.75
469.146	76.75
469.365	82.75
469.585	87.75
469.804	78.75
470.023	111.75
470.243	105.75
470.462	97.75
470.681	100.75
470.901	85.75
471.12	76.75
471.339	80.75
471.558	81.75
471.777	77.75
471.997	92.75
472.216	81.75
472.435	85.75
472.654	83.75
472.873	91.75
473.092	81.75
473.311	93.75
473.53	76.75
473.749	88.75
473.968	93.75
474.187	97.75
474.406	97.75
474.625	98.75
474.844	95.75
475.063	86.75
475.282	95.75
475.501	91.75
475.72	99.75
475.939	92.75
476.158	83.75
476.377	83.75
476.596	78.75
476.814	93.75
477.033	92.75
477.252	93.75
477.471	82.75
477.69	87.75
477.908	85.75
478.127	94.75
478.346	89.75
478.564	98.75
478.783	92.75
479.002	86.75
479.22	87.75
479.439	100.75
479.658	98.75
479.876	77.75
480.095	89.75
480.313	91.75
480.532	100.75
480.751	99.75
480.969	97.75
481.188	89.75
481.406	107.75
481.624	90.75
481.843	94.75
482.061	85.75
482.28	84.75
482.498	94.75
482.717	79.75
482.935	90.75
483.153	83.75
483.372	85.75
483.59	86.75
483.808	86.75
484.027	93.75
484.245	97.75
484.463	94.75
484.681	96.75
484.9	91.75
485.118	109.75
485.336	84.75
485.554	102.75
485.772	99.75
485.99	99.75
486.209	101.75
486.427	95.75
486.645	94.75
486.863	114.75
487.081	113.75
487.299	106.75
487.517	93.75
487.735	95.75
487.953	94.75
488.171	96.75
488.389	80.75
488.607	89.75
488.825	97.75
489.043	89.75
489.261	92.75
489.479	80.75
489.696	77.75
489.914	87.75
490.132	78.75
490.35	85.75
490.568	93.75
490.786	84.75
491.003	75.75
491.221	93.75
491.439	99.75
491.657	90.75
491.874	88.75
492.092	86.75
492.31	101.75
492.527	95.75
492.745	101.75
492.963	86.75
493.18	79.75
493.398	94.75
493.615	93.75
493.833	95.75
494.05	97.75
494.268	85.75
494.485	96.75
494.703	97.75
494.92	88.75
495.138	91.75
495.355	89.75
495.573	77.75
495.79	86.75
496.008	92.75
496.225	82.75
496.442	88.75
496.66	98.75
496.877	75.75
497.094	93.75
497.312	92.75
497.529	86.75
497.746	81.75
497.963	90.75
498.181	101.75
498.398	101.75
498.615	99.75
498.832	101.75
499.049	80.75
499.267	86.75
499.484	82.75
499.701	94.75
499.918	89.75
500.135	81.75
500.352	79.75
500.569	86.75
500.786	85.75
501.003	88.75
501.22	89.75
501.437	88.75
501.654	89.75
501.871	107.75
502.088	96.75
502.305	85.75
502.522	94.75
502.739	94.75
502.956	88.75
503.172	76.75
503.389	92.75
503.606	99.75
503.823	106.75
504.04	85.75
504.256	85.75
504.473	93.75
504.69	91.75
504.907	87.75
505.123	85.75
505.34	81.75
505.557	85.75
505.773	89.75
505.99	86.75
506.207	89.75
506.423	84.75
506.64	85.75
506.856	91.75
507.073	93.75
507.289	90.75
507.506	87.75
507.722	104.75
507.939	96.75
508.155	100.75
508.372	88.75
508.588	86.75
508.805	94.75
509.021	91.75
509.238	101.75
509.454	97.75
509.67	101.75
509.887	98.75
510.103	109.75
510.319	196.75
510.536	750.75
510.752	2378.75
510.968	662.75
511.184	165.75
511.401	101.75
511.617	107.75
511.833	100.75
512.049	102.75
512.265	77.75
512.481	94.75
512.698	80.75
512.914	93.75
513.13	101.75
513.346	92.75
513.562	89.75
513.778	101.75
513.994	100.75
514.21	99.75
514.426	112.75
514.642	132.75
514.858	124.75
515.074	152.75
515.29	413.75
515.506	1428.75
515.721	523.75
515.937	152.75
516.153	105.75
