Data from Uncirc_2000_H10_HRD10591_00091.txt Node
Date: Wed Jan 03 10:48:35 EST 2024
User: Yrep
Spectrometer: HR+D1059
Trigger mode: 1
Integration Time (sec): 1.000000E-1
Scans to average: 1
Electric dark correction enabled: true
Nonlinearity correction enabled: false
Boxcar width: 0
XAxis mode: Wavelengths
Number of Pixels in Spectrum: 2048
>>>>>Begin Spectral Data<<<<<
223.165	-19.06
223.4	-19.06
223.635	-19.06
223.869	-14.06
224.104	-19.06
224.338	-14.06
224.573	-31.06
224.808	-8.06
225.042	-3.06
225.277	3.94
225.511	10.94
225.746	-1.06
225.98	15.94
226.215	12.94
226.449	15.94
226.683	9.94
226.918	28.94
227.152	10.94
227.387	34.94
227.621	38.94
227.856	27.94
228.09	38.94
228.324	42.94
228.559	48.94
228.793	53.94
229.027	67.94
229.262	57.94
229.496	63.94
229.73	75.94
229.964	67.94
230.199	83.94
230.433	65.94
230.667	74.94
230.901	65.94
231.136	69.94
231.37	82.94
231.604	88.94
231.838	84.94
232.072	83.94
232.306	71.94
232.541	77.94
232.775	87.94
233.009	87.94
233.243	78.94
233.477	71.94
233.711	75.94
233.945	76.94
234.179	75.94
234.413	71.94
234.647	77.94
234.881	65.94
235.115	88.94
235.349	79.94
235.583	74.94
235.817	89.94
236.051	75.94
236.285	67.94
236.519	72.94
236.753	74.94
236.987	75.94
237.221	79.94
237.455	68.94
237.689	73.94
237.922	69.94
238.156	59.94
238.39	69.94
238.624	73.94
238.858	78.94
239.091	76.94
239.325	80.94
239.559	74.94
239.793	67.94
240.027	73.94
240.26	70.94
240.494	87.94
240.728	83.94
240.961	67.94
241.195	74.94
241.429	85.94
241.662	69.94
241.896	59.94
242.13	71.94
242.363	76.94
242.597	79.94
242.83	76.94
243.064	77.94
243.298	73.94
243.531	77.94
243.765	66.94
243.998	74.94
244.232	53.94
244.465	85.94
244.699	85.94
244.932	76.94
245.166	63.94
245.399	92.94
245.633	99.94
245.866	66.94
246.099	68.94
246.333	81.94
246.566	75.94
246.8	84.94
247.033	83.94
247.266	75.94
247.5	78.94
247.733	73.94
247.966	69.94
248.2	77.94
248.433	76.94
248.666	83.94
248.899	89.94
249.133	88.94
249.366	92.94
249.599	87.94
249.832	83.94
250.066	82.94
250.299	74.94
250.532	79.94
250.765	89.94
250.998	74.94
251.231	93.94
251.465	83.94
251.698	78.94
251.931	84.94
252.164	73.94
252.397	70.94
252.63	78.94
252.863	84.94
253.096	72.94
253.329	89.94
253.562	77.94
253.795	80.94
254.028	77.94
254.261	74.94
254.494	79.94
254.727	75.94
254.96	82.94
255.193	85.94
255.426	76.94
255.659	81.94
255.892	69.94
256.124	85.94
256.357	73.94
256.59	89.94
256.823	74.94
257.056	81.94
257.289	88.94
257.521	88.94
257.754	74.94
257.987	75.94
258.22	82.94
258.452	81.94
258.685	88.94
258.918	82.94
259.151	75.94
259.383	72.94
259.616	84.94
259.849	64.94
260.081	79.94
260.314	77.94
260.547	83.94
260.779	79.94
261.012	82.94
261.244	76.94
261.477	106.94
261.71	79.94
261.942	99.94
262.175	115.94
262.407	89.94
262.64	83.94
262.872	79.94
263.105	79.94
263.337	94.94
263.57	86.94
263.802	79.94
264.035	83.94
264.267	77.94
264.499	84.94
264.732	86.94
264.964	76.94
265.197	90.94
265.429	84.94
265.661	83.94
265.894	92.94
266.126	86.94
266.358	86.94
266.591	83.94
266.823	74.94
267.055	90.94
267.287	87.94
267.52	79.94
267.752	87.94
267.984	81.94
268.216	95.94
268.448	80.94
268.681	76.94
268.913	93.94
269.145	87.94
269.377	86.94
269.609	80.94
269.841	75.94
270.073	94.94
270.306	84.94
270.538	100.94
270.77	80.94
271.002	98.94
271.234	81.94
271.466	85.94
271.698	81.94
271.93	72.94
272.162	74.94
272.394	82.94
272.626	98.94
272.858	79.94
273.09	91.94
273.322	84.94
273.553	76.94
273.785	70.94
274.017	86.94
274.249	85.94
274.481	78.94
274.713	79.94
274.945	81.94
275.176	92.94
275.408	81.94
275.64	97.94
275.872	80.94
276.104	77.94
276.335	74.94
276.567	82.94
276.799	93.94
277.031	91.94
277.262	83.94
277.494	84.94
277.726	99.94
277.957	92.94
278.189	79.94
278.421	91.94
278.652	92.94
278.884	81.94
279.115	86.94
279.347	61.94
279.579	90.94
279.81	87.94
280.042	86.94
280.273	72.94
280.505	64.94
280.736	82.94
280.968	80.94
281.199	85.94
281.431	76.94
281.662	82.94
281.894	81.94
282.125	108.94
282.356	110.94
282.588	137.94
282.819	120.94
283.051	92.94
283.282	82.94
283.513	72.94
283.745	80.94
283.976	83.94
284.207	71.94
284.439	88.94
284.67	97.94
284.901	76.94
285.132	80.94
285.364	91.94
285.595	94.94
285.826	68.94
286.057	80.94
286.288	71.94
286.52	89.94
286.751	95.94
286.982	71.94
287.213	97.94
287.444	90.94
287.675	83.94
287.906	86.94
288.138	86.94
288.369	96.94
288.6	99.94
288.831	81.94
289.062	83.94
289.293	82.94
289.524	99.94
289.755	85.94
289.986	75.94
290.217	76.94
290.448	86.94
290.679	97.94
290.91	97.94
291.141	81.94
291.371	85.94
291.602	88.94
291.833	90.94
292.064	84.94
292.295	83.94
292.526	84.94
292.757	89.94
292.987	88.94
293.218	87.94
293.449	79.94
293.68	82.94
293.91	85.94
294.141	94.94
294.372	86.94
294.603	83.94
294.833	78.94
295.064	87.94
295.295	89.94
295.525	88.94
295.756	96.94
295.987	101.94
296.217	112.94
296.448	123.94
296.679	104.94
296.909	90.94
297.14	89.94
297.37	98.94
297.601	74.94
297.831	85.94
298.062	95.94
298.292	75.94
298.523	79.94
298.753	76.94
298.984	82.94
299.214	106.94
299.445	88.94
299.675	92.94
299.905	94.94
300.136	77.94
300.366	80.94
300.597	103.94
300.827	70.94
301.057	102.94
301.288	101.94
301.518	89.94
301.748	91.94
301.979	94.94
302.209	102.94
302.439	89.94
302.669	88.94
302.9	86.94
303.13	92.94
303.36	74.94
303.59	93.94
303.82	116.94
304.051	80.94
304.281	74.94
304.511	85.94
304.741	99.94
304.971	87.94
305.201	86.94
305.431	98.94
305.661	104.94
305.891	74.94
306.121	92.94
306.352	97.94
306.582	95.94
306.812	92.94
307.042	101.94
307.272	79.94
307.502	89.94
307.731	79.94
307.961	89.94
308.191	95.94
308.421	100.94
308.651	72.94
308.881	85.94
309.111	84.94
309.341	88.94
309.571	94.94
309.8	93.94
310.03	96.94
310.26	97.94
310.49	97.94
310.72	113.94
310.949	98.94
311.179	104.94
311.409	85.94
311.639	86.94
311.868	99.94
312.098	88.94
312.328	93.94
312.557	103.94
312.787	106.94
313.017	91.94
313.246	100.94
313.476	94.94
313.706	114.94
313.935	86.94
314.165	87.94
314.394	89.94
314.624	104.94
314.853	84.94
315.083	88.94
315.312	88.94
315.542	93.94
315.771	88.94
316.001	91.94
316.23	89.94
316.46	107.94
316.689	90.94
316.919	97.94
317.148	93.94
317.377	88.94
317.607	84.94
317.836	86.94
318.065	85.94
318.295	91.94
318.524	79.94
318.753	97.94
318.983	97.94
319.212	95.94
319.441	82.94
319.67	106.94
319.9	90.94
320.129	98.94
320.358	97.94
320.587	97.94
320.816	98.94
321.046	95.94
321.275	103.94
321.504	95.94
321.733	88.94
321.962	84.94
322.191	106.94
322.42	96.94
322.649	97.94
322.878	111.94
323.108	115.94
323.337	119.94
323.566	127.94
323.795	150.94
324.024	198.94
324.253	404.94
324.482	824.94
324.71	1689.94
324.939	2157.94
325.168	795.94
325.397	230.94
325.626	150.94
325.855	116.94
326.084	124.94
326.313	122.94
326.542	154.94
326.77	233.94
326.999	455.94
327.228	929.94
327.457	1659.94
327.686	1345.94
327.914	369.94
328.143	187.94
328.372	134.94
328.6	122.94
328.829	112.94
329.058	129.94
329.287	128.94
329.515	104.94
329.744	102.94
329.972	109.94
330.201	100.94
330.43	100.94
330.658	118.94
330.887	128.94
331.115	114.94
331.344	95.94
331.572	86.94
331.801	99.94
332.03	92.94
332.258	89.94
332.486	79.94
332.715	93.94
332.943	102.94
333.172	92.94
333.4	94.94
333.629	103.94
333.857	116.94
334.085	108.94
334.314	84.94
334.542	81.94
334.771	105.94
334.999	95.94
335.227	82.94
335.455	80.94
335.684	92.94
335.912	99.94
336.14	97.94
336.369	99.94
336.597	88.94
336.825	84.94
337.053	93.94
337.281	107.94
337.51	88.94
337.738	90.94
337.966	89.94
338.194	86.94
338.422	101.94
338.65	79.94
338.878	87.94
339.106	88.94
339.334	85.94
339.562	83.94
339.79	81.94
340.018	91.94
340.246	93.94
340.474	100.94
340.702	84.94
340.93	84.94
341.158	102.94
341.386	103.94
341.614	103.94
341.842	89.94
342.07	94.94
342.298	85.94
342.526	84.94
342.754	86.94
342.981	78.94
343.209	92.94
343.437	108.94
343.665	90.94
343.893	93.94
344.12	99.94
344.348	85.94
344.576	99.94
344.804	98.94
345.031	97.94
345.259	96.94
345.487	82.94
345.714	89.94
345.942	94.94
346.17	109.94
346.397	95.94
346.625	92.94
346.853	97.94
347.08	92.94
347.308	81.94
347.535	102.94
347.763	101.94
347.99	91.94
348.218	105.94
348.445	107.94
348.673	107.94
348.9	84.94
349.128	92.94
349.355	86.94
349.583	90.94
349.81	85.94
350.037	93.94
350.265	98.94
350.492	95.94
350.72	100.94
350.947	105.94
351.174	100.94
351.402	111.94
351.629	108.94
351.856	89.94
352.083	92.94
352.311	106.94
352.538	111.94
352.765	130.94
352.992	110.94
353.22	111.94
353.447	98.94
353.674	93.94
353.901	101.94
354.128	85.94
354.355	80.94
354.583	77.94
354.81	97.94
355.037	100.94
355.264	93.94
355.491	100.94
355.718	93.94
355.945	95.94
356.172	90.94
356.399	94.94
356.626	92.94
356.853	82.94
357.08	85.94
357.307	98.94
357.534	88.94
357.761	84.94
357.988	107.94
358.215	89.94
358.441	95.94
358.668	80.94
358.895	73.94
359.122	95.94
359.349	88.94
359.576	85.94
359.802	99.94
360.029	101.94
360.256	115.94
360.483	82.94
360.709	89.94
360.936	86.94
361.163	116.94
361.39	104.94
361.616	91.94
361.843	83.94
362.07	91.94
362.296	88.94
362.523	91.94
362.749	87.94
362.976	87.94
363.203	84.94
363.429	100.94
363.656	81.94
363.882	88.94
364.109	83.94
364.335	92.94
364.562	91.94
364.788	87.94
365.015	69.94
365.241	102.94
365.468	98.94
365.694	109.94
365.92	76.94
366.147	89.94
366.373	91.94
366.599	74.94
366.826	90.94
367.052	95.94
367.278	95.94
367.505	91.94
367.731	84.94
367.957	86.94
368.184	97.94
368.41	102.94
368.636	103.94
368.862	121.94
369.089	116.94
369.315	87.94
369.541	95.94
369.767	88.94
369.993	87.94
370.219	93.94
370.445	82.94
370.672	76.94
370.898	89.94
371.124	89.94
371.35	78.94
371.576	84.94
371.802	90.94
372.028	92.94
372.254	96.94
372.48	91.94
372.706	87.94
372.932	79.94
373.158	86.94
373.384	82.94
373.61	86.94
373.835	85.94
374.061	82.94
374.287	97.94
374.513	90.94
374.739	86.94
374.965	88.94
375.191	83.94
375.416	83.94
375.642	84.94
375.868	89.94
376.094	79.94
376.319	86.94
376.545	87.94
376.771	86.94
376.997	91.94
377.222	87.94
377.448	92.94
377.674	87.94
377.899	90.94
378.125	80.94
378.35	88.94
378.576	97.94
378.802	91.94
379.027	87.94
379.253	108.94
379.478	91.94
379.704	74.94
379.929	75.94
380.155	82.94
380.38	95.94
380.606	101.94
380.831	95.94
381.057	102.94
381.282	93.94
381.507	89.94
381.733	104.94
381.958	97.94
382.184	99.94
382.409	89.94
382.634	85.94
382.86	98.94
383.085	108.94
383.31	102.94
383.535	108.94
383.761	91.94
383.986	102.94
384.211	106.94
384.436	84.94
384.662	88.94
384.887	100.94
385.112	87.94
385.337	95.94
385.562	107.94
385.787	92.94
386.013	101.94
386.238	106.94
386.463	98.94
386.688	107.94
386.913	100.94
387.138	91.94
387.363	101.94
387.588	106.94
387.813	89.94
388.038	96.94
388.263	107.94
388.488	104.94
388.713	105.94
388.938	108.94
389.163	89.94
389.387	113.94
389.612	96.94
389.837	85.94
390.062	97.94
390.287	83.94
390.512	100.94
390.736	90.94
390.961	87.94
391.186	93.94
391.411	98.94
391.636	103.94
391.86	81.94
392.085	88.94
392.31	87.94
392.534	87.94
392.759	79.94
392.984	83.94
393.208	92.94
393.433	73.94
393.658	85.94
393.882	103.94
394.107	83.94
394.331	86.94
394.556	73.94
394.78	92.94
395.005	86.94
395.229	93.94
395.454	90.94
395.678	95.94
395.903	97.94
396.127	70.94
396.352	77.94
396.576	92.94
396.801	97.94
397.025	83.94
397.249	87.94
397.474	95.94
397.698	105.94
397.922	89.94
398.147	90.94
398.371	83.94
398.595	90.94
398.82	70.94
399.044	81.94
399.268	82.94
399.492	91.94
399.717	88.94
399.941	83.94
400.165	85.94
400.389	84.94
400.613	75.94
400.837	86.94
401.062	94.94
401.286	85.94
401.51	79.94
401.734	87.94
401.958	92.94
402.182	113.94
402.406	151.94
402.63	122.94
402.854	82.94
403.078	76.94
403.302	95.94
403.526	79.94
403.75	84.94
403.974	87.94
404.198	84.94
404.422	90.94
404.645	91.94
404.869	87.94
405.093	85.94
405.317	100.94
405.541	99.94
405.765	89.94
405.988	100.94
406.212	148.94
406.436	208.94
406.66	137.94
406.883	109.94
407.107	90.94
407.331	81.94
407.555	103.94
407.778	93.94
408.002	95.94
408.226	94.94
408.449	86.94
408.673	80.94
408.896	102.94
409.12	97.94
409.344	99.94
409.567	98.94
409.791	110.94
410.014	92.94
410.238	103.94
410.461	96.94
410.685	92.94
410.908	99.94
411.132	101.94
411.355	93.94
411.578	94.94
411.802	103.94
412.025	77.94
412.249	80.94
412.472	85.94
412.695	67.94
412.919	83.94
413.142	76.94
413.365	85.94
413.589	93.94
413.812	96.94
414.035	100.94
414.258	91.94
414.482	100.94
414.705	85.94
414.928	84.94
415.151	89.94
415.374	81.94
415.597	100.94
415.821	95.94
416.044	98.94
416.267	89.94
416.49	99.94
416.713	80.94
416.936	74.94
417.159	83.94
417.382	91.94
417.605	87.94
417.828	95.94
418.051	97.94
418.274	77.94
418.497	90.94
418.72	96.94
418.943	103.94
419.166	93.94
419.389	77.94
419.611	98.94
419.834	89.94
420.057	87.94
420.28	90.94
420.503	88.94
420.726	99.94
420.948	88.94
421.171	77.94
421.394	94.94
421.617	84.94
421.839	104.94
422.062	84.94
422.285	95.94
422.507	111.94
422.73	84.94
422.953	101.94
423.175	86.94
423.398	81.94
423.621	99.94
423.843	97.94
424.066	85.94
424.288	93.94
424.511	79.94
424.733	92.94
424.956	99.94
425.178	92.94
425.401	120.94
425.623	105.94
425.846	100.94
426.068	98.94
426.291	90.94
426.513	104.94
426.735	92.94
426.958	81.94
427.18	109.94
427.402	135.94
427.625	145.94
427.847	123.94
428.069	102.94
428.292	88.94
428.514	88.94
428.736	84.94
428.958	88.94
429.181	74.94
429.403	76.94
429.625	93.94
429.847	84.94
430.069	90.94
430.292	71.94
430.514	77.94
430.736	87.94
430.958	77.94
431.18	84.94
431.402	79.94
431.624	97.94
431.846	74.94
432.068	88.94
432.29	82.94
432.512	91.94
432.734	88.94
432.956	77.94
433.178	95.94
433.4	80.94
433.622	88.94
433.844	85.94
434.066	81.94
434.287	81.94
434.509	90.94
434.731	93.94
434.953	91.94
435.175	80.94
435.397	91.94
435.618	89.94
435.84	109.94
436.062	120.94
436.284	102.94
436.505	101.94
436.727	98.94
436.949	92.94
437.17	83.94
437.392	83.94
437.614	99.94
437.835	102.94
438.057	103.94
438.278	95.94
438.5	93.94
438.721	113.94
438.943	100.94
439.165	100.94
439.386	91.94
439.608	87.94
439.829	87.94
440.05	125.94
440.272	133.94
440.493	111.94
440.715	79.94
440.936	88.94
441.158	80.94
441.379	81.94
441.6	84.94
441.822	85.94
442.043	95.94
442.264	100.94
442.486	95.94
442.707	97.94
442.928	97.94
443.149	119.94
443.371	129.94
443.592	105.94
443.813	101.94
444.034	101.94
444.255	93.94
444.476	76.94
444.698	82.94
444.919	90.94
445.14	122.94
445.361	123.94
445.582	100.94
445.803	119.94
446.024	139.94
446.245	140.94
446.466	114.94
446.687	73.94
446.908	97.94
447.129	89.94
447.35	77.94
447.571	88.94
447.792	88.94
448.013	108.94
448.234	99.94
448.455	106.94
448.675	117.94
448.896	121.94
449.117	88.94
449.338	102.94
449.559	103.94
449.779	122.94
450	90.94
450.221	86.94
450.442	81.94
450.662	84.94
450.883	99.94
451.104	103.94
451.324	92.94
451.545	91.94
451.766	84.94
451.986	95.94
452.207	93.94
452.428	90.94
452.648	90.94
452.869	122.94
453.089	99.94
453.31	105.94
453.53	91.94
453.751	88.94
453.971	99.94
454.192	103.94
454.412	92.94
454.633	87.94
454.853	91.94
455.073	88.94
455.294	86.94
455.514	98.94
455.734	87.94
455.955	87.94
456.175	83.94
456.395	93.94
456.616	86.94
456.836	81.94
457.056	74.94
457.276	85.94
457.497	82.94
457.717	86.94
457.937	86.94
458.157	82.94
458.377	85.94
458.598	98.94
458.818	150.94
459.038	133.94
459.258	104.94
459.478	69.94
459.698	75.94
459.918	100.94
460.138	76.94
460.358	82.94
460.578	86.94
460.798	93.94
461.018	99.94
461.238	92.94
461.458	81.94
461.678	83.94
461.898	72.94
462.118	94.94
462.338	96.94
462.558	80.94
462.777	88.94
462.997	85.94
463.217	80.94
463.437	93.94
463.657	77.94
463.876	91.94
464.096	76.94
464.316	88.94
464.536	95.94
464.755	96.94
464.975	108.94
465.195	167.94
465.414	131.94
465.634	96.94
465.854	90.94
466.073	81.94
466.293	87.94
466.512	87.94
466.732	81.94
466.951	72.94
467.171	84.94
467.391	94.94
467.61	93.94
467.829	103.94
468.049	80.94
468.268	77.94
468.488	77.94
468.707	88.94
468.927	79.94
469.146	87.94
469.365	92.94
469.585	79.94
469.804	101.94
470.023	107.94
470.243	71.94
470.462	84.94
470.681	109.94
470.901	90.94
471.12	79.94
471.339	94.94
471.558	103.94
471.777	80.94
471.997	87.94
472.216	82.94
472.435	90.94
472.654	86.94
472.873	98.94
473.092	90.94
473.311	86.94
473.53	84.94
473.749	101.94
473.968	99.94
474.187	97.94
474.406	87.94
474.625	63.94
474.844	79.94
475.063	91.94
475.282	90.94
475.501	79.94
475.72	106.94
475.939	86.94
476.158	90.94
476.377	75.94
476.596	89.94
476.814	87.94
477.033	86.94
477.252	92.94
477.471	76.94
477.69	93.94
477.908	85.94
478.127	89.94
478.346	97.94
478.564	96.94
478.783	98.94
479.002	93.94
479.22	91.94
479.439	96.94
479.658	108.94
479.876	91.94
480.095	65.94
480.313	84.94
480.532	89.94
480.751	93.94
480.969	100.94
481.188	100.94
481.406	93.94
481.624	95.94
481.843	85.94
482.061	83.94
482.28	88.94
482.498	85.94
482.717	75.94
482.935	81.94
483.153	83.94
483.372	85.94
483.59	84.94
483.808	75.94
484.027	82.94
484.245	82.94
484.463	88.94
484.681	99.94
484.9	87.94
485.118	101.94
485.336	79.94
485.554	83.94
485.772	87.94
485.99	92.94
486.209	93.94
486.427	96.94
486.645	90.94
486.863	106.94
487.081	83.94
487.299	99.94
487.517	110.94
487.735	94.94
487.953	92.94
488.171	98.94
488.389	82.94
488.607	119.94
488.825	92.94
489.043	79.94
489.261	91.94
489.479	79.94
489.696	86.94
489.914	84.94
490.132	88.94
490.35	87.94
490.568	88.94
490.786	92.94
491.003	77.94
491.221	65.94
491.439	85.94
491.657	101.94
491.874	96.94
492.092	95.94
492.31	87.94
492.527	83.94
492.745	86.94
492.963	83.94
493.18	84.94
493.398	100.94
493.615	108.94
493.833	100.94
494.05	79.94
494.268	91.94
494.485	75.94
494.703	87.94
494.92	93.94
495.138	90.94
495.355	86.94
495.573	89.94
495.79	91.94
496.008	93.94
496.225	85.94
496.442	92.94
496.66	93.94
496.877	91.94
497.094	90.94
497.312	96.94
497.529	89.94
497.746	83.94
497.963	88.94
498.181	79.94
498.398	97.94
498.615	105.94
498.832	97.94
499.049	93.94
499.267	89.94
499.484	104.94
499.701	95.94
499.918	89.94
500.135	91.94
500.352	84.94
500.569	86.94
500.786	101.94
501.003	87.94
501.22	84.94
501.437	99.94
501.654	97.94
501.871	109.94
502.088	90.94
502.305	92.94
502.522	88.94
502.739	78.94
502.956	87.94
503.172	83.94
503.389	77.94
503.606	103.94
503.823	101.94
504.04	94.94
504.256	92.94
504.473	78.94
504.69	83.94
504.907	87.94
505.123	83.94
505.34	82.94
505.557	92.94
505.773	84.94
505.99	88.94
506.207	81.94
506.423	93.94
506.64	96.94
506.856	87.94
507.073	90.94
507.289	98.94
507.506	87.94
507.722	109.94
507.939	93.94
508.155	87.94
508.372	95.94
508.588	91.94
508.805	90.94
509.021	92.94
509.238	110.94
509.454	93.94
509.67	114.94
509.887	109.94
510.103	121.94
510.319	203.94
510.536	748.94
510.752	2381.94
510.968	658.94
511.184	167.94
511.401	123.94
511.617	105.94
511.833	98.94
512.049	92.94
512.265	91.94
512.481	82.94
512.698	95.94
512.914	93.94
513.13	88.94
513.346	91.94
513.562	95.94
513.778	100.94
513.994	95.94
514.21	99.94
514.426	117.94
514.642	114.94
514.858	141.94
515.074	155.94
515.29	428.94
515.506	1361.94
515.721	496.94
515.937	127.94
516.153	101.94
516.369	103.94
