Data from Uncirc_2000_H10_HRD10591_00035.txt Node
Date: Wed Jan 03 10:48:24 EST 2024
User: Yrep
Spectrometer: HR+D1059
Trigger mode: 1
Integration Time (sec): 1.000000E-1
Scans to average: 1
Electric dark correction enabled: true
Nonlinearity correction enabled: false
Boxcar width: 0
XAxis mode: Wavelengths
Number of Pixels in Spectrum: 2048
>>>>>Begin Spectral Data<<<<<
223.165	-18.81
223.4	-18.81
223.635	-18.81
223.869	-10.81
224.104	-22.81
224.338	-19.81
224.573	-19.81
224.808	-16.81
225.042	-21.81
225.277	5.19
225.511	-8.81
225.746	1.19
225.98	11.19
226.215	11.19
226.449	34.19
226.683	18.19
226.918	28.19
227.152	30.19
227.387	56.19
227.621	39.19
227.856	45.19
228.09	41.19
228.324	47.19
228.559	55.19
228.793	162.19
229.027	436.19
229.262	503.19
229.496	574.19
229.73	756.19
229.964	752.19
230.199	520.19
230.433	457.19
230.667	449.19
230.901	428.19
231.136	442.19
231.37	422.19
231.604	421.19
231.838	422.19
232.072	415.19
232.306	433.19
232.541	452.19
232.775	465.19
233.009	446.19
233.243	433.19
233.477	466.19
233.711	480.19
233.945	478.19
234.179	478.19
234.413	492.19
234.647	479.19
234.881	499.19
235.115	506.19
235.349	542.19
235.583	539.19
235.817	589.19
236.051	596.19
236.285	602.19
236.519	579.19
236.753	681.19
236.987	854.19
237.221	1329.19
237.455	1415.19
237.689	862.19
237.922	703.19
238.156	705.19
238.39	647.19
238.624	625.19
238.858	623.19
239.091	635.19
239.325	629.19
239.559	654.19
239.793	657.19
240.027	746.19
240.26	854.19
240.494	922.19
240.728	897.19
240.961	866.19
241.195	777.19
241.429	745.19
241.662	713.19
241.896	731.19
242.13	742.19
242.363	741.19
242.597	750.19
242.83	786.19
243.064	783.19
243.298	786.19
243.531	787.19
243.765	800.19
243.998	806.19
244.232	805.19
244.465	861.19
244.699	837.19
244.932	860.19
245.166	883.19
245.399	837.19
245.633	870.19
245.866	883.19
246.099	883.19
246.333	884.19
246.566	905.19
246.8	917.19
247.033	953.19
247.266	986.19
247.5	1036.19
247.733	1098.19
247.966	1059.19
248.2	1074.19
248.433	1115.19
248.666	1167.19
248.899	1283.19
249.133	1392.19
249.366	1337.19
249.599	1221.19
249.832	1143.19
250.066	1175.19
250.299	1186.19
250.532	1255.19
250.765	1425.19
250.998	1611.19
251.231	1526.19
251.465	1431.19
251.698	1352.19
251.931	1336.19
252.164	1323.19
252.397	1337.19
252.63	1402.19
252.863	1503.19
253.096	1598.19
253.329	1667.19
253.562	1599.19
253.795	1518.19
254.028	1511.19
254.261	1583.19
254.494	1736.19
254.727	2035.19
254.96	2133.19
255.193	1847.19
255.426	1628.19
255.659	1577.19
255.892	1518.19
256.124	1473.19
256.357	1457.19
256.59	1460.19
256.823	1437.19
257.056	1413.19
257.289	1426.19
257.521	1470.19
257.754	1461.19
257.987	1496.19
258.22	1501.19
258.452	1440.19
258.685	1477.19
258.918	1522.19
259.151	1558.19
259.383	1614.19
259.616	1634.19
259.849	1694.19
260.081	1879.19
260.314	1977.19
260.547	1960.19
260.779	1743.19
261.012	1683.19
261.244	1672.19
261.477	1606.19
261.71	1623.19
261.942	1659.19
262.175	1695.19
262.407	1660.19
262.64	1572.19
262.872	1593.19
263.105	1547.19
263.337	1515.19
263.57	1603.19
263.802	1601.19
264.035	1592.19
264.267	1625.19
264.499	1606.19
264.732	1612.19
264.964	1622.19
265.197	1628.19
265.429	1661.19
265.661	1649.19
265.894	1656.19
266.126	1679.19
266.358	1738.19
266.591	1693.19
266.823	1831.19
267.055	1827.19
267.287	1828.19
267.52	1750.19
267.752	1802.19
267.984	1786.19
268.216	1801.19
268.448	1857.19
268.681	1965.19
268.913	2061.19
269.145	2254.19
269.377	2283.19
269.609	2197.19
269.841	2181.19
270.073	2290.19
270.306	2553.19
270.538	2638.19
270.77	2558.19
271.002	2449.19
271.234	2369.19
271.466	2495.19
271.698	2627.19
271.93	2650.19
272.162	2677.19
272.394	2559.19
272.626	2398.19
272.858	2279.19
273.09	2227.19
273.322	2190.19
273.553	2142.19
273.785	2147.19
274.017	2174.19
274.249	2179.19
274.481	2184.19
274.713	2182.19
274.945	2225.19
275.176	2211.19
275.408	2179.19
275.64	2176.19
275.872	2168.19
276.104	2212.19
276.335	2221.19
276.567	2295.19
276.799	2473.19
277.031	2673.19
277.262	2803.19
277.494	2658.19
277.726	2444.19
277.957	2398.19
278.189	2354.19
278.421	2316.19
278.652	2271.19
278.884	2291.19
279.115	2283.19
279.347	2351.19
279.579	2336.19
279.81	2279.19
280.042	2281.19
280.273	2302.19
280.505	2343.19
280.736	2367.19
280.968	2314.19
281.199	2345.19
281.431	2363.19
281.662	2364.19
281.894	2414.19
282.125	2438.19
282.356	2580.19
282.588	2691.19
282.819	2581.19
283.051	2451.19
283.282	2428.19
283.513	2418.19
283.745	2509.19
283.976	2485.19
284.207	2561.19
284.439	2543.19
284.67	2600.19
284.901	2521.19
285.132	2537.19
285.364	2566.19
285.595	2566.19
285.826	2568.19
286.057	2589.19
286.288	2598.19
286.52	2618.19
286.751	2566.19
286.982	2643.19
287.213	2639.19
287.444	2631.19
287.675	2685.19
287.906	2787.19
288.138	2870.19
288.369	2864.19
288.6	2830.19
288.831	2814.19
289.062	2738.19
289.293	2722.19
289.524	2740.19
289.755	2754.19
289.986	2718.19
290.217	2725.19
290.448	2765.19
290.679	2733.19
290.91	2741.19
291.141	2730.19
291.371	2739.19
291.602	2720.19
291.833	2733.19
292.064	2719.19
292.295	2765.19
292.526	2789.19
292.757	2739.19
292.987	2709.19
293.218	2736.19
293.449	2782.19
293.68	2769.19
293.91	2805.19
294.141	2732.19
294.372	2741.19
294.603	2793.19
294.833	2829.19
295.064	2826.19
295.295	2793.19
295.525	2818.19
295.756	2876.19
295.987	2926.19
296.217	3042.19
296.448	3029.19
296.679	2866.19
296.909	2881.19
297.14	2916.19
297.37	2952.19
297.601	2960.19
297.831	2936.19
298.062	2971.19
298.292	2998.19
298.523	3031.19
298.753	3036.19
298.984	3025.19
299.214	2999.19
299.445	3060.19
299.675	3006.19
299.905	3048.19
300.136	3057.19
300.366	3096.19
300.597	3074.19
300.827	3140.19
301.057	3258.19
301.288	3311.19
301.518	3247.19
301.748	3212.19
301.979	3330.19
302.209	3293.19
302.439	3267.19
302.669	3234.19
302.9	3270.19
303.13	3171.19
303.36	3250.19
303.59	3255.19
303.82	3274.19
304.051	3269.19
304.281	3227.19
304.511	3188.19
304.741	3238.19
304.971	3247.19
305.201	3177.19
305.431	3195.19
305.661	3208.19
305.891	3202.19
306.121	3177.19
306.352	3245.19
306.582	3184.19
306.812	3165.19
307.042	3170.19
307.272	3219.19
307.502	3122.19
307.731	3249.19
307.961	3227.19
308.191	3167.19
308.421	3144.19
308.651	3273.19
308.881	3234.19
309.111	3289.19
309.341	3270.19
309.571	3358.19
309.8	3436.19
310.03	3492.19
310.26	3486.19
310.49	3475.19
310.72	3558.19
310.949	3690.19
311.179	3597.19
311.409	3521.19
311.639	3557.19
311.868	3534.19
312.098	3570.19
312.328	3693.19
312.557	3773.19
312.787	3807.19
313.017	3802.19
313.246	3684.19
313.476	3582.19
313.706	3758.19
313.935	3790.19
314.165	3860.19
314.394	3817.19
314.624	3767.19
314.853	3743.19
315.083	3689.19
315.312	3681.19
315.542	3619.19
315.771	3630.19
316.001	3585.19
316.23	3589.19
316.46	3554.19
316.689	3655.19
316.919	3708.19
317.148	3752.19
317.377	3653.19
317.607	3594.19
317.836	3595.19
318.065	3562.19
318.295	3611.19
318.524	3591.19
318.753	3587.19
318.983	3593.19
319.212	3546.19
319.441	3677.19
319.67	3712.19
319.9	3597.19
320.129	3645.19
320.358	3650.19
320.587	3646.19
320.816	3725.19
321.046	3721.19
321.275	3744.19
321.504	3762.19
321.733	3733.19
321.962	3781.19
322.191	3922.19
322.42	3996.19
322.649	4077.19
322.878	4130.19
323.108	4172.19
323.337	4419.19
323.566	4460.19
323.795	4851.19
324.024	5355.19
324.253	7082.19
324.482	10586.19
324.71	14904.19
324.939	15615.19
325.168	11849.19
325.397	6257.19
325.626	5111.19
325.855	4747.19
326.084	4557.19
326.313	4678.19
326.542	4755.19
326.77	5355.19
326.999	6756.19
327.228	9779.19
327.457	13907.19
327.686	12921.19
327.914	6907.19
328.143	5539.19
328.372	5160.19
328.6	4997.19
328.829	5023.19
329.058	5085.19
329.287	5048.19
329.515	4769.19
329.744	4606.19
329.972	4624.19
330.201	4710.19
330.43	4949.19
330.658	5227.19
330.887	5481.19
331.115	5131.19
331.344	4842.19
331.572	4749.19
331.801	4808.19
332.03	4833.19
332.258	4842.19
332.486	4883.19
332.715	4971.19
332.943	5132.19
333.172	5247.19
333.4	5309.19
333.629	5451.19
333.857	5457.19
334.085	5386.19
334.314	5290.19
334.542	5236.19
334.771	5240.19
334.999	5149.19
335.227	5103.19
335.455	5019.19
335.684	4915.19
335.912	4921.19
336.14	4821.19
336.369	4849.19
336.597	4875.19
336.825	4806.19
337.053	4707.19
337.281	4701.19
337.51	4618.19
337.738	4612.19
337.966	4565.19
338.194	4627.19
338.422	4499.19
338.65	4462.19
338.878	4440.19
339.106	4470.19
339.334	4397.19
339.562	4373.19
339.79	4310.19
340.018	4277.19
340.246	4281.19
340.474	4341.19
340.702	4326.19
340.93	4311.19
341.158	4332.19
341.386	4311.19
341.614	4323.19
341.842	4315.19
342.07	4214.19
342.298	4179.19
342.526	4219.19
342.754	4269.19
342.981	4197.19
343.209	4361.19
343.437	4593.19
343.665	4811.19
343.893	5156.19
344.12	5118.19
344.348	4905.19
344.576	4691.19
344.804	4677.19
345.031	4539.19
345.259	4517.19
345.487	4357.19
345.714	4239.19
345.942	4171.19
346.17	4115.19
346.397	4115.19
346.625	4131.19
346.853	4120.19
347.08	4128.19
347.308	4209.19
347.535	4174.19
347.763	4235.19
347.99	4189.19
348.218	4237.19
348.445	4253.19
348.673	4111.19
348.9	4075.19
349.128	4018.19
349.355	4040.19
349.583	4020.19
349.81	3986.19
350.037	3953.19
350.265	3969.19
350.492	4020.19
350.72	4001.19
350.947	4028.19
351.174	4092.19
351.402	4109.19
351.629	4025.19
351.856	4127.19
352.083	4201.19
352.311	4128.19
352.538	4113.19
352.765	4086.19
352.992	4093.19
353.22	4040.19
353.447	3965.19
353.674	3915.19
353.901	3933.19
354.128	3911.19
354.355	3895.19
354.583	3856.19
354.81	3865.19
355.037	3873.19
355.264	3956.19
355.491	3884.19
355.718	3898.19
355.945	3868.19
356.172	3929.19
356.399	3887.19
356.626	3866.19
356.853	3877.19
357.08	3893.19
357.307	3897.19
357.534	3881.19
357.761	3952.19
357.988	3941.19
358.215	3905.19
358.441	3856.19
358.668	3955.19
358.895	4024.19
359.122	4029.19
359.349	4057.19
359.576	4189.19
359.802	4359.19
360.029	4503.19
360.256	4477.19
360.483	4314.19
360.709	4158.19
360.936	4129.19
361.163	4097.19
361.39	4131.19
361.616	4069.19
361.843	4025.19
362.07	4092.19
362.296	4097.19
362.523	4141.19
362.749	4066.19
362.976	4026.19
363.203	3992.19
363.429	3970.19
363.656	3985.19
363.882	4002.19
364.109	3925.19
364.335	3948.19
364.562	3977.19
364.788	3940.19
365.015	3990.19
365.241	3963.19
365.468	4017.19
365.694	4027.19
365.92	4029.19
366.147	3932.19
366.373	3962.19
366.599	3940.19
366.826	3893.19
367.052	3879.19
367.278	4017.19
367.505	3999.19
367.731	4025.19
367.957	4002.19
368.184	4009.19
368.41	4088.19
368.636	4199.19
368.862	4143.19
369.089	4050.19
369.315	4036.19
369.541	4019.19
369.767	4112.19
369.993	4105.19
370.219	4106.19
370.445	4172.19
370.672	4119.19
370.898	4161.19
371.124	4215.19
371.35	4278.19
371.576	4231.19
371.802	4217.19
372.028	4201.19
372.254	4178.19
372.48	4317.19
372.706	4355.19
372.932	4363.19
373.158	4370.19
373.384	4279.19
373.61	4289.19
373.835	4292.19
374.061	4400.19
374.287	4450.19
374.513	4389.19
374.739	4575.19
374.965	4653.19
375.191	4641.19
375.416	4606.19
375.642	4458.19
375.868	4366.19
376.094	4319.19
376.319	4324.19
376.545	4293.19
376.771	4305.19
376.997	4271.19
377.222	4241.19
377.448	4300.19
377.674	4267.19
377.899	4160.19
378.125	4238.19
378.35	4152.19
378.576	4159.19
378.802	4175.19
379.027	4207.19
379.253	4237.19
379.478	4189.19
379.704	4214.19
379.929	4187.19
380.155	4307.19
380.38	4226.19
380.606	4253.19
380.831	4254.19
381.057	4239.19
381.282	4261.19
381.507	4266.19
381.733	4310.19
381.958	4321.19
382.184	4398.19
382.409	4446.19
382.634	4469.19
382.86	4460.19
383.085	4579.19
383.31	4599.19
383.535	4671.19
383.761	4665.19
383.986	4844.19
384.211	4961.19
384.436	4949.19
384.662	5008.19
384.887	5121.19
385.112	5084.19
385.337	5106.19
385.562	5062.19
385.787	5145.19
386.013	5292.19
386.238	5205.19
386.463	5245.19
386.688	5201.19
386.913	5102.19
387.138	5108.19
387.363	5126.19
387.588	5005.19
387.813	5055.19
388.038	5010.19
388.263	5100.19
388.488	5092.19
388.713	5132.19
388.938	5113.19
389.163	5049.19
389.387	5067.19
389.612	4981.19
389.837	5052.19
390.062	4965.19
390.287	5019.19
390.512	4990.19
390.736	5182.19
390.961	5213.19
391.186	5235.19
391.411	5419.19
391.636	5532.19
391.86	5681.19
392.085	5777.19
392.31	5601.19
392.534	5514.19
392.759	5444.19
392.984	5356.19
393.208	5338.19
393.433	5240.19
393.658	5276.19
393.882	5267.19
394.107	5313.19
394.331	5326.19
394.556	5380.19
394.78	5489.19
395.005	5413.19
395.229	5407.19
395.454	5724.19
395.678	5727.19
395.903	5742.19
396.127	5849.19
396.352	5581.19
396.576	5460.19
396.801	5341.19
397.025	5507.19
397.249	5601.19
397.474	5756.19
397.698	5774.19
397.922	5938.19
398.147	6025.19
398.371	6036.19
398.595	6121.19
398.82	6564.19
399.044	7112.19
399.268	7847.19
399.492	8885.19
399.717	9596.19
399.941	9241.19
400.165	8615.19
400.389	7933.19
400.613	7186.19
400.837	6727.19
401.062	6611.19
401.286	6499.19
401.51	6338.19
401.734	6358.19
401.958	6554.19
402.182	6675.19
402.406	6852.19
402.63	6809.19
402.854	6904.19
403.078	7013.19
403.302	7199.19
403.526	7295.19
403.75	7343.19
403.974	7396.19
404.198	7332.19
404.422	7382.19
404.645	7318.19
404.869	7219.19
405.093	7281.19
405.317	7473.19
405.541	7427.19
405.765	7077.19
405.988	7112.19
406.212	7183.19
406.436	7505.19
406.66	7567.19
406.883	7603.19
407.107	8282.19
407.331	8739.19
407.555	9241.19
407.778	8886.19
408.002	8103.19
408.226	7710.19
408.449	7751.19
408.673	7596.19
408.896	7688.19
409.12	7860.19
409.344	7376.19
409.567	7034.19
409.791	7092.19
410.014	6932.19
410.238	6933.19
410.461	6957.19
410.685	6870.19
410.908	6971.19
411.132	7149.19
411.355	7232.19
411.578	6837.19
411.802	6534.19
412.025	6677.19
412.249	6708.19
412.472	6658.19
412.695	6517.19
412.919	6324.19
413.142	6379.19
413.365	6377.19
413.589	6347.19
413.812	6305.19
414.035	6188.19
414.258	6240.19
414.482	6334.19
414.705	6372.19
414.928	6362.19
415.151	6244.19
415.374	6317.19
415.597	6217.19
415.821	6133.19
416.044	6204.19
416.267	6173.19
416.49	6095.19
416.713	6163.19
416.936	6250.19
417.159	6221.19
417.382	6284.19
417.605	6265.19
417.828	6399.19
418.051	6616.19
418.274	6445.19
418.497	6294.19
418.72	6465.19
418.943	6322.19
419.166	6839.19
419.389	7196.19
419.611	7028.19
419.834	6759.19
420.057	6688.19
420.28	6413.19
420.503	6324.19
420.726	6386.19
420.948	6562.19
421.171	6918.19
421.394	6861.19
421.617	6476.19
421.839	6384.19
422.062	6490.19
422.285	6666.19
422.507	7259.19
422.73	7857.19
422.953	7201.19
423.175	6899.19
423.398	6925.19
423.621	6923.19
423.843	7181.19
424.066	7095.19
424.288	7070.19
424.511	7366.19
424.733	7716.19
424.956	8095.19
425.178	7603.19
425.401	7786.19
425.623	7604.19
425.846	6729.19
426.068	6527.19
426.291	6396.19
426.513	6441.19
426.735	6582.19
426.958	7007.19
427.18	7722.19
427.402	8834.19
427.625	8789.19
427.847	7389.19
428.069	6502.19
428.292	6254.19
428.514	5963.19
428.736	5877.19
428.958	5850.19
429.181	5736.19
429.403	5722.19
429.625	5844.19
429.847	6290.19
430.069	6716.19
430.292	6254.19
430.514	5795.19
430.736	5722.19
430.958	5725.19
431.18	5614.19
431.402	5620.19
431.624	5524.19
431.846	5679.19
432.068	5656.19
432.29	5769.19
432.512	5626.19
432.734	5714.19
432.956	5674.19
433.178	5774.19
433.4	5774.19
433.622	5670.19
433.844	5640.19
434.066	5707.19
434.287	5805.19
434.509	6037.19
434.731	6293.19
434.953	6489.19
435.175	6514.19
435.397	6535.19
435.618	6555.19
435.84	6819.19
436.062	7658.19
436.284	7553.19
436.505	6428.19
436.727	6159.19
436.949	5899.19
437.17	5779.19
437.392	5769.19
437.614	5863.19
437.835	6204.19
438.057	7157.19
438.278	7707.19
438.5	7671.19
438.721	8593.19
438.943	7396.19
439.165	6275.19
439.386	6111.19
439.608	6171.19
439.829	6306.19
440.05	6637.19
440.272	6865.19
440.493	6404.19
440.715	6037.19
440.936	5983.19
441.158	6110.19
441.379	6188.19
441.6	6507.19
441.822	6746.19
442.043	7234.19
442.264	7875.19
442.486	7587.19
442.707	6806.19
442.928	6691.19
443.149	6851.19
443.371	7018.19
443.592	7567.19
443.813	8475.19
444.034	8358.19
444.255	7387.19
444.476	7303.19
444.698	7519.19
444.919	7539.19
445.14	7264.19
445.361	7086.19
445.582	7278.19
445.803	7793.19
446.024	8349.19
446.245	8011.19
446.466	7317.19
446.687	6308.19
446.908	6023.19
447.129	5701.19
447.35	5646.19
447.571	5630.19
447.792	5429.19
448.013	5624.19
448.234	5820.19
448.455	6391.19
448.675	7600.19
448.896	7946.19
449.117	6577.19
449.338	6806.19
449.559	8044.19
449.779	8155.19
450	6343.19
450.221	5708.19
450.442	5470.19
450.662	5368.19
450.883	5409.19
451.104	5502.19
451.324	5373.19
451.545	5277.19
451.766	5137.19
451.986	5052.19
452.207	5027.19
452.428	5018.19
452.648	4995.19
452.869	5014.19
453.089	5154.19
453.31	5124.19
453.53	4996.19
453.751	4936.19
453.971	4951.19
454.192	5042.19
454.412	4947.19
454.633	4856.19
454.853	4814.19
455.073	4913.19
455.294	5274.19
455.514	5716.19
455.734	5192.19
455.955	4767.19
456.175	4675.19
456.395	4611.19
456.616	4563.19
456.836	4623.19
457.056	4564.19
457.276	4457.19
457.497	4710.19
457.717	4689.19
457.937	4748.19
458.157	4825.19
458.377	4916.19
458.598	5213.19
458.818	5857.19
459.038	6502.19
459.258	6473.19
459.478	5885.19
459.698	5702.19
459.918	5830.19
460.138	5982.19
460.358	6241.19
460.578	6167.19
460.798	6311.19
461.018	6270.19
461.238	6139.19
461.458	6167.19
461.678	6120.19
461.898	6228.19
462.118	6315.19
462.338	6617.19
462.558	6693.19
462.777	7113.19
462.997	7711.19
463.217	8077.19
463.437	7845.19
463.657	7305.19
463.876	7157.19
464.096	7081.19
464.316	7167.19
464.536	7239.19
464.755	6918.19
464.975	6764.19
465.195	6961.19
465.414	6868.19
465.634	6111.19
465.854	5785.19
466.073	5535.19
466.293	5400.19
466.512	5288.19
466.732	5130.19
466.951	5187.19
467.171	5149.19
467.391	5253.19
467.61	5261.19
467.829	5167.19
468.049	5154.19
468.268	4964.19
468.488	4974.19
468.707	4850.19
468.927	4940.19
469.146	4870.19
469.365	5029.19
469.585	4997.19
469.804	5234.19
470.023	5288.19
470.243	5266.19
470.462	5487.19
470.681	5558.19
470.901	5426.19
471.12	5267.19
471.339	5192.19
471.558	5212.19
471.777	5133.19
471.997	4931.19
472.216	4917.19
472.435	4938.19
472.654	4929.19
472.873	4862.19
473.092	4822.19
473.311	4841.19
473.53	4933.19
473.749	5053.19
473.968	5553.19
474.187	6401.19
474.406	5972.19
474.625	5197.19
474.844	4989.19
475.063	4975.19
475.282	4947.19
475.501	4977.19
475.72	5036.19
475.939	5083.19
476.158	5087.19
476.377	5091.19
476.596	5108.19
476.814	5313.19
477.033	5210.19
477.252	5354.19
477.471	5480.19
477.69	5629.19
477.908	5670.19
478.127	5900.19
478.346	5927.19
478.564	5996.19
478.783	6114.19
479.002	6258.19
479.22	6209.19
479.439	6334.19
479.658	6438.19
479.876	6489.19
480.095	6673.19
480.313	7054.19
480.532	6956.19
480.751	6795.19
480.969	6675.19
481.188	6517.19
481.406	6335.19
481.624	6107.19
481.843	5948.19
482.061	5874.19
482.28	5879.19
482.498	5826.19
482.717	5718.19
482.935	5817.19
483.153	5750.19
483.372	5783.19
483.59	5733.19
483.808	5756.19
484.027	5711.19
484.245	5883.19
484.463	5821.19
484.681	5938.19
484.9	6046.19
485.118	6067.19
485.336	6068.19
485.554	6105.19
485.772	6180.19
485.99	6120.19
486.209	6201.19
486.427	6189.19
486.645	6294.19
486.863	6353.19
487.081	6304.19
487.299	6264.19
487.517	6261.19
487.735	6126.19
487.953	6179.19
