Data from Uncirc_2000_H10_HRD10591_00004.txt Node
Date: Wed Jan 03 10:48:18 EST 2024
User: Yrep
Spectrometer: HR+D1059
Trigger mode: 1
Integration Time (sec): 1.000000E-1
Scans to average: 1
Electric dark correction enabled: true
Nonlinearity correction enabled: false
Boxcar width: 0
XAxis mode: Wavelengths
Number of Pixels in Spectrum: 2048
>>>>>Begin Spectral Data<<<<<
223.165	-11.56
223.4	-11.56
223.635	-11.56
223.869	-20.56
224.104	-12.56
224.338	-9.56
224.573	-24.56
224.808	-24.56
225.042	-11.56
225.277	-12.56
225.511	2.44
225.746	23.44
225.98	16.44
226.215	3.44
226.449	22.44
226.683	4.44
226.918	25.44
227.152	29.44
227.387	41.44
227.621	34.44
227.856	46.44
228.09	55.44
228.324	51.44
228.559	59.44
228.793	47.44
229.027	52.44
229.262	57.44
229.496	79.44
229.73	87.44
229.964	76.44
230.199	62.44
230.433	74.44
230.667	82.44
230.901	62.44
231.136	84.44
231.37	82.44
231.604	88.44
231.838	82.44
232.072	75.44
232.306	82.44
232.541	69.44
232.775	78.44
233.009	91.44
233.243	80.44
233.477	75.44
233.711	82.44
233.945	68.44
234.179	83.44
234.413	74.44
234.647	84.44
234.881	62.44
235.115	78.44
235.349	78.44
235.583	96.44
235.817	86.44
236.051	72.44
236.285	80.44
236.519	77.44
236.753	78.44
236.987	78.44
237.221	75.44
237.455	80.44
237.689	87.44
237.922	66.44
238.156	67.44
238.39	75.44
238.624	69.44
238.858	84.44
239.091	73.44
239.325	70.44
239.559	75.44
239.793	69.44
240.027	80.44
240.26	82.44
240.494	87.44
240.728	88.44
240.961	86.44
241.195	76.44
241.429	75.44
241.662	67.44
241.896	70.44
242.13	84.44
242.363	72.44
242.597	78.44
242.83	67.44
243.064	73.44
243.298	80.44
243.531	74.44
243.765	82.44
243.998	82.44
244.232	68.44
244.465	74.44
244.699	87.44
244.932	74.44
245.166	85.44
245.399	82.44
245.633	85.44
245.866	73.44
246.099	63.44
246.333	62.44
246.566	71.44
246.8	83.44
247.033	70.44
247.266	80.44
247.5	90.44
247.733	86.44
247.966	64.44
248.2	79.44
248.433	83.44
248.666	76.44
248.899	70.44
249.133	72.44
249.366	92.44
249.599	79.44
249.832	79.44
250.066	80.44
250.299	81.44
250.532	89.44
250.765	80.44
250.998	81.44
251.231	66.44
251.465	79.44
251.698	70.44
251.931	82.44
252.164	73.44
252.397	76.44
252.63	78.44
252.863	74.44
253.096	85.44
253.329	91.44
253.562	82.44
253.795	79.44
254.028	82.44
254.261	94.44
254.494	80.44
254.727	97.44
254.96	74.44
255.193	68.44
255.426	75.44
255.659	78.44
255.892	80.44
256.124	94.44
256.357	71.44
256.59	70.44
256.823	81.44
257.056	74.44
257.289	86.44
257.521	76.44
257.754	79.44
257.987	63.44
258.22	92.44
258.452	88.44
258.685	88.44
258.918	85.44
259.151	82.44
259.383	88.44
259.616	86.44
259.849	80.44
260.081	74.44
260.314	72.44
260.547	73.44
260.779	74.44
261.012	68.44
261.244	85.44
261.477	86.44
261.71	82.44
261.942	79.44
262.175	88.44
262.407	91.44
262.64	79.44
262.872	79.44
263.105	75.44
263.337	77.44
263.57	76.44
263.802	75.44
264.035	81.44
264.267	81.44
264.499	82.44
264.732	83.44
264.964	83.44
265.197	72.44
265.429	86.44
265.661	72.44
265.894	76.44
266.126	90.44
266.358	66.44
266.591	68.44
266.823	74.44
267.055	63.44
267.287	83.44
267.52	83.44
267.752	76.44
267.984	90.44
268.216	77.44
268.448	81.44
268.681	75.44
268.913	85.44
269.145	88.44
269.377	79.44
269.609	79.44
269.841	82.44
270.073	77.44
270.306	78.44
270.538	91.44
270.77	78.44
271.002	88.44
271.234	76.44
271.466	83.44
271.698	76.44
271.93	72.44
272.162	83.44
272.394	86.44
272.626	94.44
272.858	86.44
273.09	95.44
273.322	83.44
273.553	84.44
273.785	86.44
274.017	77.44
274.249	87.44
274.481	84.44
274.713	84.44
274.945	92.44
275.176	86.44
275.408	80.44
275.64	84.44
275.872	83.44
276.104	78.44
276.335	71.44
276.567	98.44
276.799	83.44
277.031	82.44
277.262	100.44
277.494	92.44
277.726	94.44
277.957	88.44
278.189	85.44
278.421	79.44
278.652	83.44
278.884	92.44
279.115	86.44
279.347	74.44
279.579	84.44
279.81	89.44
280.042	73.44
280.273	80.44
280.505	84.44
280.736	74.44
280.968	91.44
281.199	70.44
281.431	79.44
281.662	84.44
281.894	92.44
282.125	107.44
282.356	111.44
282.588	99.44
282.819	85.44
283.051	91.44
283.282	86.44
283.513	91.44
283.745	100.44
283.976	84.44
284.207	75.44
284.439	77.44
284.67	88.44
284.901	78.44
285.132	78.44
285.364	82.44
285.595	87.44
285.826	95.44
286.057	92.44
286.288	91.44
286.52	80.44
286.751	88.44
286.982	85.44
287.213	90.44
287.444	79.44
287.675	78.44
287.906	90.44
288.138	89.44
288.369	78.44
288.6	74.44
288.831	89.44
289.062	99.44
289.293	95.44
289.524	82.44
289.755	89.44
289.986	85.44
290.217	83.44
290.448	93.44
290.679	92.44
290.91	94.44
291.141	73.44
291.371	77.44
291.602	82.44
291.833	88.44
292.064	73.44
292.295	67.44
292.526	73.44
292.757	76.44
292.987	87.44
293.218	73.44
293.449	88.44
293.68	98.44
293.91	86.44
294.141	90.44
294.372	89.44
294.603	72.44
294.833	92.44
295.064	100.44
295.295	87.44
295.525	87.44
295.756	90.44
295.987	100.44
296.217	103.44
296.448	94.44
296.679	93.44
296.909	91.44
297.14	87.44
297.37	81.44
297.601	97.44
297.831	79.44
298.062	87.44
298.292	82.44
298.523	77.44
298.753	92.44
298.984	81.44
299.214	102.44
299.445	89.44
299.675	87.44
299.905	93.44
300.136	80.44
300.366	86.44
300.597	83.44
300.827	82.44
301.057	84.44
301.288	96.44
301.518	88.44
301.748	82.44
301.979	88.44
302.209	90.44
302.439	91.44
302.669	79.44
302.9	91.44
303.13	92.44
303.36	94.44
303.59	89.44
303.82	84.44
304.051	79.44
304.281	89.44
304.511	85.44
304.741	81.44
304.971	80.44
305.201	78.44
305.431	71.44
305.661	85.44
305.891	86.44
306.121	92.44
306.352	97.44
306.582	84.44
306.812	94.44
307.042	83.44
307.272	85.44
307.502	87.44
307.731	95.44
307.961	95.44
308.191	98.44
308.421	99.44
308.651	83.44
308.881	89.44
309.111	89.44
309.341	97.44
309.571	91.44
309.8	86.44
310.03	97.44
310.26	78.44
310.49	95.44
310.72	94.44
310.949	96.44
311.179	99.44
311.409	82.44
311.639	96.44
311.868	88.44
312.098	98.44
312.328	83.44
312.557	98.44
312.787	91.44
313.017	96.44
313.246	82.44
313.476	86.44
313.706	85.44
313.935	85.44
314.165	98.44
314.394	92.44
314.624	92.44
314.853	89.44
315.083	85.44
315.312	84.44
315.542	85.44
315.771	86.44
316.001	87.44
316.23	96.44
316.46	94.44
316.689	99.44
316.919	87.44
317.148	90.44
317.377	96.44
317.607	95.44
317.836	83.44
318.065	84.44
318.295	88.44
318.524	82.44
318.753	91.44
318.983	92.44
319.212	81.44
319.441	90.44
319.67	96.44
319.9	78.44
320.129	88.44
320.358	86.44
320.587	85.44
320.816	88.44
321.046	102.44
321.275	102.44
321.504	99.44
321.733	74.44
321.962	91.44
322.191	103.44
322.42	98.44
322.649	106.44
322.878	83.44
323.108	102.44
323.337	103.44
323.566	115.44
323.795	106.44
324.024	151.44
324.253	288.44
324.482	587.44
324.71	1186.44
324.939	1516.44
325.168	575.44
325.397	187.44
325.626	126.44
325.855	115.44
326.084	111.44
326.313	133.44
326.542	137.44
326.77	178.44
326.999	368.44
327.228	686.44
327.457	1232.44
327.686	981.44
327.914	254.44
328.143	140.44
328.372	122.44
328.6	102.44
328.829	96.44
329.058	104.44
329.287	113.44
329.515	94.44
329.744	84.44
329.972	83.44
330.201	88.44
330.43	99.44
330.658	103.44
330.887	98.44
331.115	100.44
331.344	95.44
331.572	106.44
331.801	99.44
332.03	98.44
332.258	94.44
332.486	94.44
332.715	87.44
332.943	86.44
333.172	80.44
333.4	91.44
333.629	103.44
333.857	88.44
334.085	95.44
334.314	91.44
334.542	93.44
334.771	83.44
334.999	91.44
335.227	100.44
335.455	95.44
335.684	87.44
335.912	94.44
336.14	86.44
336.369	98.44
336.597	91.44
336.825	74.44
337.053	101.44
337.281	94.44
337.51	83.44
337.738	85.44
337.966	81.44
338.194	92.44
338.422	82.44
338.65	86.44
338.878	89.44
339.106	80.44
339.334	93.44
339.562	83.44
339.79	91.44
340.018	98.44
340.246	98.44
340.474	92.44
340.702	85.44
340.93	86.44
341.158	63.44
341.386	88.44
341.614	72.44
341.842	104.44
342.07	74.44
342.298	98.44
342.526	83.44
342.754	87.44
342.981	103.44
343.209	88.44
343.437	101.44
343.665	95.44
343.893	89.44
344.12	83.44
344.348	92.44
344.576	91.44
344.804	81.44
345.031	83.44
345.259	90.44
345.487	87.44
345.714	88.44
345.942	76.44
346.17	91.44
346.397	103.44
346.625	90.44
346.853	82.44
347.08	88.44
347.308	91.44
347.535	90.44
347.763	97.44
347.99	88.44
348.218	85.44
348.445	100.44
348.673	97.44
348.9	85.44
349.128	96.44
349.355	80.44
349.583	84.44
349.81	98.44
350.037	94.44
350.265	78.44
350.492	90.44
350.72	88.44
350.947	93.44
351.174	84.44
351.402	95.44
351.629	84.44
351.856	92.44
352.083	103.44
352.311	106.44
352.538	94.44
352.765	102.44
352.992	98.44
353.22	115.44
353.447	123.44
353.674	94.44
353.901	104.44
354.128	97.44
354.355	87.44
354.583	95.44
354.81	97.44
355.037	79.44
355.264	87.44
355.491	91.44
355.718	85.44
355.945	91.44
356.172	76.44
356.399	90.44
356.626	83.44
356.853	103.44
357.08	89.44
357.307	100.44
357.534	96.44
357.761	94.44
357.988	84.44
358.215	96.44
358.441	103.44
358.668	87.44
358.895	90.44
359.122	83.44
359.349	89.44
359.576	97.44
359.802	89.44
360.029	91.44
360.256	83.44
360.483	96.44
360.709	79.44
360.936	85.44
361.163	80.44
361.39	78.44
361.616	86.44
361.843	96.44
362.07	84.44
362.296	103.44
362.523	96.44
362.749	95.44
362.976	74.44
363.203	73.44
363.429	84.44
363.656	73.44
363.882	87.44
364.109	89.44
364.335	92.44
364.562	84.44
364.788	86.44
365.015	86.44
365.241	99.44
365.468	105.44
365.694	95.44
365.92	83.44
366.147	89.44
366.373	97.44
366.599	85.44
366.826	84.44
367.052	84.44
367.278	101.44
367.505	88.44
367.731	91.44
367.957	90.44
368.184	88.44
368.41	95.44
368.636	102.44
368.862	99.44
369.089	80.44
369.315	92.44
369.541	97.44
369.767	84.44
369.993	87.44
370.219	82.44
370.445	88.44
370.672	83.44
370.898	79.44
371.124	76.44
371.35	89.44
371.576	92.44
371.802	89.44
372.028	92.44
372.254	95.44
372.48	84.44
372.706	80.44
372.932	74.44
373.158	96.44
373.384	98.44
373.61	102.44
373.835	95.44
374.061	70.44
374.287	92.44
374.513	86.44
374.739	85.44
374.965	102.44
375.191	92.44
375.416	87.44
375.642	96.44
375.868	87.44
376.094	86.44
376.319	84.44
376.545	87.44
376.771	91.44
376.997	83.44
377.222	76.44
377.448	91.44
377.674	81.44
377.899	102.44
378.125	90.44
378.35	88.44
378.576	72.44
378.802	79.44
379.027	93.44
379.253	98.44
379.478	92.44
379.704	86.44
379.929	110.44
380.155	81.44
380.38	97.44
380.606	87.44
380.831	88.44
381.057	98.44
381.282	103.44
381.507	94.44
381.733	107.44
381.958	105.44
382.184	102.44
382.409	92.44
382.634	97.44
382.86	96.44
383.085	106.44
383.31	103.44
383.535	111.44
383.761	115.44
383.986	89.44
384.211	102.44
384.436	110.44
384.662	95.44
384.887	119.44
385.112	111.44
385.337	101.44
385.562	106.44
385.787	100.44
386.013	106.44
386.238	111.44
386.463	100.44
386.688	117.44
386.913	110.44
387.138	113.44
387.363	104.44
387.588	83.44
387.813	92.44
388.038	98.44
388.263	126.44
388.488	121.44
388.713	85.44
388.938	101.44
389.163	95.44
389.387	82.44
389.612	93.44
389.837	96.44
390.062	91.44
390.287	98.44
390.512	85.44
390.736	84.44
390.961	98.44
391.186	101.44
391.411	86.44
391.636	101.44
391.86	85.44
392.085	81.44
392.31	86.44
392.534	70.44
392.759	85.44
392.984	95.44
393.208	93.44
393.433	112.44
393.658	103.44
393.882	73.44
394.107	69.44
394.331	92.44
394.556	76.44
394.78	93.44
395.005	83.44
395.229	86.44
395.454	91.44
395.678	80.44
395.903	83.44
396.127	70.44
396.352	80.44
396.576	85.44
396.801	95.44
397.025	88.44
397.249	91.44
397.474	97.44
397.698	86.44
397.922	88.44
398.147	80.44
398.371	89.44
398.595	83.44
398.82	89.44
399.044	70.44
399.268	86.44
399.492	86.44
399.717	89.44
399.941	91.44
400.165	86.44
400.389	78.44
400.613	88.44
400.837	93.44
401.062	93.44
401.286	89.44
401.51	88.44
401.734	84.44
401.958	82.44
402.182	89.44
402.406	115.44
402.63	94.44
402.854	89.44
403.078	67.44
403.302	79.44
403.526	92.44
403.75	87.44
403.974	75.44
404.198	81.44
404.422	90.44
404.645	79.44
404.869	86.44
405.093	96.44
405.317	92.44
405.541	79.44
405.765	85.44
405.988	92.44
406.212	126.44
406.436	144.44
406.66	110.44
406.883	95.44
407.107	82.44
407.331	101.44
407.555	87.44
407.778	101.44
408.002	87.44
408.226	84.44
408.449	90.44
408.673	99.44
408.896	114.44
409.12	90.44
409.344	86.44
409.567	84.44
409.791	80.44
410.014	95.44
410.238	96.44
410.461	80.44
410.685	97.44
410.908	92.44
411.132	110.44
411.355	95.44
411.578	91.44
411.802	90.44
412.025	92.44
412.249	90.44
412.472	84.44
412.695	91.44
412.919	92.44
413.142	91.44
413.365	80.44
413.589	83.44
413.812	84.44
414.035	84.44
414.258	89.44
414.482	112.44
414.705	94.44
414.928	81.44
415.151	82.44
415.374	95.44
415.597	84.44
415.821	102.44
416.044	95.44
416.267	96.44
416.49	102.44
416.713	81.44
416.936	92.44
417.159	87.44
417.382	74.44
417.605	84.44
417.828	88.44
418.051	82.44
418.274	88.44
418.497	76.44
418.72	82.44
418.943	89.44
419.166	94.44
419.389	102.44
419.611	110.44
419.834	89.44
420.057	91.44
420.28	87.44
420.503	90.44
420.726	90.44
420.948	104.44
421.171	81.44
421.394	82.44
421.617	86.44
421.839	85.44
422.062	75.44
422.285	79.44
422.507	93.44
422.73	113.44
422.953	95.44
423.175	84.44
423.398	80.44
423.621	84.44
423.843	91.44
424.066	81.44
424.288	86.44
424.511	98.44
424.733	80.44
424.956	80.44
425.178	85.44
425.401	100.44
425.623	87.44
425.846	80.44
426.068	90.44
426.291	92.44
426.513	93.44
426.735	86.44
426.958	68.44
427.18	99.44
427.402	120.44
427.625	128.44
427.847	97.44
428.069	92.44
428.292	92.44
428.514	72.44
428.736	86.44
428.958	88.44
429.181	98.44
429.403	82.44
429.625	82.44
429.847	102.44
430.069	91.44
430.292	96.44
430.514	78.44
430.736	86.44
430.958	91.44
431.18	91.44
431.402	87.44
431.624	78.44
431.846	82.44
432.068	81.44
432.29	75.44
432.512	99.44
432.734	88.44
432.956	76.44
433.178	96.44
433.4	90.44
433.622	94.44
433.844	87.44
434.066	100.44
434.287	89.44
434.509	97.44
434.731	89.44
434.953	82.44
435.175	89.44
435.397	81.44
435.618	89.44
435.84	79.44
436.062	103.44
436.284	98.44
436.505	104.44
436.727	103.44
436.949	82.44
437.17	94.44
437.392	78.44
437.614	96.44
437.835	84.44
438.057	91.44
438.278	88.44
438.5	90.44
438.721	98.44
438.943	93.44
439.165	78.44
439.386	86.44
439.608	95.44
439.829	87.44
440.05	100.44
440.272	121.44
440.493	89.44
440.715	87.44
440.936	95.44
441.158	88.44
441.379	75.44
441.6	84.44
441.822	97.44
442.043	88.44
442.264	92.44
442.486	74.44
442.707	83.44
442.928	92.44
443.149	103.44
443.371	111.44
443.592	100.44
443.813	99.44
444.034	89.44
444.255	94.44
444.476	93.44
444.698	85.44
444.919	84.44
445.14	130.44
445.361	103.44
445.582	101.44
445.803	102.44
446.024	113.44
446.245	118.44
446.466	102.44
446.687	89.44
446.908	94.44
447.129	94.44
447.35	94.44
447.571	88.44
447.792	92.44
448.013	97.44
448.234	92.44
448.455	94.44
448.675	98.44
448.896	108.44
449.117	97.44
449.338	82.44
449.559	110.44
449.779	115.44
450	90.44
450.221	85.44
450.442	84.44
450.662	85.44
450.883	89.44
451.104	91.44
451.324	83.44
451.545	99.44
451.766	85.44
451.986	72.44
452.207	78.44
452.428	81.44
452.648	88.44
452.869	87.44
453.089	92.44
453.31	96.44
453.53	84.44
453.751	78.44
453.971	87.44
454.192	97.44
454.412	88.44
454.633	84.44
454.853	85.44
455.073	93.44
455.294	74.44
455.514	86.44
455.734	80.44
455.955	79.44
456.175	96.44
456.395	87.44
456.616	70.44
456.836	83.44
457.056	79.44
457.276	78.44
457.497	86.44
457.717	75.44
457.937	93.44
458.157	75.44
458.377	105.44
458.598	100.44
458.818	107.44
459.038	120.44
459.258	100.44
459.478	81.44
459.698	84.44
459.918	92.44
460.138	90.44
460.358	73.44
460.578	82.44
460.798	89.44
461.018	81.44
461.238	80.44
461.458	72.44
461.678	81.44
461.898	96.44
462.118	95.44
462.338	78.44
462.558	88.44
462.777	77.44
462.997	83.44
463.217	80.44
463.437	80.44
463.657	82.44
463.876	83.44
464.096	80.44
464.316	96.44
464.536	92.44
464.755	84.44
464.975	88.44
465.195	106.44
465.414	98.44
465.634	82.44
465.854	88.44
466.073	91.44
466.293	84.44
466.512	102.44
466.732	86.44
466.951	87.44
467.171	83.44
467.391	86.44
467.61	91.44
467.829	87.44
468.049	79.44
468.268	81.44
468.488	91.44
468.707	99.44
468.927	79.44
469.146	84.44
469.365	83.44
469.585	81.44
469.804	91.44
470.023	102.44
470.243	82.44
470.462	75.44
470.681	97.44
470.901	92.44
471.12	87.44
471.339	87.44
471.558	96.44
471.777	93.44
471.997	68.44
472.216	78.44
472.435	98.44
472.654	88.44
472.873	94.44
473.092	81.44
473.311	95.44
473.53	88.44
473.749	95.44
473.968	87.44
474.187	84.44
474.406	87.44
474.625	84.44
474.844	83.44
475.063	91.44
475.282	83.44
475.501	88.44
475.72	92.44
475.939	86.44
476.158	83.44
476.377	88.44
476.596	85.44
476.814	80.44
477.033	101.44
477.252	83.44
477.471	93.44
477.69	83.44
477.908	85.44
478.127	89.44
478.346	79.44
478.564	88.44
478.783	78.44
479.002	96.44
479.22	103.44
479.439	86.44
479.658	74.44
479.876	88.44
480.095	93.44
480.313	92.44
480.532	88.44
480.751	101.44
480.969	93.44
481.188	89.44
481.406	80.44
481.624	88.44
481.843	87.44
482.061	79.44
482.28	87.44
482.498	103.44
482.717	74.44
482.935	88.44
483.153	94.44
483.372	86.44
483.59	90.44
483.808	101.44
484.027	83.44
484.245	84.44
484.463	91.44
484.681	98.44
484.9	97.44
485.118	98.44
485.336	93.44
485.554	98.44
485.772	103.44
485.99	92.44
486.209	108.44
486.427	99.44
486.645	95.44
486.863	105.44
487.081	100.44
487.299	99.44
487.517	95.44
487.735	81.44
487.953	93.44
488.171	83.44
488.389	81.44
488.607	78.44
488.825	89.44
489.043	97.44
489.261	85.44
489.479	76.44
489.696	85.44
489.914	86.44
490.132	80.44
490.35	81.44
490.568	103.44
490.786	89.44
491.003	87.44
491.221	106.44
491.439	96.44
491.657	92.44
491.874	94.44
492.092	83.44
492.31	109.44
492.527	90.44
492.745	82.44
492.963	85.44
493.18	84.44
493.398	99.44
493.615	95.44
493.833	81.44
494.05	95.44
494.268	85.44
494.485	83.44
494.703	82.44
494.92	90.44
495.138	83.44
495.355	100.44
495.573	89.44
495.79	90.44
496.008	106.44
496.225	98.44
496.442	97.44
496.66	100.44
496.877	88.44
497.094	98.44
497.312	95.44
497.529	96.44
497.746	88.44
497.963	77.44
498.181	74.44
498.398	81.44
498.615	89.44
498.832	93.44
499.049	89.44
499.267	86.44
499.484	86.44
499.701	91.44
499.918	91.44
500.135	84.44
500.352	85.44
500.569	87.44
500.786	90.44
501.003	94.44
501.22	82.44
501.437	76.44
501.654	83.44
501.871	101.44
502.088	83.44
502.305	100.44
502.522	88.44
502.739	84.44
502.956	89.44
503.172	83.44
503.389	81.44
503.606	83.44
503.823	105.44
504.04	85.44
504.256	91.44
504.473	97.44
504.69	87.44
504.907	80.44
505.123	103.44
505.34	102.44
505.557	71.44
505.773	92.44
505.99	96.44
506.207	91.44
506.423	90.44
506.64	79.44
506.856	88.44
507.073	90.44
507.289	86.44
507.506	96.44
507.722	95.44
507.939	82.44
508.155	89.44
508.372	98.44
508.588	72.44
508.805	111.44
509.021	104.44
509.238	106.44
509.454	97.44
509.67	98.44
509.887	95.44
510.103	121.44
510.319	154.44
510.536	475.44
510.752	1364.44
510.968	418.44
511.184	119.44
511.401	100.44
511.617	92.44
511.833	93.44
512.049	82.44
512.265	75.44
512.481	90.44
512.698	71.44
512.914	97.44
513.13	97.44
513.346	85.44
513.562	79.44
513.778	89.44
513.994	101.44
514.21	94.44
514.426	110.44
514.642	111.44
514.858	101.44
515.074	111.44
515.29	260.44
515.506	794.44
515.721	304.44
515.937	126.44
516.153	95.44
516.369	90.44
516.585	89.44
516.801	102.44
517.016	92.44
517.232	90.44
517.448	83.44
