Data from Uncirc_2000_H10_HRD10591_00020.txt Node
Date: Wed Jan 03 10:48:21 EST 2024
User: Yrep
Spectrometer: HR+D1059
Trigger mode: 1
Integration Time (sec): 1.000000E-1
Scans to average: 1
Electric dark correction enabled: true
Nonlinearity correction enabled: false
Boxcar width: 0
XAxis mode: Wavelengths
Number of Pixels in Spectrum: 2048
>>>>>Begin Spectral Data<<<<<
223.165	-10.81
223.4	-10.81
223.635	-10.81
223.869	-16.81
224.104	-17.81
224.338	-9.81
224.573	-5.81
224.808	-15.81
225.042	-11.81
225.277	-8.81
225.511	-1.81
225.746	-6.81
225.98	9.19
226.215	8.19
226.449	21.19
226.683	20.19
226.918	17.19
227.152	30.19
227.387	34.19
227.621	51.19
227.856	35.19
228.09	41.19
228.324	50.19
228.559	45.19
228.793	55.19
229.027	77.19
229.262	70.19
229.496	70.19
229.73	81.19
229.964	79.19
230.199	65.19
230.433	83.19
230.667	76.19
230.901	74.19
231.136	74.19
231.37	77.19
231.604	69.19
231.838	65.19
232.072	81.19
232.306	77.19
232.541	77.19
232.775	73.19
233.009	67.19
233.243	82.19
233.477	90.19
233.711	82.19
233.945	82.19
234.179	83.19
234.413	91.19
234.647	104.19
234.881	72.19
235.115	85.19
235.349	79.19
235.583	82.19
235.817	65.19
236.051	80.19
236.285	75.19
236.519	97.19
236.753	66.19
236.987	77.19
237.221	84.19
237.455	82.19
237.689	86.19
237.922	64.19
238.156	75.19
238.39	79.19
238.624	63.19
238.858	95.19
239.091	73.19
239.325	86.19
239.559	82.19
239.793	95.19
240.027	74.19
240.26	72.19
240.494	78.19
240.728	74.19
240.961	75.19
241.195	73.19
241.429	71.19
241.662	92.19
241.896	77.19
242.13	70.19
242.363	63.19
242.597	70.19
242.83	97.19
243.064	85.19
243.298	72.19
243.531	59.19
243.765	66.19
243.998	81.19
244.232	91.19
244.465	86.19
244.699	74.19
244.932	71.19
245.166	88.19
245.399	72.19
245.633	75.19
245.866	72.19
246.099	75.19
246.333	77.19
246.566	81.19
246.8	67.19
247.033	64.19
247.266	71.19
247.5	73.19
247.733	73.19
247.966	78.19
248.2	80.19
248.433	80.19
248.666	72.19
248.899	69.19
249.133	78.19
249.366	90.19
249.599	79.19
249.832	77.19
250.066	84.19
250.299	69.19
250.532	85.19
250.765	69.19
250.998	83.19
251.231	85.19
251.465	81.19
251.698	74.19
251.931	73.19
252.164	87.19
252.397	81.19
252.63	84.19
252.863	71.19
253.096	73.19
253.329	72.19
253.562	73.19
253.795	92.19
254.028	86.19
254.261	68.19
254.494	72.19
254.727	69.19
254.96	78.19
255.193	74.19
255.426	75.19
255.659	79.19
255.892	90.19
256.124	73.19
256.357	89.19
256.59	72.19
256.823	82.19
257.056	81.19
257.289	69.19
257.521	63.19
257.754	75.19
257.987	90.19
258.22	90.19
258.452	78.19
258.685	79.19
258.918	88.19
259.151	72.19
259.383	69.19
259.616	73.19
259.849	86.19
260.081	67.19
260.314	89.19
260.547	81.19
260.779	70.19
261.012	73.19
261.244	82.19
261.477	73.19
261.71	94.19
261.942	110.19
262.175	99.19
262.407	86.19
262.64	81.19
262.872	64.19
263.105	93.19
263.337	73.19
263.57	80.19
263.802	91.19
264.035	86.19
264.267	78.19
264.499	94.19
264.732	90.19
264.964	99.19
265.197	85.19
265.429	82.19
265.661	77.19
265.894	84.19
266.126	97.19
266.358	89.19
266.591	78.19
266.823	82.19
267.055	79.19
267.287	85.19
267.52	86.19
267.752	77.19
267.984	88.19
268.216	86.19
268.448	70.19
268.681	74.19
268.913	78.19
269.145	67.19
269.377	87.19
269.609	90.19
269.841	78.19
270.073	68.19
270.306	78.19
270.538	75.19
270.77	80.19
271.002	80.19
271.234	69.19
271.466	80.19
271.698	81.19
271.93	87.19
272.162	82.19
272.394	84.19
272.626	78.19
272.858	77.19
273.09	96.19
273.322	88.19
273.553	82.19
273.785	84.19
274.017	90.19
274.249	90.19
274.481	89.19
274.713	88.19
274.945	75.19
275.176	75.19
275.408	89.19
275.64	73.19
275.872	87.19
276.104	92.19
276.335	89.19
276.567	95.19
276.799	94.19
277.031	78.19
277.262	90.19
277.494	79.19
277.726	93.19
277.957	88.19
278.189	89.19
278.421	89.19
278.652	79.19
278.884	72.19
279.115	69.19
279.347	74.19
279.579	89.19
279.81	74.19
280.042	83.19
280.273	93.19
280.505	80.19
280.736	69.19
280.968	87.19
281.199	83.19
281.431	79.19
281.662	80.19
281.894	85.19
282.125	96.19
282.356	98.19
282.588	119.19
282.819	100.19
283.051	80.19
283.282	82.19
283.513	96.19
283.745	87.19
283.976	81.19
284.207	64.19
284.439	79.19
284.67	92.19
284.901	81.19
285.132	58.19
285.364	82.19
285.595	84.19
285.826	86.19
286.057	83.19
286.288	90.19
286.52	103.19
286.751	75.19
286.982	87.19
287.213	88.19
287.444	81.19
287.675	94.19
287.906	89.19
288.138	89.19
288.369	92.19
288.6	82.19
288.831	90.19
289.062	85.19
289.293	84.19
289.524	89.19
289.755	85.19
289.986	82.19
290.217	88.19
290.448	87.19
290.679	85.19
290.91	88.19
291.141	67.19
291.371	75.19
291.602	86.19
291.833	89.19
292.064	90.19
292.295	94.19
292.526	77.19
292.757	102.19
292.987	79.19
293.218	84.19
293.449	83.19
293.68	94.19
293.91	90.19
294.141	100.19
294.372	101.19
294.603	89.19
294.833	91.19
295.064	76.19
295.295	100.19
295.525	89.19
295.756	97.19
295.987	100.19
296.217	114.19
296.448	110.19
296.679	89.19
296.909	77.19
297.14	81.19
297.37	85.19
297.601	69.19
297.831	87.19
298.062	80.19
298.292	89.19
298.523	77.19
298.753	80.19
298.984	81.19
299.214	98.19
299.445	97.19
299.675	84.19
299.905	96.19
300.136	79.19
300.366	73.19
300.597	91.19
300.827	91.19
301.057	89.19
301.288	93.19
301.518	81.19
301.748	79.19
301.979	97.19
302.209	104.19
302.439	94.19
302.669	86.19
302.9	87.19
303.13	73.19
303.36	91.19
303.59	104.19
303.82	94.19
304.051	99.19
304.281	103.19
304.511	97.19
304.741	86.19
304.971	81.19
305.201	75.19
305.431	85.19
305.661	85.19
305.891	102.19
306.121	98.19
306.352	97.19
306.582	99.19
306.812	85.19
307.042	101.19
307.272	84.19
307.502	95.19
307.731	98.19
307.961	85.19
308.191	97.19
308.421	85.19
308.651	104.19
308.881	89.19
309.111	97.19
309.341	78.19
309.571	87.19
309.8	96.19
310.03	104.19
310.26	92.19
310.49	83.19
310.72	67.19
310.949	92.19
311.179	85.19
311.409	91.19
311.639	97.19
311.868	93.19
312.098	104.19
312.328	91.19
312.557	92.19
312.787	95.19
313.017	99.19
313.246	86.19
313.476	88.19
313.706	81.19
313.935	99.19
314.165	94.19
314.394	98.19
314.624	98.19
314.853	81.19
315.083	83.19
315.312	89.19
315.542	96.19
315.771	99.19
316.001	80.19
316.23	83.19
316.46	84.19
316.689	90.19
316.919	92.19
317.148	77.19
317.377	84.19
317.607	87.19
317.836	94.19
318.065	84.19
318.295	80.19
318.524	104.19
318.753	78.19
318.983	88.19
319.212	87.19
319.441	113.19
319.67	105.19
319.9	98.19
320.129	89.19
320.358	96.19
320.587	91.19
320.816	98.19
321.046	95.19
321.275	105.19
321.504	91.19
321.733	92.19
321.962	91.19
322.191	83.19
322.42	90.19
322.649	114.19
322.878	102.19
323.108	99.19
323.337	108.19
323.566	138.19
323.795	136.19
324.024	193.19
324.253	335.19
324.482	692.19
324.71	1371.19
324.939	1783.19
325.168	666.19
325.397	207.19
325.626	125.19
325.855	134.19
326.084	127.19
326.313	112.19
326.542	136.19
326.77	201.19
326.999	369.19
327.228	802.19
327.457	1431.19
327.686	1125.19
327.914	310.19
328.143	162.19
328.372	147.19
328.6	108.19
328.829	102.19
329.058	89.19
329.287	104.19
329.515	99.19
329.744	93.19
329.972	86.19
330.201	86.19
330.43	85.19
330.658	111.19
330.887	126.19
331.115	120.19
331.344	89.19
331.572	104.19
331.801	90.19
332.03	83.19
332.258	110.19
332.486	101.19
332.715	97.19
332.943	102.19
333.172	96.19
333.4	92.19
333.629	104.19
333.857	103.19
334.085	96.19
334.314	84.19
334.542	83.19
334.771	90.19
334.999	91.19
335.227	84.19
335.455	87.19
335.684	96.19
335.912	95.19
336.14	103.19
336.369	91.19
336.597	100.19
336.825	91.19
337.053	79.19
337.281	88.19
337.51	103.19
337.738	99.19
337.966	83.19
338.194	95.19
338.422	89.19
338.65	95.19
338.878	86.19
339.106	84.19
339.334	77.19
339.562	87.19
339.79	90.19
340.018	81.19
340.246	90.19
340.474	100.19
340.702	87.19
340.93	95.19
341.158	101.19
341.386	91.19
341.614	94.19
341.842	85.19
342.07	93.19
342.298	90.19
342.526	80.19
342.754	86.19
342.981	78.19
343.209	89.19
343.437	89.19
343.665	84.19
343.893	86.19
344.12	86.19
344.348	79.19
344.576	74.19
344.804	91.19
345.031	91.19
345.259	97.19
345.487	79.19
345.714	89.19
345.942	95.19
346.17	92.19
346.397	96.19
346.625	91.19
346.853	100.19
347.08	89.19
347.308	83.19
347.535	102.19
347.763	96.19
347.99	89.19
348.218	95.19
348.445	101.19
348.673	99.19
348.9	89.19
349.128	95.19
349.355	93.19
349.583	77.19
349.81	78.19
350.037	93.19
350.265	91.19
350.492	98.19
350.72	97.19
350.947	108.19
351.174	99.19
351.402	105.19
351.629	104.19
351.856	90.19
352.083	97.19
352.311	96.19
352.538	91.19
352.765	91.19
352.992	111.19
353.22	104.19
353.447	98.19
353.674	102.19
353.901	105.19
354.128	89.19
354.355	100.19
354.583	87.19
354.81	87.19
355.037	93.19
355.264	101.19
355.491	85.19
355.718	79.19
355.945	82.19
356.172	104.19
356.399	92.19
356.626	94.19
356.853	67.19
357.08	91.19
357.307	97.19
357.534	89.19
357.761	85.19
357.988	95.19
358.215	89.19
358.441	90.19
358.668	87.19
358.895	86.19
359.122	94.19
359.349	90.19
359.576	89.19
359.802	90.19
360.029	104.19
360.256	89.19
360.483	95.19
360.709	96.19
360.936	84.19
361.163	77.19
361.39	94.19
361.616	91.19
361.843	84.19
362.07	97.19
362.296	86.19
362.523	98.19
362.749	75.19
362.976	93.19
363.203	86.19
363.429	88.19
363.656	98.19
363.882	96.19
364.109	91.19
364.335	96.19
364.562	82.19
364.788	83.19
365.015	90.19
365.241	91.19
365.468	113.19
365.694	93.19
365.92	94.19
366.147	87.19
366.373	73.19
366.599	81.19
366.826	88.19
367.052	82.19
367.278	74.19
367.505	83.19
367.731	100.19
367.957	89.19
368.184	89.19
368.41	99.19
368.636	103.19
368.862	106.19
369.089	98.19
369.315	94.19
369.541	94.19
369.767	85.19
369.993	83.19
370.219	81.19
370.445	89.19
370.672	73.19
370.898	79.19
371.124	79.19
371.35	91.19
371.576	94.19
371.802	102.19
372.028	95.19
372.254	92.19
372.48	91.19
372.706	75.19
372.932	94.19
373.158	82.19
373.384	82.19
373.61	71.19
373.835	80.19
374.061	92.19
374.287	81.19
374.513	101.19
374.739	89.19
374.965	82.19
375.191	93.19
375.416	78.19
375.642	81.19
375.868	90.19
376.094	86.19
376.319	90.19
376.545	77.19
376.771	84.19
376.997	86.19
377.222	82.19
377.448	91.19
377.674	85.19
377.899	85.19
378.125	83.19
378.35	92.19
378.576	93.19
378.802	83.19
379.027	79.19
379.253	85.19
379.478	89.19
379.704	91.19
379.929	82.19
380.155	97.19
380.38	83.19
380.606	85.19
380.831	94.19
381.057	100.19
381.282	82.19
381.507	93.19
381.733	90.19
381.958	83.19
382.184	95.19
382.409	77.19
382.634	87.19
382.86	102.19
383.085	84.19
383.31	94.19
383.535	97.19
383.761	97.19
383.986	88.19
384.211	84.19
384.436	83.19
384.662	98.19
384.887	100.19
385.112	102.19
385.337	101.19
385.562	102.19
385.787	95.19
386.013	89.19
386.238	114.19
386.463	104.19
386.688	100.19
386.913	98.19
387.138	90.19
387.363	97.19
387.588	99.19
387.813	87.19
388.038	98.19
388.263	101.19
388.488	106.19
388.713	96.19
388.938	101.19
389.163	96.19
389.387	88.19
389.612	100.19
389.837	89.19
390.062	88.19
390.287	82.19
390.512	90.19
390.736	90.19
390.961	97.19
391.186	78.19
391.411	97.19
391.636	97.19
391.86	80.19
392.085	92.19
392.31	81.19
392.534	81.19
392.759	85.19
392.984	92.19
393.208	99.19
393.433	89.19
393.658	93.19
393.882	85.19
394.107	77.19
394.331	80.19
394.556	89.19
394.78	91.19
395.005	87.19
395.229	84.19
395.454	89.19
395.678	79.19
395.903	77.19
396.127	85.19
396.352	92.19
396.576	80.19
396.801	89.19
397.025	81.19
397.249	70.19
397.474	97.19
397.698	71.19
397.922	84.19
398.147	82.19
398.371	92.19
398.595	93.19
398.82	86.19
399.044	85.19
399.268	79.19
399.492	71.19
399.717	67.19
399.941	91.19
400.165	91.19
400.389	96.19
400.613	69.19
400.837	85.19
401.062	75.19
401.286	101.19
401.51	97.19
401.734	79.19
401.958	101.19
402.182	121.19
402.406	133.19
402.63	114.19
402.854	97.19
403.078	85.19
403.302	94.19
403.526	84.19
403.75	75.19
403.974	82.19
404.198	74.19
404.422	81.19
404.645	96.19
404.869	97.19
405.093	85.19
405.317	97.19
405.541	93.19
405.765	101.19
405.988	99.19
406.212	131.19
406.436	181.19
406.66	127.19
406.883	85.19
407.107	94.19
407.331	94.19
407.555	92.19
407.778	89.19
408.002	80.19
408.226	100.19
408.449	73.19
408.673	86.19
408.896	82.19
409.12	92.19
409.344	96.19
409.567	82.19
409.791	82.19
410.014	102.19
410.238	82.19
410.461	78.19
410.685	99.19
410.908	91.19
411.132	110.19
411.355	81.19
411.578	93.19
411.802	90.19
412.025	92.19
412.249	89.19
412.472	84.19
412.695	109.19
412.919	84.19
413.142	78.19
413.365	90.19
413.589	82.19
413.812	74.19
414.035	95.19
414.258	93.19
414.482	81.19
414.705	91.19
414.928	89.19
415.151	86.19
415.374	79.19
415.597	87.19
415.821	89.19
416.044	87.19
416.267	90.19
416.49	83.19
416.713	85.19
416.936	86.19
417.159	94.19
417.382	87.19
417.605	84.19
417.828	93.19
418.051	97.19
418.274	86.19
418.497	83.19
418.72	90.19
418.943	84.19
419.166	87.19
419.389	88.19
419.611	96.19
419.834	85.19
420.057	97.19
420.28	83.19
420.503	97.19
420.726	93.19
420.948	90.19
421.171	89.19
421.394	81.19
421.617	64.19
421.839	93.19
422.062	83.19
422.285	76.19
422.507	92.19
422.73	99.19
422.953	102.19
423.175	81.19
423.398	90.19
423.621	98.19
423.843	86.19
424.066	96.19
424.288	79.19
424.511	91.19
424.733	82.19
424.956	99.19
425.178	97.19
425.401	97.19
425.623	98.19
425.846	78.19
426.068	102.19
426.291	91.19
426.513	89.19
426.735	87.19
426.958	95.19
427.18	97.19
427.402	122.19
427.625	123.19
427.847	120.19
428.069	95.19
428.292	80.19
428.514	79.19
428.736	91.19
428.958	74.19
429.181	81.19
429.403	82.19
429.625	80.19
429.847	84.19
430.069	94.19
430.292	89.19
430.514	81.19
430.736	83.19
430.958	89.19
431.18	94.19
431.402	83.19
431.624	91.19
431.846	83.19
432.068	82.19
432.29	79.19
432.512	81.19
432.734	85.19
432.956	94.19
433.178	93.19
433.4	97.19
433.622	75.19
433.844	96.19
434.066	84.19
434.287	84.19
434.509	85.19
434.731	83.19
434.953	88.19
435.175	68.19
435.397	95.19
435.618	83.19
435.84	101.19
436.062	97.19
436.284	97.19
436.505	102.19
436.727	86.19
436.949	99.19
437.17	76.19
437.392	91.19
437.614	71.19
437.835	100.19
438.057	104.19
438.278	91.19
438.5	90.19
438.721	107.19
438.943	90.19
439.165	101.19
439.386	90.19
439.608	87.19
439.829	96.19
440.05	119.19
440.272	113.19
440.493	86.19
440.715	75.19
440.936	68.19
441.158	84.19
441.379	83.19
441.6	86.19
441.822	83.19
442.043	96.19
442.264	98.19
442.486	95.19
442.707	83.19
442.928	102.19
443.149	123.19
443.371	109.19
443.592	91.19
443.813	95.19
444.034	101.19
444.255	96.19
444.476	88.19
444.698	66.19
444.919	87.19
445.14	129.19
445.361	110.19
445.582	101.19
445.803	112.19
446.024	128.19
446.245	113.19
446.466	99.19
446.687	89.19
446.908	87.19
447.129	75.19
447.35	92.19
447.571	96.19
447.792	81.19
448.013	91.19
448.234	97.19
448.455	92.19
448.675	105.19
448.896	118.19
449.117	102.19
449.338	96.19
449.559	113.19
449.779	121.19
450	88.19
450.221	79.19
450.442	86.19
450.662	73.19
450.883	91.19
451.104	101.19
451.324	90.19
451.545	87.19
451.766	90.19
451.986	89.19
452.207	85.19
452.428	93.19
452.648	87.19
452.869	97.19
453.089	104.19
453.31	111.19
453.53	98.19
453.751	98.19
453.971	97.19
454.192	82.19
454.412	74.19
454.633	63.19
454.853	88.19
455.073	86.19
455.294	86.19
455.514	91.19
455.734	87.19
455.955	85.19
456.175	80.19
456.395	84.19
456.616	76.19
456.836	83.19
457.056	72.19
457.276	81.19
457.497	74.19
457.717	73.19
457.937	82.19
458.157	80.19
458.377	89.19
458.598	90.19
458.818	125.19
459.038	133.19
459.258	105.19
459.478	89.19
459.698	74.19
459.918	86.19
460.138	85.19
460.358	93.19
460.578	80.19
460.798	91.19
461.018	81.19
461.238	88.19
461.458	94.19
461.678	79.19
461.898	84.19
462.118	80.19
462.338	73.19
462.558	76.19
462.777	87.19
462.997	89.19
463.217	83.19
463.437	88.19
463.657	81.19
463.876	79.19
464.096	95.19
464.316	83.19
464.536	90.19
464.755	81.19
464.975	102.19
465.195	144.19
465.414	133.19
465.634	89.19
465.854	95.19
466.073	85.19
466.293	83.19
466.512	79.19
466.732	87.19
466.951	95.19
467.171	85.19
467.391	86.19
467.61	87.19
467.829	90.19
468.049	88.19
468.268	98.19
468.488	79.19
468.707	96.19
468.927	99.19
469.146	95.19
469.365	82.19
469.585	82.19
469.804	97.19
470.023	86.19
470.243	82.19
470.462	102.19
470.681	93.19
470.901	78.19
471.12	75.19
471.339	80.19
471.558	84.19
471.777	90.19
471.997	79.19
472.216	87.19
472.435	75.19
472.654	81.19
472.873	83.19
473.092	80.19
473.311	78.19
473.53	85.19
473.749	67.19
473.968	96.19
474.187	89.19
474.406	98.19
474.625	90.19
474.844	90.19
475.063	88.19
475.282	75.19
475.501	79.19
475.72	97.19
475.939	82.19
476.158	81.19
476.377	82.19
476.596	72.19
476.814	75.19
477.033	88.19
477.252	78.19
477.471	86.19
477.69	96.19
477.908	92.19
478.127	81.19
478.346	73.19
478.564	103.19
478.783	93.19
479.002	82.19
479.22	78.19
479.439	97.19
479.658	83.19
479.876	82.19
480.095	91.19
480.313	97.19
480.532	92.19
480.751	81.19
480.969	81.19
481.188	86.19
481.406	105.19
481.624	85.19
481.843	83.19
482.061	88.19
482.28	92.19
482.498	76.19
482.717	83.19
482.935	83.19
483.153	77.19
483.372	74.19
483.59	85.19
483.808	88.19
484.027	92.19
484.245	85.19
484.463	89.19
484.681	77.19
484.9	87.19
485.118	79.19
485.336	94.19
485.554	81.19
485.772	93.19
485.99	98.19
486.209	88.19
486.427	92.19
486.645	100.19
486.863	107.19
487.081	92.19
487.299	91.19
487.517	90.19
487.735	96.19
487.953	81.19
488.171	98.19
488.389	91.19
488.607	77.19
488.825	82.19
489.043	96.19
489.261	87.19
489.479	84.19
489.696	86.19
489.914	85.19
490.132	96.19
490.35	80.19
490.568	87.19
490.786	84.19
491.003	91.19
491.221	92.19
491.439	85.19
491.657	98.19
491.874	97.19
492.092	80.19
492.31	91.19
492.527	98.19
492.745	91.19
492.963	87.19
493.18	84.19
493.398	73.19
493.615	83.19
493.833	89.19
494.05	82.19
494.268	82.19
494.485	89.19
494.703	96.19
494.92	90.19
495.138	86.19
495.355	95.19
495.573	93.19
495.79	83.19
496.008	87.19
496.225	91.19
496.442	91.19
496.66	86.19
496.877	90.19
497.094	87.19
497.312	81.19
497.529	93.19
497.746	97.19
497.963	92.19
498.181	101.19
498.398	92.19
498.615	89.19
498.832	95.19
499.049	89.19
499.267	85.19
499.484	79.19
499.701	80.19
499.918	78.19
500.135	82.19
500.352	88.19
500.569	86.19
500.786	97.19
501.003	106.19
501.22	96.19
501.437	73.19
501.654	90.19
501.871	93.19
502.088	94.19
502.305	91.19
502.522	96.19
502.739	86.19
502.956	91.19
503.172	85.19
503.389	98.19
503.606	99.19
503.823	86.19
504.04	97.19
504.256	89.19
504.473	84.19
504.69	89.19
504.907	93.19
505.123	85.19
505.34	89.19
505.557	74.19
505.773	89.19
505.99	82.19
506.207	88.19
506.423	86.19
506.64	85.19
506.856	93.19
507.073	81.19
507.289	79.19
507.506	91.19
507.722	111.19
507.939	103.19
508.155	86.19
508.372	86.19
508.588	95.19
508.805	82.19
509.021	95.19
509.238	86.19
509.454	89.19
509.67	94.19
509.887	102.19
510.103	111.19
510.319	213.19
510.536	622.19
510.752	1905.19
510.968	553.19
511.184	129.19
511.401	98.19
511.617	103.19
511.833	105.19
512.049	85.19
512.265	92.19
512.481	79.19
512.698	91.19
512.914	90.19
513.13	81.19
513.346	95.19
513.562	90.19
513.778	82.19
513.994	95.19
514.21	104.19
514.426	105.19
514.642	124.19
514.858	97.19
515.074	139.19
515.29	341.19
515.506	1063.19
515.721	411.19
515.937	140.19
516.153	106.19
516.369	103.19
516.585	90.19
516.801	98.19
517.016	79.19
517.232	90.19
517.448	96.19
517.664	81.19
