Data from Uncirc_2000_H10_HRD10591_00013.txt Node
Date: Wed Jan 03 10:48:19 EST 2024
User: Yrep
Spectrometer: HR+D1059
Trigger mode: 1
Integration Time (sec): 1.000000E-1
Scans to average: 1
Electric dark correction enabled: true
Nonlinearity correction enabled: false
Boxcar width: 0
XAxis mode: Wavelengths
Number of Pixels in Spectrum: 2048
>>>>>Begin Spectral Data<<<<<
223.165	-10.62
223.4	-10.62
223.635	-10.62
223.869	-10.62
224.104	-30.62
224.338	-14.62
224.573	-22.62
224.808	-20.62
225.042	-0.62
225.277	-2.62
225.511	9.38
225.746	5.38
225.98	20.38
226.215	8.38
226.449	3.38
226.683	21.38
226.918	27.38
227.152	17.38
227.387	30.38
227.621	28.38
227.856	49.38
228.09	40.38
228.324	66.38
228.559	52.38
228.793	69.38
229.027	81.38
229.262	61.38
229.496	57.38
229.73	87.38
229.964	63.38
230.199	80.38
230.433	77.38
230.667	71.38
230.901	63.38
231.136	85.38
231.37	77.38
231.604	72.38
231.838	77.38
232.072	81.38
232.306	72.38
232.541	80.38
232.775	82.38
233.009	87.38
233.243	83.38
233.477	85.38
233.711	75.38
233.945	87.38
234.179	88.38
234.413	85.38
234.647	95.38
234.881	88.38
235.115	62.38
235.349	89.38
235.583	83.38
235.817	77.38
236.051	91.38
236.285	78.38
236.519	82.38
236.753	79.38
236.987	90.38
237.221	76.38
237.455	79.38
237.689	82.38
237.922	85.38
238.156	63.38
238.39	88.38
238.624	62.38
238.858	79.38
239.091	79.38
239.325	71.38
239.559	77.38
239.793	55.38
240.027	79.38
240.26	73.38
240.494	82.38
240.728	63.38
240.961	79.38
241.195	77.38
241.429	70.38
241.662	55.38
241.896	75.38
242.13	80.38
242.363	83.38
242.597	82.38
242.83	73.38
243.064	67.38
243.298	74.38
243.531	75.38
243.765	74.38
243.998	70.38
244.232	68.38
244.465	85.38
244.699	73.38
244.932	81.38
245.166	74.38
245.399	77.38
245.633	86.38
245.866	81.38
246.099	98.38
246.333	69.38
246.566	87.38
246.8	81.38
247.033	82.38
247.266	65.38
247.5	69.38
247.733	74.38
247.966	90.38
248.2	73.38
248.433	85.38
248.666	79.38
248.899	76.38
249.133	66.38
249.366	87.38
249.599	83.38
249.832	81.38
250.066	77.38
250.299	74.38
250.532	90.38
250.765	65.38
250.998	74.38
251.231	70.38
251.465	74.38
251.698	79.38
251.931	87.38
252.164	86.38
252.397	74.38
252.63	74.38
252.863	70.38
253.096	73.38
253.329	75.38
253.562	66.38
253.795	67.38
254.028	79.38
254.261	79.38
254.494	74.38
254.727	78.38
254.96	73.38
255.193	79.38
255.426	92.38
255.659	89.38
255.892	70.38
256.124	99.38
256.357	89.38
256.59	86.38
256.823	85.38
257.056	71.38
257.289	77.38
257.521	81.38
257.754	78.38
257.987	83.38
258.22	78.38
258.452	75.38
258.685	62.38
258.918	87.38
259.151	78.38
259.383	76.38
259.616	95.38
259.849	75.38
260.081	53.38
260.314	63.38
260.547	81.38
260.779	76.38
261.012	83.38
261.244	68.38
261.477	89.38
261.71	90.38
261.942	95.38
262.175	110.38
262.407	72.38
262.64	70.38
262.872	69.38
263.105	71.38
263.337	82.38
263.57	78.38
263.802	72.38
264.035	87.38
264.267	77.38
264.499	79.38
264.732	85.38
264.964	83.38
265.197	83.38
265.429	89.38
265.661	71.38
265.894	86.38
266.126	87.38
266.358	78.38
266.591	94.38
266.823	71.38
267.055	83.38
267.287	84.38
267.52	80.38
267.752	79.38
267.984	90.38
268.216	77.38
268.448	88.38
268.681	92.38
268.913	83.38
269.145	93.38
269.377	92.38
269.609	81.38
269.841	76.38
270.073	77.38
270.306	72.38
270.538	86.38
270.77	86.38
271.002	83.38
271.234	81.38
271.466	84.38
271.698	74.38
271.93	90.38
272.162	84.38
272.394	86.38
272.626	82.38
272.858	73.38
273.09	66.38
273.322	77.38
273.553	70.38
273.785	80.38
274.017	85.38
274.249	70.38
274.481	82.38
274.713	89.38
274.945	89.38
275.176	70.38
275.408	93.38
275.64	85.38
275.872	76.38
276.104	82.38
276.335	89.38
276.567	92.38
276.799	97.38
277.031	86.38
277.262	87.38
277.494	85.38
277.726	85.38
277.957	82.38
278.189	85.38
278.421	91.38
278.652	64.38
278.884	87.38
279.115	75.38
279.347	92.38
279.579	83.38
279.81	92.38
280.042	91.38
280.273	79.38
280.505	80.38
280.736	86.38
280.968	89.38
281.199	88.38
281.431	89.38
281.662	87.38
281.894	91.38
282.125	104.38
282.356	119.38
282.588	117.38
282.819	82.38
283.051	88.38
283.282	92.38
283.513	89.38
283.745	88.38
283.976	77.38
284.207	72.38
284.439	89.38
284.67	89.38
284.901	82.38
285.132	74.38
285.364	79.38
285.595	86.38
285.826	81.38
286.057	87.38
286.288	87.38
286.52	81.38
286.751	73.38
286.982	67.38
287.213	78.38
287.444	102.38
287.675	76.38
287.906	95.38
288.138	80.38
288.369	77.38
288.6	92.38
288.831	88.38
289.062	91.38
289.293	87.38
289.524	82.38
289.755	81.38
289.986	89.38
290.217	77.38
290.448	80.38
290.679	89.38
290.91	91.38
291.141	86.38
291.371	78.38
291.602	82.38
291.833	82.38
292.064	79.38
292.295	92.38
292.526	80.38
292.757	88.38
292.987	88.38
293.218	97.38
293.449	90.38
293.68	83.38
293.91	76.38
294.141	86.38
294.372	82.38
294.603	92.38
294.833	78.38
295.064	95.38
295.295	89.38
295.525	90.38
295.756	96.38
295.987	105.38
296.217	111.38
296.448	117.38
296.679	93.38
296.909	71.38
297.14	77.38
297.37	82.38
297.601	78.38
297.831	90.38
298.062	96.38
298.292	95.38
298.523	85.38
298.753	73.38
298.984	78.38
299.214	76.38
299.445	94.38
299.675	91.38
299.905	86.38
300.136	84.38
300.366	87.38
300.597	82.38
300.827	82.38
301.057	100.38
301.288	89.38
301.518	91.38
301.748	81.38
301.979	96.38
302.209	81.38
302.439	76.38
302.669	93.38
302.9	82.38
303.13	76.38
303.36	91.38
303.59	98.38
303.82	87.38
304.051	88.38
304.281	89.38
304.511	84.38
304.741	70.38
304.971	96.38
305.201	96.38
305.431	89.38
305.661	85.38
305.891	93.38
306.121	94.38
306.352	91.38
306.582	96.38
306.812	74.38
307.042	108.38
307.272	95.38
307.502	94.38
307.731	79.38
307.961	86.38
308.191	84.38
308.421	80.38
308.651	87.38
308.881	85.38
309.111	104.38
309.341	103.38
309.571	97.38
309.8	83.38
310.03	88.38
310.26	102.38
310.49	94.38
310.72	84.38
310.949	84.38
311.179	88.38
311.409	89.38
311.639	91.38
311.868	92.38
312.098	103.38
312.328	82.38
312.557	91.38
312.787	99.38
313.017	98.38
313.246	88.38
313.476	83.38
313.706	89.38
313.935	94.38
314.165	102.38
314.394	98.38
314.624	98.38
314.853	83.38
315.083	78.38
315.312	73.38
315.542	85.38
315.771	79.38
316.001	90.38
316.23	89.38
316.46	74.38
316.689	78.38
316.919	96.38
317.148	99.38
317.377	111.38
317.607	88.38
317.836	83.38
318.065	82.38
318.295	96.38
318.524	98.38
318.753	91.38
318.983	96.38
319.212	105.38
319.441	91.38
319.67	103.38
319.9	99.38
320.129	91.38
320.358	85.38
320.587	105.38
320.816	87.38
321.046	97.38
321.275	102.38
321.504	103.38
321.733	97.38
321.962	93.38
322.191	103.38
322.42	104.38
322.649	94.38
322.878	109.38
323.108	112.38
323.337	117.38
323.566	117.38
323.795	139.38
324.024	197.38
324.253	353.38
324.482	714.38
324.71	1411.38
324.939	1867.38
325.168	712.38
325.397	204.38
325.626	144.38
325.855	110.38
326.084	104.38
326.313	114.38
326.542	141.38
326.77	215.38
326.999	431.38
327.228	819.38
327.457	1470.38
327.686	1157.38
327.914	311.38
328.143	173.38
328.372	128.38
328.6	111.38
328.829	99.38
329.058	109.38
329.287	108.38
329.515	110.38
329.744	102.38
329.972	97.38
330.201	100.38
330.43	99.38
330.658	95.38
330.887	121.38
331.115	96.38
331.344	95.38
331.572	96.38
331.801	89.38
332.03	89.38
332.258	105.38
332.486	89.38
332.715	87.38
332.943	101.38
333.172	99.38
333.4	83.38
333.629	106.38
333.857	100.38
334.085	102.38
334.314	92.38
334.542	96.38
334.771	70.38
334.999	98.38
335.227	85.38
335.455	98.38
335.684	83.38
335.912	101.38
336.14	107.38
336.369	95.38
336.597	107.38
336.825	105.38
337.053	88.38
337.281	89.38
337.51	85.38
337.738	88.38
337.966	82.38
338.194	75.38
338.422	96.38
338.65	98.38
338.878	89.38
339.106	87.38
339.334	94.38
339.562	83.38
339.79	93.38
340.018	98.38
340.246	86.38
340.474	73.38
340.702	79.38
340.93	91.38
341.158	100.38
341.386	85.38
341.614	95.38
341.842	101.38
342.07	97.38
342.298	99.38
342.526	90.38
342.754	89.38
342.981	81.38
343.209	83.38
343.437	97.38
343.665	99.38
343.893	92.38
344.12	106.38
344.348	95.38
344.576	91.38
344.804	79.38
345.031	90.38
345.259	94.38
345.487	89.38
345.714	81.38
345.942	81.38
346.17	93.38
346.397	104.38
346.625	91.38
346.853	90.38
347.08	77.38
347.308	91.38
347.535	107.38
347.763	93.38
347.99	95.38
348.218	99.38
348.445	103.38
348.673	84.38
348.9	95.38
349.128	83.38
349.355	96.38
349.583	86.38
349.81	100.38
350.037	86.38
350.265	81.38
350.492	87.38
350.72	88.38
350.947	94.38
351.174	104.38
351.402	96.38
351.629	87.38
351.856	84.38
352.083	105.38
352.311	104.38
352.538	107.38
352.765	92.38
352.992	113.38
353.22	107.38
353.447	100.38
353.674	114.38
353.901	107.38
354.128	95.38
354.355	87.38
354.583	100.38
354.81	87.38
355.037	96.38
355.264	91.38
355.491	82.38
355.718	93.38
355.945	95.38
356.172	100.38
356.399	92.38
356.626	94.38
356.853	92.38
357.08	86.38
357.307	95.38
357.534	81.38
357.761	90.38
357.988	101.38
358.215	91.38
358.441	91.38
358.668	95.38
358.895	91.38
359.122	85.38
359.349	87.38
359.576	88.38
359.802	98.38
360.029	93.38
360.256	102.38
360.483	81.38
360.709	96.38
360.936	90.38
361.163	94.38
361.39	96.38
361.616	91.38
361.843	108.38
362.07	88.38
362.296	112.38
362.523	105.38
362.749	86.38
362.976	75.38
363.203	98.38
363.429	101.38
363.656	99.38
363.882	80.38
364.109	90.38
364.335	105.38
364.562	87.38
364.788	89.38
365.015	88.38
365.241	89.38
365.468	107.38
365.694	81.38
365.92	96.38
366.147	86.38
366.373	92.38
366.599	75.38
366.826	88.38
367.052	83.38
367.278	84.38
367.505	91.38
367.731	84.38
367.957	88.38
368.184	105.38
368.41	95.38
368.636	115.38
368.862	91.38
369.089	96.38
369.315	89.38
369.541	100.38
369.767	90.38
369.993	80.38
370.219	92.38
370.445	85.38
370.672	95.38
370.898	87.38
371.124	84.38
371.35	88.38
371.576	85.38
371.802	79.38
372.028	88.38
372.254	88.38
372.48	80.38
372.706	79.38
372.932	78.38
373.158	85.38
373.384	100.38
373.61	93.38
373.835	106.38
374.061	103.38
374.287	106.38
374.513	86.38
374.739	96.38
374.965	88.38
375.191	75.38
375.416	94.38
375.642	100.38
375.868	92.38
376.094	97.38
376.319	71.38
376.545	77.38
376.771	91.38
376.997	93.38
377.222	90.38
377.448	102.38
377.674	104.38
377.899	90.38
378.125	85.38
378.35	85.38
378.576	91.38
378.802	86.38
379.027	91.38
379.253	101.38
379.478	79.38
379.704	93.38
379.929	95.38
380.155	89.38
380.38	82.38
380.606	94.38
380.831	92.38
381.057	106.38
381.282	94.38
381.507	88.38
381.733	113.38
381.958	83.38
382.184	97.38
382.409	84.38
382.634	110.38
382.86	93.38
383.085	100.38
383.31	99.38
383.535	96.38
383.761	90.38
383.986	92.38
384.211	86.38
384.436	102.38
384.662	89.38
384.887	114.38
385.112	106.38
385.337	102.38
385.562	101.38
385.787	90.38
386.013	105.38
386.238	109.38
386.463	105.38
386.688	118.38
386.913	105.38
387.138	109.38
387.363	81.38
387.588	103.38
387.813	104.38
388.038	100.38
388.263	108.38
388.488	101.38
388.713	109.38
388.938	87.38
389.163	93.38
389.387	99.38
389.612	86.38
389.837	93.38
390.062	90.38
390.287	81.38
390.512	89.38
390.736	96.38
390.961	82.38
391.186	97.38
391.411	108.38
391.636	87.38
391.86	80.38
392.085	66.38
392.31	76.38
392.534	81.38
392.759	83.38
392.984	91.38
393.208	103.38
393.433	104.38
393.658	89.38
393.882	78.38
394.107	86.38
394.331	87.38
394.556	78.38
394.78	101.38
395.005	65.38
395.229	96.38
395.454	86.38
395.678	64.38
395.903	86.38
396.127	84.38
396.352	90.38
396.576	105.38
396.801	72.38
397.025	83.38
397.249	89.38
397.474	79.38
397.698	80.38
397.922	89.38
398.147	68.38
398.371	90.38
398.595	85.38
398.82	82.38
399.044	80.38
399.268	94.38
399.492	74.38
399.717	84.38
399.941	74.38
400.165	90.38
400.389	106.38
400.613	87.38
400.837	90.38
401.062	79.38
401.286	95.38
401.51	93.38
401.734	74.38
401.958	100.38
402.182	95.38
402.406	132.38
402.63	113.38
402.854	91.38
403.078	95.38
403.302	84.38
403.526	83.38
403.75	92.38
403.974	92.38
404.198	84.38
404.422	76.38
404.645	94.38
404.869	93.38
405.093	74.38
405.317	90.38
405.541	97.38
405.765	93.38
405.988	105.38
406.212	133.38
406.436	182.38
406.66	111.38
406.883	102.38
407.107	88.38
407.331	68.38
407.555	92.38
407.778	83.38
408.002	89.38
408.226	79.38
408.449	94.38
408.673	88.38
408.896	92.38
409.12	96.38
409.344	92.38
409.567	85.38
409.791	91.38
410.014	101.38
410.238	83.38
410.461	95.38
410.685	91.38
410.908	110.38
411.132	97.38
411.355	90.38
411.578	101.38
411.802	90.38
412.025	98.38
412.249	89.38
412.472	100.38
412.695	91.38
412.919	82.38
413.142	76.38
413.365	74.38
413.589	84.38
413.812	88.38
414.035	89.38
414.258	102.38
414.482	87.38
414.705	69.38
414.928	91.38
415.151	80.38
415.374	90.38
415.597	87.38
415.821	92.38
416.044	89.38
416.267	83.38
416.49	77.38
416.713	78.38
416.936	81.38
417.159	84.38
417.382	77.38
417.605	93.38
417.828	84.38
418.051	93.38
418.274	95.38
418.497	85.38
418.72	91.38
418.943	88.38
419.166	94.38
419.389	94.38
419.611	92.38
419.834	83.38
420.057	96.38
420.28	89.38
420.503	76.38
420.726	88.38
420.948	108.38
421.171	104.38
421.394	101.38
421.617	93.38
421.839	85.38
422.062	84.38
422.285	87.38
422.507	95.38
422.73	112.38
422.953	88.38
423.175	95.38
423.398	80.38
423.621	84.38
423.843	82.38
424.066	66.38
424.288	77.38
424.511	97.38
424.733	78.38
424.956	98.38
425.178	77.38
425.401	89.38
425.623	94.38
425.846	93.38
426.068	102.38
426.291	97.38
426.513	86.38
426.735	93.38
426.958	62.38
427.18	102.38
427.402	121.38
427.625	136.38
427.847	114.38
428.069	95.38
428.292	89.38
428.514	81.38
428.736	88.38
428.958	85.38
429.181	88.38
429.403	93.38
429.625	77.38
429.847	71.38
430.069	97.38
430.292	86.38
430.514	89.38
430.736	81.38
430.958	87.38
431.18	86.38
431.402	84.38
431.624	85.38
431.846	75.38
432.068	93.38
432.29	74.38
432.512	86.38
432.734	86.38
432.956	91.38
433.178	94.38
433.4	91.38
433.622	101.38
433.844	101.38
434.066	82.38
434.287	80.38
434.509	82.38
434.731	91.38
434.953	78.38
435.175	85.38
435.397	82.38
435.618	92.38
435.84	100.38
436.062	94.38
436.284	109.38
436.505	84.38
436.727	91.38
436.949	84.38
437.17	68.38
437.392	90.38
437.614	85.38
437.835	87.38
438.057	90.38
438.278	96.38
438.5	97.38
438.721	119.38
438.943	94.38
439.165	98.38
439.386	88.38
439.608	92.38
439.829	94.38
440.05	107.38
440.272	126.38
440.493	88.38
440.715	88.38
440.936	84.38
441.158	81.38
441.379	75.38
441.6	96.38
441.822	94.38
442.043	100.38
442.264	107.38
442.486	86.38
442.707	79.38
442.928	102.38
443.149	114.38
443.371	110.38
443.592	90.38
443.813	118.38
444.034	82.38
444.255	99.38
444.476	88.38
444.698	77.38
444.919	80.38
445.14	112.38
445.361	108.38
445.582	80.38
445.803	104.38
446.024	99.38
446.245	116.38
446.466	102.38
446.687	72.38
446.908	89.38
447.129	90.38
447.35	80.38
447.571	75.38
447.792	80.38
448.013	86.38
448.234	95.38
448.455	88.38
448.675	101.38
448.896	103.38
449.117	95.38
449.338	91.38
449.559	122.38
449.779	112.38
450	82.38
450.221	70.38
450.442	99.38
450.662	89.38
450.883	89.38
451.104	101.38
451.324	78.38
451.545	87.38
451.766	86.38
451.986	89.38
452.207	89.38
452.428	86.38
452.648	85.38
452.869	94.38
453.089	102.38
453.31	100.38
453.53	101.38
453.751	84.38
453.971	85.38
454.192	99.38
454.412	94.38
454.633	74.38
454.853	80.38
455.073	78.38
455.294	89.38
455.514	81.38
455.734	92.38
455.955	80.38
456.175	78.38
456.395	83.38
456.616	85.38
456.836	77.38
457.056	87.38
457.276	86.38
457.497	84.38
457.717	99.38
457.937	75.38
458.157	77.38
458.377	79.38
458.598	99.38
458.818	114.38
459.038	125.38
459.258	103.38
459.478	87.38
459.698	84.38
459.918	72.38
460.138	85.38
460.358	83.38
460.578	88.38
460.798	76.38
461.018	95.38
461.238	100.38
461.458	76.38
461.678	73.38
461.898	83.38
462.118	88.38
462.338	77.38
462.558	77.38
462.777	83.38
462.997	92.38
463.217	86.38
463.437	82.38
463.657	87.38
463.876	76.38
464.096	89.38
464.316	85.38
464.536	85.38
464.755	71.38
464.975	84.38
465.195	133.38
465.414	134.38
465.634	96.38
465.854	80.38
466.073	79.38
466.293	76.38
466.512	81.38
466.732	87.38
466.951	82.38
467.171	77.38
467.391	94.38
467.61	96.38
467.829	88.38
468.049	96.38
468.268	97.38
468.488	95.38
468.707	82.38
468.927	77.38
469.146	80.38
469.365	82.38
469.585	76.38
469.804	79.38
470.023	81.38
470.243	95.38
470.462	77.38
470.681	84.38
470.901	93.38
471.12	79.38
471.339	84.38
471.558	81.38
471.777	83.38
471.997	79.38
472.216	74.38
472.435	95.38
472.654	89.38
472.873	87.38
473.092	91.38
473.311	81.38
473.53	72.38
473.749	94.38
473.968	95.38
474.187	97.38
474.406	82.38
474.625	85.38
474.844	88.38
475.063	81.38
475.282	91.38
475.501	74.38
475.72	89.38
475.939	79.38
476.158	93.38
476.377	79.38
476.596	80.38
476.814	78.38
477.033	87.38
477.252	77.38
477.471	94.38
477.69	91.38
477.908	70.38
478.127	95.38
478.346	89.38
478.564	78.38
478.783	89.38
479.002	98.38
479.22	77.38
479.439	77.38
479.658	80.38
479.876	93.38
480.095	95.38
480.313	77.38
480.532	90.38
480.751	86.38
480.969	95.38
481.188	110.38
481.406	77.38
481.624	89.38
481.843	90.38
482.061	83.38
482.28	83.38
482.498	80.38
482.717	78.38
482.935	81.38
483.153	86.38
483.372	101.38
483.59	93.38
483.808	89.38
484.027	91.38
484.245	90.38
484.463	94.38
484.681	97.38
484.9	87.38
485.118	94.38
485.336	100.38
485.554	94.38
485.772	104.38
485.99	101.38
486.209	102.38
486.427	105.38
486.645	93.38
486.863	118.38
487.081	98.38
487.299	91.38
487.517	84.38
487.735	99.38
487.953	94.38
488.171	85.38
488.389	97.38
488.607	95.38
488.825	80.38
489.043	78.38
489.261	71.38
489.479	87.38
489.696	88.38
489.914	92.38
490.132	86.38
490.35	78.38
490.568	81.38
490.786	101.38
491.003	86.38
491.221	96.38
491.439	94.38
491.657	87.38
491.874	86.38
492.092	82.38
492.31	78.38
492.527	95.38
492.745	80.38
492.963	98.38
493.18	82.38
493.398	90.38
493.615	81.38
493.833	77.38
494.05	84.38
494.268	85.38
494.485	87.38
494.703	75.38
494.92	87.38
495.138	94.38
495.355	97.38
495.573	89.38
495.79	88.38
496.008	86.38
496.225	93.38
496.442	90.38
496.66	97.38
496.877	91.38
497.094	96.38
497.312	81.38
497.529	79.38
497.746	89.38
497.963	84.38
498.181	80.38
498.398	96.38
498.615	104.38
498.832	105.38
499.049	86.38
499.267	79.38
499.484	91.38
499.701	90.38
499.918	78.38
500.135	93.38
500.352	85.38
500.569	79.38
500.786	90.38
501.003	80.38
501.22	86.38
501.437	91.38
501.654	95.38
501.871	101.38
502.088	94.38
502.305	87.38
502.522	79.38
502.739	98.38
502.956	90.38
503.172	84.38
503.389	86.38
503.606	94.38
503.823	75.38
504.04	91.38
504.256	92.38
504.473	91.38
504.69	84.38
504.907	100.38
505.123	97.38
505.34	82.38
505.557	77.38
505.773	93.38
505.99	87.38
506.207	91.38
506.423	84.38
506.64	81.38
506.856	83.38
507.073	87.38
507.289	82.38
507.506	77.38
507.722	96.38
507.939	98.38
508.155	81.38
508.372	97.38
508.588	93.38
508.805	102.38
509.021	101.38
509.238	84.38
509.454	106.38
509.67	87.38
509.887	107.38
510.103	110.38
510.319	181.38
510.536	609.38
510.752	1845.38
510.968	537.38
511.184	143.38
511.401	106.38
511.617	93.38
511.833	98.38
512.049	94.38
512.265	99.38
512.481	83.38
512.698	87.38
512.914	94.38
513.13	95.38
513.346	86.38
513.562	101.38
513.778	98.38
513.994	86.38
514.21	105.38
514.426	106.38
514.642	116.38
514.858	120.38
515.074	142.38
515.29	340.38
515.506	1073.38
515.721	420.38
515.937	119.38
516.153	99.38
516.369	97.38
516.585	94.38
516.801	91.38
517.016	84.38
