Data from Uncirc_2000_H10_HRD10591_00036.txt Node
Date: Wed Jan 03 10:48:24 EST 2024
User: Yrep
Spectrometer: HR+D1059
Trigger mode: 1
Integration Time (sec): 1.000000E-1
Scans to average: 1
Electric dark correction enabled: true
Nonlinearity correction enabled: false
Boxcar width: 0
XAxis mode: Wavelengths
Number of Pixels in Spectrum: 2048
>>>>>Begin Spectral Data<<<<<
223.165	-3.75
223.4	-3.75
223.635	-3.75
223.869	-23.75
224.104	-29.75
224.338	-2.75
224.573	-13.75
224.808	-17.75
225.042	-13.75
225.277	-4.75
225.511	-8.75
225.746	-4.75
225.98	22.25
226.215	23.25
226.449	22.25
226.683	9.25
226.918	20.25
227.152	26.25
227.387	33.25
227.621	51.25
227.856	41.25
228.09	44.25
228.324	51.25
228.559	47.25
228.793	52.25
229.027	65.25
229.262	61.25
229.496	75.25
229.73	76.25
229.964	76.25
230.199	70.25
230.433	71.25
230.667	55.25
230.901	82.25
231.136	85.25
231.37	85.25
231.604	74.25
231.838	61.25
232.072	76.25
232.306	85.25
232.541	79.25
232.775	79.25
233.009	88.25
233.243	68.25
233.477	80.25
233.711	82.25
233.945	87.25
234.179	75.25
234.413	75.25
234.647	74.25
234.881	80.25
235.115	77.25
235.349	73.25
235.583	93.25
235.817	77.25
236.051	82.25
236.285	82.25
236.519	86.25
236.753	95.25
236.987	83.25
237.221	76.25
237.455	81.25
237.689	70.25
237.922	78.25
238.156	86.25
238.39	87.25
238.624	69.25
238.858	73.25
239.091	83.25
239.325	89.25
239.559	82.25
239.793	85.25
240.027	79.25
240.26	84.25
240.494	71.25
240.728	82.25
240.961	89.25
241.195	83.25
241.429	72.25
241.662	78.25
241.896	70.25
242.13	86.25
242.363	77.25
242.597	79.25
242.83	86.25
243.064	78.25
243.298	73.25
243.531	82.25
243.765	71.25
243.998	82.25
244.232	85.25
244.465	78.25
244.699	80.25
244.932	78.25
245.166	49.25
245.399	88.25
245.633	80.25
245.866	78.25
246.099	82.25
246.333	73.25
246.566	90.25
246.8	66.25
247.033	67.25
247.266	66.25
247.5	89.25
247.733	72.25
247.966	86.25
248.2	85.25
248.433	85.25
248.666	75.25
248.899	84.25
249.133	95.25
249.366	85.25
249.599	90.25
249.832	95.25
250.066	74.25
250.299	76.25
250.532	70.25
250.765	71.25
250.998	89.25
251.231	84.25
251.465	77.25
251.698	89.25
251.931	63.25
252.164	74.25
252.397	81.25
252.63	75.25
252.863	74.25
253.096	70.25
253.329	87.25
253.562	78.25
253.795	84.25
254.028	77.25
254.261	86.25
254.494	80.25
254.727	62.25
254.96	91.25
255.193	85.25
255.426	89.25
255.659	85.25
255.892	89.25
256.124	82.25
256.357	81.25
256.59	74.25
256.823	94.25
257.056	78.25
257.289	80.25
257.521	74.25
257.754	82.25
257.987	99.25
258.22	82.25
258.452	79.25
258.685	84.25
258.918	84.25
259.151	79.25
259.383	81.25
259.616	66.25
259.849	79.25
260.081	83.25
260.314	81.25
260.547	69.25
260.779	91.25
261.012	90.25
261.244	77.25
261.477	83.25
261.71	81.25
261.942	107.25
262.175	106.25
262.407	88.25
262.64	94.25
262.872	93.25
263.105	85.25
263.337	85.25
263.57	81.25
263.802	81.25
264.035	91.25
264.267	83.25
264.499	90.25
264.732	86.25
264.964	90.25
265.197	82.25
265.429	78.25
265.661	78.25
265.894	75.25
266.126	86.25
266.358	89.25
266.591	77.25
266.823	77.25
267.055	90.25
267.287	90.25
267.52	77.25
267.752	81.25
267.984	82.25
268.216	83.25
268.448	78.25
268.681	83.25
268.913	83.25
269.145	83.25
269.377	79.25
269.609	82.25
269.841	85.25
270.073	75.25
270.306	83.25
270.538	77.25
270.77	94.25
271.002	99.25
271.234	88.25
271.466	81.25
271.698	91.25
271.93	77.25
272.162	87.25
272.394	90.25
272.626	82.25
272.858	73.25
273.09	75.25
273.322	73.25
273.553	80.25
273.785	104.25
274.017	81.25
274.249	85.25
274.481	80.25
274.713	89.25
274.945	94.25
275.176	83.25
275.408	82.25
275.64	88.25
275.872	81.25
276.104	91.25
276.335	96.25
276.567	92.25
276.799	95.25
277.031	100.25
277.262	90.25
277.494	95.25
277.726	89.25
277.957	88.25
278.189	93.25
278.421	90.25
278.652	83.25
278.884	76.25
279.115	76.25
279.347	86.25
279.579	87.25
279.81	93.25
280.042	90.25
280.273	83.25
280.505	74.25
280.736	91.25
280.968	82.25
281.199	76.25
281.431	83.25
281.662	86.25
281.894	88.25
282.125	104.25
282.356	116.25
282.588	123.25
282.819	106.25
283.051	93.25
283.282	86.25
283.513	87.25
283.745	94.25
283.976	104.25
284.207	96.25
284.439	88.25
284.67	90.25
284.901	80.25
285.132	94.25
285.364	95.25
285.595	83.25
285.826	66.25
286.057	90.25
286.288	74.25
286.52	85.25
286.751	99.25
286.982	74.25
287.213	76.25
287.444	102.25
287.675	82.25
287.906	91.25
288.138	92.25
288.369	92.25
288.6	100.25
288.831	94.25
289.062	96.25
289.293	79.25
289.524	84.25
289.755	88.25
289.986	80.25
290.217	87.25
290.448	95.25
290.679	91.25
290.91	78.25
291.141	81.25
291.371	81.25
291.602	76.25
291.833	92.25
292.064	84.25
292.295	82.25
292.526	94.25
292.757	79.25
292.987	104.25
293.218	92.25
293.449	89.25
293.68	79.25
293.91	92.25
294.141	100.25
294.372	90.25
294.603	96.25
294.833	77.25
295.064	85.25
295.295	92.25
295.525	81.25
295.756	100.25
295.987	112.25
296.217	142.25
296.448	100.25
296.679	93.25
296.909	95.25
297.14	84.25
297.37	87.25
297.601	90.25
297.831	77.25
298.062	83.25
298.292	94.25
298.523	88.25
298.753	84.25
298.984	89.25
299.214	80.25
299.445	91.25
299.675	100.25
299.905	91.25
300.136	103.25
300.366	96.25
300.597	88.25
300.827	116.25
301.057	90.25
301.288	93.25
301.518	89.25
301.748	106.25
301.979	104.25
302.209	89.25
302.439	73.25
302.669	84.25
302.9	90.25
303.13	88.25
303.36	93.25
303.59	92.25
303.82	101.25
304.051	102.25
304.281	90.25
304.511	93.25
304.741	96.25
304.971	105.25
305.201	78.25
305.431	71.25
305.661	85.25
305.891	88.25
306.121	92.25
306.352	94.25
306.582	108.25
306.812	94.25
307.042	81.25
307.272	86.25
307.502	79.25
307.731	104.25
307.961	102.25
308.191	90.25
308.421	85.25
308.651	90.25
308.881	92.25
309.111	85.25
309.341	95.25
309.571	99.25
309.8	97.25
310.03	87.25
310.26	97.25
310.49	97.25
310.72	101.25
310.949	97.25
311.179	105.25
311.409	95.25
311.639	97.25
311.868	96.25
312.098	115.25
312.328	88.25
312.557	90.25
312.787	105.25
313.017	95.25
313.246	92.25
313.476	99.25
313.706	93.25
313.935	116.25
314.165	86.25
314.394	103.25
314.624	101.25
314.853	105.25
315.083	96.25
315.312	92.25
315.542	83.25
315.771	94.25
316.001	93.25
316.23	84.25
316.46	89.25
316.689	90.25
316.919	84.25
317.148	95.25
317.377	90.25
317.607	111.25
317.836	86.25
318.065	90.25
318.295	86.25
318.524	85.25
318.753	77.25
318.983	105.25
319.212	101.25
319.441	98.25
319.67	101.25
319.9	100.25
320.129	102.25
320.358	103.25
320.587	95.25
320.816	101.25
321.046	105.25
321.275	101.25
321.504	80.25
321.733	104.25
321.962	102.25
322.191	102.25
322.42	105.25
322.649	106.25
322.878	106.25
323.108	125.25
323.337	123.25
323.566	129.25
323.795	153.25
324.024	203.25
324.253	370.25
324.482	790.25
324.71	1587.25
324.939	2053.25
325.168	761.25
325.397	221.25
325.626	139.25
325.855	114.25
326.084	128.25
326.313	127.25
326.542	165.25
326.77	218.25
326.999	436.25
327.228	887.25
327.457	1608.25
327.686	1254.25
327.914	329.25
328.143	182.25
328.372	137.25
328.6	123.25
328.829	119.25
329.058	116.25
329.287	118.25
329.515	107.25
329.744	104.25
329.972	103.25
330.201	115.25
330.43	109.25
330.658	124.25
330.887	119.25
331.115	117.25
331.344	88.25
331.572	101.25
331.801	101.25
332.03	101.25
332.258	110.25
332.486	93.25
332.715	87.25
332.943	87.25
333.172	87.25
333.4	102.25
333.629	104.25
333.857	110.25
334.085	92.25
334.314	73.25
334.542	91.25
334.771	84.25
334.999	102.25
335.227	99.25
335.455	95.25
335.684	92.25
335.912	102.25
336.14	102.25
336.369	94.25
336.597	110.25
336.825	81.25
337.053	92.25
337.281	101.25
337.51	91.25
337.738	95.25
337.966	89.25
338.194	95.25
338.422	94.25
338.65	93.25
338.878	99.25
339.106	109.25
339.334	89.25
339.562	72.25
339.79	110.25
340.018	97.25
340.246	88.25
340.474	101.25
340.702	109.25
340.93	90.25
341.158	99.25
341.386	102.25
341.614	108.25
341.842	90.25
342.07	98.25
342.298	99.25
342.526	99.25
342.754	84.25
342.981	98.25
343.209	89.25
343.437	102.25
343.665	96.25
343.893	94.25
344.12	96.25
344.348	77.25
344.576	86.25
344.804	75.25
345.031	104.25
345.259	98.25
345.487	84.25
345.714	101.25
345.942	97.25
346.17	97.25
346.397	94.25
346.625	104.25
346.853	83.25
347.08	99.25
347.308	81.25
347.535	92.25
347.763	96.25
347.99	92.25
348.218	105.25
348.445	110.25
348.673	89.25
348.9	93.25
349.128	77.25
349.355	94.25
349.583	101.25
349.81	93.25
350.037	97.25
350.265	90.25
350.492	101.25
350.72	106.25
350.947	94.25
351.174	89.25
351.402	115.25
351.629	114.25
351.856	89.25
352.083	101.25
352.311	128.25
352.538	118.25
352.765	103.25
352.992	110.25
353.22	99.25
353.447	94.25
353.674	106.25
353.901	100.25
354.128	92.25
354.355	88.25
354.583	98.25
354.81	100.25
355.037	92.25
355.264	105.25
355.491	94.25
355.718	105.25
355.945	98.25
356.172	105.25
356.399	107.25
356.626	93.25
356.853	100.25
357.08	77.25
357.307	89.25
357.534	87.25
357.761	86.25
357.988	92.25
358.215	87.25
358.441	82.25
358.668	94.25
358.895	98.25
359.122	98.25
359.349	82.25
359.576	106.25
359.802	97.25
360.029	95.25
360.256	102.25
360.483	100.25
360.709	95.25
360.936	107.25
361.163	94.25
361.39	85.25
361.616	82.25
361.843	89.25
362.07	92.25
362.296	88.25
362.523	107.25
362.749	93.25
362.976	98.25
363.203	102.25
363.429	86.25
363.656	94.25
363.882	95.25
364.109	89.25
364.335	86.25
364.562	89.25
364.788	71.25
365.015	81.25
365.241	81.25
365.468	106.25
365.694	104.25
365.92	98.25
366.147	92.25
366.373	94.25
366.599	86.25
366.826	94.25
367.052	69.25
367.278	71.25
367.505	95.25
367.731	100.25
367.957	82.25
368.184	97.25
368.41	88.25
368.636	107.25
368.862	95.25
369.089	94.25
369.315	113.25
369.541	95.25
369.767	93.25
369.993	93.25
370.219	94.25
370.445	90.25
370.672	80.25
370.898	81.25
371.124	85.25
371.35	95.25
371.576	108.25
371.802	94.25
372.028	85.25
372.254	92.25
372.48	101.25
372.706	95.25
372.932	89.25
373.158	88.25
373.384	82.25
373.61	105.25
373.835	79.25
374.061	82.25
374.287	92.25
374.513	93.25
374.739	87.25
374.965	71.25
375.191	90.25
375.416	85.25
375.642	109.25
375.868	92.25
376.094	100.25
376.319	77.25
376.545	80.25
376.771	106.25
376.997	102.25
377.222	101.25
377.448	105.25
377.674	96.25
377.899	95.25
378.125	93.25
378.35	105.25
378.576	87.25
378.802	97.25
379.027	83.25
379.253	87.25
379.478	94.25
379.704	101.25
379.929	86.25
380.155	99.25
380.38	97.25
380.606	78.25
380.831	86.25
381.057	90.25
381.282	103.25
381.507	84.25
381.733	105.25
381.958	106.25
382.184	102.25
382.409	92.25
382.634	99.25
382.86	107.25
383.085	109.25
383.31	101.25
383.535	103.25
383.761	108.25
383.986	117.25
384.211	98.25
384.436	81.25
384.662	87.25
384.887	105.25
385.112	94.25
385.337	97.25
385.562	97.25
385.787	99.25
386.013	93.25
386.238	122.25
386.463	107.25
386.688	112.25
386.913	95.25
387.138	110.25
387.363	100.25
387.588	90.25
387.813	105.25
388.038	101.25
388.263	125.25
388.488	111.25
388.713	108.25
388.938	103.25
389.163	96.25
389.387	91.25
389.612	91.25
389.837	108.25
390.062	106.25
390.287	86.25
390.512	90.25
390.736	88.25
390.961	82.25
391.186	100.25
391.411	87.25
391.636	98.25
391.86	86.25
392.085	93.25
392.31	90.25
392.534	95.25
392.759	108.25
392.984	102.25
393.208	99.25
393.433	97.25
393.658	96.25
393.882	102.25
394.107	96.25
394.331	85.25
394.556	94.25
394.78	86.25
395.005	85.25
395.229	92.25
395.454	93.25
395.678	95.25
395.903	74.25
396.127	86.25
396.352	76.25
396.576	76.25
396.801	81.25
397.025	104.25
397.249	91.25
397.474	91.25
397.698	86.25
397.922	87.25
398.147	101.25
398.371	74.25
398.595	87.25
398.82	89.25
399.044	97.25
399.268	82.25
399.492	95.25
399.717	95.25
399.941	97.25
400.165	101.25
400.389	92.25
400.613	87.25
400.837	88.25
401.062	94.25
401.286	94.25
401.51	94.25
401.734	90.25
401.958	103.25
402.182	125.25
402.406	137.25
402.63	110.25
402.854	83.25
403.078	80.25
403.302	90.25
403.526	99.25
403.75	94.25
403.974	97.25
404.198	89.25
404.422	86.25
404.645	81.25
404.869	83.25
405.093	105.25
405.317	89.25
405.541	106.25
405.765	97.25
405.988	98.25
406.212	150.25
406.436	227.25
406.66	141.25
406.883	92.25
407.107	88.25
407.331	92.25
407.555	87.25
407.778	81.25
408.002	71.25
408.226	97.25
408.449	94.25
408.673	91.25
408.896	98.25
409.12	84.25
409.344	81.25
409.567	83.25
409.791	92.25
410.014	108.25
410.238	95.25
410.461	104.25
410.685	94.25
410.908	103.25
411.132	112.25
411.355	95.25
411.578	100.25
411.802	94.25
412.025	94.25
412.249	94.25
412.472	103.25
412.695	107.25
412.919	87.25
413.142	77.25
413.365	91.25
413.589	92.25
413.812	88.25
414.035	92.25
414.258	98.25
414.482	87.25
414.705	101.25
414.928	108.25
415.151	75.25
415.374	89.25
415.597	87.25
415.821	96.25
416.044	84.25
416.267	80.25
416.49	93.25
416.713	87.25
416.936	94.25
417.159	102.25
417.382	90.25
417.605	89.25
417.828	86.25
418.051	96.25
418.274	98.25
418.497	84.25
418.72	86.25
418.943	85.25
419.166	97.25
419.389	95.25
419.611	97.25
419.834	85.25
420.057	85.25
420.28	94.25
420.503	93.25
420.726	88.25
420.948	98.25
421.171	93.25
421.394	89.25
421.617	71.25
421.839	98.25
422.062	78.25
422.285	95.25
422.507	95.25
422.73	100.25
422.953	83.25
423.175	80.25
423.398	101.25
423.621	84.25
423.843	88.25
424.066	78.25
424.288	92.25
424.511	92.25
424.733	88.25
424.956	91.25
425.178	95.25
425.401	100.25
425.623	88.25
425.846	87.25
426.068	94.25
426.291	99.25
426.513	88.25
426.735	95.25
426.958	91.25
427.18	102.25
427.402	121.25
427.625	149.25
427.847	107.25
428.069	112.25
428.292	98.25
428.514	81.25
428.736	90.25
428.958	93.25
429.181	76.25
429.403	84.25
429.625	94.25
429.847	91.25
430.069	99.25
430.292	98.25
430.514	80.25
430.736	87.25
430.958	88.25
431.18	86.25
431.402	90.25
431.624	88.25
431.846	86.25
432.068	83.25
432.29	99.25
432.512	91.25
432.734	81.25
432.956	103.25
433.178	102.25
433.4	99.25
433.622	86.25
433.844	81.25
434.066	106.25
434.287	83.25
434.509	86.25
434.731	90.25
434.953	89.25
435.175	83.25
435.397	89.25
435.618	92.25
435.84	112.25
436.062	134.25
436.284	109.25
436.505	89.25
436.727	95.25
436.949	99.25
437.17	82.25
437.392	77.25
437.614	97.25
437.835	111.25
438.057	119.25
438.278	93.25
438.5	95.25
438.721	109.25
438.943	110.25
439.165	97.25
439.386	86.25
439.608	85.25
439.829	96.25
440.05	109.25
440.272	131.25
440.493	98.25
440.715	94.25
440.936	89.25
441.158	91.25
441.379	77.25
441.6	90.25
441.822	74.25
442.043	92.25
442.264	112.25
442.486	109.25
442.707	94.25
442.928	98.25
443.149	119.25
443.371	127.25
443.592	107.25
443.813	99.25
444.034	91.25
444.255	87.25
444.476	96.25
444.698	91.25
444.919	95.25
445.14	138.25
445.361	119.25
445.582	114.25
445.803	123.25
446.024	119.25
446.245	124.25
446.466	101.25
446.687	88.25
446.908	85.25
447.129	87.25
447.35	89.25
447.571	88.25
447.792	94.25
448.013	92.25
448.234	113.25
448.455	90.25
448.675	106.25
448.896	121.25
449.117	93.25
449.338	103.25
449.559	114.25
449.779	104.25
450	96.25
450.221	89.25
450.442	85.25
450.662	96.25
450.883	87.25
451.104	117.25
451.324	90.25
451.545	89.25
451.766	93.25
451.986	92.25
452.207	92.25
452.428	106.25
452.648	86.25
452.869	115.25
453.089	106.25
453.31	103.25
453.53	102.25
453.751	92.25
453.971	102.25
454.192	110.25
454.412	91.25
454.633	77.25
454.853	77.25
455.073	81.25
455.294	69.25
455.514	96.25
455.734	83.25
455.955	101.25
456.175	71.25
456.395	79.25
456.616	84.25
456.836	81.25
457.056	92.25
457.276	81.25
457.497	83.25
457.717	93.25
457.937	89.25
458.157	79.25
458.377	82.25
458.598	103.25
458.818	127.25
459.038	157.25
459.258	111.25
459.478	91.25
459.698	100.25
459.918	99.25
460.138	77.25
460.358	79.25
460.578	101.25
460.798	76.25
461.018	78.25
461.238	88.25
461.458	69.25
461.678	80.25
461.898	77.25
462.118	89.25
462.338	79.25
462.558	93.25
462.777	92.25
462.997	92.25
463.217	95.25
463.437	96.25
463.657	92.25
463.876	78.25
464.096	78.25
464.316	82.25
464.536	92.25
464.755	84.25
464.975	102.25
465.195	143.25
465.414	139.25
465.634	101.25
465.854	99.25
466.073	74.25
466.293	76.25
466.512	82.25
466.732	92.25
466.951	82.25
467.171	105.25
467.391	97.25
467.61	99.25
467.829	94.25
468.049	90.25
468.268	82.25
468.488	90.25
468.707	89.25
468.927	84.25
469.146	90.25
469.365	99.25
469.585	95.25
469.804	88.25
470.023	108.25
470.243	93.25
470.462	94.25
470.681	95.25
470.901	88.25
471.12	87.25
471.339	98.25
471.558	80.25
471.777	78.25
471.997	86.25
472.216	85.25
472.435	89.25
472.654	110.25
472.873	87.25
473.092	91.25
473.311	99.25
473.53	87.25
473.749	99.25
473.968	77.25
474.187	90.25
474.406	107.25
474.625	106.25
474.844	91.25
475.063	68.25
475.282	87.25
475.501	77.25
475.72	76.25
475.939	79.25
476.158	86.25
476.377	84.25
476.596	91.25
476.814	86.25
477.033	92.25
477.252	93.25
477.471	91.25
477.69	86.25
477.908	93.25
478.127	91.25
478.346	99.25
478.564	101.25
478.783	105.25
479.002	87.25
479.22	101.25
479.439	90.25
479.658	101.25
479.876	102.25
480.095	89.25
480.313	86.25
480.532	86.25
480.751	99.25
480.969	89.25
481.188	107.25
481.406	93.25
481.624	83.25
481.843	99.25
482.061	100.25
482.28	97.25
482.498	90.25
482.717	74.25
482.935	78.25
483.153	89.25
483.372	94.25
483.59	93.25
483.808	103.25
484.027	86.25
484.245	111.25
484.463	91.25
484.681	90.25
484.9	90.25
485.118	103.25
485.336	106.25
485.554	92.25
485.772	87.25
485.99	111.25
486.209	103.25
486.427	115.25
486.645	115.25
486.863	100.25
487.081	116.25
487.299	84.25
487.517	106.25
487.735	87.25
487.953	94.25
488.171	113.25
488.389	112.25
488.607	115.25
488.825	95.25
489.043	91.25
489.261	94.25
489.479	85.25
489.696	88.25
489.914	93.25
490.132	80.25
490.35	94.25
490.568	93.25
490.786	100.25
491.003	86.25
491.221	94.25
491.439	91.25
491.657	90.25
491.874	87.25
492.092	106.25
492.31	99.25
492.527	97.25
492.745	99.25
492.963	95.25
493.18	90.25
493.398	92.25
493.615	99.25
493.833	101.25
494.05	95.25
494.268	102.25
494.485	94.25
494.703	89.25
494.92	99.25
495.138	98.25
495.355	77.25
495.573	88.25
495.79	90.25
496.008	98.25
496.225	94.25
496.442	98.25
496.66	90.25
496.877	84.25
497.094	91.25
497.312	90.25
497.529	97.25
497.746	87.25
497.963	101.25
498.181	89.25
498.398	101.25
498.615	113.25
498.832	109.25
499.049	84.25
499.267	88.25
499.484	94.25
499.701	90.25
499.918	91.25
500.135	80.25
500.352	78.25
500.569	96.25
500.786	81.25
501.003	89.25
501.22	92.25
501.437	93.25
501.654	99.25
501.871	100.25
502.088	99.25
502.305	90.25
502.522	101.25
502.739	92.25
502.956	86.25
503.172	103.25
503.389	94.25
503.606	108.25
503.823	103.25
504.04	88.25
504.256	96.25
504.473	96.25
504.69	87.25
504.907	99.25
505.123	88.25
505.34	89.25
505.557	102.25
505.773	101.25
505.99	100.25
506.207	90.25
506.423	93.25
506.64	88.25
506.856	87.25
507.073	100.25
507.289	89.25
507.506	109.25
507.722	108.25
507.939	114.25
508.155	77.25
508.372	95.25
508.588	95.25
508.805	87.25
509.021	100.25
509.238	104.25
509.454	91.25
509.67	109.25
509.887	97.25
510.103	129.25
510.319	206.25
510.536	701.25
510.752	2083.25
510.968	595.25
511.184	153.25
511.401	91.25
511.617	106.25
511.833	103.25
512.049	90.25
512.265	93.25
512.481	95.25
512.698	87.25
512.914	101.25
513.13	104.25
513.346	94.25
513.562	102.25
513.778	107.25
513.994	98.25
514.21	105.25
514.426	108.25
514.642	125.25
514.858	122.25
515.074	146.25
515.29	385.25
515.506	1274.25
