Data from Uncirc_2000_H10_HRD10591_00079.txt Node
Date: Wed Jan 03 10:48:33 EST 2024
User: Yrep
Spectrometer: HR+D1059
Trigger mode: 1
Integration Time (sec): 1.000000E-1
Scans to average: 1
Electric dark correction enabled: true
Nonlinearity correction enabled: false
Boxcar width: 0
XAxis mode: Wavelengths
Number of Pixels in Spectrum: 2048
>>>>>Begin Spectral Data<<<<<
223.165	-16.25
223.4	-16.25
223.635	-16.25
223.869	-13.25
224.104	-17.25
224.338	-13.25
224.573	-15.25
224.808	-12.25
225.042	-14.25
225.277	5.75
225.511	-5.25
225.746	2.75
225.98	14.75
226.215	10.75
226.449	17.75
226.683	16.75
226.918	17.75
227.152	20.75
227.387	32.75
227.621	50.75
227.856	46.75
228.09	37.75
228.324	50.75
228.559	58.75
228.793	144.75
229.027	439.75
229.262	507.75
229.496	574.75
229.73	755.75
229.964	777.75
230.199	530.75
230.433	452.75
230.667	425.75
230.901	436.75
231.136	425.75
231.37	423.75
231.604	405.75
231.838	429.75
232.072	443.75
232.306	460.75
232.541	457.75
232.775	469.75
233.009	457.75
233.243	465.75
233.477	468.75
233.711	467.75
233.945	481.75
234.179	495.75
234.413	484.75
234.647	491.75
234.881	521.75
235.115	506.75
235.349	512.75
235.583	538.75
235.817	565.75
236.051	625.75
236.285	602.75
236.519	591.75
236.753	668.75
236.987	871.75
237.221	1318.75
237.455	1457.75
237.689	841.75
237.922	710.75
238.156	706.75
238.39	618.75
238.624	598.75
238.858	619.75
239.091	628.75
239.325	634.75
239.559	686.75
239.793	657.75
240.027	724.75
240.26	878.75
240.494	929.75
240.728	962.75
240.961	868.75
241.195	771.75
241.429	743.75
241.662	743.75
241.896	751.75
242.13	718.75
242.363	747.75
242.597	754.75
242.83	776.75
243.064	767.75
243.298	782.75
243.531	798.75
243.765	820.75
243.998	806.75
244.232	810.75
244.465	808.75
244.699	867.75
244.932	869.75
245.166	851.75
245.399	872.75
245.633	861.75
245.866	876.75
246.099	897.75
246.333	865.75
246.566	874.75
246.8	950.75
247.033	966.75
247.266	983.75
247.5	1047.75
247.733	1128.75
247.966	1104.75
248.2	1102.75
248.433	1117.75
248.666	1163.75
248.899	1273.75
249.133	1359.75
249.366	1374.75
249.599	1236.75
249.832	1152.75
250.066	1150.75
250.299	1184.75
250.532	1285.75
250.765	1440.75
250.998	1641.75
251.231	1606.75
251.465	1444.75
251.698	1360.75
251.931	1365.75
252.164	1340.75
252.397	1346.75
252.63	1405.75
252.863	1485.75
253.096	1635.75
253.329	1667.75
253.562	1592.75
253.795	1463.75
254.028	1471.75
254.261	1559.75
254.494	1738.75
254.727	2073.75
254.96	2156.75
255.193	1872.75
255.426	1691.75
255.659	1598.75
255.892	1517.75
256.124	1476.75
256.357	1450.75
256.59	1450.75
256.823	1379.75
257.056	1448.75
257.289	1500.75
257.521	1492.75
257.754	1467.75
257.987	1460.75
258.22	1470.75
258.452	1476.75
258.685	1473.75
258.918	1474.75
259.151	1567.75
259.383	1627.75
259.616	1637.75
259.849	1723.75
260.081	1856.75
260.314	2008.75
260.547	1932.75
260.779	1810.75
261.012	1710.75
261.244	1652.75
261.477	1640.75
261.71	1638.75
261.942	1666.75
262.175	1684.75
262.407	1639.75
262.64	1582.75
262.872	1611.75
263.105	1578.75
263.337	1595.75
263.57	1615.75
263.802	1644.75
264.035	1594.75
264.267	1638.75
264.499	1625.75
264.732	1643.75
264.964	1649.75
265.197	1643.75
265.429	1624.75
265.661	1635.75
265.894	1679.75
266.126	1682.75
266.358	1663.75
266.591	1732.75
266.823	1821.75
267.055	1806.75
267.287	1801.75
267.52	1807.75
267.752	1774.75
267.984	1786.75
268.216	1850.75
268.448	1852.75
268.681	1954.75
268.913	2066.75
269.145	2292.75
269.377	2291.75
269.609	2210.75
269.841	2180.75
270.073	2291.75
270.306	2592.75
270.538	2712.75
270.77	2561.75
271.002	2470.75
271.234	2404.75
271.466	2550.75
271.698	2682.75
271.93	2686.75
272.162	2661.75
272.394	2635.75
272.626	2420.75
272.858	2277.75
273.09	2273.75
273.322	2178.75
273.553	2219.75
273.785	2128.75
274.017	2130.75
274.249	2194.75
274.481	2178.75
274.713	2193.75
274.945	2201.75
275.176	2175.75
275.408	2184.75
275.64	2235.75
275.872	2168.75
276.104	2175.75
276.335	2260.75
276.567	2313.75
276.799	2478.75
277.031	2683.75
277.262	2830.75
277.494	2675.75
277.726	2524.75
277.957	2441.75
278.189	2308.75
278.421	2330.75
278.652	2314.75
278.884	2303.75
279.115	2343.75
279.347	2310.75
279.579	2314.75
279.81	2329.75
280.042	2286.75
280.273	2342.75
280.505	2376.75
280.736	2344.75
280.968	2262.75
281.199	2322.75
281.431	2400.75
281.662	2347.75
281.894	2395.75
282.125	2488.75
282.356	2610.75
282.588	2733.75
282.819	2512.75
283.051	2460.75
283.282	2475.75
283.513	2551.75
283.745	2574.75
283.976	2599.75
284.207	2615.75
284.439	2564.75
284.67	2564.75
284.901	2524.75
285.132	2564.75
285.364	2533.75
285.595	2561.75
285.826	2520.75
286.057	2596.75
286.288	2563.75
286.52	2611.75
286.751	2648.75
286.982	2602.75
287.213	2648.75
287.444	2647.75
287.675	2787.75
287.906	2816.75
288.138	2886.75
288.369	2840.75
288.6	2842.75
288.831	2762.75
289.062	2805.75
289.293	2803.75
289.524	2756.75
289.755	2763.75
289.986	2733.75
290.217	2750.75
290.448	2762.75
290.679	2757.75
290.91	2734.75
291.141	2731.75
291.371	2763.75
291.602	2721.75
291.833	2746.75
292.064	2717.75
292.295	2774.75
292.526	2748.75
292.757	2775.75
292.987	2762.75
293.218	2729.75
293.449	2836.75
293.68	2814.75
293.91	2767.75
294.141	2782.75
294.372	2780.75
294.603	2787.75
294.833	2816.75
295.064	2800.75
295.295	2847.75
295.525	2799.75
295.756	2870.75
295.987	2962.75
296.217	3100.75
296.448	3035.75
296.679	2872.75
296.909	2922.75
297.14	2889.75
297.37	2967.75
297.601	2995.75
297.831	2952.75
298.062	2993.75
298.292	2962.75
298.523	3074.75
298.753	3059.75
298.984	3038.75
299.214	3033.75
299.445	3055.75
299.675	3030.75
299.905	3039.75
300.136	3027.75
300.366	3126.75
300.597	3103.75
300.827	3230.75
301.057	3310.75
301.288	3360.75
301.518	3298.75
301.748	3333.75
301.979	3322.75
302.209	3310.75
302.439	3343.75
302.669	3277.75
302.9	3246.75
303.13	3198.75
303.36	3249.75
303.59	3334.75
303.82	3358.75
304.051	3342.75
304.281	3292.75
304.511	3185.75
304.741	3232.75
304.971	3204.75
305.201	3228.75
305.431	3238.75
305.661	3242.75
305.891	3190.75
306.121	3178.75
306.352	3283.75
306.582	3200.75
306.812	3212.75
307.042	3186.75
307.272	3190.75
307.502	3236.75
307.731	3182.75
307.961	3234.75
308.191	3263.75
308.421	3205.75
308.651	3220.75
308.881	3254.75
309.111	3239.75
309.341	3304.75
309.571	3384.75
309.8	3449.75
310.03	3488.75
310.26	3530.75
310.49	3513.75
310.72	3633.75
310.949	3642.75
311.179	3668.75
311.409	3547.75
311.639	3589.75
311.868	3602.75
312.098	3600.75
312.328	3680.75
312.557	3787.75
312.787	3835.75
313.017	3823.75
313.246	3689.75
313.476	3662.75
313.706	3722.75
313.935	3802.75
314.165	3817.75
314.394	3854.75
314.624	3815.75
314.853	3726.75
315.083	3687.75
315.312	3699.75
315.542	3610.75
315.771	3573.75
316.001	3662.75
316.23	3589.75
316.46	3616.75
316.689	3656.75
316.919	3618.75
317.148	3730.75
317.377	3688.75
317.607	3643.75
317.836	3667.75
318.065	3579.75
318.295	3587.75
318.524	3548.75
318.753	3597.75
318.983	3591.75
319.212	3647.75
319.441	3699.75
319.67	3678.75
319.9	3646.75
320.129	3642.75
320.358	3616.75
320.587	3674.75
320.816	3685.75
321.046	3778.75
321.275	3764.75
321.504	3755.75
321.733	3753.75
321.962	3823.75
322.191	3890.75
322.42	3916.75
322.649	4096.75
322.878	4157.75
323.108	4265.75
323.337	4396.75
323.566	4586.75
323.795	4820.75
324.024	5374.75
324.253	7031.75
324.482	10388.75
324.71	14850.75
324.939	15612.75
325.168	11975.75
325.397	6372.75
325.626	5118.75
325.855	4750.75
326.084	4610.75
326.313	4663.75
326.542	4791.75
326.77	5406.75
326.999	6748.75
327.228	9808.75
327.457	13823.75
327.686	12933.75
327.914	7034.75
328.143	5579.75
328.372	5256.75
328.6	4998.75
328.829	5024.75
329.058	5174.75
329.287	5109.75
329.515	4838.75
329.744	4588.75
329.972	4658.75
330.201	4747.75
330.43	4986.75
330.658	5282.75
330.887	5469.75
331.115	5154.75
331.344	4868.75
331.572	4795.75
331.801	4896.75
332.03	4916.75
332.258	4806.75
332.486	4839.75
332.715	4994.75
332.943	5119.75
333.172	5250.75
333.4	5374.75
333.629	5483.75
333.857	5468.75
334.085	5455.75
334.314	5374.75
334.542	5288.75
334.771	5233.75
334.999	5131.75
335.227	5102.75
335.455	5049.75
335.684	4986.75
335.912	4908.75
336.14	4879.75
336.369	4938.75
336.597	4955.75
336.825	4820.75
337.053	4742.75
337.281	4689.75
337.51	4663.75
337.738	4630.75
337.966	4631.75
338.194	4614.75
338.422	4569.75
338.65	4488.75
338.878	4513.75
339.106	4464.75
339.334	4432.75
339.562	4379.75
339.79	4311.75
340.018	4356.75
340.246	4368.75
340.474	4337.75
340.702	4359.75
340.93	4342.75
341.158	4369.75
341.386	4343.75
341.614	4353.75
341.842	4294.75
342.07	4279.75
342.298	4228.75
342.526	4252.75
342.754	4258.75
342.981	4275.75
343.209	4496.75
343.437	4635.75
343.665	4910.75
343.893	5162.75
344.12	5150.75
344.348	4886.75
344.576	4717.75
344.804	4650.75
345.031	4581.75
345.259	4512.75
345.487	4354.75
345.714	4328.75
345.942	4174.75
346.17	4189.75
346.397	4130.75
346.625	4155.75
346.853	4181.75
347.08	4108.75
347.308	4182.75
347.535	4257.75
347.763	4272.75
347.99	4195.75
348.218	4254.75
348.445	4247.75
348.673	4172.75
348.9	4067.75
349.128	4110.75
349.355	4041.75
349.583	4052.75
349.81	3956.75
350.037	4003.75
350.265	4064.75
350.492	4108.75
350.72	4024.75
350.947	4079.75
351.174	4156.75
351.402	4092.75
351.629	4103.75
351.856	4075.75
352.083	4134.75
352.311	4188.75
352.538	4140.75
352.765	4134.75
352.992	4106.75
353.22	4042.75
353.447	4019.75
353.674	3991.75
353.901	3931.75
354.128	3919.75
354.355	3927.75
354.583	3956.75
354.81	3897.75
355.037	3943.75
355.264	3897.75
355.491	3887.75
355.718	3868.75
355.945	3947.75
356.172	3881.75
356.399	3938.75
356.626	3886.75
356.853	3911.75
357.08	3957.75
357.307	3880.75
357.534	3927.75
357.761	3896.75
357.988	3968.75
358.215	3895.75
358.441	3914.75
358.668	3958.75
358.895	4008.75
359.122	4045.75
359.349	4082.75
359.576	4187.75
359.802	4369.75
360.029	4509.75
360.256	4436.75
360.483	4366.75
360.709	4173.75
360.936	4115.75
361.163	4144.75
361.39	4152.75
361.616	4166.75
361.843	4072.75
362.07	4195.75
362.296	4150.75
362.523	4139.75
362.749	4091.75
362.976	4066.75
363.203	4026.75
363.429	3972.75
363.656	4017.75
363.882	3968.75
364.109	3955.75
364.335	3955.75
364.562	4011.75
364.788	3996.75
365.015	4033.75
365.241	3951.75
365.468	4038.75
365.694	4040.75
365.92	4058.75
366.147	4009.75
366.373	3946.75
366.599	4014.75
366.826	3942.75
367.052	3885.75
367.278	3971.75
367.505	4006.75
367.731	4020.75
367.957	4003.75
368.184	4099.75
368.41	4095.75
368.636	4192.75
368.862	4183.75
369.089	4139.75
369.315	4060.75
369.541	4085.75
369.767	4060.75
369.993	4104.75
370.219	4167.75
370.445	4129.75
370.672	4111.75
370.898	4139.75
371.124	4195.75
371.35	4251.75
371.576	4184.75
371.802	4224.75
372.028	4219.75
372.254	4280.75
372.48	4347.75
372.706	4446.75
372.932	4392.75
373.158	4380.75
373.384	4342.75
373.61	4262.75
373.835	4322.75
374.061	4283.75
374.287	4418.75
374.513	4463.75
374.739	4620.75
374.965	4718.75
375.191	4735.75
375.416	4613.75
375.642	4507.75
375.868	4486.75
376.094	4395.75
376.319	4350.75
376.545	4267.75
376.771	4290.75
376.997	4304.75
377.222	4303.75
377.448	4235.75
377.674	4304.75
377.899	4254.75
378.125	4208.75
378.35	4215.75
378.576	4230.75
378.802	4262.75
379.027	4224.75
379.253	4246.75
379.478	4246.75
379.704	4218.75
379.929	4258.75
380.155	4249.75
380.38	4254.75
380.606	4393.75
380.831	4299.75
381.057	4296.75
381.282	4224.75
381.507	4313.75
381.733	4342.75
381.958	4396.75
382.184	4406.75
382.409	4504.75
382.634	4535.75
382.86	4564.75
383.085	4581.75
383.31	4616.75
383.535	4655.75
383.761	4667.75
383.986	4871.75
384.211	4895.75
384.436	4972.75
384.662	5026.75
384.887	5108.75
385.112	5155.75
385.337	5217.75
385.562	5208.75
385.787	5182.75
386.013	5251.75
386.238	5223.75
386.463	5326.75
386.688	5195.75
386.913	5096.75
387.138	5060.75
387.363	5120.75
387.588	5025.75
387.813	5158.75
388.038	5106.75
388.263	5072.75
388.488	5134.75
388.713	5098.75
388.938	5042.75
389.163	5104.75
389.387	5100.75
389.612	5030.75
389.837	5085.75
390.062	4998.75
390.287	5018.75
390.512	5068.75
390.736	5088.75
390.961	5207.75
391.186	5295.75
391.411	5432.75
391.636	5596.75
391.86	5734.75
392.085	5790.75
392.31	5639.75
392.534	5554.75
392.759	5456.75
392.984	5398.75
393.208	5299.75
393.433	5368.75
393.658	5303.75
393.882	5312.75
394.107	5322.75
394.331	5461.75
394.556	5378.75
394.78	5525.75
395.005	5530.75
395.229	5440.75
395.454	5724.75
395.678	5764.75
395.903	5775.75
396.127	5824.75
396.352	5598.75
396.576	5468.75
396.801	5402.75
397.025	5464.75
397.249	5603.75
397.474	5813.75
397.698	5844.75
397.922	5894.75
398.147	6008.75
398.371	6120.75
398.595	6315.75
398.82	6592.75
399.044	7149.75
399.268	7955.75
399.492	9001.75
399.717	9591.75
399.941	9398.75
400.165	8614.75
400.389	8007.75
400.613	7192.75
400.837	6793.75
401.062	6670.75
401.286	6511.75
401.51	6442.75
401.734	6392.75
401.958	6580.75
402.182	6669.75
402.406	6790.75
402.63	6812.75
402.854	6938.75
403.078	7024.75
403.302	7233.75
403.526	7256.75
403.75	7352.75
403.974	7387.75
404.198	7285.75
404.422	7402.75
404.645	7353.75
404.869	7314.75
405.093	7320.75
405.317	7362.75
405.541	7420.75
405.765	7162.75
405.988	7133.75
406.212	7310.75
406.436	7534.75
406.66	7690.75
406.883	7639.75
407.107	8309.75
407.331	8857.75
407.555	9274.75
407.778	8923.75
408.002	8247.75
408.226	7818.75
408.449	7663.75
408.673	7594.75
408.896	7761.75
409.12	7938.75
409.344	7458.75
409.567	7077.75
409.791	7088.75
410.014	6969.75
410.238	6954.75
410.461	6955.75
410.685	7006.75
410.908	7028.75
411.132	7335.75
411.355	7258.75
411.578	6970.75
411.802	6620.75
412.025	6615.75
412.249	6767.75
412.472	6641.75
412.695	6526.75
412.919	6362.75
413.142	6278.75
413.365	6273.75
413.589	6355.75
413.812	6246.75
414.035	6208.75
414.258	6322.75
414.482	6350.75
414.705	6340.75
414.928	6327.75
415.151	6399.75
415.374	6416.75
415.597	6291.75
415.821	6218.75
416.044	6254.75
416.267	6175.75
416.49	6243.75
416.713	6217.75
416.936	6321.75
417.159	6254.75
417.382	6323.75
417.605	6342.75
417.828	6419.75
418.051	6624.75
418.274	6453.75
418.497	6341.75
418.72	6492.75
418.943	6452.75
419.166	6825.75
419.389	7157.75
419.611	6993.75
419.834	6826.75
420.057	6683.75
420.28	6609.75
420.503	6364.75
420.726	6375.75
420.948	6616.75
421.171	7052.75
421.394	6986.75
421.617	6487.75
421.839	6501.75
422.062	6551.75
422.285	6719.75
422.507	7409.75
422.73	7820.75
422.953	7270.75
423.175	6878.75
423.398	6886.75
423.621	7016.75
423.843	7287.75
424.066	7152.75
424.288	7110.75
424.511	7327.75
424.733	7834.75
424.956	8094.75
425.178	7640.75
425.401	7864.75
425.623	7672.75
425.846	6790.75
426.068	6498.75
426.291	6499.75
426.513	6549.75
426.735	6634.75
426.958	7056.75
427.18	7819.75
427.402	8870.75
427.625	8882.75
427.847	7490.75
428.069	6608.75
428.292	6371.75
428.514	6038.75
428.736	5887.75
428.958	5977.75
429.181	5768.75
429.403	5828.75
429.625	5983.75
429.847	6349.75
430.069	6778.75
430.292	6312.75
430.514	5849.75
430.736	5860.75
430.958	5654.75
431.18	5656.75
431.402	5673.75
431.624	5707.75
431.846	5662.75
432.068	5730.75
432.29	5844.75
432.512	5610.75
432.734	5796.75
432.956	5716.75
433.178	5763.75
433.4	5805.75
433.622	5765.75
433.844	5734.75
434.066	5772.75
434.287	5791.75
434.509	6060.75
434.731	6279.75
434.953	6440.75
435.175	6538.75
435.397	6678.75
435.618	6619.75
435.84	6976.75
436.062	7732.75
436.284	7649.75
436.505	6563.75
436.727	6199.75
436.949	5870.75
437.17	5777.75
437.392	5719.75
437.614	5943.75
437.835	6283.75
438.057	7250.75
438.278	7931.75
438.5	7800.75
438.721	8570.75
438.943	7590.75
439.165	6416.75
439.386	6210.75
439.608	6223.75
439.829	6306.75
440.05	6679.75
440.272	6884.75
440.493	6363.75
440.715	6156.75
440.936	6044.75
441.158	6132.75
441.379	6305.75
441.6	6537.75
441.822	6819.75
442.043	7267.75
442.264	8107.75
442.486	7630.75
442.707	6865.75
442.928	6655.75
443.149	6823.75
443.371	7047.75
443.592	7631.75
443.813	8642.75
444.034	8555.75
444.255	7488.75
444.476	7392.75
444.698	7560.75
444.919	7644.75
445.14	7281.75
445.361	7279.75
445.582	7386.75
445.803	7870.75
446.024	8566.75
446.245	8162.75
446.466	7382.75
446.687	6455.75
446.908	6109.75
447.129	5842.75
447.35	5634.75
447.571	5595.75
447.792	5522.75
448.013	5636.75
448.234	5751.75
448.455	6538.75
448.675	7729.75
448.896	8016.75
449.117	6743.75
449.338	6934.75
449.559	8200.75
449.779	8298.75
450	6430.75
450.221	5726.75
450.442	5520.75
450.662	5420.75
450.883	5462.75
451.104	5547.75
451.324	5355.75
451.545	5288.75
451.766	5175.75
451.986	5087.75
452.207	5051.75
452.428	5050.75
452.648	5036.75
452.869	5084.75
453.089	5094.75
453.31	5200.75
453.53	5042.75
453.751	5045.75
453.971	5067.75
454.192	5056.75
454.412	4880.75
454.633	4869.75
454.853	4840.75
455.073	4854.75
455.294	5293.75
455.514	5832.75
455.734	5297.75
455.955	4754.75
456.175	4619.75
456.395	4626.75
456.616	4646.75
456.836	4605.75
457.056	4598.75
457.276	4552.75
457.497	4705.75
457.717	4653.75
457.937	4738.75
458.157	4884.75
458.377	4949.75
458.598	5274.75
458.818	5908.75
459.038	6596.75
459.258	6568.75
459.478	5841.75
459.698	5755.75
459.918	5900.75
460.138	6046.75
460.358	6147.75
460.578	6226.75
460.798	6368.75
461.018	6368.75
461.238	6228.75
461.458	6201.75
461.678	6095.75
461.898	6340.75
462.118	6347.75
462.338	6720.75
462.558	6887.75
462.777	7055.75
462.997	7769.75
463.217	8190.75
463.437	7935.75
463.657	7230.75
463.876	7003.75
464.096	7104.75
464.316	7142.75
464.536	7168.75
464.755	6906.75
464.975	6868.75
465.195	7010.75
465.414	6947.75
465.634	6139.75
465.854	5861.75
466.073	5601.75
466.293	5448.75
466.512	5256.75
466.732	5185.75
466.951	5270.75
467.171	5145.75
467.391	5312.75
467.61	5301.75
467.829	5264.75
468.049	5216.75
468.268	5002.75
468.488	4965.75
468.707	4899.75
468.927	4976.75
469.146	4968.75
469.365	5057.75
469.585	4985.75
469.804	5247.75
470.023	5321.75
470.243	5367.75
470.462	5432.75
470.681	5578.75
470.901	5514.75
471.12	5406.75
471.339	5259.75
471.558	5297.75
471.777	5116.75
471.997	5051.75
472.216	4938.75
472.435	4982.75
472.654	4880.75
472.873	4867.75
473.092	4908.75
473.311	4934.75
473.53	4985.75
473.749	5080.75
473.968	5600.75
474.187	6728.75
474.406	6175.75
474.625	5222.75
474.844	5042.75
475.063	4956.75
475.282	5022.75
475.501	5030.75
475.72	5049.75
475.939	5093.75
476.158	5084.75
476.377	5139.75
476.596	5138.75
476.814	5286.75
477.033	5370.75
477.252	5439.75
477.471	5561.75
477.69	5611.75
477.908	5769.75
478.127	5809.75
478.346	5881.75
478.564	6058.75
478.783	6130.75
479.002	6314.75
479.22	6211.75
479.439	6431.75
479.658	6441.75
479.876	6600.75
480.095	6759.75
480.313	7110.75
480.532	6914.75
480.751	6829.75
480.969	6641.75
481.188	6528.75
481.406	6297.75
481.624	6164.75
481.843	6047.75
482.061	5908.75
482.28	5863.75
482.498	5798.75
482.717	5828.75
482.935	5804.75
483.153	5794.75
483.372	5736.75
483.59	5797.75
483.808	5849.75
484.027	5822.75
484.245	5846.75
484.463	5895.75
484.681	5990.75
484.9	6036.75
485.118	6092.75
485.336	6075.75
485.554	6127.75
485.772	6146.75
485.99	6216.75
486.209	6295.75
486.427	6186.75
486.645	6264.75
486.863	6473.75
487.081	6315.75
487.299	6237.75
487.517	6323.75
487.735	6186.75
487.953	6141.75
