Data from Uncirc_2000_H10_HRD10591_00050.txt Node
Date: Wed Jan 03 10:48:27 EST 2024
User: Yrep
Spectrometer: HR+D1059
Trigger mode: 1
Integration Time (sec): 1.000000E-1
Scans to average: 1
Electric dark correction enabled: true
Nonlinearity correction enabled: false
Boxcar width: 0
XAxis mode: Wavelengths
Number of Pixels in Spectrum: 2048
>>>>>Begin Spectral Data<<<<<
223.165	-9.5
223.4	-9.5
223.635	-9.5
223.869	-27.5
224.104	-25.5
224.338	-13.5
224.573	-15.5
224.808	-31.5
225.042	7.5
225.277	1.5
225.511	-7.5
225.746	-5.5
225.98	15.5
226.215	12.5
226.449	16.5
226.683	24.5
226.918	18.5
227.152	39.5
227.387	49.5
227.621	37.5
227.856	41.5
228.09	49.5
228.324	58.5
228.559	44.5
228.793	56.5
229.027	43.5
229.262	57.5
229.496	68.5
229.73	77.5
229.964	86.5
230.199	78.5
230.433	75.5
230.667	76.5
230.901	68.5
231.136	87.5
231.37	76.5
231.604	77.5
231.838	71.5
232.072	72.5
232.306	67.5
232.541	75.5
232.775	76.5
233.009	86.5
233.243	74.5
233.477	76.5
233.711	92.5
233.945	77.5
234.179	78.5
234.413	77.5
234.647	66.5
234.881	70.5
235.115	78.5
235.349	77.5
235.583	79.5
235.817	80.5
236.051	77.5
236.285	57.5
236.519	96.5
236.753	66.5
236.987	71.5
237.221	74.5
237.455	74.5
237.689	75.5
237.922	71.5
238.156	66.5
238.39	73.5
238.624	78.5
238.858	85.5
239.091	72.5
239.325	80.5
239.559	71.5
239.793	70.5
240.027	80.5
240.26	87.5
240.494	71.5
240.728	73.5
240.961	70.5
241.195	66.5
241.429	76.5
241.662	81.5
241.896	82.5
242.13	80.5
242.363	84.5
242.597	71.5
242.83	68.5
243.064	74.5
243.298	66.5
243.531	74.5
243.765	71.5
243.998	78.5
244.232	81.5
244.465	92.5
244.699	72.5
244.932	68.5
245.166	80.5
245.399	86.5
245.633	75.5
245.866	76.5
246.099	71.5
246.333	86.5
246.566	82.5
246.8	71.5
247.033	66.5
247.266	74.5
247.5	73.5
247.733	81.5
247.966	85.5
248.2	74.5
248.433	64.5
248.666	90.5
248.899	79.5
249.133	87.5
249.366	90.5
249.599	95.5
249.832	78.5
250.066	73.5
250.299	86.5
250.532	74.5
250.765	89.5
250.998	76.5
251.231	80.5
251.465	78.5
251.698	84.5
251.931	79.5
252.164	88.5
252.397	82.5
252.63	80.5
252.863	83.5
253.096	73.5
253.329	83.5
253.562	97.5
253.795	73.5
254.028	81.5
254.261	85.5
254.494	67.5
254.727	86.5
254.96	79.5
255.193	64.5
255.426	82.5
255.659	76.5
255.892	79.5
256.124	89.5
256.357	80.5
256.59	84.5
256.823	91.5
257.056	84.5
257.289	66.5
257.521	71.5
257.754	70.5
257.987	74.5
258.22	77.5
258.452	75.5
258.685	71.5
258.918	82.5
259.151	79.5
259.383	75.5
259.616	72.5
259.849	70.5
260.081	70.5
260.314	82.5
260.547	81.5
260.779	90.5
261.012	75.5
261.244	76.5
261.477	92.5
261.71	84.5
261.942	100.5
262.175	111.5
262.407	75.5
262.64	75.5
262.872	79.5
263.105	76.5
263.337	77.5
263.57	79.5
263.802	86.5
264.035	90.5
264.267	92.5
264.499	80.5
264.732	86.5
264.964	94.5
265.197	80.5
265.429	84.5
265.661	74.5
265.894	90.5
266.126	93.5
266.358	84.5
266.591	66.5
266.823	90.5
267.055	63.5
267.287	85.5
267.52	94.5
267.752	77.5
267.984	82.5
268.216	80.5
268.448	70.5
268.681	70.5
268.913	81.5
269.145	69.5
269.377	88.5
269.609	90.5
269.841	74.5
270.073	78.5
270.306	83.5
270.538	84.5
270.77	72.5
271.002	81.5
271.234	84.5
271.466	88.5
271.698	83.5
271.93	86.5
272.162	77.5
272.394	88.5
272.626	84.5
272.858	86.5
273.09	91.5
273.322	90.5
273.553	82.5
273.785	83.5
274.017	69.5
274.249	78.5
274.481	83.5
274.713	72.5
274.945	89.5
275.176	88.5
275.408	84.5
275.64	90.5
275.872	82.5
276.104	90.5
276.335	86.5
276.567	99.5
276.799	103.5
277.031	108.5
277.262	103.5
277.494	91.5
277.726	96.5
277.957	82.5
278.189	75.5
278.421	80.5
278.652	93.5
278.884	75.5
279.115	78.5
279.347	78.5
279.579	87.5
279.81	92.5
280.042	77.5
280.273	73.5
280.505	97.5
280.736	92.5
280.968	84.5
281.199	67.5
281.431	70.5
281.662	98.5
281.894	82.5
282.125	99.5
282.356	119.5
282.588	126.5
282.819	100.5
283.051	89.5
283.282	90.5
283.513	89.5
283.745	86.5
283.976	78.5
284.207	90.5
284.439	90.5
284.67	75.5
284.901	83.5
285.132	84.5
285.364	72.5
285.595	88.5
285.826	84.5
286.057	82.5
286.288	90.5
286.52	90.5
286.751	88.5
286.982	91.5
287.213	84.5
287.444	80.5
287.675	89.5
287.906	84.5
288.138	86.5
288.369	100.5
288.6	94.5
288.831	82.5
289.062	77.5
289.293	91.5
289.524	88.5
289.755	80.5
289.986	79.5
290.217	75.5
290.448	87.5
290.679	86.5
290.91	73.5
291.141	82.5
291.371	91.5
291.602	74.5
291.833	85.5
292.064	87.5
292.295	88.5
292.526	68.5
292.757	90.5
292.987	76.5
293.218	91.5
293.449	90.5
293.68	87.5
293.91	77.5
294.141	85.5
294.372	101.5
294.603	98.5
294.833	91.5
295.064	91.5
295.295	70.5
295.525	81.5
295.756	82.5
295.987	114.5
296.217	131.5
296.448	115.5
296.679	87.5
296.909	83.5
297.14	93.5
297.37	89.5
297.601	86.5
297.831	107.5
298.062	92.5
298.292	81.5
298.523	97.5
298.753	81.5
298.984	86.5
299.214	85.5
299.445	92.5
299.675	102.5
299.905	101.5
300.136	97.5
300.366	82.5
300.597	84.5
300.827	89.5
301.057	102.5
301.288	93.5
301.518	88.5
301.748	97.5
301.979	114.5
302.209	99.5
302.439	83.5
302.669	86.5
302.9	90.5
303.13	83.5
303.36	84.5
303.59	88.5
303.82	105.5
304.051	99.5
304.281	93.5
304.511	82.5
304.741	74.5
304.971	72.5
305.201	74.5
305.431	86.5
305.661	92.5
305.891	79.5
306.121	90.5
306.352	89.5
306.582	98.5
306.812	104.5
307.042	86.5
307.272	100.5
307.502	82.5
307.731	90.5
307.961	85.5
308.191	91.5
308.421	93.5
308.651	89.5
308.881	91.5
309.111	86.5
309.341	76.5
309.571	89.5
309.8	82.5
310.03	98.5
310.26	86.5
310.49	101.5
310.72	85.5
310.949	88.5
311.179	85.5
311.409	83.5
311.639	91.5
311.868	97.5
312.098	97.5
312.328	87.5
312.557	91.5
312.787	110.5
313.017	98.5
313.246	91.5
313.476	100.5
313.706	91.5
313.935	90.5
314.165	100.5
314.394	93.5
314.624	95.5
314.853	93.5
315.083	100.5
315.312	92.5
315.542	91.5
315.771	107.5
316.001	99.5
316.23	87.5
316.46	86.5
316.689	97.5
316.919	90.5
317.148	102.5
317.377	103.5
317.607	79.5
317.836	91.5
318.065	88.5
318.295	90.5
318.524	83.5
318.753	103.5
318.983	86.5
319.212	82.5
319.441	106.5
319.67	97.5
319.9	109.5
320.129	87.5
320.358	84.5
320.587	94.5
320.816	93.5
321.046	94.5
321.275	97.5
321.504	111.5
321.733	83.5
321.962	88.5
322.191	103.5
322.42	104.5
322.649	106.5
322.878	104.5
323.108	102.5
323.337	107.5
323.566	120.5
323.795	139.5
324.024	194.5
324.253	388.5
324.482	791.5
324.71	1604.5
324.939	2107.5
325.168	782.5
325.397	227.5
325.626	130.5
325.855	126.5
326.084	123.5
326.313	102.5
326.542	144.5
326.77	237.5
326.999	458.5
327.228	908.5
327.457	1594.5
327.686	1281.5
327.914	348.5
328.143	188.5
328.372	150.5
328.6	110.5
328.829	106.5
329.058	124.5
329.287	116.5
329.515	96.5
329.744	88.5
329.972	88.5
330.201	97.5
330.43	104.5
330.658	107.5
330.887	130.5
331.115	113.5
331.344	106.5
331.572	103.5
331.801	88.5
332.03	106.5
332.258	96.5
332.486	96.5
332.715	87.5
332.943	89.5
333.172	88.5
333.4	72.5
333.629	95.5
333.857	104.5
334.085	98.5
334.314	100.5
334.542	97.5
334.771	94.5
334.999	100.5
335.227	91.5
335.455	100.5
335.684	79.5
335.912	90.5
336.14	96.5
336.369	93.5
336.597	98.5
336.825	86.5
337.053	88.5
337.281	73.5
337.51	83.5
337.738	86.5
337.966	107.5
338.194	86.5
338.422	100.5
338.65	95.5
338.878	91.5
339.106	80.5
339.334	88.5
339.562	109.5
339.79	93.5
340.018	92.5
340.246	92.5
340.474	101.5
340.702	94.5
340.93	86.5
341.158	94.5
341.386	100.5
341.614	103.5
341.842	102.5
342.07	101.5
342.298	82.5
342.526	81.5
342.754	91.5
342.981	74.5
343.209	77.5
343.437	81.5
343.665	83.5
343.893	87.5
344.12	98.5
344.348	86.5
344.576	94.5
344.804	76.5
345.031	93.5
345.259	94.5
345.487	87.5
345.714	86.5
345.942	88.5
346.17	83.5
346.397	92.5
346.625	99.5
346.853	94.5
347.08	84.5
347.308	89.5
347.535	97.5
347.763	88.5
347.99	96.5
348.218	93.5
348.445	84.5
348.673	87.5
348.9	106.5
349.128	84.5
349.355	87.5
349.583	78.5
349.81	86.5
350.037	90.5
350.265	97.5
350.492	85.5
350.72	100.5
350.947	96.5
351.174	94.5
351.402	92.5
351.629	92.5
351.856	107.5
352.083	92.5
352.311	97.5
352.538	99.5
352.765	88.5
352.992	115.5
353.22	96.5
353.447	105.5
353.674	96.5
353.901	90.5
354.128	92.5
354.355	83.5
354.583	102.5
354.81	83.5
355.037	100.5
355.264	111.5
355.491	90.5
355.718	80.5
355.945	81.5
356.172	92.5
356.399	95.5
356.626	90.5
356.853	85.5
357.08	94.5
357.307	82.5
357.534	78.5
357.761	83.5
357.988	87.5
358.215	91.5
358.441	86.5
358.668	93.5
358.895	89.5
359.122	79.5
359.349	81.5
359.576	71.5
359.802	90.5
360.029	110.5
360.256	102.5
360.483	100.5
360.709	82.5
360.936	76.5
361.163	99.5
361.39	84.5
361.616	95.5
361.843	93.5
362.07	81.5
362.296	83.5
362.523	92.5
362.749	84.5
362.976	88.5
363.203	96.5
363.429	86.5
363.656	77.5
363.882	79.5
364.109	84.5
364.335	91.5
364.562	97.5
364.788	85.5
365.015	110.5
365.241	101.5
365.468	115.5
365.694	90.5
365.92	102.5
366.147	96.5
366.373	79.5
366.599	91.5
366.826	87.5
367.052	84.5
367.278	79.5
367.505	96.5
367.731	81.5
367.957	81.5
368.184	99.5
368.41	99.5
368.636	102.5
368.862	124.5
369.089	104.5
369.315	95.5
369.541	86.5
369.767	75.5
369.993	84.5
370.219	91.5
370.445	86.5
370.672	84.5
370.898	90.5
371.124	96.5
371.35	77.5
371.576	85.5
371.802	96.5
372.028	77.5
372.254	79.5
372.48	93.5
372.706	87.5
372.932	85.5
373.158	85.5
373.384	79.5
373.61	100.5
373.835	98.5
374.061	91.5
374.287	95.5
374.513	101.5
374.739	68.5
374.965	81.5
375.191	83.5
375.416	92.5
375.642	91.5
375.868	83.5
376.094	79.5
376.319	78.5
376.545	100.5
376.771	84.5
376.997	78.5
377.222	91.5
377.448	98.5
377.674	86.5
377.899	99.5
378.125	91.5
378.35	85.5
378.576	82.5
378.802	82.5
379.027	89.5
379.253	91.5
379.478	86.5
379.704	92.5
379.929	92.5
380.155	92.5
380.38	88.5
380.606	97.5
380.831	81.5
381.057	97.5
381.282	95.5
381.507	98.5
381.733	102.5
381.958	91.5
382.184	96.5
382.409	95.5
382.634	91.5
382.86	100.5
383.085	97.5
383.31	107.5
383.535	100.5
383.761	95.5
383.986	85.5
384.211	89.5
384.436	89.5
384.662	98.5
384.887	88.5
385.112	106.5
385.337	97.5
385.562	96.5
385.787	90.5
386.013	112.5
386.238	106.5
386.463	115.5
386.688	109.5
386.913	107.5
387.138	99.5
387.363	89.5
387.588	111.5
387.813	103.5
388.038	93.5
388.263	106.5
388.488	85.5
388.713	102.5
388.938	99.5
389.163	95.5
389.387	102.5
389.612	91.5
389.837	83.5
390.062	103.5
390.287	98.5
390.512	79.5
390.736	90.5
390.961	99.5
391.186	75.5
391.411	91.5
391.636	90.5
391.86	83.5
392.085	87.5
392.31	92.5
392.534	70.5
392.759	105.5
392.984	96.5
393.208	100.5
393.433	90.5
393.658	86.5
393.882	91.5
394.107	77.5
394.331	82.5
394.556	81.5
394.78	84.5
395.005	90.5
395.229	89.5
395.454	80.5
395.678	92.5
395.903	81.5
396.127	71.5
396.352	99.5
396.576	83.5
396.801	86.5
397.025	92.5
397.249	87.5
397.474	86.5
397.698	77.5
397.922	98.5
398.147	84.5
398.371	87.5
398.595	75.5
398.82	87.5
399.044	84.5
399.268	86.5
399.492	71.5
399.717	89.5
399.941	88.5
400.165	73.5
400.389	89.5
400.613	102.5
400.837	96.5
401.062	95.5
401.286	93.5
401.51	96.5
401.734	91.5
401.958	104.5
402.182	121.5
402.406	145.5
402.63	119.5
402.854	90.5
403.078	67.5
403.302	77.5
403.526	91.5
403.75	71.5
403.974	88.5
404.198	88.5
404.422	78.5
404.645	94.5
404.869	86.5
405.093	86.5
405.317	87.5
405.541	82.5
405.765	91.5
405.988	120.5
406.212	161.5
406.436	223.5
406.66	143.5
406.883	98.5
407.107	78.5
407.331	88.5
407.555	94.5
407.778	84.5
408.002	102.5
408.226	92.5
408.449	92.5
408.673	82.5
408.896	86.5
409.12	84.5
409.344	91.5
409.567	99.5
409.791	88.5
410.014	98.5
410.238	87.5
410.461	91.5
410.685	81.5
410.908	94.5
411.132	101.5
411.355	93.5
411.578	75.5
411.802	76.5
412.025	96.5
412.249	80.5
412.472	97.5
412.695	75.5
412.919	91.5
413.142	88.5
413.365	87.5
413.589	85.5
413.812	81.5
414.035	92.5
414.258	89.5
414.482	85.5
414.705	64.5
414.928	87.5
415.151	109.5
415.374	99.5
415.597	88.5
415.821	85.5
416.044	98.5
416.267	97.5
416.49	71.5
416.713	93.5
416.936	90.5
417.159	83.5
417.382	90.5
417.605	91.5
417.828	91.5
418.051	85.5
418.274	95.5
418.497	83.5
418.72	90.5
418.943	83.5
419.166	91.5
419.389	87.5
419.611	88.5
419.834	92.5
420.057	85.5
420.28	90.5
420.503	76.5
420.726	85.5
420.948	85.5
421.171	78.5
421.394	101.5
421.617	82.5
421.839	82.5
422.062	89.5
422.285	98.5
422.507	92.5
422.73	92.5
422.953	81.5
423.175	85.5
423.398	86.5
423.621	89.5
423.843	91.5
424.066	80.5
424.288	85.5
424.511	72.5
424.733	83.5
424.956	91.5
425.178	92.5
425.401	79.5
425.623	84.5
425.846	92.5
426.068	76.5
426.291	86.5
426.513	72.5
426.735	96.5
426.958	101.5
427.18	91.5
427.402	137.5
427.625	159.5
427.847	132.5
428.069	111.5
428.292	83.5
428.514	89.5
428.736	85.5
428.958	89.5
429.181	94.5
429.403	90.5
429.625	77.5
429.847	89.5
430.069	93.5
430.292	79.5
430.514	82.5
430.736	84.5
430.958	80.5
431.18	81.5
431.402	88.5
431.624	79.5
431.846	74.5
432.068	84.5
432.29	78.5
432.512	81.5
432.734	82.5
432.956	78.5
433.178	102.5
433.4	84.5
433.622	73.5
433.844	102.5
434.066	99.5
434.287	95.5
434.509	102.5
434.731	90.5
434.953	92.5
435.175	89.5
435.397	86.5
435.618	75.5
435.84	98.5
436.062	108.5
436.284	113.5
436.505	97.5
436.727	82.5
436.949	73.5
437.17	86.5
437.392	82.5
437.614	95.5
437.835	95.5
438.057	118.5
438.278	99.5
438.5	101.5
438.721	117.5
438.943	97.5
439.165	74.5
439.386	81.5
439.608	87.5
439.829	101.5
440.05	117.5
440.272	120.5
440.493	92.5
440.715	96.5
440.936	86.5
441.158	87.5
441.379	93.5
441.6	79.5
441.822	94.5
442.043	85.5
442.264	97.5
442.486	87.5
442.707	81.5
442.928	102.5
443.149	136.5
443.371	110.5
443.592	104.5
443.813	98.5
444.034	111.5
444.255	88.5
444.476	95.5
444.698	94.5
444.919	89.5
445.14	130.5
445.361	115.5
445.582	119.5
445.803	121.5
446.024	130.5
446.245	129.5
446.466	107.5
446.687	94.5
446.908	89.5
447.129	90.5
447.35	86.5
447.571	94.5
447.792	90.5
448.013	97.5
448.234	102.5
448.455	102.5
448.675	101.5
448.896	106.5
449.117	89.5
449.338	97.5
449.559	122.5
449.779	128.5
450	94.5
450.221	86.5
450.442	91.5
450.662	96.5
450.883	99.5
451.104	118.5
451.324	82.5
451.545	80.5
451.766	74.5
451.986	73.5
452.207	89.5
452.428	100.5
452.648	107.5
452.869	102.5
453.089	116.5
453.31	102.5
453.53	86.5
453.751	88.5
453.971	90.5
454.192	99.5
454.412	94.5
454.633	86.5
454.853	68.5
455.073	93.5
455.294	85.5
455.514	91.5
455.734	75.5
455.955	79.5
456.175	79.5
456.395	76.5
456.616	78.5
456.836	72.5
457.056	87.5
457.276	80.5
457.497	84.5
457.717	79.5
457.937	74.5
458.157	82.5
458.377	93.5
458.598	77.5
458.818	135.5
459.038	137.5
459.258	99.5
459.478	87.5
459.698	83.5
459.918	77.5
460.138	80.5
460.358	99.5
460.578	88.5
460.798	90.5
461.018	89.5
461.238	91.5
461.458	85.5
461.678	88.5
461.898	86.5
462.118	81.5
462.338	86.5
462.558	66.5
462.777	98.5
462.997	88.5
463.217	89.5
463.437	101.5
463.657	90.5
463.876	81.5
464.096	92.5
464.316	88.5
464.536	82.5
464.755	81.5
464.975	94.5
465.195	149.5
465.414	158.5
465.634	94.5
465.854	93.5
466.073	79.5
466.293	78.5
466.512	90.5
466.732	80.5
466.951	81.5
467.171	87.5
467.391	86.5
467.61	94.5
467.829	81.5
468.049	75.5
468.268	90.5
468.488	105.5
468.707	76.5
468.927	75.5
469.146	72.5
469.365	78.5
469.585	88.5
469.804	80.5
470.023	83.5
470.243	89.5
470.462	92.5
470.681	107.5
470.901	86.5
471.12	76.5
471.339	77.5
471.558	70.5
471.777	80.5
471.997	90.5
472.216	78.5
472.435	92.5
472.654	88.5
472.873	77.5
473.092	78.5
473.311	91.5
473.53	95.5
473.749	97.5
473.968	88.5
474.187	115.5
474.406	105.5
474.625	84.5
474.844	83.5
475.063	90.5
475.282	66.5
475.501	86.5
475.72	86.5
475.939	79.5
476.158	83.5
476.377	82.5
476.596	86.5
476.814	85.5
477.033	83.5
477.252	90.5
477.471	91.5
477.69	88.5
477.908	92.5
478.127	83.5
478.346	89.5
478.564	83.5
478.783	81.5
479.002	89.5
479.22	78.5
479.439	83.5
479.658	94.5
479.876	98.5
480.095	80.5
480.313	97.5
480.532	101.5
480.751	73.5
480.969	83.5
481.188	88.5
481.406	82.5
481.624	98.5
481.843	88.5
482.061	87.5
482.28	88.5
482.498	78.5
482.717	85.5
482.935	87.5
483.153	86.5
483.372	85.5
483.59	97.5
483.808	79.5
484.027	86.5
484.245	87.5
484.463	87.5
484.681	99.5
484.9	93.5
485.118	87.5
485.336	98.5
485.554	79.5
485.772	101.5
485.99	95.5
486.209	103.5
486.427	92.5
486.645	109.5
486.863	95.5
487.081	100.5
487.299	103.5
487.517	99.5
487.735	99.5
487.953	88.5
488.171	82.5
488.389	91.5
488.607	83.5
488.825	88.5
489.043	86.5
489.261	100.5
489.479	95.5
489.696	97.5
489.914	81.5
490.132	83.5
490.35	100.5
490.568	97.5
490.786	90.5
491.003	84.5
491.221	100.5
491.439	88.5
491.657	88.5
491.874	80.5
492.092	99.5
492.31	93.5
492.527	79.5
492.745	84.5
492.963	78.5
493.18	104.5
493.398	98.5
493.615	103.5
493.833	94.5
494.05	79.5
494.268	88.5
494.485	82.5
494.703	92.5
494.92	84.5
495.138	91.5
495.355	97.5
495.573	93.5
495.79	89.5
496.008	107.5
496.225	95.5
496.442	85.5
496.66	93.5
496.877	90.5
497.094	86.5
497.312	80.5
497.529	78.5
497.746	98.5
497.963	91.5
498.181	91.5
498.398	95.5
498.615	106.5
498.832	104.5
499.049	83.5
499.267	71.5
499.484	92.5
499.701	86.5
499.918	94.5
500.135	91.5
500.352	86.5
500.569	84.5
500.786	73.5
501.003	87.5
501.22	93.5
501.437	75.5
501.654	86.5
501.871	84.5
502.088	89.5
502.305	95.5
502.522	87.5
502.739	103.5
502.956	98.5
503.172	90.5
503.389	104.5
503.606	90.5
503.823	107.5
504.04	89.5
504.256	77.5
504.473	96.5
504.69	80.5
504.907	97.5
505.123	101.5
505.34	88.5
505.557	97.5
505.773	83.5
505.99	90.5
506.207	83.5
506.423	84.5
506.64	85.5
506.856	88.5
507.073	78.5
507.289	100.5
507.506	98.5
507.722	107.5
507.939	90.5
508.155	103.5
508.372	98.5
508.588	85.5
508.805	106.5
509.021	94.5
509.238	85.5
509.454	85.5
509.67	103.5
509.887	102.5
510.103	123.5
510.319	196.5
510.536	738.5
510.752	2250.5
510.968	642.5
511.184	142.5
511.401	107.5
511.617	97.5
511.833	83.5
512.049	89.5
512.265	97.5
512.481	104.5
512.698	92.5
512.914	98.5
513.13	96.5
513.346	85.5
513.562	104.5
513.778	89.5
513.994	82.5
514.21	93.5
514.426	115.5
514.642	122.5
514.858	113.5
515.074	163.5
515.29	410.5
515.506	1311.5
515.721	485.5
515.937	154.5
516.153	101.5
516.369	104.5
516.585	90.5
516.801	90.5
517.016	94.5
517.232	98.5
517.448	95.5
517.664	94.5
517.879	84.5
518.095	90.5
518.311	79.5
518.527	99.5
518.742	86.5
518.958	79.5
519.173	91.5
519.389	92.5
519.605	102.5
519.82	89.5
520.036	95.5
520.251	106.5
520.467	111.5
520.682	91.5
520.898	96.5
521.113	98.5
521.329	133.5
521.544	185.5
521.76	524.5
521.975	2158.5
522.19	1292.5
522.406	282.5
522.621	110.5
522.836	99.5
523.052	89.5
523.267	103.5
523.482	91.5
523.698	91.5
523.913	110.5
524.128	90.5
524.343	90.5
524.559	81.5
524.774	94.5
524.989	96.5
525.204	115.5
525.419	90.5
525.634	89.5
525.849	93.5
526.064	88.5
526.28	94.5
526.495	82.5
526.71	84.5
526.925	80.5
527.14	81.5
527.355	96.5
527.57	86.5
527.785	89.5
527.999	89.5
528.214	70.5
528.429	76.5
528.644	82.5
528.859	89.5
529.074	106.5
529.289	111.5
529.503	162.5
529.718	102.5
529.933	101.5
530.148	72.5
530.363	99.5
530.577	77.5
530.792	90.5
531.007	90.5
531.221	79.5
531.436	91.5
531.651	104.5
531.865	87.5
532.08	87.5
532.295	103.5
532.509	92.5
532.724	82.5
532.938	101.5
533.153	91.5
533.367	93.5
533.582	91.5
533.796	95.5
534.011	73.5
534.225	90.5
534.44	85.5
534.654	95.5
534.868	92.5
535.083	92.5
535.297	92.5
535.511	90.5
535.726	97.5
535.94	99.5
536.154	89.5
536.369	98.5
536.583	99.5
