Data from Uncirc_2000_H10_HRD10591_00024.txt Node
Date: Wed Jan 03 10:48:22 EST 2024
User: Yrep
Spectrometer: HR+D1059
Trigger mode: 1
Integration Time (sec): 1.000000E-1
Scans to average: 1
Electric dark correction enabled: true
Nonlinearity correction enabled: false
Boxcar width: 0
XAxis mode: Wavelengths
Number of Pixels in Spectrum: 2048
>>>>>Begin Spectral Data<<<<<
223.165	-25.56
223.4	-25.56
223.635	-25.56
223.869	-10.56
224.104	-13.56
224.338	-20.56
224.573	-12.56
224.808	-10.56
225.042	-7.56
225.277	-13.56
225.511	1.44
225.746	8.44
225.98	23.44
226.215	6.44
226.449	2.44
226.683	24.44
226.918	19.44
227.152	28.44
227.387	22.44
227.621	43.44
227.856	35.44
228.09	56.44
228.324	55.44
228.559	53.44
228.793	66.44
229.027	57.44
229.262	70.44
229.496	62.44
229.73	75.44
229.964	67.44
230.199	55.44
230.433	72.44
230.667	78.44
230.901	70.44
231.136	84.44
231.37	73.44
231.604	80.44
231.838	75.44
232.072	84.44
232.306	83.44
232.541	91.44
232.775	67.44
233.009	76.44
233.243	77.44
233.477	76.44
233.711	74.44
233.945	81.44
234.179	77.44
234.413	88.44
234.647	74.44
234.881	83.44
235.115	59.44
235.349	86.44
235.583	87.44
235.817	82.44
236.051	70.44
236.285	68.44
236.519	79.44
236.753	73.44
236.987	84.44
237.221	72.44
237.455	71.44
237.689	80.44
237.922	78.44
238.156	67.44
238.39	76.44
238.624	75.44
238.858	82.44
239.091	85.44
239.325	78.44
239.559	80.44
239.793	79.44
240.027	67.44
240.26	64.44
240.494	66.44
240.728	70.44
240.961	75.44
241.195	79.44
241.429	68.44
241.662	76.44
241.896	77.44
242.13	73.44
242.363	69.44
242.597	71.44
242.83	67.44
243.064	79.44
243.298	74.44
243.531	76.44
243.765	80.44
243.998	73.44
244.232	82.44
244.465	67.44
244.699	80.44
244.932	78.44
245.166	74.44
245.399	70.44
245.633	75.44
245.866	75.44
246.099	83.44
246.333	71.44
246.566	87.44
246.8	68.44
247.033	75.44
247.266	79.44
247.5	69.44
247.733	80.44
247.966	74.44
248.2	80.44
248.433	89.44
248.666	78.44
248.899	91.44
249.133	82.44
249.366	92.44
249.599	75.44
249.832	63.44
250.066	79.44
250.299	72.44
250.532	80.44
250.765	73.44
250.998	69.44
251.231	74.44
251.465	72.44
251.698	81.44
251.931	71.44
252.164	62.44
252.397	65.44
252.63	71.44
252.863	82.44
253.096	77.44
253.329	87.44
253.562	81.44
253.795	78.44
254.028	82.44
254.261	74.44
254.494	90.44
254.727	83.44
254.96	82.44
255.193	65.44
255.426	85.44
255.659	80.44
255.892	87.44
256.124	87.44
256.357	83.44
256.59	89.44
256.823	80.44
257.056	71.44
257.289	93.44
257.521	80.44
257.754	77.44
257.987	75.44
258.22	80.44
258.452	91.44
258.685	76.44
258.918	74.44
259.151	87.44
259.383	87.44
259.616	94.44
259.849	85.44
260.081	81.44
260.314	73.44
260.547	89.44
260.779	76.44
261.012	81.44
261.244	75.44
261.477	94.44
261.71	83.44
261.942	92.44
262.175	88.44
262.407	82.44
262.64	78.44
262.872	81.44
263.105	80.44
263.337	87.44
263.57	92.44
263.802	92.44
264.035	86.44
264.267	67.44
264.499	50.44
264.732	67.44
264.964	80.44
265.197	89.44
265.429	99.44
265.661	79.44
265.894	86.44
266.126	88.44
266.358	74.44
266.591	84.44
266.823	87.44
267.055	74.44
267.287	77.44
267.52	74.44
267.752	91.44
267.984	84.44
268.216	87.44
268.448	92.44
268.681	69.44
268.913	91.44
269.145	73.44
269.377	72.44
269.609	80.44
269.841	84.44
270.073	69.44
270.306	74.44
270.538	79.44
270.77	79.44
271.002	85.44
271.234	90.44
271.466	86.44
271.698	73.44
271.93	82.44
272.162	79.44
272.394	96.44
272.626	92.44
272.858	86.44
273.09	84.44
273.322	87.44
273.553	78.44
273.785	83.44
274.017	82.44
274.249	84.44
274.481	86.44
274.713	87.44
274.945	82.44
275.176	90.44
275.408	91.44
275.64	89.44
275.872	82.44
276.104	89.44
276.335	91.44
276.567	87.44
276.799	101.44
277.031	97.44
277.262	91.44
277.494	104.44
277.726	78.44
277.957	84.44
278.189	88.44
278.421	89.44
278.652	75.44
278.884	87.44
279.115	84.44
279.347	84.44
279.579	96.44
279.81	84.44
280.042	88.44
280.273	84.44
280.505	105.44
280.736	82.44
280.968	76.44
281.199	89.44
281.431	86.44
281.662	68.44
281.894	99.44
282.125	97.44
282.356	108.44
282.588	117.44
282.819	98.44
283.051	79.44
283.282	90.44
283.513	94.44
283.745	76.44
283.976	74.44
284.207	79.44
284.439	87.44
284.67	82.44
284.901	100.44
285.132	89.44
285.364	94.44
285.595	92.44
285.826	84.44
286.057	88.44
286.288	86.44
286.52	85.44
286.751	77.44
286.982	77.44
287.213	70.44
287.444	81.44
287.675	89.44
287.906	80.44
288.138	95.44
288.369	89.44
288.6	85.44
288.831	80.44
289.062	84.44
289.293	75.44
289.524	83.44
289.755	84.44
289.986	73.44
290.217	86.44
290.448	94.44
290.679	82.44
290.91	77.44
291.141	79.44
291.371	72.44
291.602	79.44
291.833	76.44
292.064	88.44
292.295	86.44
292.526	85.44
292.757	75.44
292.987	89.44
293.218	88.44
293.449	89.44
293.68	87.44
293.91	81.44
294.141	85.44
294.372	106.44
294.603	83.44
294.833	88.44
295.064	88.44
295.295	87.44
295.525	87.44
295.756	92.44
295.987	98.44
296.217	128.44
296.448	102.44
296.679	91.44
296.909	91.44
297.14	82.44
297.37	92.44
297.601	84.44
297.831	90.44
298.062	93.44
298.292	72.44
298.523	80.44
298.753	94.44
298.984	85.44
299.214	100.44
299.445	82.44
299.675	87.44
299.905	104.44
300.136	91.44
300.366	87.44
300.597	94.44
300.827	104.44
301.057	82.44
301.288	104.44
301.518	90.44
301.748	86.44
301.979	100.44
302.209	91.44
302.439	91.44
302.669	86.44
302.9	82.44
303.13	94.44
303.36	98.44
303.59	83.44
303.82	98.44
304.051	92.44
304.281	93.44
304.511	92.44
304.741	95.44
304.971	84.44
305.201	82.44
305.431	78.44
305.661	87.44
305.891	78.44
306.121	90.44
306.352	106.44
306.582	102.44
306.812	91.44
307.042	77.44
307.272	85.44
307.502	99.44
307.731	92.44
307.961	82.44
308.191	93.44
308.421	80.44
308.651	96.44
308.881	88.44
309.111	95.44
309.341	95.44
309.571	109.44
309.8	97.44
310.03	88.44
310.26	86.44
310.49	89.44
310.72	87.44
310.949	95.44
311.179	93.44
311.409	90.44
311.639	86.44
311.868	111.44
312.098	88.44
312.328	92.44
312.557	99.44
312.787	86.44
313.017	92.44
313.246	88.44
313.476	74.44
313.706	94.44
313.935	84.44
314.165	91.44
314.394	98.44
314.624	90.44
314.853	94.44
315.083	78.44
315.312	99.44
315.542	96.44
315.771	94.44
316.001	84.44
316.23	88.44
316.46	87.44
316.689	98.44
316.919	82.44
317.148	90.44
317.377	99.44
317.607	81.44
317.836	97.44
318.065	76.44
318.295	86.44
318.524	98.44
318.753	84.44
318.983	90.44
319.212	99.44
319.441	103.44
319.67	82.44
319.9	78.44
320.129	82.44
320.358	92.44
320.587	94.44
320.816	89.44
321.046	98.44
321.275	91.44
321.504	102.44
321.733	96.44
321.962	91.44
322.191	90.44
322.42	108.44
322.649	92.44
322.878	107.44
323.108	115.44
323.337	123.44
323.566	119.44
323.795	138.44
324.024	183.44
324.253	360.44
324.482	740.44
324.71	1532.44
324.939	1890.44
325.168	697.44
325.397	216.44
325.626	152.44
325.855	129.44
326.084	126.44
326.313	119.44
326.542	139.44
326.77	210.44
326.999	429.44
327.228	854.44
327.457	1544.44
327.686	1211.44
327.914	330.44
328.143	156.44
328.372	130.44
328.6	101.44
328.829	119.44
329.058	104.44
329.287	119.44
329.515	107.44
329.744	88.44
329.972	99.44
330.201	104.44
330.43	104.44
330.658	111.44
330.887	122.44
331.115	95.44
331.344	98.44
331.572	105.44
331.801	99.44
332.03	103.44
332.258	90.44
332.486	98.44
332.715	96.44
332.943	81.44
333.172	88.44
333.4	98.44
333.629	99.44
333.857	103.44
334.085	107.44
334.314	98.44
334.542	95.44
334.771	98.44
334.999	87.44
335.227	89.44
335.455	84.44
335.684	109.44
335.912	93.44
336.14	86.44
336.369	98.44
336.597	91.44
336.825	88.44
337.053	105.44
337.281	87.44
337.51	97.44
337.738	87.44
337.966	103.44
338.194	102.44
338.422	88.44
338.65	87.44
338.878	72.44
339.106	73.44
339.334	87.44
339.562	90.44
339.79	80.44
340.018	82.44
340.246	83.44
340.474	86.44
340.702	82.44
340.93	82.44
341.158	91.44
341.386	94.44
341.614	95.44
341.842	96.44
342.07	87.44
342.298	81.44
342.526	83.44
342.754	82.44
342.981	79.44
343.209	94.44
343.437	86.44
343.665	82.44
343.893	98.44
344.12	98.44
344.348	85.44
344.576	96.44
344.804	87.44
345.031	93.44
345.259	92.44
345.487	96.44
345.714	88.44
345.942	91.44
346.17	85.44
346.397	92.44
346.625	101.44
346.853	81.44
347.08	103.44
347.308	92.44
347.535	97.44
347.763	82.44
347.99	85.44
348.218	90.44
348.445	107.44
348.673	94.44
348.9	95.44
349.128	89.44
349.355	78.44
349.583	91.44
349.81	94.44
350.037	90.44
350.265	95.44
350.492	98.44
350.72	97.44
350.947	103.44
351.174	113.44
351.402	114.44
351.629	94.44
351.856	96.44
352.083	98.44
352.311	93.44
352.538	84.44
352.765	86.44
352.992	107.44
353.22	103.44
353.447	97.44
353.674	106.44
353.901	99.44
354.128	98.44
354.355	103.44
354.583	95.44
354.81	99.44
355.037	101.44
355.264	102.44
355.491	90.44
355.718	86.44
355.945	91.44
356.172	100.44
356.399	90.44
356.626	92.44
356.853	89.44
357.08	92.44
357.307	80.44
357.534	94.44
357.761	96.44
357.988	104.44
358.215	108.44
358.441	87.44
358.668	80.44
358.895	80.44
359.122	83.44
359.349	79.44
359.576	88.44
359.802	98.44
360.029	104.44
360.256	99.44
360.483	86.44
360.709	82.44
360.936	87.44
361.163	81.44
361.39	89.44
361.616	97.44
361.843	84.44
362.07	91.44
362.296	86.44
362.523	86.44
362.749	99.44
362.976	89.44
363.203	90.44
363.429	81.44
363.656	86.44
363.882	89.44
364.109	90.44
364.335	86.44
364.562	102.44
364.788	83.44
365.015	90.44
365.241	93.44
365.468	104.44
365.694	101.44
365.92	96.44
366.147	70.44
366.373	82.44
366.599	97.44
366.826	94.44
367.052	95.44
367.278	92.44
367.505	91.44
367.731	87.44
367.957	95.44
368.184	100.44
368.41	109.44
368.636	101.44
368.862	116.44
369.089	100.44
369.315	77.44
369.541	95.44
369.767	87.44
369.993	81.44
370.219	82.44
370.445	82.44
370.672	95.44
370.898	86.44
371.124	88.44
371.35	68.44
371.576	87.44
371.802	93.44
372.028	82.44
372.254	76.44
372.48	84.44
372.706	90.44
372.932	78.44
373.158	97.44
373.384	92.44
373.61	99.44
373.835	84.44
374.061	75.44
374.287	87.44
374.513	99.44
374.739	96.44
374.965	89.44
375.191	83.44
375.416	88.44
375.642	89.44
375.868	90.44
376.094	84.44
376.319	89.44
376.545	102.44
376.771	98.44
376.997	88.44
377.222	75.44
377.448	102.44
377.674	97.44
377.899	65.44
378.125	73.44
378.35	87.44
378.576	78.44
378.802	85.44
379.027	87.44
379.253	80.44
379.478	80.44
379.704	110.44
379.929	85.44
380.155	86.44
380.38	103.44
380.606	90.44
380.831	100.44
381.057	116.44
381.282	89.44
381.507	93.44
381.733	82.44
381.958	92.44
382.184	91.44
382.409	98.44
382.634	122.44
382.86	97.44
383.085	91.44
383.31	84.44
383.535	103.44
383.761	90.44
383.986	96.44
384.211	82.44
384.436	87.44
384.662	92.44
384.887	95.44
385.112	91.44
385.337	95.44
385.562	96.44
385.787	88.44
386.013	98.44
386.238	104.44
386.463	82.44
386.688	90.44
386.913	104.44
387.138	98.44
387.363	88.44
387.588	101.44
387.813	96.44
388.038	102.44
388.263	118.44
388.488	108.44
388.713	96.44
388.938	102.44
389.163	87.44
389.387	94.44
389.612	91.44
389.837	87.44
390.062	79.44
390.287	86.44
390.512	80.44
390.736	93.44
390.961	100.44
391.186	97.44
391.411	88.44
391.636	98.44
391.86	86.44
392.085	74.44
392.31	81.44
392.534	86.44
392.759	88.44
392.984	79.44
393.208	79.44
393.433	104.44
393.658	102.44
393.882	81.44
394.107	85.44
394.331	90.44
394.556	80.44
394.78	92.44
395.005	82.44
395.229	98.44
395.454	90.44
395.678	89.44
395.903	91.44
396.127	90.44
396.352	89.44
396.576	83.44
396.801	86.44
397.025	97.44
397.249	94.44
397.474	96.44
397.698	78.44
397.922	72.44
398.147	70.44
398.371	84.44
398.595	84.44
398.82	88.44
399.044	81.44
399.268	77.44
399.492	73.44
399.717	86.44
399.941	95.44
400.165	84.44
400.389	90.44
400.613	80.44
400.837	97.44
401.062	95.44
401.286	100.44
401.51	86.44
401.734	91.44
401.958	83.44
402.182	108.44
402.406	141.44
402.63	115.44
402.854	104.44
403.078	94.44
403.302	76.44
403.526	85.44
403.75	94.44
403.974	90.44
404.198	84.44
404.422	86.44
404.645	81.44
404.869	98.44
405.093	89.44
405.317	78.44
405.541	97.44
405.765	90.44
405.988	99.44
406.212	153.44
406.436	184.44
406.66	131.44
406.883	100.44
407.107	81.44
407.331	86.44
407.555	94.44
407.778	94.44
408.002	81.44
408.226	88.44
408.449	85.44
408.673	74.44
408.896	91.44
409.12	89.44
409.344	71.44
409.567	83.44
409.791	89.44
410.014	85.44
410.238	82.44
410.461	92.44
410.685	81.44
410.908	87.44
411.132	112.44
411.355	96.44
411.578	89.44
411.802	87.44
412.025	91.44
412.249	85.44
412.472	97.44
412.695	89.44
412.919	82.44
413.142	78.44
413.365	88.44
413.589	92.44
413.812	85.44
414.035	95.44
414.258	89.44
414.482	76.44
414.705	106.44
414.928	99.44
415.151	83.44
415.374	86.44
415.597	88.44
415.821	88.44
416.044	91.44
416.267	86.44
416.49	107.44
416.713	91.44
416.936	82.44
417.159	91.44
417.382	72.44
417.605	77.44
417.828	103.44
418.051	94.44
418.274	86.44
418.497	78.44
418.72	88.44
418.943	90.44
419.166	82.44
419.389	91.44
419.611	111.44
419.834	85.44
420.057	91.44
420.28	77.44
420.503	79.44
420.726	91.44
420.948	87.44
421.171	90.44
421.394	90.44
421.617	81.44
421.839	88.44
422.062	93.44
422.285	92.44
422.507	91.44
422.73	92.44
422.953	91.44
423.175	95.44
423.398	86.44
423.621	92.44
423.843	88.44
424.066	83.44
424.288	76.44
424.511	98.44
424.733	97.44
424.956	99.44
425.178	95.44
425.401	89.44
425.623	97.44
425.846	80.44
426.068	87.44
426.291	75.44
426.513	97.44
426.735	88.44
426.958	92.44
427.18	92.44
427.402	111.44
427.625	141.44
427.847	93.44
428.069	86.44
428.292	94.44
428.514	93.44
428.736	87.44
428.958	82.44
429.181	66.44
429.403	88.44
429.625	88.44
429.847	85.44
430.069	96.44
430.292	81.44
430.514	82.44
430.736	70.44
430.958	89.44
431.18	87.44
431.402	85.44
431.624	87.44
431.846	97.44
432.068	94.44
432.29	87.44
432.512	62.44
432.734	70.44
432.956	83.44
433.178	89.44
433.4	86.44
433.622	94.44
433.844	74.44
434.066	85.44
434.287	86.44
434.509	96.44
434.731	88.44
434.953	86.44
435.175	83.44
435.397	100.44
435.618	103.44
435.84	79.44
436.062	100.44
436.284	111.44
436.505	104.44
436.727	100.44
436.949	82.44
437.17	77.44
437.392	85.44
437.614	83.44
437.835	91.44
438.057	105.44
438.278	94.44
438.5	96.44
438.721	114.44
438.943	100.44
439.165	83.44
439.386	103.44
439.608	91.44
439.829	100.44
440.05	110.44
440.272	131.44
440.493	92.44
440.715	101.44
440.936	96.44
441.158	95.44
441.379	102.44
441.6	92.44
441.822	88.44
442.043	81.44
442.264	90.44
442.486	78.44
442.707	91.44
442.928	100.44
443.149	107.44
443.371	112.44
443.592	103.44
443.813	99.44
444.034	97.44
444.255	92.44
444.476	99.44
444.698	78.44
444.919	95.44
445.14	131.44
445.361	131.44
445.582	107.44
445.803	115.44
446.024	130.44
446.245	127.44
446.466	92.44
446.687	89.44
446.908	93.44
447.129	85.44
447.35	89.44
447.571	79.44
447.792	96.44
448.013	90.44
448.234	93.44
448.455	89.44
448.675	92.44
448.896	97.44
449.117	95.44
449.338	103.44
449.559	130.44
449.779	115.44
450	98.44
450.221	95.44
450.442	95.44
450.662	94.44
450.883	87.44
451.104	102.44
451.324	100.44
451.545	88.44
451.766	90.44
451.986	78.44
452.207	75.44
452.428	92.44
452.648	111.44
452.869	97.44
453.089	110.44
453.31	102.44
453.53	102.44
453.751	88.44
453.971	86.44
454.192	102.44
454.412	92.44
454.633	90.44
454.853	74.44
455.073	87.44
455.294	97.44
455.514	78.44
455.734	81.44
455.955	87.44
456.175	88.44
456.395	82.44
456.616	69.44
456.836	89.44
457.056	95.44
457.276	87.44
457.497	68.44
457.717	82.44
457.937	87.44
458.157	85.44
458.377	92.44
458.598	108.44
458.818	129.44
459.038	142.44
459.258	109.44
459.478	68.44
459.698	70.44
459.918	77.44
460.138	82.44
460.358	91.44
460.578	82.44
460.798	87.44
461.018	97.44
461.238	84.44
461.458	75.44
461.678	99.44
461.898	78.44
462.118	92.44
462.338	91.44
462.558	87.44
462.777	85.44
462.997	83.44
463.217	72.44
463.437	71.44
463.657	79.44
463.876	78.44
464.096	67.44
464.316	83.44
464.536	90.44
464.755	99.44
464.975	105.44
465.195	140.44
465.414	128.44
465.634	78.44
465.854	73.44
466.073	94.44
466.293	86.44
466.512	97.44
466.732	94.44
466.951	87.44
467.171	82.44
467.391	84.44
467.61	86.44
467.829	84.44
468.049	91.44
468.268	82.44
468.488	78.44
468.707	86.44
468.927	88.44
469.146	81.44
469.365	79.44
469.585	97.44
469.804	88.44
470.023	96.44
470.243	92.44
470.462	93.44
470.681	100.44
470.901	80.44
471.12	86.44
471.339	95.44
471.558	89.44
471.777	80.44
471.997	90.44
472.216	106.44
472.435	90.44
472.654	84.44
472.873	70.44
473.092	81.44
473.311	92.44
473.53	97.44
473.749	94.44
473.968	93.44
474.187	96.44
474.406	91.44
474.625	88.44
474.844	83.44
475.063	79.44
475.282	89.44
475.501	81.44
475.72	82.44
475.939	92.44
476.158	99.44
476.377	82.44
476.596	100.44
476.814	83.44
477.033	99.44
477.252	81.44
477.471	99.44
477.69	78.44
477.908	85.44
478.127	85.44
478.346	70.44
478.564	89.44
478.783	90.44
479.002	79.44
479.22	86.44
479.439	94.44
479.658	91.44
479.876	82.44
480.095	79.44
480.313	95.44
480.532	76.44
480.751	77.44
480.969	91.44
481.188	85.44
481.406	97.44
481.624	86.44
481.843	93.44
482.061	81.44
482.28	85.44
482.498	91.44
482.717	82.44
482.935	90.44
483.153	88.44
483.372	94.44
483.59	91.44
483.808	105.44
484.027	92.44
484.245	95.44
484.463	89.44
484.681	107.44
484.9	102.44
485.118	99.44
485.336	94.44
485.554	86.44
485.772	90.44
485.99	90.44
486.209	98.44
486.427	108.44
486.645	90.44
486.863	102.44
487.081	99.44
487.299	92.44
487.517	91.44
487.735	86.44
487.953	105.44
488.171	84.44
488.389	100.44
488.607	98.44
488.825	97.44
489.043	87.44
489.261	93.44
489.479	90.44
489.696	81.44
489.914	79.44
490.132	86.44
490.35	85.44
490.568	83.44
490.786	87.44
491.003	109.44
491.221	78.44
491.439	81.44
491.657	95.44
491.874	98.44
492.092	70.44
492.31	95.44
492.527	82.44
492.745	80.44
492.963	89.44
493.18	83.44
493.398	89.44
493.615	100.44
493.833	102.44
494.05	90.44
494.268	91.44
494.485	90.44
494.703	98.44
494.92	70.44
495.138	83.44
495.355	90.44
495.573	87.44
495.79	98.44
496.008	88.44
496.225	97.44
496.442	89.44
496.66	98.44
496.877	86.44
497.094	78.44
497.312	95.44
497.529	91.44
497.746	99.44
497.963	99.44
498.181	81.44
498.398	91.44
498.615	120.44
498.832	99.44
499.049	90.44
499.267	87.44
499.484	88.44
499.701	104.44
499.918	97.44
500.135	93.44
500.352	98.44
500.569	96.44
500.786	110.44
501.003	85.44
501.22	82.44
501.437	86.44
501.654	104.44
501.871	94.44
502.088	105.44
502.305	98.44
502.522	104.44
502.739	89.44
502.956	86.44
503.172	83.44
503.389	96.44
503.606	102.44
503.823	93.44
504.04	91.44
504.256	87.44
504.473	89.44
504.69	88.44
504.907	84.44
505.123	101.44
505.34	95.44
505.557	103.44
505.773	112.44
505.99	96.44
506.207	86.44
506.423	86.44
506.64	79.44
506.856	76.44
507.073	84.44
507.289	99.44
507.506	94.44
507.722	109.44
507.939	111.44
508.155	93.44
508.372	75.44
508.588	91.44
508.805	90.44
509.021	95.44
509.238	84.44
509.454	87.44
509.67	107.44
509.887	113.44
510.103	119.44
510.319	197.44
510.536	673.44
510.752	2018.44
510.968	551.44
511.184	149.44
511.401	101.44
511.617	85.44
511.833	85.44
512.049	83.44
512.265	88.44
512.481	94.44
512.698	86.44
512.914	80.44
513.13	82.44
513.346	80.44
513.562	110.44
513.778	100.44
513.994	81.44
514.21	96.44
514.426	106.44
514.642	98.44
514.858	120.44
515.074	157.44
515.29	359.44
515.506	1178.44
515.721	438.44
515.937	140.44
516.153	112.44
516.369	112.44
516.585	108.44
516.801	87.44
517.016	89.44
