Data from Uncirc_2000_H10_HRD10591_00006.txt Node
Date: Wed Jan 03 10:48:18 EST 2024
User: Yrep
Spectrometer: HR+D1059
Trigger mode: 1
Integration Time (sec): 1.000000E-1
Scans to average: 1
Electric dark correction enabled: true
Nonlinearity correction enabled: false
Boxcar width: 0
XAxis mode: Wavelengths
Number of Pixels in Spectrum: 2048
>>>>>Begin Spectral Data<<<<<
223.165	-3.06
223.4	-3.06
223.635	-3.06
223.869	-17.06
224.104	-18.06
224.338	-26.06
224.573	-11.06
224.808	-20.06
225.042	0.94
225.277	-1.06
225.511	-2.06
225.746	7.94
225.98	1.94
226.215	-1.06
226.449	6.94
226.683	17.94
226.918	29.94
227.152	33.94
227.387	35.94
227.621	38.94
227.856	41.94
228.09	38.94
228.324	36.94
228.559	50.94
228.793	64.94
229.027	76.94
229.262	65.94
229.496	57.94
229.73	73.94
229.964	51.94
230.199	76.94
230.433	59.94
230.667	72.94
230.901	79.94
231.136	70.94
231.37	76.94
231.604	59.94
231.838	64.94
232.072	77.94
232.306	81.94
232.541	83.94
232.775	80.94
233.009	73.94
233.243	84.94
233.477	75.94
233.711	84.94
233.945	78.94
234.179	75.94
234.413	81.94
234.647	78.94
234.881	64.94
235.115	70.94
235.349	86.94
235.583	82.94
235.817	77.94
236.051	74.94
236.285	69.94
236.519	77.94
236.753	79.94
236.987	82.94
237.221	87.94
237.455	74.94
237.689	61.94
237.922	68.94
238.156	76.94
238.39	63.94
238.624	72.94
238.858	70.94
239.091	80.94
239.325	68.94
239.559	66.94
239.793	88.94
240.027	75.94
240.26	88.94
240.494	85.94
240.728	61.94
240.961	75.94
241.195	86.94
241.429	70.94
241.662	74.94
241.896	60.94
242.13	65.94
242.363	71.94
242.597	77.94
242.83	66.94
243.064	77.94
243.298	80.94
243.531	69.94
243.765	68.94
243.998	64.94
244.232	80.94
244.465	80.94
244.699	78.94
244.932	68.94
245.166	77.94
245.399	68.94
245.633	71.94
245.866	74.94
246.099	75.94
246.333	81.94
246.566	60.94
246.8	75.94
247.033	63.94
247.266	76.94
247.5	74.94
247.733	68.94
247.966	73.94
248.2	75.94
248.433	74.94
248.666	79.94
248.899	82.94
249.133	81.94
249.366	83.94
249.599	83.94
249.832	79.94
250.066	77.94
250.299	76.94
250.532	65.94
250.765	65.94
250.998	76.94
251.231	72.94
251.465	72.94
251.698	63.94
251.931	73.94
252.164	69.94
252.397	76.94
252.63	77.94
252.863	83.94
253.096	85.94
253.329	77.94
253.562	78.94
253.795	74.94
254.028	73.94
254.261	77.94
254.494	80.94
254.727	81.94
254.96	78.94
255.193	81.94
255.426	82.94
255.659	82.94
255.892	81.94
256.124	77.94
256.357	60.94
256.59	88.94
256.823	85.94
257.056	78.94
257.289	74.94
257.521	73.94
257.754	81.94
257.987	85.94
258.22	87.94
258.452	56.94
258.685	80.94
258.918	71.94
259.151	79.94
259.383	78.94
259.616	85.94
259.849	79.94
260.081	80.94
260.314	80.94
260.547	76.94
260.779	92.94
261.012	83.94
261.244	80.94
261.477	80.94
261.71	89.94
261.942	97.94
262.175	96.94
262.407	76.94
262.64	86.94
262.872	65.94
263.105	81.94
263.337	86.94
263.57	89.94
263.802	77.94
264.035	101.94
264.267	74.94
264.499	70.94
264.732	72.94
264.964	76.94
265.197	87.94
265.429	70.94
265.661	72.94
265.894	84.94
266.126	95.94
266.358	79.94
266.591	84.94
266.823	77.94
267.055	86.94
267.287	69.94
267.52	80.94
267.752	83.94
267.984	76.94
268.216	87.94
268.448	74.94
268.681	84.94
268.913	87.94
269.145	86.94
269.377	84.94
269.609	76.94
269.841	90.94
270.073	71.94
270.306	81.94
270.538	85.94
270.77	91.94
271.002	92.94
271.234	79.94
271.466	73.94
271.698	74.94
271.93	79.94
272.162	83.94
272.394	94.94
272.626	84.94
272.858	77.94
273.09	73.94
273.322	73.94
273.553	72.94
273.785	80.94
274.017	65.94
274.249	68.94
274.481	83.94
274.713	97.94
274.945	88.94
275.176	85.94
275.408	78.94
275.64	84.94
275.872	83.94
276.104	80.94
276.335	72.94
276.567	80.94
276.799	77.94
277.031	74.94
277.262	96.94
277.494	70.94
277.726	69.94
277.957	77.94
278.189	79.94
278.421	84.94
278.652	80.94
278.884	73.94
279.115	79.94
279.347	85.94
279.579	83.94
279.81	77.94
280.042	77.94
280.273	69.94
280.505	80.94
280.736	70.94
280.968	85.94
281.199	85.94
281.431	73.94
281.662	85.94
281.894	92.94
282.125	95.94
282.356	83.94
282.588	99.94
282.819	83.94
283.051	84.94
283.282	89.94
283.513	86.94
283.745	82.94
283.976	79.94
284.207	93.94
284.439	78.94
284.67	88.94
284.901	85.94
285.132	78.94
285.364	68.94
285.595	86.94
285.826	92.94
286.057	92.94
286.288	80.94
286.52	81.94
286.751	91.94
286.982	88.94
287.213	77.94
287.444	73.94
287.675	93.94
287.906	107.94
288.138	74.94
288.369	83.94
288.6	78.94
288.831	97.94
289.062	73.94
289.293	85.94
289.524	73.94
289.755	83.94
289.986	85.94
290.217	91.94
290.448	82.94
290.679	92.94
290.91	87.94
291.141	81.94
291.371	80.94
291.602	80.94
291.833	81.94
292.064	84.94
292.295	81.94
292.526	84.94
292.757	87.94
292.987	85.94
293.218	77.94
293.449	84.94
293.68	79.94
293.91	82.94
294.141	90.94
294.372	79.94
294.603	90.94
294.833	81.94
295.064	85.94
295.295	95.94
295.525	99.94
295.756	71.94
295.987	90.94
296.217	111.94
296.448	95.94
296.679	91.94
296.909	102.94
297.14	102.94
297.37	72.94
297.601	68.94
297.831	81.94
298.062	92.94
298.292	87.94
298.523	104.94
298.753	90.94
298.984	85.94
299.214	95.94
299.445	81.94
299.675	78.94
299.905	89.94
300.136	93.94
300.366	88.94
300.597	92.94
300.827	81.94
301.057	90.94
301.288	88.94
301.518	80.94
301.748	80.94
301.979	88.94
302.209	98.94
302.439	69.94
302.669	80.94
302.9	84.94
303.13	79.94
303.36	90.94
303.59	93.94
303.82	84.94
304.051	88.94
304.281	81.94
304.511	94.94
304.741	93.94
304.971	82.94
305.201	89.94
305.431	77.94
305.661	84.94
305.891	79.94
306.121	98.94
306.352	94.94
306.582	88.94
306.812	84.94
307.042	87.94
307.272	78.94
307.502	96.94
307.731	103.94
307.961	88.94
308.191	87.94
308.421	76.94
308.651	88.94
308.881	96.94
309.111	88.94
309.341	84.94
309.571	78.94
309.8	111.94
310.03	97.94
310.26	90.94
310.49	94.94
310.72	98.94
310.949	89.94
311.179	90.94
311.409	78.94
311.639	94.94
311.868	100.94
312.098	86.94
312.328	94.94
312.557	89.94
312.787	87.94
313.017	87.94
313.246	82.94
313.476	74.94
313.706	84.94
313.935	77.94
314.165	92.94
314.394	89.94
314.624	91.94
314.853	80.94
315.083	85.94
315.312	83.94
315.542	83.94
315.771	88.94
316.001	96.94
316.23	88.94
316.46	95.94
316.689	84.94
316.919	85.94
317.148	87.94
317.377	93.94
317.607	89.94
317.836	84.94
318.065	84.94
318.295	93.94
318.524	79.94
318.753	96.94
318.983	81.94
319.212	89.94
319.441	88.94
319.67	87.94
319.9	82.94
320.129	97.94
320.358	100.94
320.587	82.94
320.816	86.94
321.046	96.94
321.275	91.94
321.504	69.94
321.733	100.94
321.962	82.94
322.191	85.94
322.42	87.94
322.649	101.94
322.878	96.94
323.108	102.94
323.337	108.94
323.566	117.94
323.795	133.94
324.024	162.94
324.253	298.94
324.482	594.94
324.71	1161.94
324.939	1533.94
325.168	567.94
325.397	192.94
325.626	117.94
325.855	119.94
326.084	102.94
326.313	117.94
326.542	125.94
326.77	175.94
326.999	351.94
327.228	702.94
327.457	1236.94
327.686	976.94
327.914	280.94
328.143	146.94
328.372	112.94
328.6	111.94
328.829	94.94
329.058	112.94
329.287	115.94
329.515	91.94
329.744	88.94
329.972	83.94
330.201	98.94
330.43	82.94
330.658	97.94
330.887	95.94
331.115	106.94
331.344	101.94
331.572	90.94
331.801	92.94
332.03	101.94
332.258	90.94
332.486	63.94
332.715	90.94
332.943	91.94
333.172	95.94
333.4	90.94
333.629	101.94
333.857	81.94
334.085	96.94
334.314	88.94
334.542	86.94
334.771	80.94
334.999	88.94
335.227	99.94
335.455	85.94
335.684	90.94
335.912	96.94
336.14	95.94
336.369	96.94
336.597	90.94
336.825	93.94
337.053	79.94
337.281	98.94
337.51	80.94
337.738	98.94
337.966	96.94
338.194	75.94
338.422	91.94
338.65	83.94
338.878	86.94
339.106	90.94
339.334	82.94
339.562	81.94
339.79	86.94
340.018	86.94
340.246	84.94
340.474	86.94
340.702	97.94
340.93	81.94
341.158	96.94
341.386	85.94
341.614	97.94
341.842	87.94
342.07	86.94
342.298	86.94
342.526	87.94
342.754	94.94
342.981	83.94
343.209	69.94
343.437	100.94
343.665	85.94
343.893	73.94
344.12	93.94
344.348	93.94
344.576	94.94
344.804	86.94
345.031	82.94
345.259	90.94
345.487	93.94
345.714	84.94
345.942	72.94
346.17	97.94
346.397	84.94
346.625	81.94
346.853	90.94
347.08	85.94
347.308	93.94
347.535	89.94
347.763	97.94
347.99	88.94
348.218	94.94
348.445	92.94
348.673	102.94
348.9	101.94
349.128	87.94
349.355	91.94
349.583	76.94
349.81	88.94
350.037	82.94
350.265	94.94
350.492	95.94
350.72	96.94
350.947	98.94
351.174	92.94
351.402	96.94
351.629	96.94
351.856	100.94
352.083	90.94
352.311	96.94
352.538	107.94
352.765	101.94
352.992	115.94
353.22	100.94
353.447	92.94
353.674	92.94
353.901	93.94
354.128	98.94
354.355	88.94
354.583	96.94
354.81	87.94
355.037	96.94
355.264	85.94
355.491	81.94
355.718	95.94
355.945	90.94
356.172	97.94
356.399	96.94
356.626	85.94
356.853	102.94
357.08	89.94
357.307	93.94
357.534	96.94
357.761	80.94
357.988	80.94
358.215	97.94
358.441	98.94
358.668	88.94
358.895	75.94
359.122	79.94
359.349	89.94
359.576	82.94
359.802	94.94
360.029	95.94
360.256	98.94
360.483	73.94
360.709	82.94
360.936	89.94
361.163	76.94
361.39	80.94
361.616	84.94
361.843	89.94
362.07	95.94
362.296	74.94
362.523	69.94
362.749	64.94
362.976	78.94
363.203	89.94
363.429	86.94
363.656	86.94
363.882	83.94
364.109	85.94
364.335	79.94
364.562	87.94
364.788	68.94
365.015	76.94
365.241	92.94
365.468	89.94
365.694	89.94
365.92	86.94
366.147	70.94
366.373	82.94
366.599	92.94
366.826	97.94
367.052	85.94
367.278	95.94
367.505	91.94
367.731	97.94
367.957	76.94
368.184	114.94
368.41	86.94
368.636	92.94
368.862	101.94
369.089	88.94
369.315	88.94
369.541	81.94
369.767	89.94
369.993	77.94
370.219	73.94
370.445	94.94
370.672	83.94
370.898	85.94
371.124	84.94
371.35	85.94
371.576	73.94
371.802	82.94
372.028	79.94
372.254	82.94
372.48	86.94
372.706	82.94
372.932	69.94
373.158	95.94
373.384	92.94
373.61	81.94
373.835	90.94
374.061	66.94
374.287	88.94
374.513	76.94
374.739	76.94
374.965	75.94
375.191	78.94
375.416	76.94
375.642	82.94
375.868	94.94
376.094	87.94
376.319	83.94
376.545	81.94
376.771	66.94
376.997	89.94
377.222	95.94
377.448	90.94
377.674	89.94
377.899	93.94
378.125	89.94
378.35	90.94
378.576	77.94
378.802	92.94
379.027	86.94
379.253	87.94
379.478	84.94
379.704	93.94
379.929	101.94
380.155	79.94
380.38	80.94
380.606	78.94
380.831	102.94
381.057	96.94
381.282	99.94
381.507	94.94
381.733	94.94
381.958	88.94
382.184	94.94
382.409	96.94
382.634	106.94
382.86	96.94
383.085	82.94
383.31	87.94
383.535	98.94
383.761	82.94
383.986	96.94
384.211	83.94
384.436	101.94
384.662	105.94
384.887	111.94
385.112	106.94
385.337	96.94
385.562	98.94
385.787	110.94
386.013	103.94
386.238	103.94
386.463	111.94
386.688	112.94
386.913	105.94
387.138	103.94
387.363	117.94
387.588	93.94
387.813	107.94
388.038	105.94
388.263	123.94
388.488	117.94
388.713	103.94
388.938	84.94
389.163	95.94
389.387	87.94
389.612	101.94
389.837	84.94
390.062	87.94
390.287	73.94
390.512	97.94
390.736	88.94
390.961	98.94
391.186	94.94
391.411	95.94
391.636	90.94
391.86	82.94
392.085	72.94
392.31	83.94
392.534	94.94
392.759	80.94
392.984	88.94
393.208	97.94
393.433	89.94
393.658	100.94
393.882	80.94
394.107	88.94
394.331	80.94
394.556	84.94
394.78	88.94
395.005	81.94
395.229	62.94
395.454	84.94
395.678	79.94
395.903	90.94
396.127	77.94
396.352	79.94
396.576	86.94
396.801	88.94
397.025	89.94
397.249	96.94
397.474	87.94
397.698	88.94
397.922	71.94
398.147	89.94
398.371	79.94
398.595	91.94
398.82	70.94
399.044	74.94
399.268	77.94
399.492	70.94
399.717	73.94
399.941	87.94
400.165	87.94
400.389	77.94
400.613	85.94
400.837	93.94
401.062	72.94
401.286	79.94
401.51	74.94
401.734	83.94
401.958	96.94
402.182	109.94
402.406	121.94
402.63	94.94
402.854	87.94
403.078	83.94
403.302	79.94
403.526	92.94
403.75	80.94
403.974	80.94
404.198	84.94
404.422	87.94
404.645	86.94
404.869	74.94
405.093	86.94
405.317	87.94
405.541	101.94
405.765	92.94
405.988	100.94
406.212	124.94
406.436	160.94
406.66	109.94
406.883	88.94
407.107	73.94
407.331	82.94
407.555	83.94
407.778	96.94
408.002	82.94
408.226	79.94
408.449	70.94
408.673	95.94
408.896	80.94
409.12	95.94
409.344	84.94
409.567	82.94
409.791	82.94
410.014	85.94
410.238	86.94
410.461	97.94
410.685	91.94
410.908	101.94
411.132	108.94
411.355	88.94
411.578	90.94
411.802	81.94
412.025	73.94
412.249	88.94
412.472	83.94
412.695	77.94
412.919	99.94
413.142	86.94
413.365	88.94
413.589	90.94
413.812	104.94
414.035	87.94
414.258	86.94
414.482	87.94
414.705	80.94
414.928	82.94
415.151	87.94
415.374	104.94
415.597	77.94
415.821	89.94
416.044	86.94
416.267	85.94
416.49	82.94
416.713	87.94
416.936	85.94
417.159	84.94
417.382	83.94
417.605	75.94
417.828	88.94
418.051	88.94
418.274	81.94
418.497	76.94
418.72	73.94
418.943	87.94
419.166	85.94
419.389	84.94
419.611	92.94
419.834	83.94
420.057	95.94
420.28	89.94
420.503	82.94
420.726	74.94
420.948	77.94
421.171	84.94
421.394	94.94
421.617	77.94
421.839	93.94
422.062	79.94
422.285	88.94
422.507	93.94
422.73	109.94
422.953	81.94
423.175	77.94
423.398	73.94
423.621	64.94
423.843	94.94
424.066	65.94
424.288	87.94
424.511	71.94
424.733	100.94
424.956	98.94
425.178	94.94
425.401	96.94
425.623	84.94
425.846	80.94
426.068	64.94
426.291	86.94
426.513	95.94
426.735	84.94
426.958	92.94
427.18	91.94
427.402	124.94
427.625	116.94
427.847	109.94
428.069	99.94
428.292	65.94
428.514	72.94
428.736	91.94
428.958	76.94
429.181	86.94
429.403	71.94
429.625	76.94
429.847	89.94
430.069	103.94
430.292	85.94
430.514	83.94
430.736	78.94
430.958	71.94
431.18	99.94
431.402	84.94
431.624	80.94
431.846	72.94
432.068	88.94
432.29	99.94
432.512	82.94
432.734	83.94
432.956	81.94
433.178	84.94
433.4	92.94
433.622	105.94
433.844	93.94
434.066	73.94
434.287	79.94
434.509	94.94
434.731	95.94
434.953	89.94
435.175	94.94
435.397	82.94
435.618	85.94
435.84	97.94
436.062	89.94
436.284	105.94
436.505	92.94
436.727	88.94
436.949	89.94
437.17	92.94
437.392	87.94
437.614	92.94
437.835	93.94
438.057	93.94
438.278	103.94
438.5	88.94
438.721	106.94
438.943	89.94
439.165	90.94
439.386	90.94
439.608	84.94
439.829	82.94
440.05	109.94
440.272	105.94
440.493	88.94
440.715	78.94
440.936	92.94
441.158	88.94
441.379	80.94
441.6	83.94
441.822	82.94
442.043	85.94
442.264	100.94
442.486	73.94
442.707	85.94
442.928	89.94
443.149	111.94
443.371	96.94
443.592	84.94
443.813	75.94
444.034	98.94
444.255	76.94
444.476	87.94
444.698	92.94
444.919	86.94
445.14	121.94
445.361	96.94
445.582	106.94
445.803	101.94
446.024	101.94
446.245	114.94
446.466	111.94
446.687	89.94
446.908	87.94
447.129	82.94
447.35	86.94
447.571	83.94
447.792	70.94
448.013	91.94
448.234	80.94
448.455	89.94
448.675	95.94
448.896	99.94
449.117	81.94
449.338	88.94
449.559	103.94
449.779	97.94
450	108.94
450.221	68.94
450.442	84.94
450.662	90.94
450.883	95.94
451.104	83.94
451.324	86.94
451.545	92.94
451.766	86.94
451.986	90.94
452.207	109.94
452.428	80.94
452.648	83.94
452.869	95.94
453.089	103.94
453.31	88.94
453.53	82.94
453.751	90.94
453.971	82.94
454.192	98.94
454.412	86.94
454.633	90.94
454.853	79.94
455.073	73.94
455.294	79.94
455.514	95.94
455.734	86.94
455.955	68.94
456.175	92.94
456.395	86.94
456.616	85.94
456.836	84.94
457.056	68.94
457.276	73.94
457.497	85.94
457.717	76.94
457.937	71.94
458.157	91.94
458.377	76.94
458.598	88.94
458.818	119.94
459.038	113.94
459.258	101.94
459.478	80.94
459.698	80.94
459.918	70.94
460.138	77.94
460.358	90.94
460.578	80.94
460.798	82.94
461.018	80.94
461.238	70.94
461.458	69.94
461.678	80.94
461.898	84.94
462.118	78.94
462.338	89.94
462.558	85.94
462.777	85.94
462.997	84.94
463.217	91.94
463.437	86.94
463.657	93.94
463.876	88.94
464.096	85.94
464.316	94.94
464.536	84.94
464.755	86.94
464.975	88.94
465.195	113.94
465.414	108.94
465.634	74.94
465.854	93.94
466.073	87.94
466.293	89.94
466.512	90.94
466.732	72.94
466.951	72.94
467.171	78.94
467.391	75.94
467.61	80.94
467.829	88.94
468.049	92.94
468.268	90.94
468.488	82.94
468.707	83.94
468.927	73.94
469.146	88.94
469.365	98.94
469.585	85.94
469.804	94.94
470.023	85.94
470.243	82.94
470.462	89.94
470.681	84.94
470.901	80.94
471.12	78.94
471.339	90.94
471.558	90.94
471.777	87.94
471.997	88.94
472.216	71.94
472.435	81.94
472.654	84.94
472.873	69.94
473.092	84.94
473.311	88.94
473.53	80.94
473.749	88.94
473.968	99.94
474.187	87.94
474.406	88.94
474.625	79.94
474.844	81.94
475.063	77.94
475.282	94.94
475.501	89.94
475.72	85.94
475.939	81.94
476.158	69.94
476.377	95.94
476.596	81.94
476.814	94.94
477.033	87.94
477.252	91.94
477.471	81.94
477.69	89.94
477.908	84.94
478.127	70.94
478.346	81.94
478.564	85.94
478.783	84.94
479.002	80.94
479.22	92.94
479.439	110.94
479.658	82.94
479.876	89.94
480.095	90.94
480.313	86.94
480.532	95.94
480.751	68.94
480.969	74.94
481.188	85.94
481.406	90.94
481.624	90.94
481.843	80.94
482.061	88.94
482.28	89.94
482.498	85.94
482.717	96.94
482.935	94.94
483.153	93.94
483.372	87.94
483.59	79.94
483.808	86.94
484.027	79.94
484.245	82.94
484.463	110.94
484.681	89.94
484.9	83.94
485.118	90.94
485.336	88.94
485.554	88.94
485.772	97.94
485.99	100.94
486.209	98.94
486.427	100.94
486.645	102.94
486.863	107.94
487.081	81.94
487.299	94.94
487.517	93.94
487.735	84.94
487.953	90.94
488.171	96.94
488.389	100.94
488.607	89.94
488.825	90.94
489.043	74.94
489.261	76.94
489.479	98.94
489.696	96.94
489.914	84.94
490.132	82.94
490.35	79.94
490.568	79.94
490.786	81.94
491.003	76.94
491.221	80.94
491.439	83.94
491.657	97.94
491.874	98.94
492.092	83.94
492.31	87.94
492.527	101.94
492.745	77.94
492.963	93.94
493.18	95.94
493.398	78.94
493.615	95.94
493.833	89.94
494.05	84.94
494.268	97.94
494.485	85.94
494.703	77.94
494.92	94.94
495.138	81.94
495.355	80.94
495.573	96.94
495.79	87.94
496.008	88.94
496.225	86.94
496.442	87.94
496.66	83.94
496.877	79.94
497.094	98.94
497.312	82.94
497.529	74.94
497.746	71.94
497.963	70.94
498.181	94.94
498.398	99.94
498.615	95.94
498.832	97.94
499.049	85.94
499.267	90.94
499.484	93.94
499.701	73.94
499.918	87.94
500.135	99.94
500.352	99.94
500.569	92.94
500.786	61.94
501.003	86.94
501.22	84.94
501.437	96.94
501.654	86.94
501.871	94.94
502.088	84.94
502.305	103.94
502.522	91.94
502.739	80.94
502.956	80.94
503.172	77.94
503.389	93.94
503.606	92.94
503.823	82.94
504.04	86.94
504.256	104.94
504.473	88.94
504.69	90.94
504.907	83.94
505.123	96.94
505.34	79.94
505.557	82.94
505.773	95.94
505.99	93.94
506.207	81.94
506.423	94.94
506.64	94.94
506.856	84.94
507.073	83.94
507.289	105.94
507.506	101.94
507.722	104.94
507.939	89.94
508.155	84.94
508.372	93.94
508.588	79.94
508.805	84.94
509.021	103.94
509.238	84.94
509.454	89.94
509.67	89.94
509.887	103.94
510.103	114.94
510.319	154.94
510.536	486.94
510.752	1492.94
510.968	452.94
511.184	128.94
511.401	98.94
511.617	83.94
511.833	94.94
512.049	103.94
512.265	86.94
512.481	71.94
512.698	95.94
512.914	94.94
513.13	92.94
513.346	90.94
513.562	91.94
513.778	92.94
513.994	81.94
514.21	104.94
514.426	92.94
514.642	109.94
514.858	111.94
515.074	140.94
515.29	284.94
515.506	848.94
515.721	336.94
515.937	124.94
516.153	103.94
516.369	89.94
516.585	81.94
516.801	85.94
517.016	86.94
517.232	86.94
517.448	80.94
517.664	88.94
517.879	69.94
518.095	98.94
