Data from Uncirc_2000_H10_HRD10591_00097.txt Node
Date: Wed Jan 03 10:48:36 EST 2024
User: Yrep
Spectrometer: HR+D1059
Trigger mode: 1
Integration Time (sec): 1.000000E-1
Scans to average: 1
Electric dark correction enabled: true
Nonlinearity correction enabled: false
Boxcar width: 0
XAxis mode: Wavelengths
Number of Pixels in Spectrum: 2048
>>>>>Begin Spectral Data<<<<<
223.165	-14.12
223.4	-14.12
223.635	-14.12
223.869	-18.12
224.104	-30.12
224.338	-12.12
224.573	-10.12
224.808	-10.12
225.042	-2.12
225.277	-2.12
225.511	0.88
225.746	-0.12
225.98	3.88
226.215	3.88
226.449	22.88
226.683	22.88
226.918	22.88
227.152	21.88
227.387	42.88
227.621	21.88
227.856	48.88
228.09	52.88
228.324	47.88
228.559	58.88
228.793	69.88
229.027	58.88
229.262	69.88
229.496	71.88
229.73	84.88
229.964	80.88
230.199	75.88
230.433	66.88
230.667	80.88
230.901	72.88
231.136	73.88
231.37	91.88
231.604	95.88
231.838	83.88
232.072	76.88
232.306	79.88
232.541	68.88
232.775	77.88
233.009	96.88
233.243	78.88
233.477	88.88
233.711	85.88
233.945	81.88
234.179	84.88
234.413	76.88
234.647	83.88
234.881	88.88
235.115	80.88
235.349	90.88
235.583	87.88
235.817	67.88
236.051	75.88
236.285	69.88
236.519	89.88
236.753	81.88
236.987	85.88
237.221	69.88
237.455	73.88
237.689	77.88
237.922	88.88
238.156	76.88
238.39	61.88
238.624	71.88
238.858	80.88
239.091	74.88
239.325	71.88
239.559	75.88
239.793	82.88
240.027	80.88
240.26	62.88
240.494	70.88
240.728	73.88
240.961	78.88
241.195	75.88
241.429	73.88
241.662	77.88
241.896	81.88
242.13	79.88
242.363	75.88
242.597	88.88
242.83	74.88
243.064	84.88
243.298	68.88
243.531	80.88
243.765	68.88
243.998	83.88
244.232	85.88
244.465	63.88
244.699	82.88
244.932	70.88
245.166	93.88
245.399	71.88
245.633	72.88
245.866	80.88
246.099	76.88
246.333	74.88
246.566	80.88
246.8	76.88
247.033	73.88
247.266	72.88
247.5	78.88
247.733	85.88
247.966	78.88
248.2	72.88
248.433	61.88
248.666	78.88
248.899	84.88
249.133	85.88
249.366	91.88
249.599	95.88
249.832	81.88
250.066	84.88
250.299	85.88
250.532	68.88
250.765	84.88
250.998	73.88
251.231	76.88
251.465	100.88
251.698	83.88
251.931	82.88
252.164	88.88
252.397	74.88
252.63	91.88
252.863	74.88
253.096	98.88
253.329	85.88
253.562	76.88
253.795	80.88
254.028	77.88
254.261	86.88
254.494	83.88
254.727	94.88
254.96	81.88
255.193	67.88
255.426	59.88
255.659	79.88
255.892	96.88
256.124	94.88
256.357	102.88
256.59	94.88
256.823	83.88
257.056	85.88
257.289	80.88
257.521	77.88
257.754	76.88
257.987	86.88
258.22	85.88
258.452	81.88
258.685	74.88
258.918	64.88
259.151	81.88
259.383	75.88
259.616	82.88
259.849	67.88
260.081	84.88
260.314	93.88
260.547	90.88
260.779	99.88
261.012	80.88
261.244	73.88
261.477	93.88
261.71	90.88
261.942	105.88
262.175	106.88
262.407	96.88
262.64	87.88
262.872	77.88
263.105	80.88
263.337	85.88
263.57	96.88
263.802	73.88
264.035	73.88
264.267	77.88
264.499	79.88
264.732	77.88
264.964	85.88
265.197	80.88
265.429	80.88
265.661	75.88
265.894	84.88
266.126	77.88
266.358	74.88
266.591	81.88
266.823	80.88
267.055	73.88
267.287	84.88
267.52	94.88
267.752	86.88
267.984	69.88
268.216	89.88
268.448	77.88
268.681	81.88
268.913	74.88
269.145	90.88
269.377	75.88
269.609	83.88
269.841	80.88
270.073	93.88
270.306	105.88
270.538	78.88
270.77	75.88
271.002	80.88
271.234	65.88
271.466	82.88
271.698	73.88
271.93	87.88
272.162	84.88
272.394	78.88
272.626	71.88
272.858	75.88
273.09	81.88
273.322	90.88
273.553	89.88
273.785	97.88
274.017	84.88
274.249	88.88
274.481	79.88
274.713	88.88
274.945	82.88
275.176	88.88
275.408	77.88
275.64	89.88
275.872	77.88
276.104	87.88
276.335	97.88
276.567	84.88
276.799	107.88
277.031	93.88
277.262	74.88
277.494	84.88
277.726	74.88
277.957	103.88
278.189	88.88
278.421	85.88
278.652	76.88
278.884	77.88
279.115	104.88
279.347	94.88
279.579	82.88
279.81	77.88
280.042	88.88
280.273	72.88
280.505	87.88
280.736	82.88
280.968	89.88
281.199	94.88
281.431	89.88
281.662	93.88
281.894	84.88
282.125	100.88
282.356	111.88
282.588	117.88
282.819	103.88
283.051	93.88
283.282	85.88
283.513	97.88
283.745	94.88
283.976	89.88
284.207	97.88
284.439	83.88
284.67	88.88
284.901	86.88
285.132	82.88
285.364	78.88
285.595	95.88
285.826	88.88
286.057	85.88
286.288	103.88
286.52	88.88
286.751	81.88
286.982	83.88
287.213	80.88
287.444	86.88
287.675	99.88
287.906	72.88
288.138	92.88
288.369	88.88
288.6	92.88
288.831	76.88
289.062	83.88
289.293	78.88
289.524	88.88
289.755	90.88
289.986	78.88
290.217	90.88
290.448	94.88
290.679	72.88
290.91	82.88
291.141	95.88
291.371	92.88
291.602	80.88
291.833	89.88
292.064	86.88
292.295	90.88
292.526	82.88
292.757	89.88
292.987	88.88
293.218	74.88
293.449	93.88
293.68	95.88
293.91	89.88
294.141	82.88
294.372	88.88
294.603	91.88
294.833	101.88
295.064	86.88
295.295	88.88
295.525	107.88
295.756	108.88
295.987	106.88
296.217	140.88
296.448	131.88
296.679	94.88
296.909	95.88
297.14	90.88
297.37	83.88
297.601	94.88
297.831	89.88
298.062	95.88
298.292	102.88
298.523	88.88
298.753	81.88
298.984	86.88
299.214	74.88
299.445	92.88
299.675	79.88
299.905	94.88
300.136	94.88
300.366	86.88
300.597	92.88
300.827	88.88
301.057	89.88
301.288	93.88
301.518	91.88
301.748	91.88
301.979	90.88
302.209	85.88
302.439	73.88
302.669	85.88
302.9	93.88
303.13	92.88
303.36	94.88
303.59	104.88
303.82	97.88
304.051	101.88
304.281	88.88
304.511	88.88
304.741	89.88
304.971	85.88
305.201	76.88
305.431	79.88
305.661	83.88
305.891	90.88
306.121	100.88
306.352	94.88
306.582	96.88
306.812	99.88
307.042	90.88
307.272	84.88
307.502	102.88
307.731	95.88
307.961	76.88
308.191	74.88
308.421	89.88
308.651	83.88
308.881	90.88
309.111	92.88
309.341	92.88
309.571	83.88
309.8	100.88
310.03	98.88
310.26	98.88
310.49	88.88
310.72	97.88
310.949	88.88
311.179	95.88
311.409	78.88
311.639	98.88
311.868	86.88
312.098	75.88
312.328	86.88
312.557	94.88
312.787	114.88
313.017	99.88
313.246	96.88
313.476	91.88
313.706	96.88
313.935	96.88
314.165	94.88
314.394	107.88
314.624	104.88
314.853	89.88
315.083	93.88
315.312	93.88
315.542	81.88
315.771	99.88
316.001	97.88
316.23	103.88
316.46	86.88
316.689	98.88
316.919	94.88
317.148	113.88
317.377	89.88
317.607	106.88
317.836	102.88
318.065	103.88
318.295	100.88
318.524	90.88
318.753	94.88
318.983	78.88
319.212	101.88
319.441	101.88
319.67	104.88
319.9	86.88
320.129	85.88
320.358	98.88
320.587	92.88
320.816	107.88
321.046	94.88
321.275	99.88
321.504	102.88
321.733	107.88
321.962	93.88
322.191	103.88
322.42	101.88
322.649	108.88
322.878	121.88
323.108	108.88
323.337	124.88
323.566	126.88
323.795	142.88
324.024	220.88
324.253	409.88
324.482	827.88
324.71	1750.88
324.939	2242.88
325.168	841.88
325.397	250.88
325.626	148.88
325.855	131.88
326.084	120.88
326.313	132.88
326.542	148.88
326.77	237.88
326.999	483.88
327.228	967.88
327.457	1746.88
327.686	1377.88
327.914	384.88
328.143	182.88
328.372	144.88
328.6	114.88
328.829	118.88
329.058	119.88
329.287	131.88
329.515	104.88
329.744	99.88
329.972	89.88
330.201	95.88
330.43	113.88
330.658	118.88
330.887	136.88
331.115	115.88
331.344	93.88
331.572	87.88
331.801	87.88
332.03	102.88
332.258	101.88
332.486	104.88
332.715	98.88
332.943	84.88
333.172	97.88
333.4	91.88
333.629	101.88
333.857	98.88
334.085	93.88
334.314	105.88
334.542	79.88
334.771	106.88
334.999	93.88
335.227	98.88
335.455	93.88
335.684	90.88
335.912	93.88
336.14	98.88
336.369	104.88
336.597	103.88
336.825	96.88
337.053	91.88
337.281	93.88
337.51	87.88
337.738	88.88
337.966	99.88
338.194	98.88
338.422	89.88
338.65	99.88
338.878	94.88
339.106	90.88
339.334	73.88
339.562	83.88
339.79	88.88
340.018	88.88
340.246	99.88
340.474	85.88
340.702	91.88
340.93	99.88
341.158	94.88
341.386	102.88
341.614	99.88
341.842	83.88
342.07	89.88
342.298	92.88
342.526	82.88
342.754	83.88
342.981	77.88
343.209	90.88
343.437	97.88
343.665	92.88
343.893	94.88
344.12	98.88
344.348	80.88
344.576	104.88
344.804	99.88
345.031	105.88
345.259	106.88
345.487	93.88
345.714	91.88
345.942	86.88
346.17	106.88
346.397	95.88
346.625	90.88
346.853	94.88
347.08	90.88
347.308	83.88
347.535	91.88
347.763	102.88
347.99	87.88
348.218	98.88
348.445	92.88
348.673	81.88
348.9	105.88
349.128	93.88
349.355	92.88
349.583	97.88
349.81	98.88
350.037	96.88
350.265	106.88
350.492	91.88
350.72	101.88
350.947	91.88
351.174	98.88
351.402	97.88
351.629	95.88
351.856	107.88
352.083	95.88
352.311	103.88
352.538	106.88
352.765	103.88
352.992	112.88
353.22	94.88
353.447	113.88
353.674	109.88
353.901	101.88
354.128	103.88
354.355	106.88
354.583	107.88
354.81	97.88
355.037	93.88
355.264	105.88
355.491	89.88
355.718	96.88
355.945	89.88
356.172	89.88
356.399	94.88
356.626	88.88
356.853	102.88
357.08	109.88
357.307	95.88
357.534	89.88
357.761	84.88
357.988	92.88
358.215	81.88
358.441	90.88
358.668	83.88
358.895	98.88
359.122	101.88
359.349	89.88
359.576	88.88
359.802	93.88
360.029	114.88
360.256	101.88
360.483	103.88
360.709	90.88
360.936	105.88
361.163	85.88
361.39	87.88
361.616	97.88
361.843	90.88
362.07	94.88
362.296	106.88
362.523	100.88
362.749	92.88
362.976	100.88
363.203	88.88
363.429	99.88
363.656	102.88
363.882	77.88
364.109	93.88
364.335	102.88
364.562	84.88
364.788	85.88
365.015	90.88
365.241	94.88
365.468	106.88
365.694	109.88
365.92	98.88
366.147	98.88
366.373	83.88
366.599	99.88
366.826	107.88
367.052	94.88
367.278	90.88
367.505	100.88
367.731	94.88
367.957	76.88
368.184	82.88
368.41	87.88
368.636	105.88
368.862	110.88
369.089	105.88
369.315	96.88
369.541	101.88
369.767	94.88
369.993	90.88
370.219	68.88
370.445	92.88
370.672	92.88
370.898	87.88
371.124	93.88
371.35	85.88
371.576	85.88
371.802	83.88
372.028	83.88
372.254	87.88
372.48	84.88
372.706	98.88
372.932	79.88
373.158	81.88
373.384	98.88
373.61	96.88
373.835	90.88
374.061	88.88
374.287	87.88
374.513	98.88
374.739	88.88
374.965	83.88
375.191	99.88
375.416	85.88
375.642	92.88
375.868	93.88
376.094	77.88
376.319	81.88
376.545	82.88
376.771	84.88
376.997	96.88
377.222	87.88
377.448	93.88
377.674	95.88
377.899	75.88
378.125	99.88
378.35	105.88
378.576	91.88
378.802	89.88
379.027	88.88
379.253	91.88
379.478	92.88
379.704	100.88
379.929	84.88
380.155	97.88
380.38	100.88
380.606	112.88
380.831	107.88
381.057	96.88
381.282	105.88
381.507	94.88
381.733	92.88
381.958	107.88
382.184	102.88
382.409	89.88
382.634	107.88
382.86	95.88
383.085	98.88
383.31	99.88
383.535	100.88
383.761	98.88
383.986	83.88
384.211	108.88
384.436	100.88
384.662	97.88
384.887	110.88
385.112	94.88
385.337	114.88
385.562	102.88
385.787	87.88
386.013	107.88
386.238	111.88
386.463	88.88
386.688	108.88
386.913	94.88
387.138	94.88
387.363	97.88
387.588	98.88
387.813	90.88
388.038	97.88
388.263	96.88
388.488	99.88
388.713	93.88
388.938	98.88
389.163	94.88
389.387	99.88
389.612	88.88
389.837	94.88
390.062	76.88
390.287	88.88
390.512	101.88
390.736	99.88
390.961	93.88
391.186	102.88
391.411	92.88
391.636	98.88
391.86	70.88
392.085	87.88
392.31	90.88
392.534	74.88
392.759	93.88
392.984	92.88
393.208	86.88
393.433	69.88
393.658	96.88
393.882	78.88
394.107	92.88
394.331	85.88
394.556	91.88
394.78	86.88
395.005	94.88
395.229	81.88
395.454	88.88
395.678	91.88
395.903	84.88
396.127	88.88
396.352	88.88
396.576	97.88
396.801	93.88
397.025	91.88
397.249	95.88
397.474	83.88
397.698	78.88
397.922	94.88
398.147	99.88
398.371	84.88
398.595	89.88
398.82	93.88
399.044	93.88
399.268	83.88
399.492	78.88
399.717	90.88
399.941	102.88
400.165	105.88
400.389	91.88
400.613	100.88
400.837	92.88
401.062	92.88
401.286	100.88
401.51	86.88
401.734	100.88
401.958	89.88
402.182	125.88
402.406	149.88
402.63	118.88
402.854	97.88
403.078	82.88
403.302	97.88
403.526	91.88
403.75	82.88
403.974	97.88
404.198	100.88
404.422	102.88
404.645	91.88
404.869	79.88
405.093	90.88
405.317	83.88
405.541	102.88
405.765	93.88
405.988	120.88
406.212	152.88
406.436	214.88
406.66	146.88
406.883	86.88
407.107	91.88
407.331	97.88
407.555	100.88
407.778	94.88
408.002	94.88
408.226	92.88
408.449	89.88
408.673	87.88
408.896	91.88
409.12	82.88
409.344	81.88
409.567	86.88
409.791	97.88
410.014	97.88
410.238	93.88
410.461	100.88
410.685	94.88
410.908	102.88
411.132	112.88
411.355	100.88
411.578	86.88
411.802	106.88
412.025	90.88
412.249	88.88
412.472	99.88
412.695	78.88
412.919	87.88
413.142	72.88
413.365	80.88
413.589	100.88
413.812	97.88
414.035	80.88
414.258	96.88
414.482	80.88
414.705	81.88
414.928	86.88
415.151	85.88
415.374	90.88
415.597	86.88
415.821	84.88
416.044	86.88
416.267	79.88
416.49	87.88
416.713	89.88
416.936	82.88
417.159	82.88
417.382	92.88
417.605	80.88
417.828	92.88
418.051	93.88
418.274	91.88
418.497	84.88
418.72	71.88
418.943	87.88
419.166	83.88
419.389	95.88
419.611	86.88
419.834	108.88
420.057	91.88
420.28	88.88
420.503	84.88
420.726	92.88
420.948	92.88
421.171	87.88
421.394	94.88
421.617	96.88
421.839	84.88
422.062	85.88
422.285	98.88
422.507	98.88
422.73	87.88
422.953	96.88
423.175	87.88
423.398	99.88
423.621	94.88
423.843	90.88
424.066	87.88
424.288	92.88
424.511	85.88
424.733	105.88
424.956	105.88
425.178	91.88
425.401	99.88
425.623	88.88
425.846	106.88
426.068	80.88
426.291	80.88
426.513	91.88
426.735	103.88
426.958	80.88
427.18	110.88
427.402	129.88
427.625	150.88
427.847	133.88
428.069	103.88
428.292	93.88
428.514	84.88
428.736	90.88
428.958	83.88
429.181	84.88
429.403	83.88
429.625	83.88
429.847	89.88
430.069	92.88
430.292	91.88
430.514	67.88
430.736	80.88
430.958	85.88
431.18	93.88
431.402	83.88
431.624	88.88
431.846	84.88
432.068	82.88
432.29	90.88
432.512	86.88
432.734	79.88
432.956	98.88
433.178	102.88
433.4	93.88
433.622	72.88
433.844	88.88
434.066	92.88
434.287	97.88
434.509	86.88
434.731	89.88
434.953	90.88
435.175	94.88
435.397	100.88
435.618	104.88
435.84	110.88
436.062	136.88
436.284	115.88
436.505	106.88
436.727	99.88
436.949	82.88
437.17	85.88
437.392	83.88
437.614	93.88
437.835	84.88
438.057	116.88
438.278	124.88
438.5	108.88
438.721	113.88
438.943	100.88
439.165	90.88
439.386	94.88
439.608	79.88
439.829	101.88
440.05	114.88
440.272	143.88
440.493	102.88
440.715	88.88
440.936	92.88
441.158	80.88
441.379	88.88
441.6	102.88
441.822	91.88
442.043	100.88
442.264	97.88
442.486	103.88
442.707	87.88
442.928	115.88
443.149	117.88
443.371	128.88
443.592	95.88
443.813	115.88
444.034	100.88
444.255	92.88
444.476	88.88
444.698	79.88
444.919	84.88
445.14	129.88
445.361	117.88
445.582	101.88
445.803	126.88
446.024	133.88
446.245	128.88
446.466	109.88
446.687	102.88
446.908	112.88
447.129	86.88
447.35	89.88
447.571	89.88
447.792	89.88
448.013	102.88
448.234	105.88
448.455	85.88
448.675	111.88
448.896	123.88
449.117	89.88
449.338	94.88
449.559	125.88
449.779	121.88
450	91.88
450.221	81.88
450.442	69.88
450.662	98.88
450.883	109.88
451.104	100.88
451.324	92.88
451.545	84.88
451.766	69.88
451.986	80.88
452.207	88.88
452.428	84.88
452.648	94.88
452.869	117.88
453.089	114.88
453.31	113.88
453.53	89.88
453.751	93.88
453.971	113.88
454.192	98.88
454.412	86.88
454.633	91.88
454.853	77.88
455.073	91.88
455.294	86.88
455.514	108.88
455.734	82.88
455.955	87.88
456.175	80.88
456.395	90.88
456.616	85.88
456.836	86.88
457.056	99.88
457.276	91.88
457.497	88.88
457.717	79.88
457.937	70.88
458.157	92.88
458.377	92.88
458.598	108.88
458.818	141.88
459.038	168.88
459.258	115.88
459.478	109.88
459.698	90.88
459.918	95.88
460.138	90.88
460.358	87.88
460.578	81.88
460.798	94.88
461.018	86.88
461.238	84.88
461.458	98.88
461.678	98.88
461.898	89.88
462.118	91.88
462.338	96.88
462.558	84.88
462.777	91.88
462.997	78.88
463.217	93.88
463.437	77.88
463.657	90.88
463.876	83.88
464.096	90.88
464.316	79.88
464.536	98.88
464.755	93.88
464.975	100.88
465.195	147.88
465.414	148.88
465.634	92.88
465.854	83.88
466.073	85.88
466.293	90.88
466.512	106.88
466.732	81.88
466.951	99.88
467.171	101.88
467.391	86.88
467.61	109.88
467.829	100.88
468.049	82.88
468.268	95.88
468.488	86.88
468.707	80.88
468.927	89.88
469.146	82.88
469.365	83.88
469.585	90.88
469.804	84.88
470.023	82.88
470.243	98.88
470.462	99.88
470.681	109.88
470.901	82.88
471.12	86.88
471.339	102.88
471.558	94.88
471.777	87.88
471.997	82.88
472.216	92.88
472.435	90.88
472.654	83.88
472.873	110.88
473.092	94.88
473.311	94.88
473.53	89.88
473.749	97.88
473.968	93.88
474.187	98.88
474.406	86.88
474.625	99.88
474.844	76.88
475.063	84.88
475.282	90.88
475.501	89.88
475.72	90.88
475.939	92.88
476.158	73.88
476.377	85.88
476.596	90.88
476.814	92.88
477.033	91.88
477.252	84.88
477.471	104.88
477.69	85.88
477.908	86.88
478.127	76.88
478.346	101.88
478.564	92.88
478.783	103.88
479.002	83.88
479.22	82.88
479.439	93.88
479.658	102.88
479.876	99.88
480.095	85.88
480.313	103.88
480.532	76.88
480.751	79.88
480.969	99.88
481.188	94.88
481.406	100.88
481.624	94.88
481.843	89.88
482.061	71.88
482.28	90.88
482.498	95.88
482.717	99.88
482.935	89.88
483.153	86.88
483.372	84.88
483.59	83.88
483.808	81.88
484.027	88.88
484.245	76.88
484.463	97.88
484.681	102.88
484.9	96.88
485.118	76.88
485.336	87.88
485.554	100.88
485.772	91.88
485.99	105.88
486.209	92.88
486.427	109.88
486.645	115.88
486.863	97.88
487.081	102.88
487.299	81.88
487.517	92.88
487.735	96.88
487.953	92.88
488.171	82.88
488.389	107.88
488.607	101.88
488.825	86.88
489.043	87.88
489.261	81.88
489.479	89.88
489.696	93.88
489.914	95.88
490.132	92.88
490.35	99.88
490.568	86.88
490.786	88.88
491.003	90.88
491.221	101.88
491.439	92.88
491.657	97.88
491.874	93.88
492.092	100.88
492.31	86.88
492.527	87.88
492.745	86.88
492.963	84.88
493.18	93.88
493.398	91.88
493.615	107.88
493.833	89.88
494.05	80.88
494.268	90.88
494.485	85.88
494.703	91.88
494.92	104.88
495.138	100.88
495.355	85.88
495.573	78.88
495.79	105.88
496.008	108.88
496.225	90.88
496.442	97.88
496.66	100.88
496.877	99.88
497.094	98.88
497.312	77.88
497.529	97.88
497.746	101.88
497.963	86.88
498.181	88.88
498.398	108.88
498.615	98.88
498.832	89.88
499.049	91.88
499.267	91.88
499.484	81.88
499.701	87.88
499.918	85.88
500.135	81.88
500.352	100.88
500.569	85.88
500.786	85.88
501.003	86.88
501.22	99.88
501.437	86.88
501.654	82.88
501.871	115.88
502.088	100.88
502.305	94.88
502.522	89.88
502.739	89.88
502.956	91.88
503.172	94.88
503.389	89.88
503.606	102.88
503.823	108.88
504.04	86.88
504.256	93.88
504.473	74.88
504.69	74.88
504.907	92.88
505.123	88.88
505.34	86.88
505.557	92.88
505.773	93.88
505.99	83.88
506.207	77.88
506.423	89.88
506.64	93.88
506.856	90.88
507.073	91.88
507.289	91.88
507.506	81.88
507.722	123.88
507.939	115.88
508.155	94.88
508.372	88.88
508.588	85.88
508.805	92.88
509.021	94.88
509.238	97.88
509.454	98.88
509.67	103.88
509.887	99.88
510.103	126.88
510.319	215.88
510.536	805.88
510.752	2564.88
510.968	711.88
511.184	164.88
511.401	106.88
511.617	106.88
511.833	100.88
512.049	95.88
512.265	89.88
512.481	92.88
512.698	74.88
512.914	91.88
513.13	99.88
513.346	94.88
513.562	78.88
513.778	106.88
513.994	101.88
514.21	102.88
514.426	108.88
514.642	142.88
514.858	121.88
515.074	174.88
515.29	464.88
515.506	1470.88
515.721	542.88
515.937	162.88
