Data from Uncirc_2000_H10_HRD10591_00005.txt Node
Date: Wed Jan 03 10:48:18 EST 2024
User: Yrep
Spectrometer: HR+D1059
Trigger mode: 1
Integration Time (sec): 1.000000E-1
Scans to average: 1
Electric dark correction enabled: true
Nonlinearity correction enabled: false
Boxcar width: 0
XAxis mode: Wavelengths
Number of Pixels in Spectrum: 2048
>>>>>Begin Spectral Data<<<<<
223.165	-11.25
223.4	-11.25
223.635	-11.25
223.869	-18.25
224.104	-12.25
224.338	-10.25
224.573	-15.25
224.808	-19.25
225.042	7.75
225.277	-3.25
225.511	-7.25
225.746	-14.25
225.98	7.75
226.215	12.75
226.449	19.75
226.683	19.75
226.918	17.75
227.152	25.75
227.387	37.75
227.621	40.75
227.856	56.75
228.09	44.75
228.324	42.75
228.559	62.75
228.793	60.75
229.027	58.75
229.262	77.75
229.496	57.75
229.73	90.75
229.964	83.75
230.199	58.75
230.433	72.75
230.667	68.75
230.901	66.75
231.136	77.75
231.37	83.75
231.604	68.75
231.838	74.75
232.072	91.75
232.306	79.75
232.541	66.75
232.775	79.75
233.009	75.75
233.243	81.75
233.477	75.75
233.711	81.75
233.945	76.75
234.179	83.75
234.413	76.75
234.647	90.75
234.881	82.75
235.115	75.75
235.349	76.75
235.583	73.75
235.817	86.75
236.051	87.75
236.285	79.75
236.519	82.75
236.753	82.75
236.987	96.75
237.221	90.75
237.455	87.75
237.689	83.75
237.922	73.75
238.156	83.75
238.39	76.75
238.624	71.75
238.858	61.75
239.091	86.75
239.325	65.75
239.559	80.75
239.793	68.75
240.027	84.75
240.26	75.75
240.494	81.75
240.728	67.75
240.961	73.75
241.195	84.75
241.429	75.75
241.662	73.75
241.896	84.75
242.13	75.75
242.363	79.75
242.597	73.75
242.83	70.75
243.064	68.75
243.298	80.75
243.531	70.75
243.765	78.75
243.998	76.75
244.232	75.75
244.465	69.75
244.699	87.75
244.932	79.75
245.166	79.75
245.399	68.75
245.633	80.75
245.866	86.75
246.099	86.75
246.333	83.75
246.566	79.75
246.8	77.75
247.033	76.75
247.266	68.75
247.5	75.75
247.733	88.75
247.966	73.75
248.2	76.75
248.433	75.75
248.666	61.75
248.899	86.75
249.133	82.75
249.366	88.75
249.599	91.75
249.832	77.75
250.066	82.75
250.299	84.75
250.532	85.75
250.765	89.75
250.998	75.75
251.231	65.75
251.465	71.75
251.698	81.75
251.931	72.75
252.164	82.75
252.397	77.75
252.63	75.75
252.863	71.75
253.096	89.75
253.329	89.75
253.562	89.75
253.795	73.75
254.028	74.75
254.261	81.75
254.494	80.75
254.727	80.75
254.96	73.75
255.193	71.75
255.426	87.75
255.659	87.75
255.892	80.75
256.124	77.75
256.357	72.75
256.59	74.75
256.823	78.75
257.056	72.75
257.289	90.75
257.521	75.75
257.754	83.75
257.987	75.75
258.22	89.75
258.452	81.75
258.685	77.75
258.918	69.75
259.151	85.75
259.383	85.75
259.616	90.75
259.849	70.75
260.081	67.75
260.314	92.75
260.547	69.75
260.779	62.75
261.012	84.75
261.244	82.75
261.477	92.75
261.71	90.75
261.942	88.75
262.175	97.75
262.407	87.75
262.64	70.75
262.872	75.75
263.105	69.75
263.337	90.75
263.57	80.75
263.802	83.75
264.035	72.75
264.267	81.75
264.499	82.75
264.732	81.75
264.964	74.75
265.197	80.75
265.429	67.75
265.661	82.75
265.894	72.75
266.126	81.75
266.358	83.75
266.591	76.75
266.823	82.75
267.055	88.75
267.287	89.75
267.52	87.75
267.752	70.75
267.984	75.75
268.216	85.75
268.448	89.75
268.681	76.75
268.913	82.75
269.145	77.75
269.377	84.75
269.609	68.75
269.841	87.75
270.073	79.75
270.306	71.75
270.538	85.75
270.77	87.75
271.002	85.75
271.234	80.75
271.466	80.75
271.698	85.75
271.93	91.75
272.162	78.75
272.394	90.75
272.626	72.75
272.858	80.75
273.09	80.75
273.322	87.75
273.553	89.75
273.785	88.75
274.017	64.75
274.249	74.75
274.481	83.75
274.713	77.75
274.945	87.75
275.176	75.75
275.408	90.75
275.64	82.75
275.872	92.75
276.104	84.75
276.335	86.75
276.567	92.75
276.799	97.75
277.031	83.75
277.262	86.75
277.494	79.75
277.726	81.75
277.957	93.75
278.189	89.75
278.421	89.75
278.652	90.75
278.884	92.75
279.115	89.75
279.347	84.75
279.579	88.75
279.81	67.75
280.042	89.75
280.273	82.75
280.505	67.75
280.736	90.75
280.968	78.75
281.199	95.75
281.431	78.75
281.662	100.75
281.894	99.75
282.125	88.75
282.356	92.75
282.588	109.75
282.819	93.75
283.051	87.75
283.282	80.75
283.513	82.75
283.745	83.75
283.976	93.75
284.207	77.75
284.439	81.75
284.67	89.75
284.901	93.75
285.132	79.75
285.364	83.75
285.595	89.75
285.826	83.75
286.057	93.75
286.288	91.75
286.52	81.75
286.751	83.75
286.982	75.75
287.213	87.75
287.444	90.75
287.675	81.75
287.906	94.75
288.138	106.75
288.369	88.75
288.6	76.75
288.831	81.75
289.062	90.75
289.293	97.75
289.524	89.75
289.755	86.75
289.986	88.75
290.217	95.75
290.448	79.75
290.679	73.75
290.91	84.75
291.141	85.75
291.371	90.75
291.602	79.75
291.833	87.75
292.064	86.75
292.295	93.75
292.526	77.75
292.757	89.75
292.987	94.75
293.218	85.75
293.449	75.75
293.68	74.75
293.91	89.75
294.141	86.75
294.372	88.75
294.603	82.75
294.833	91.75
295.064	85.75
295.295	84.75
295.525	83.75
295.756	84.75
295.987	103.75
296.217	112.75
296.448	97.75
296.679	84.75
296.909	82.75
297.14	103.75
297.37	86.75
297.601	89.75
297.831	89.75
298.062	87.75
298.292	91.75
298.523	95.75
298.753	83.75
298.984	89.75
299.214	96.75
299.445	107.75
299.675	80.75
299.905	82.75
300.136	84.75
300.366	85.75
300.597	83.75
300.827	83.75
301.057	82.75
301.288	92.75
301.518	91.75
301.748	84.75
301.979	91.75
302.209	78.75
302.439	81.75
302.669	79.75
302.9	80.75
303.13	72.75
303.36	87.75
303.59	103.75
303.82	82.75
304.051	99.75
304.281	85.75
304.511	84.75
304.741	91.75
304.971	78.75
305.201	72.75
305.431	85.75
305.661	98.75
305.891	87.75
306.121	106.75
306.352	98.75
306.582	100.75
306.812	77.75
307.042	90.75
307.272	75.75
307.502	98.75
307.731	81.75
307.961	101.75
308.191	92.75
308.421	86.75
308.651	87.75
308.881	86.75
309.111	102.75
309.341	92.75
309.571	88.75
309.8	90.75
310.03	88.75
310.26	101.75
310.49	90.75
310.72	101.75
310.949	100.75
311.179	93.75
311.409	97.75
311.639	91.75
311.868	98.75
312.098	82.75
312.328	90.75
312.557	87.75
312.787	100.75
313.017	92.75
313.246	87.75
313.476	93.75
313.706	85.75
313.935	87.75
314.165	83.75
314.394	82.75
314.624	73.75
314.853	89.75
315.083	78.75
315.312	97.75
315.542	72.75
315.771	71.75
316.001	98.75
316.23	92.75
316.46	82.75
316.689	75.75
316.919	88.75
317.148	78.75
317.377	82.75
317.607	105.75
317.836	76.75
318.065	99.75
318.295	94.75
318.524	92.75
318.753	84.75
318.983	92.75
319.212	92.75
319.441	100.75
319.67	100.75
319.9	101.75
320.129	95.75
320.358	93.75
320.587	92.75
320.816	90.75
321.046	93.75
321.275	93.75
321.504	99.75
321.733	97.75
321.962	99.75
322.191	104.75
322.42	95.75
322.649	107.75
322.878	97.75
323.108	101.75
323.337	116.75
323.566	130.75
323.795	131.75
324.024	164.75
324.253	323.75
324.482	623.75
324.71	1296.75
324.939	1653.75
325.168	610.75
325.397	196.75
325.626	143.75
325.855	112.75
326.084	122.75
326.313	125.75
326.542	149.75
326.77	185.75
326.999	378.75
327.228	737.75
327.457	1305.75
327.686	1051.75
327.914	295.75
328.143	145.75
328.372	113.75
328.6	100.75
328.829	89.75
329.058	108.75
329.287	110.75
329.515	93.75
329.744	88.75
329.972	89.75
330.201	94.75
330.43	98.75
330.658	101.75
330.887	109.75
331.115	96.75
331.344	92.75
331.572	93.75
331.801	101.75
332.03	86.75
332.258	79.75
332.486	85.75
332.715	85.75
332.943	93.75
333.172	82.75
333.4	98.75
333.629	120.75
333.857	111.75
334.085	89.75
334.314	80.75
334.542	84.75
334.771	70.75
334.999	91.75
335.227	75.75
335.455	93.75
335.684	97.75
335.912	88.75
336.14	90.75
336.369	99.75
336.597	89.75
336.825	82.75
337.053	92.75
337.281	100.75
337.51	96.75
337.738	96.75
337.966	92.75
338.194	90.75
338.422	95.75
338.65	81.75
338.878	87.75
339.106	102.75
339.334	100.75
339.562	85.75
339.79	87.75
340.018	97.75
340.246	88.75
340.474	88.75
340.702	93.75
340.93	95.75
341.158	96.75
341.386	79.75
341.614	96.75
341.842	89.75
342.07	89.75
342.298	96.75
342.526	82.75
342.754	85.75
342.981	85.75
343.209	84.75
343.437	96.75
343.665	80.75
343.893	94.75
344.12	99.75
344.348	88.75
344.576	78.75
344.804	84.75
345.031	85.75
345.259	88.75
345.487	103.75
345.714	95.75
345.942	99.75
346.17	101.75
346.397	107.75
346.625	87.75
346.853	83.75
347.08	107.75
347.308	93.75
347.535	84.75
347.763	96.75
347.99	88.75
348.218	88.75
348.445	90.75
348.673	91.75
348.9	86.75
349.128	83.75
349.355	87.75
349.583	87.75
349.81	96.75
350.037	89.75
350.265	97.75
350.492	79.75
350.72	90.75
350.947	106.75
351.174	88.75
351.402	102.75
351.629	90.75
351.856	101.75
352.083	92.75
352.311	92.75
352.538	94.75
352.765	109.75
352.992	92.75
353.22	87.75
353.447	93.75
353.674	97.75
353.901	100.75
354.128	97.75
354.355	91.75
354.583	90.75
354.81	89.75
355.037	90.75
355.264	90.75
355.491	99.75
355.718	86.75
355.945	83.75
356.172	95.75
356.399	91.75
356.626	103.75
356.853	96.75
357.08	101.75
357.307	106.75
357.534	103.75
357.761	97.75
357.988	86.75
358.215	91.75
358.441	88.75
358.668	92.75
358.895	85.75
359.122	82.75
359.349	92.75
359.576	78.75
359.802	102.75
360.029	104.75
360.256	94.75
360.483	94.75
360.709	76.75
360.936	92.75
361.163	101.75
361.39	90.75
361.616	98.75
361.843	96.75
362.07	77.75
362.296	88.75
362.523	90.75
362.749	92.75
362.976	88.75
363.203	77.75
363.429	88.75
363.656	81.75
363.882	95.75
364.109	85.75
364.335	88.75
364.562	89.75
364.788	89.75
365.015	91.75
365.241	97.75
365.468	99.75
365.694	100.75
365.92	98.75
366.147	84.75
366.373	90.75
366.599	70.75
366.826	95.75
367.052	86.75
367.278	95.75
367.505	86.75
367.731	77.75
367.957	90.75
368.184	82.75
368.41	85.75
368.636	106.75
368.862	103.75
369.089	96.75
369.315	89.75
369.541	84.75
369.767	88.75
369.993	94.75
370.219	96.75
370.445	95.75
370.672	89.75
370.898	86.75
371.124	82.75
371.35	73.75
371.576	75.75
371.802	82.75
372.028	86.75
372.254	68.75
372.48	102.75
372.706	93.75
372.932	83.75
373.158	89.75
373.384	93.75
373.61	90.75
373.835	81.75
374.061	88.75
374.287	96.75
374.513	103.75
374.739	108.75
374.965	83.75
375.191	76.75
375.416	80.75
375.642	93.75
375.868	97.75
376.094	75.75
376.319	79.75
376.545	93.75
376.771	95.75
376.997	88.75
377.222	101.75
377.448	93.75
377.674	89.75
377.899	82.75
378.125	84.75
378.35	102.75
378.576	100.75
378.802	92.75
379.027	92.75
379.253	96.75
379.478	94.75
379.704	90.75
379.929	78.75
380.155	85.75
380.38	85.75
380.606	96.75
380.831	87.75
381.057	73.75
381.282	96.75
381.507	109.75
381.733	83.75
381.958	93.75
382.184	109.75
382.409	100.75
382.634	94.75
382.86	99.75
383.085	105.75
383.31	117.75
383.535	100.75
383.761	91.75
383.986	94.75
384.211	87.75
384.436	99.75
384.662	97.75
384.887	117.75
385.112	112.75
385.337	107.75
385.562	102.75
385.787	105.75
386.013	99.75
386.238	99.75
386.463	107.75
386.688	110.75
386.913	120.75
387.138	108.75
387.363	108.75
387.588	95.75
387.813	95.75
388.038	100.75
388.263	131.75
388.488	115.75
388.713	90.75
388.938	93.75
389.163	108.75
389.387	97.75
389.612	95.75
389.837	92.75
390.062	89.75
390.287	103.75
390.512	85.75
390.736	89.75
390.961	85.75
391.186	91.75
391.411	95.75
391.636	106.75
391.86	89.75
392.085	82.75
392.31	88.75
392.534	85.75
392.759	96.75
392.984	88.75
393.208	76.75
393.433	111.75
393.658	104.75
393.882	90.75
394.107	90.75
394.331	87.75
394.556	95.75
394.78	97.75
395.005	88.75
395.229	88.75
395.454	90.75
395.678	77.75
395.903	78.75
396.127	91.75
396.352	81.75
396.576	93.75
396.801	91.75
397.025	89.75
397.249	104.75
397.474	86.75
397.698	86.75
397.922	90.75
398.147	87.75
398.371	90.75
398.595	83.75
398.82	81.75
399.044	90.75
399.268	92.75
399.492	91.75
399.717	94.75
399.941	93.75
400.165	89.75
400.389	84.75
400.613	86.75
400.837	92.75
401.062	80.75
401.286	75.75
401.51	79.75
401.734	83.75
401.958	80.75
402.182	104.75
402.406	115.75
402.63	99.75
402.854	80.75
403.078	79.75
403.302	90.75
403.526	82.75
403.75	79.75
403.974	83.75
404.198	88.75
404.422	79.75
404.645	84.75
404.869	105.75
405.093	84.75
405.317	96.75
405.541	99.75
405.765	84.75
405.988	107.75
406.212	146.75
406.436	163.75
406.66	127.75
406.883	90.75
407.107	100.75
407.331	79.75
407.555	80.75
407.778	85.75
408.002	86.75
408.226	93.75
408.449	84.75
408.673	80.75
408.896	88.75
409.12	73.75
409.344	82.75
409.567	75.75
409.791	84.75
410.014	100.75
410.238	103.75
410.461	81.75
410.685	85.75
410.908	88.75
411.132	102.75
411.355	83.75
411.578	89.75
411.802	80.75
412.025	83.75
412.249	85.75
412.472	99.75
412.695	82.75
412.919	78.75
413.142	97.75
413.365	84.75
413.589	88.75
413.812	82.75
414.035	80.75
414.258	87.75
414.482	85.75
414.705	87.75
414.928	82.75
415.151	80.75
415.374	89.75
415.597	85.75
415.821	96.75
416.044	96.75
416.267	88.75
416.49	87.75
416.713	79.75
416.936	90.75
417.159	80.75
417.382	80.75
417.605	86.75
417.828	81.75
418.051	89.75
418.274	82.75
418.497	74.75
418.72	81.75
418.943	81.75
419.166	95.75
419.389	88.75
419.611	94.75
419.834	80.75
420.057	90.75
420.28	72.75
420.503	86.75
420.726	82.75
420.948	90.75
421.171	91.75
421.394	72.75
421.617	83.75
421.839	112.75
422.062	90.75
422.285	91.75
422.507	85.75
422.73	98.75
422.953	73.75
423.175	86.75
423.398	87.75
423.621	79.75
423.843	100.75
424.066	78.75
424.288	87.75
424.511	80.75
424.733	88.75
424.956	88.75
425.178	91.75
425.401	98.75
425.623	95.75
425.846	95.75
426.068	106.75
426.291	87.75
426.513	92.75
426.735	81.75
426.958	88.75
427.18	98.75
427.402	114.75
427.625	150.75
427.847	93.75
428.069	113.75
428.292	81.75
428.514	87.75
428.736	72.75
428.958	87.75
429.181	77.75
429.403	96.75
429.625	89.75
429.847	89.75
430.069	100.75
430.292	93.75
430.514	69.75
430.736	87.75
430.958	93.75
431.18	85.75
431.402	84.75
431.624	80.75
431.846	97.75
432.068	84.75
432.29	89.75
432.512	89.75
432.734	84.75
432.956	75.75
433.178	100.75
433.4	96.75
433.622	88.75
433.844	75.75
434.066	104.75
434.287	98.75
434.509	90.75
434.731	87.75
434.953	96.75
435.175	92.75
435.397	82.75
435.618	88.75
435.84	92.75
436.062	100.75
436.284	113.75
436.505	68.75
436.727	76.75
436.949	88.75
437.17	83.75
437.392	92.75
437.614	92.75
437.835	87.75
438.057	90.75
438.278	98.75
438.5	93.75
438.721	106.75
438.943	91.75
439.165	111.75
439.386	89.75
439.608	92.75
439.829	98.75
440.05	119.75
440.272	125.75
440.493	95.75
440.715	88.75
440.936	85.75
441.158	90.75
441.379	90.75
441.6	80.75
441.822	74.75
442.043	82.75
442.264	92.75
442.486	86.75
442.707	81.75
442.928	101.75
443.149	90.75
443.371	97.75
443.592	113.75
443.813	100.75
444.034	109.75
444.255	82.75
444.476	97.75
444.698	91.75
444.919	88.75
445.14	124.75
445.361	117.75
445.582	108.75
445.803	112.75
446.024	118.75
446.245	105.75
446.466	105.75
446.687	81.75
446.908	81.75
447.129	78.75
447.35	92.75
447.571	99.75
447.792	99.75
448.013	105.75
448.234	105.75
448.455	99.75
448.675	99.75
448.896	101.75
449.117	84.75
449.338	109.75
449.559	116.75
449.779	117.75
450	85.75
450.221	93.75
450.442	90.75
450.662	80.75
450.883	94.75
451.104	102.75
451.324	98.75
451.545	75.75
451.766	86.75
451.986	81.75
452.207	82.75
452.428	89.75
452.648	99.75
452.869	97.75
453.089	90.75
453.31	115.75
453.53	86.75
453.751	83.75
453.971	93.75
454.192	95.75
454.412	95.75
454.633	87.75
454.853	86.75
455.073	90.75
455.294	80.75
455.514	89.75
455.734	98.75
455.955	86.75
456.175	87.75
456.395	88.75
456.616	100.75
456.836	75.75
457.056	83.75
457.276	88.75
457.497	76.75
457.717	89.75
457.937	79.75
458.157	64.75
458.377	92.75
458.598	99.75
458.818	129.75
459.038	124.75
459.258	92.75
459.478	85.75
459.698	89.75
459.918	86.75
460.138	96.75
460.358	99.75
460.578	84.75
460.798	90.75
461.018	72.75
461.238	86.75
461.458	80.75
461.678	91.75
461.898	87.75
462.118	88.75
462.338	93.75
462.558	95.75
462.777	80.75
462.997	85.75
463.217	82.75
463.437	82.75
463.657	80.75
463.876	88.75
464.096	95.75
464.316	101.75
464.536	93.75
464.755	89.75
464.975	104.75
465.195	135.75
465.414	113.75
465.634	81.75
465.854	82.75
466.073	91.75
466.293	82.75
466.512	98.75
466.732	93.75
466.951	79.75
467.171	88.75
467.391	78.75
467.61	85.75
467.829	81.75
468.049	100.75
468.268	76.75
468.488	85.75
468.707	84.75
468.927	82.75
469.146	75.75
469.365	75.75
469.585	87.75
469.804	90.75
470.023	91.75
470.243	84.75
470.462	101.75
470.681	98.75
470.901	94.75
471.12	82.75
471.339	92.75
471.558	70.75
471.777	87.75
471.997	96.75
472.216	71.75
472.435	86.75
472.654	98.75
472.873	70.75
473.092	87.75
473.311	80.75
473.53	90.75
473.749	83.75
473.968	100.75
474.187	98.75
474.406	89.75
474.625	89.75
474.844	111.75
475.063	76.75
475.282	86.75
475.501	90.75
475.72	86.75
475.939	90.75
476.158	80.75
476.377	89.75
476.596	85.75
476.814	64.75
477.033	78.75
477.252	93.75
477.471	93.75
477.69	102.75
477.908	89.75
478.127	95.75
478.346	97.75
478.564	92.75
478.783	81.75
479.002	84.75
479.22	89.75
479.439	93.75
479.658	95.75
479.876	87.75
480.095	96.75
480.313	87.75
480.532	104.75
480.751	87.75
480.969	85.75
481.188	98.75
481.406	96.75
481.624	101.75
481.843	86.75
482.061	84.75
482.28	83.75
482.498	87.75
482.717	80.75
482.935	91.75
483.153	86.75
483.372	87.75
483.59	80.75
483.808	76.75
484.027	100.75
484.245	95.75
484.463	78.75
484.681	97.75
484.9	93.75
485.118	101.75
485.336	98.75
485.554	99.75
485.772	93.75
485.99	106.75
486.209	97.75
486.427	91.75
486.645	91.75
486.863	101.75
487.081	88.75
487.299	92.75
487.517	92.75
487.735	81.75
487.953	95.75
488.171	93.75
488.389	92.75
488.607	96.75
488.825	89.75
489.043	96.75
489.261	109.75
489.479	100.75
489.696	88.75
489.914	101.75
490.132	91.75
490.35	77.75
490.568	91.75
490.786	88.75
491.003	91.75
491.221	95.75
491.439	80.75
491.657	77.75
491.874	91.75
492.092	77.75
492.31	80.75
492.527	92.75
492.745	82.75
492.963	89.75
493.18	87.75
493.398	94.75
493.615	98.75
493.833	96.75
494.05	87.75
494.268	99.75
494.485	103.75
494.703	95.75
494.92	84.75
495.138	81.75
495.355	90.75
495.573	97.75
495.79	91.75
496.008	85.75
496.225	76.75
496.442	78.75
496.66	85.75
496.877	91.75
497.094	90.75
497.312	93.75
497.529	99.75
497.746	88.75
497.963	99.75
498.181	97.75
498.398	94.75
498.615	94.75
498.832	99.75
499.049	99.75
499.267	87.75
499.484	57.75
499.701	92.75
499.918	103.75
500.135	97.75
500.352	96.75
500.569	100.75
500.786	77.75
501.003	77.75
501.22	96.75
501.437	94.75
501.654	93.75
501.871	108.75
502.088	84.75
502.305	90.75
502.522	92.75
502.739	89.75
502.956	100.75
503.172	90.75
503.389	86.75
503.606	101.75
503.823	89.75
504.04	102.75
504.256	80.75
504.473	73.75
504.69	84.75
504.907	81.75
505.123	85.75
505.34	86.75
505.557	87.75
505.773	84.75
505.99	63.75
506.207	80.75
506.423	85.75
506.64	93.75
506.856	81.75
507.073	91.75
507.289	78.75
507.506	89.75
507.722	100.75
507.939	92.75
508.155	104.75
508.372	93.75
508.588	101.75
508.805	100.75
509.021	75.75
509.238	117.75
509.454	97.75
509.67	80.75
509.887	101.75
510.103	119.75
510.319	168.75
510.536	484.75
510.752	1428.75
510.968	442.75
511.184	134.75
511.401	99.75
511.617	101.75
511.833	100.75
512.049	97.75
512.265	98.75
512.481	98.75
512.698	78.75
512.914	96.75
513.13	92.75
513.346	93.75
513.562	85.75
513.778	93.75
513.994	84.75
514.21	99.75
514.426	99.75
514.642	114.75
514.858	107.75
515.074	140.75
515.29	283.75
515.506	823.75
515.721	331.75
515.937	118.75
516.153	105.75
516.369	98.75
516.585	79.75
516.801	92.75
517.016	84.75
517.232	92.75
