Data from Uncirc_2000_H10_HRD10591_00066.txt Node
Date: Wed Jan 03 10:48:30 EST 2024
User: Yrep
Spectrometer: HR+D1059
Trigger mode: 1
Integration Time (sec): 1.000000E-1
Scans to average: 1
Electric dark correction enabled: true
Nonlinearity correction enabled: false
Boxcar width: 0
XAxis mode: Wavelengths
Number of Pixels in Spectrum: 2048
>>>>>Begin Spectral Data<<<<<
223.165	-7.94
223.4	-7.94
223.635	-7.94
223.869	-9.94
224.104	-13.94
224.338	-28.94
224.573	-13.94
224.808	-3.94
225.042	-13.94
225.277	-11.94
225.511	-5.94
225.746	5.06
225.98	7.06
226.215	6.06
226.449	8.06
226.683	22.06
226.918	21.06
227.152	41.06
227.387	22.06
227.621	40.06
227.856	45.06
228.09	53.06
228.324	46.06
228.559	48.06
228.793	52.06
229.027	57.06
229.262	61.06
229.496	68.06
229.73	75.06
229.964	75.06
230.199	82.06
230.433	81.06
230.667	83.06
230.901	60.06
231.136	84.06
231.37	82.06
231.604	72.06
231.838	67.06
232.072	73.06
232.306	76.06
232.541	87.06
232.775	89.06
233.009	80.06
233.243	71.06
233.477	86.06
233.711	74.06
233.945	77.06
234.179	72.06
234.413	84.06
234.647	77.06
234.881	70.06
235.115	80.06
235.349	75.06
235.583	71.06
235.817	71.06
236.051	89.06
236.285	85.06
236.519	53.06
236.753	67.06
236.987	73.06
237.221	82.06
237.455	82.06
237.689	81.06
237.922	68.06
238.156	66.06
238.39	64.06
238.624	78.06
238.858	85.06
239.091	78.06
239.325	68.06
239.559	87.06
239.793	83.06
240.027	73.06
240.26	85.06
240.494	75.06
240.728	66.06
240.961	72.06
241.195	89.06
241.429	69.06
241.662	65.06
241.896	87.06
242.13	74.06
242.363	57.06
242.597	77.06
242.83	76.06
243.064	81.06
243.298	82.06
243.531	68.06
243.765	77.06
243.998	82.06
244.232	74.06
244.465	86.06
244.699	68.06
244.932	86.06
245.166	84.06
245.399	79.06
245.633	77.06
245.866	80.06
246.099	89.06
246.333	85.06
246.566	72.06
246.8	84.06
247.033	78.06
247.266	72.06
247.5	76.06
247.733	93.06
247.966	87.06
248.2	88.06
248.433	82.06
248.666	56.06
248.899	78.06
249.133	82.06
249.366	102.06
249.599	92.06
249.832	79.06
250.066	74.06
250.299	82.06
250.532	76.06
250.765	77.06
250.998	92.06
251.231	82.06
251.465	83.06
251.698	87.06
251.931	91.06
252.164	60.06
252.397	71.06
252.63	78.06
252.863	92.06
253.096	79.06
253.329	78.06
253.562	85.06
253.795	76.06
254.028	92.06
254.261	76.06
254.494	77.06
254.727	64.06
254.96	85.06
255.193	77.06
255.426	85.06
255.659	77.06
255.892	84.06
256.124	87.06
256.357	90.06
256.59	73.06
256.823	94.06
257.056	87.06
257.289	82.06
257.521	88.06
257.754	67.06
257.987	88.06
258.22	87.06
258.452	84.06
258.685	86.06
258.918	90.06
259.151	79.06
259.383	76.06
259.616	80.06
259.849	78.06
260.081	83.06
260.314	88.06
260.547	81.06
260.779	90.06
261.012	94.06
261.244	88.06
261.477	74.06
261.71	99.06
261.942	106.06
262.175	84.06
262.407	84.06
262.64	84.06
262.872	83.06
263.105	82.06
263.337	77.06
263.57	70.06
263.802	85.06
264.035	84.06
264.267	81.06
264.499	87.06
264.732	91.06
264.964	86.06
265.197	83.06
265.429	84.06
265.661	74.06
265.894	81.06
266.126	104.06
266.358	80.06
266.591	72.06
266.823	76.06
267.055	82.06
267.287	77.06
267.52	69.06
267.752	88.06
267.984	92.06
268.216	86.06
268.448	72.06
268.681	88.06
268.913	66.06
269.145	78.06
269.377	82.06
269.609	96.06
269.841	88.06
270.073	76.06
270.306	92.06
270.538	84.06
270.77	82.06
271.002	82.06
271.234	90.06
271.466	73.06
271.698	97.06
271.93	75.06
272.162	89.06
272.394	88.06
272.626	80.06
272.858	90.06
273.09	85.06
273.322	88.06
273.553	83.06
273.785	83.06
274.017	88.06
274.249	77.06
274.481	76.06
274.713	77.06
274.945	90.06
275.176	101.06
275.408	100.06
275.64	80.06
275.872	84.06
276.104	74.06
276.335	78.06
276.567	81.06
276.799	99.06
277.031	105.06
277.262	77.06
277.494	91.06
277.726	78.06
277.957	92.06
278.189	78.06
278.421	83.06
278.652	81.06
278.884	96.06
279.115	74.06
279.347	88.06
279.579	78.06
279.81	80.06
280.042	78.06
280.273	89.06
280.505	72.06
280.736	91.06
280.968	82.06
281.199	81.06
281.431	78.06
281.662	76.06
281.894	101.06
282.125	96.06
282.356	96.06
282.588	117.06
282.819	105.06
283.051	80.06
283.282	87.06
283.513	94.06
283.745	83.06
283.976	88.06
284.207	93.06
284.439	100.06
284.67	84.06
284.901	73.06
285.132	78.06
285.364	97.06
285.595	95.06
285.826	97.06
286.057	88.06
286.288	82.06
286.52	88.06
286.751	88.06
286.982	82.06
287.213	75.06
287.444	88.06
287.675	87.06
287.906	86.06
288.138	88.06
288.369	92.06
288.6	93.06
288.831	73.06
289.062	82.06
289.293	92.06
289.524	80.06
289.755	81.06
289.986	76.06
290.217	83.06
290.448	75.06
290.679	82.06
290.91	100.06
291.141	88.06
291.371	84.06
291.602	82.06
291.833	80.06
292.064	78.06
292.295	91.06
292.526	86.06
292.757	86.06
292.987	100.06
293.218	89.06
293.449	80.06
293.68	61.06
293.91	74.06
294.141	70.06
294.372	75.06
294.603	72.06
294.833	88.06
295.064	85.06
295.295	98.06
295.525	90.06
295.756	111.06
295.987	108.06
296.217	126.06
296.448	110.06
296.679	88.06
296.909	96.06
297.14	85.06
297.37	91.06
297.601	82.06
297.831	92.06
298.062	93.06
298.292	85.06
298.523	83.06
298.753	89.06
298.984	85.06
299.214	84.06
299.445	97.06
299.675	90.06
299.905	94.06
300.136	85.06
300.366	79.06
300.597	78.06
300.827	81.06
301.057	86.06
301.288	102.06
301.518	97.06
301.748	83.06
301.979	103.06
302.209	89.06
302.439	83.06
302.669	95.06
302.9	92.06
303.13	89.06
303.36	92.06
303.59	104.06
303.82	115.06
304.051	77.06
304.281	82.06
304.511	78.06
304.741	81.06
304.971	97.06
305.201	100.06
305.431	82.06
305.661	88.06
305.891	97.06
306.121	87.06
306.352	90.06
306.582	94.06
306.812	88.06
307.042	83.06
307.272	92.06
307.502	81.06
307.731	84.06
307.961	82.06
308.191	81.06
308.421	89.06
308.651	89.06
308.881	80.06
309.111	93.06
309.341	103.06
309.571	98.06
309.8	90.06
310.03	92.06
310.26	96.06
310.49	83.06
310.72	98.06
310.949	89.06
311.179	101.06
311.409	91.06
311.639	88.06
311.868	94.06
312.098	82.06
312.328	83.06
312.557	96.06
312.787	94.06
313.017	91.06
313.246	104.06
313.476	94.06
313.706	108.06
313.935	88.06
314.165	98.06
314.394	86.06
314.624	97.06
314.853	98.06
315.083	97.06
315.312	94.06
315.542	99.06
315.771	94.06
316.001	82.06
316.23	82.06
316.46	91.06
316.689	80.06
316.919	88.06
317.148	100.06
317.377	102.06
317.607	98.06
317.836	100.06
318.065	94.06
318.295	95.06
318.524	64.06
318.753	100.06
318.983	98.06
319.212	105.06
319.441	109.06
319.67	107.06
319.9	86.06
320.129	88.06
320.358	92.06
320.587	92.06
320.816	98.06
321.046	91.06
321.275	103.06
321.504	102.06
321.733	83.06
321.962	98.06
322.191	93.06
322.42	97.06
322.649	104.06
322.878	121.06
323.108	122.06
323.337	115.06
323.566	119.06
323.795	154.06
324.024	201.06
324.253	354.06
324.482	756.06
324.71	1532.06
324.939	2025.06
325.168	749.06
325.397	232.06
325.626	144.06
325.855	116.06
326.084	119.06
326.313	108.06
326.542	126.06
326.77	210.06
326.999	430.06
327.228	877.06
327.457	1619.06
327.686	1218.06
327.914	337.06
328.143	164.06
328.372	136.06
328.6	111.06
328.829	122.06
329.058	112.06
329.287	108.06
329.515	110.06
329.744	93.06
329.972	113.06
330.201	93.06
330.43	104.06
330.658	109.06
330.887	123.06
331.115	110.06
331.344	93.06
331.572	105.06
331.801	96.06
332.03	99.06
332.258	89.06
332.486	82.06
332.715	99.06
332.943	99.06
333.172	92.06
333.4	91.06
333.629	100.06
333.857	106.06
334.085	93.06
334.314	91.06
334.542	101.06
334.771	78.06
334.999	84.06
335.227	95.06
335.455	98.06
335.684	125.06
335.912	107.06
336.14	87.06
336.369	83.06
336.597	89.06
336.825	100.06
337.053	93.06
337.281	94.06
337.51	90.06
337.738	94.06
337.966	90.06
338.194	90.06
338.422	91.06
338.65	89.06
338.878	87.06
339.106	90.06
339.334	93.06
339.562	89.06
339.79	83.06
340.018	92.06
340.246	89.06
340.474	87.06
340.702	93.06
340.93	74.06
341.158	98.06
341.386	84.06
341.614	92.06
341.842	87.06
342.07	89.06
342.298	87.06
342.526	80.06
342.754	98.06
342.981	87.06
343.209	87.06
343.437	103.06
343.665	78.06
343.893	88.06
344.12	113.06
344.348	94.06
344.576	93.06
344.804	92.06
345.031	89.06
345.259	100.06
345.487	91.06
345.714	89.06
345.942	83.06
346.17	76.06
346.397	78.06
346.625	93.06
346.853	96.06
347.08	91.06
347.308	98.06
347.535	103.06
347.763	95.06
347.99	84.06
348.218	110.06
348.445	106.06
348.673	93.06
348.9	96.06
349.128	100.06
349.355	103.06
349.583	99.06
349.81	99.06
350.037	98.06
350.265	93.06
350.492	98.06
350.72	94.06
350.947	100.06
351.174	114.06
351.402	113.06
351.629	99.06
351.856	107.06
352.083	92.06
352.311	94.06
352.538	112.06
352.765	112.06
352.992	109.06
353.22	102.06
353.447	111.06
353.674	109.06
353.901	85.06
354.128	92.06
354.355	92.06
354.583	89.06
354.81	106.06
355.037	91.06
355.264	94.06
355.491	94.06
355.718	89.06
355.945	103.06
356.172	93.06
356.399	90.06
356.626	77.06
356.853	99.06
357.08	101.06
357.307	94.06
357.534	96.06
357.761	84.06
357.988	86.06
358.215	94.06
358.441	97.06
358.668	83.06
358.895	75.06
359.122	113.06
359.349	90.06
359.576	95.06
359.802	102.06
360.029	110.06
360.256	103.06
360.483	84.06
360.709	74.06
360.936	83.06
361.163	98.06
361.39	74.06
361.616	96.06
361.843	99.06
362.07	89.06
362.296	102.06
362.523	77.06
362.749	81.06
362.976	81.06
363.203	105.06
363.429	89.06
363.656	88.06
363.882	102.06
364.109	98.06
364.335	81.06
364.562	88.06
364.788	88.06
365.015	95.06
365.241	84.06
365.468	108.06
365.694	100.06
365.92	96.06
366.147	96.06
366.373	71.06
366.599	81.06
366.826	90.06
367.052	87.06
367.278	91.06
367.505	91.06
367.731	100.06
367.957	82.06
368.184	92.06
368.41	96.06
368.636	102.06
368.862	105.06
369.089	100.06
369.315	83.06
369.541	100.06
369.767	84.06
369.993	82.06
370.219	104.06
370.445	97.06
370.672	92.06
370.898	100.06
371.124	85.06
371.35	87.06
371.576	88.06
371.802	71.06
372.028	74.06
372.254	80.06
372.48	91.06
372.706	84.06
372.932	87.06
373.158	93.06
373.384	80.06
373.61	95.06
373.835	98.06
374.061	78.06
374.287	92.06
374.513	92.06
374.739	85.06
374.965	94.06
375.191	81.06
375.416	75.06
375.642	88.06
375.868	84.06
376.094	77.06
376.319	88.06
376.545	96.06
376.771	79.06
376.997	88.06
377.222	87.06
377.448	100.06
377.674	95.06
377.899	94.06
378.125	85.06
378.35	94.06
378.576	83.06
378.802	88.06
379.027	82.06
379.253	77.06
379.478	82.06
379.704	75.06
379.929	91.06
380.155	73.06
380.38	104.06
380.606	67.06
380.831	109.06
381.057	90.06
381.282	96.06
381.507	97.06
381.733	98.06
381.958	86.06
382.184	81.06
382.409	96.06
382.634	89.06
382.86	92.06
383.085	101.06
383.31	108.06
383.535	89.06
383.761	95.06
383.986	89.06
384.211	97.06
384.436	103.06
384.662	105.06
384.887	103.06
385.112	104.06
385.337	102.06
385.562	83.06
385.787	103.06
386.013	102.06
386.238	92.06
386.463	107.06
386.688	114.06
386.913	104.06
387.138	105.06
387.363	108.06
387.588	96.06
387.813	111.06
388.038	104.06
388.263	101.06
388.488	99.06
388.713	97.06
388.938	94.06
389.163	105.06
389.387	105.06
389.612	103.06
389.837	91.06
390.062	92.06
390.287	93.06
390.512	102.06
390.736	93.06
390.961	91.06
391.186	92.06
391.411	90.06
391.636	80.06
391.86	83.06
392.085	86.06
392.31	86.06
392.534	88.06
392.759	83.06
392.984	100.06
393.208	81.06
393.433	90.06
393.658	96.06
393.882	83.06
394.107	83.06
394.331	94.06
394.556	101.06
394.78	100.06
395.005	91.06
395.229	75.06
395.454	94.06
395.678	94.06
395.903	78.06
396.127	84.06
396.352	79.06
396.576	86.06
396.801	93.06
397.025	94.06
397.249	93.06
397.474	75.06
397.698	103.06
397.922	70.06
398.147	96.06
398.371	87.06
398.595	98.06
398.82	83.06
399.044	77.06
399.268	77.06
399.492	80.06
399.717	94.06
399.941	84.06
400.165	99.06
400.389	93.06
400.613	94.06
400.837	85.06
401.062	96.06
401.286	104.06
401.51	88.06
401.734	96.06
401.958	89.06
402.182	114.06
402.406	145.06
402.63	108.06
402.854	101.06
403.078	78.06
403.302	85.06
403.526	86.06
403.75	103.06
403.974	91.06
404.198	73.06
404.422	91.06
404.645	107.06
404.869	90.06
405.093	80.06
405.317	97.06
405.541	110.06
405.765	94.06
405.988	121.06
406.212	165.06
406.436	202.06
406.66	132.06
406.883	90.06
407.107	83.06
407.331	89.06
407.555	100.06
407.778	95.06
408.002	88.06
408.226	94.06
408.449	80.06
408.673	99.06
408.896	100.06
409.12	102.06
409.344	113.06
409.567	85.06
409.791	101.06
410.014	104.06
410.238	87.06
410.461	93.06
410.685	94.06
410.908	93.06
411.132	106.06
411.355	102.06
411.578	89.06
411.802	91.06
412.025	86.06
412.249	91.06
412.472	96.06
412.695	100.06
412.919	81.06
413.142	95.06
413.365	87.06
413.589	94.06
413.812	74.06
414.035	92.06
414.258	96.06
414.482	78.06
414.705	83.06
414.928	90.06
415.151	91.06
415.374	88.06
415.597	100.06
415.821	82.06
416.044	92.06
416.267	91.06
416.49	88.06
416.713	73.06
416.936	91.06
417.159	76.06
417.382	99.06
417.605	83.06
417.828	103.06
418.051	91.06
418.274	96.06
418.497	88.06
418.72	85.06
418.943	80.06
419.166	81.06
419.389	88.06
419.611	78.06
419.834	96.06
420.057	92.06
420.28	98.06
420.503	93.06
420.726	84.06
420.948	88.06
421.171	94.06
421.394	99.06
421.617	76.06
421.839	81.06
422.062	84.06
422.285	96.06
422.507	109.06
422.73	89.06
422.953	96.06
423.175	89.06
423.398	91.06
423.621	95.06
423.843	84.06
424.066	90.06
424.288	86.06
424.511	87.06
424.733	88.06
424.956	105.06
425.178	89.06
425.401	104.06
425.623	108.06
425.846	97.06
426.068	88.06
426.291	88.06
426.513	91.06
426.735	90.06
426.958	90.06
427.18	104.06
427.402	135.06
427.625	116.06
427.847	116.06
428.069	93.06
428.292	91.06
428.514	93.06
428.736	84.06
428.958	87.06
429.181	105.06
429.403	87.06
429.625	88.06
429.847	96.06
430.069	100.06
430.292	82.06
430.514	84.06
430.736	82.06
430.958	99.06
431.18	98.06
431.402	104.06
431.624	85.06
431.846	82.06
432.068	77.06
432.29	93.06
432.512	96.06
432.734	91.06
432.956	98.06
433.178	108.06
433.4	81.06
433.622	91.06
433.844	86.06
434.066	105.06
434.287	80.06
434.509	85.06
434.731	77.06
434.953	83.06
435.175	86.06
435.397	89.06
435.618	86.06
435.84	91.06
436.062	108.06
436.284	100.06
436.505	97.06
436.727	90.06
436.949	90.06
437.17	95.06
437.392	87.06
437.614	85.06
437.835	110.06
438.057	110.06
438.278	96.06
438.5	89.06
438.721	99.06
438.943	103.06
439.165	93.06
439.386	101.06
439.608	92.06
439.829	96.06
440.05	102.06
440.272	122.06
440.493	91.06
440.715	84.06
440.936	81.06
441.158	83.06
441.379	82.06
441.6	93.06
441.822	93.06
442.043	96.06
442.264	91.06
442.486	99.06
442.707	92.06
442.928	101.06
443.149	114.06
443.371	120.06
443.592	88.06
443.813	96.06
444.034	96.06
444.255	88.06
444.476	78.06
444.698	89.06
444.919	90.06
445.14	115.06
445.361	129.06
445.582	92.06
445.803	114.06
446.024	129.06
446.245	124.06
446.466	104.06
446.687	93.06
446.908	86.06
447.129	87.06
447.35	93.06
447.571	100.06
447.792	86.06
448.013	94.06
448.234	105.06
448.455	101.06
448.675	109.06
448.896	104.06
449.117	90.06
449.338	83.06
449.559	123.06
449.779	119.06
450	89.06
450.221	86.06
450.442	76.06
450.662	89.06
450.883	97.06
451.104	102.06
451.324	90.06
451.545	81.06
451.766	79.06
451.986	91.06
452.207	76.06
452.428	86.06
452.648	101.06
452.869	97.06
453.089	110.06
453.31	94.06
453.53	91.06
453.751	80.06
453.971	95.06
454.192	103.06
454.412	102.06
454.633	85.06
454.853	92.06
455.073	85.06
455.294	100.06
455.514	90.06
455.734	92.06
455.955	91.06
456.175	92.06
456.395	82.06
456.616	86.06
456.836	89.06
457.056	98.06
457.276	74.06
457.497	86.06
457.717	85.06
457.937	90.06
458.157	81.06
458.377	88.06
458.598	105.06
458.818	132.06
459.038	118.06
459.258	98.06
459.478	92.06
459.698	73.06
459.918	87.06
460.138	86.06
460.358	107.06
460.578	88.06
460.798	97.06
461.018	105.06
461.238	76.06
461.458	73.06
461.678	76.06
461.898	87.06
462.118	98.06
462.338	90.06
462.558	87.06
462.777	83.06
462.997	96.06
463.217	80.06
463.437	88.06
463.657	93.06
463.876	92.06
464.096	73.06
464.316	90.06
464.536	91.06
464.755	96.06
464.975	110.06
465.195	144.06
465.414	130.06
465.634	93.06
465.854	88.06
466.073	75.06
466.293	93.06
466.512	99.06
466.732	78.06
466.951	84.06
467.171	101.06
467.391	105.06
467.61	109.06
467.829	101.06
468.049	82.06
468.268	79.06
468.488	89.06
468.707	84.06
468.927	90.06
469.146	93.06
469.365	89.06
469.585	107.06
469.804	97.06
470.023	103.06
470.243	103.06
470.462	103.06
470.681	106.06
470.901	98.06
471.12	89.06
471.339	88.06
471.558	90.06
471.777	83.06
471.997	82.06
472.216	91.06
472.435	93.06
472.654	87.06
472.873	87.06
473.092	86.06
473.311	69.06
473.53	96.06
473.749	88.06
473.968	77.06
474.187	91.06
474.406	102.06
474.625	85.06
474.844	88.06
475.063	95.06
475.282	91.06
475.501	89.06
475.72	91.06
475.939	81.06
476.158	75.06
476.377	82.06
476.596	89.06
476.814	96.06
477.033	87.06
477.252	80.06
477.471	97.06
477.69	89.06
477.908	87.06
478.127	98.06
478.346	82.06
478.564	81.06
478.783	84.06
479.002	89.06
479.22	96.06
479.439	98.06
479.658	104.06
479.876	82.06
480.095	83.06
480.313	104.06
480.532	78.06
480.751	90.06
480.969	89.06
481.188	83.06
481.406	99.06
481.624	94.06
481.843	90.06
482.061	103.06
482.28	82.06
482.498	91.06
482.717	83.06
482.935	90.06
483.153	88.06
483.372	90.06
483.59	101.06
483.808	88.06
484.027	89.06
484.245	93.06
484.463	102.06
484.681	115.06
484.9	97.06
485.118	83.06
485.336	84.06
485.554	107.06
485.772	92.06
485.99	94.06
486.209	107.06
486.427	106.06
486.645	111.06
486.863	96.06
487.081	94.06
487.299	97.06
487.517	96.06
487.735	90.06
487.953	89.06
488.171	83.06
488.389	97.06
488.607	100.06
488.825	97.06
489.043	105.06
489.261	81.06
489.479	83.06
489.696	89.06
489.914	91.06
490.132	83.06
490.35	92.06
490.568	101.06
490.786	79.06
491.003	94.06
491.221	86.06
491.439	85.06
491.657	80.06
491.874	90.06
492.092	82.06
492.31	79.06
492.527	83.06
492.745	102.06
492.963	80.06
493.18	92.06
493.398	78.06
493.615	80.06
493.833	93.06
494.05	74.06
494.268	83.06
494.485	93.06
494.703	78.06
494.92	94.06
495.138	84.06
495.355	86.06
495.573	104.06
495.79	84.06
496.008	93.06
496.225	88.06
496.442	92.06
496.66	100.06
496.877	84.06
497.094	80.06
497.312	87.06
497.529	85.06
497.746	85.06
497.963	94.06
498.181	88.06
498.398	95.06
498.615	98.06
498.832	88.06
499.049	85.06
499.267	93.06
499.484	95.06
499.701	94.06
499.918	105.06
500.135	100.06
500.352	100.06
500.569	97.06
500.786	86.06
501.003	90.06
501.22	83.06
501.437	87.06
501.654	98.06
501.871	83.06
502.088	97.06
502.305	94.06
502.522	96.06
502.739	86.06
502.956	97.06
503.172	90.06
503.389	95.06
503.606	102.06
503.823	100.06
504.04	94.06
504.256	83.06
504.473	95.06
504.69	91.06
504.907	87.06
505.123	82.06
505.34	93.06
505.557	100.06
505.773	91.06
505.99	93.06
506.207	89.06
506.423	88.06
506.64	85.06
506.856	76.06
507.073	87.06
507.289	90.06
507.506	98.06
507.722	105.06
507.939	87.06
508.155	106.06
508.372	90.06
508.588	90.06
508.805	91.06
509.021	83.06
509.238	76.06
509.454	106.06
509.67	99.06
509.887	109.06
510.103	112.06
510.319	198.06
510.536	653.06
510.752	2096.06
510.968	600.06
511.184	153.06
511.401	105.06
511.617	83.06
511.833	97.06
512.049	79.06
512.265	101.06
512.481	89.06
512.698	91.06
512.914	84.06
513.13	94.06
513.346	83.06
513.562	98.06
513.778	108.06
513.994	74.06
514.21	85.06
514.426	101.06
514.642	123.06
514.858	108.06
515.074	153.06
515.29	368.06
515.506	1186.06
515.721	439.06
515.937	133.06
516.153	113.06
516.369	98.06
