Data from Uncirc_2000_H10_HRD10591_00002.txt Node
Date: Wed Jan 03 10:48:17 EST 2024
User: Yrep
Spectrometer: HR+D1059
Trigger mode: 1
Integration Time (sec): 1.000000E-1
Scans to average: 1
Electric dark correction enabled: true
Nonlinearity correction enabled: false
Boxcar width: 0
XAxis mode: Wavelengths
Number of Pixels in Spectrum: 2048
>>>>>Begin Spectral Data<<<<<
223.165	-13.88
223.4	-13.88
223.635	-13.88
223.869	-19.88
224.104	-21.88
224.338	-22.88
224.573	-17.88
224.808	-2.88
225.042	4.12
225.277	-12.88
225.511	3.12
225.746	-6.88
225.98	13.12
226.215	3.12
226.449	19.12
226.683	9.12
226.918	19.12
227.152	48.12
227.387	35.12
227.621	38.12
227.856	42.12
228.09	59.12
228.324	52.12
228.559	63.12
228.793	57.12
229.027	60.12
229.262	56.12
229.496	65.12
229.73	85.12
229.964	82.12
230.199	69.12
230.433	85.12
230.667	72.12
230.901	81.12
231.136	79.12
231.37	82.12
231.604	70.12
231.838	72.12
232.072	80.12
232.306	81.12
232.541	78.12
232.775	71.12
233.009	86.12
233.243	77.12
233.477	72.12
233.711	86.12
233.945	82.12
234.179	67.12
234.413	90.12
234.647	76.12
234.881	84.12
235.115	70.12
235.349	75.12
235.583	74.12
235.817	66.12
236.051	84.12
236.285	77.12
236.519	68.12
236.753	87.12
236.987	81.12
237.221	86.12
237.455	83.12
237.689	67.12
237.922	81.12
238.156	79.12
238.39	74.12
238.624	78.12
238.858	89.12
239.091	102.12
239.325	87.12
239.559	81.12
239.793	90.12
240.027	83.12
240.26	74.12
240.494	71.12
240.728	68.12
240.961	84.12
241.195	89.12
241.429	75.12
241.662	81.12
241.896	77.12
242.13	78.12
242.363	90.12
242.597	84.12
242.83	89.12
243.064	79.12
243.298	75.12
243.531	88.12
243.765	79.12
243.998	76.12
244.232	85.12
244.465	90.12
244.699	79.12
244.932	76.12
245.166	84.12
245.399	74.12
245.633	89.12
245.866	85.12
246.099	99.12
246.333	81.12
246.566	83.12
246.8	95.12
247.033	86.12
247.266	72.12
247.5	99.12
247.733	73.12
247.966	78.12
248.2	79.12
248.433	84.12
248.666	95.12
248.899	83.12
249.133	83.12
249.366	103.12
249.599	83.12
249.832	84.12
250.066	76.12
250.299	91.12
250.532	76.12
250.765	89.12
250.998	86.12
251.231	89.12
251.465	71.12
251.698	69.12
251.931	74.12
252.164	79.12
252.397	91.12
252.63	69.12
252.863	91.12
253.096	86.12
253.329	66.12
253.562	83.12
253.795	82.12
254.028	81.12
254.261	92.12
254.494	81.12
254.727	73.12
254.96	83.12
255.193	85.12
255.426	69.12
255.659	87.12
255.892	86.12
256.124	86.12
256.357	88.12
256.59	82.12
256.823	85.12
257.056	86.12
257.289	95.12
257.521	97.12
257.754	83.12
257.987	77.12
258.22	80.12
258.452	86.12
258.685	88.12
258.918	79.12
259.151	72.12
259.383	77.12
259.616	83.12
259.849	88.12
260.081	79.12
260.314	81.12
260.547	90.12
260.779	86.12
261.012	68.12
261.244	84.12
261.477	78.12
261.71	94.12
261.942	95.12
262.175	108.12
262.407	101.12
262.64	86.12
262.872	81.12
263.105	92.12
263.337	78.12
263.57	97.12
263.802	83.12
264.035	72.12
264.267	91.12
264.499	65.12
264.732	94.12
264.964	82.12
265.197	93.12
265.429	89.12
265.661	82.12
265.894	84.12
266.126	84.12
266.358	85.12
266.591	70.12
266.823	107.12
267.055	91.12
267.287	85.12
267.52	90.12
267.752	92.12
267.984	89.12
268.216	102.12
268.448	89.12
268.681	90.12
268.913	77.12
269.145	79.12
269.377	81.12
269.609	83.12
269.841	94.12
270.073	83.12
270.306	76.12
270.538	61.12
270.77	83.12
271.002	90.12
271.234	84.12
271.466	75.12
271.698	87.12
271.93	92.12
272.162	77.12
272.394	79.12
272.626	93.12
272.858	84.12
273.09	85.12
273.322	86.12
273.553	79.12
273.785	88.12
274.017	83.12
274.249	90.12
274.481	82.12
274.713	77.12
274.945	85.12
275.176	85.12
275.408	84.12
275.64	82.12
275.872	86.12
276.104	77.12
276.335	106.12
276.567	87.12
276.799	105.12
277.031	99.12
277.262	88.12
277.494	94.12
277.726	94.12
277.957	86.12
278.189	79.12
278.421	89.12
278.652	86.12
278.884	88.12
279.115	83.12
279.347	85.12
279.579	96.12
279.81	97.12
280.042	92.12
280.273	91.12
280.505	91.12
280.736	96.12
280.968	95.12
281.199	95.12
281.431	91.12
281.662	83.12
281.894	98.12
282.125	100.12
282.356	96.12
282.588	103.12
282.819	96.12
283.051	101.12
283.282	99.12
283.513	83.12
283.745	77.12
283.976	80.12
284.207	92.12
284.439	95.12
284.67	84.12
284.901	82.12
285.132	86.12
285.364	83.12
285.595	94.12
285.826	93.12
286.057	71.12
286.288	83.12
286.52	77.12
286.751	94.12
286.982	91.12
287.213	88.12
287.444	83.12
287.675	92.12
287.906	79.12
288.138	87.12
288.369	106.12
288.6	65.12
288.831	82.12
289.062	78.12
289.293	102.12
289.524	81.12
289.755	83.12
289.986	74.12
290.217	91.12
290.448	70.12
290.679	99.12
290.91	96.12
291.141	94.12
291.371	85.12
291.602	96.12
291.833	72.12
292.064	74.12
292.295	87.12
292.526	84.12
292.757	85.12
292.987	101.12
293.218	101.12
293.449	90.12
293.68	87.12
293.91	86.12
294.141	90.12
294.372	93.12
294.603	98.12
294.833	101.12
295.064	88.12
295.295	81.12
295.525	100.12
295.756	92.12
295.987	86.12
296.217	108.12
296.448	105.12
296.679	83.12
296.909	99.12
297.14	105.12
297.37	95.12
297.601	81.12
297.831	84.12
298.062	82.12
298.292	88.12
298.523	95.12
298.753	87.12
298.984	85.12
299.214	95.12
299.445	100.12
299.675	95.12
299.905	101.12
300.136	86.12
300.366	90.12
300.597	77.12
300.827	94.12
301.057	95.12
301.288	98.12
301.518	92.12
301.748	81.12
301.979	105.12
302.209	94.12
302.439	93.12
302.669	91.12
302.9	83.12
303.13	82.12
303.36	95.12
303.59	93.12
303.82	87.12
304.051	86.12
304.281	81.12
304.511	93.12
304.741	94.12
304.971	97.12
305.201	92.12
305.431	91.12
305.661	85.12
305.891	95.12
306.121	85.12
306.352	88.12
306.582	85.12
306.812	87.12
307.042	86.12
307.272	85.12
307.502	101.12
307.731	86.12
307.961	88.12
308.191	90.12
308.421	82.12
308.651	86.12
308.881	93.12
309.111	92.12
309.341	92.12
309.571	91.12
309.8	93.12
310.03	87.12
310.26	91.12
310.49	86.12
310.72	93.12
310.949	90.12
311.179	95.12
311.409	90.12
311.639	95.12
311.868	108.12
312.098	82.12
312.328	92.12
312.557	102.12
312.787	90.12
313.017	77.12
313.246	106.12
313.476	99.12
313.706	86.12
313.935	81.12
314.165	85.12
314.394	90.12
314.624	100.12
314.853	87.12
315.083	93.12
315.312	102.12
315.542	76.12
315.771	89.12
316.001	96.12
316.23	87.12
316.46	88.12
316.689	91.12
316.919	86.12
317.148	97.12
317.377	96.12
317.607	93.12
317.836	89.12
318.065	88.12
318.295	91.12
318.524	89.12
318.753	79.12
318.983	83.12
319.212	81.12
319.441	96.12
319.67	94.12
319.9	98.12
320.129	89.12
320.358	82.12
320.587	91.12
320.816	101.12
321.046	101.12
321.275	86.12
321.504	82.12
321.733	88.12
321.962	97.12
322.191	97.12
322.42	100.12
322.649	95.12
322.878	111.12
323.108	105.12
323.337	120.12
323.566	100.12
323.795	126.12
324.024	166.12
324.253	303.12
324.482	582.12
324.71	1164.12
324.939	1474.12
325.168	548.12
325.397	182.12
325.626	131.12
325.855	120.12
326.084	121.12
326.313	126.12
326.542	116.12
326.77	189.12
326.999	350.12
327.228	671.12
327.457	1170.12
327.686	940.12
327.914	266.12
328.143	130.12
328.372	106.12
328.6	98.12
328.829	102.12
329.058	104.12
329.287	107.12
329.515	87.12
329.744	98.12
329.972	104.12
330.201	105.12
330.43	102.12
330.658	113.12
330.887	108.12
331.115	107.12
331.344	80.12
331.572	103.12
331.801	91.12
332.03	91.12
332.258	92.12
332.486	80.12
332.715	84.12
332.943	94.12
333.172	103.12
333.4	105.12
333.629	110.12
333.857	106.12
334.085	99.12
334.314	100.12
334.542	90.12
334.771	95.12
334.999	104.12
335.227	86.12
335.455	86.12
335.684	101.12
335.912	84.12
336.14	104.12
336.369	98.12
336.597	108.12
336.825	104.12
337.053	92.12
337.281	94.12
337.51	93.12
337.738	93.12
337.966	99.12
338.194	95.12
338.422	98.12
338.65	95.12
338.878	80.12
339.106	87.12
339.334	89.12
339.562	101.12
339.79	84.12
340.018	93.12
340.246	86.12
340.474	63.12
340.702	81.12
340.93	88.12
341.158	92.12
341.386	86.12
341.614	83.12
341.842	76.12
342.07	87.12
342.298	85.12
342.526	89.12
342.754	81.12
342.981	95.12
343.209	79.12
343.437	86.12
343.665	78.12
343.893	95.12
344.12	95.12
344.348	86.12
344.576	93.12
344.804	81.12
345.031	88.12
345.259	94.12
345.487	87.12
345.714	86.12
345.942	85.12
346.17	88.12
346.397	92.12
346.625	84.12
346.853	95.12
347.08	85.12
347.308	83.12
347.535	96.12
347.763	89.12
347.99	85.12
348.218	94.12
348.445	102.12
348.673	93.12
348.9	95.12
349.128	71.12
349.355	101.12
349.583	97.12
349.81	89.12
350.037	91.12
350.265	94.12
350.492	93.12
350.72	102.12
350.947	101.12
351.174	109.12
351.402	103.12
351.629	103.12
351.856	86.12
352.083	106.12
352.311	101.12
352.538	93.12
352.765	102.12
352.992	105.12
353.22	93.12
353.447	93.12
353.674	105.12
353.901	75.12
354.128	99.12
354.355	102.12
354.583	91.12
354.81	94.12
355.037	110.12
355.264	103.12
355.491	91.12
355.718	90.12
355.945	103.12
356.172	97.12
356.399	108.12
356.626	95.12
356.853	86.12
357.08	93.12
357.307	92.12
357.534	93.12
357.761	92.12
357.988	93.12
358.215	98.12
358.441	98.12
358.668	91.12
358.895	100.12
359.122	98.12
359.349	95.12
359.576	103.12
359.802	102.12
360.029	104.12
360.256	97.12
360.483	89.12
360.709	90.12
360.936	87.12
361.163	97.12
361.39	86.12
361.616	89.12
361.843	97.12
362.07	86.12
362.296	80.12
362.523	87.12
362.749	95.12
362.976	85.12
363.203	101.12
363.429	96.12
363.656	85.12
363.882	94.12
364.109	95.12
364.335	89.12
364.562	94.12
364.788	102.12
365.015	81.12
365.241	102.12
365.468	100.12
365.694	116.12
365.92	103.12
366.147	99.12
366.373	89.12
366.599	101.12
366.826	96.12
367.052	83.12
367.278	106.12
367.505	91.12
367.731	83.12
367.957	86.12
368.184	100.12
368.41	101.12
368.636	107.12
368.862	113.12
369.089	104.12
369.315	80.12
369.541	100.12
369.767	92.12
369.993	106.12
370.219	87.12
370.445	88.12
370.672	86.12
370.898	77.12
371.124	73.12
371.35	85.12
371.576	91.12
371.802	82.12
372.028	93.12
372.254	74.12
372.48	90.12
372.706	91.12
372.932	95.12
373.158	86.12
373.384	94.12
373.61	105.12
373.835	91.12
374.061	85.12
374.287	92.12
374.513	90.12
374.739	97.12
374.965	95.12
375.191	75.12
375.416	70.12
375.642	92.12
375.868	97.12
376.094	96.12
376.319	95.12
376.545	95.12
376.771	85.12
376.997	103.12
377.222	99.12
377.448	95.12
377.674	78.12
377.899	100.12
378.125	90.12
378.35	95.12
378.576	97.12
378.802	91.12
379.027	104.12
379.253	93.12
379.478	79.12
379.704	94.12
379.929	89.12
380.155	93.12
380.38	101.12
380.606	84.12
380.831	100.12
381.057	99.12
381.282	105.12
381.507	102.12
381.733	100.12
381.958	97.12
382.184	102.12
382.409	107.12
382.634	110.12
382.86	95.12
383.085	94.12
383.31	103.12
383.535	93.12
383.761	112.12
383.986	103.12
384.211	98.12
384.436	86.12
384.662	113.12
384.887	119.12
385.112	108.12
385.337	120.12
385.562	101.12
385.787	101.12
386.013	120.12
386.238	114.12
386.463	106.12
386.688	108.12
386.913	105.12
387.138	119.12
387.363	102.12
387.588	89.12
387.813	107.12
388.038	133.12
388.263	133.12
388.488	119.12
388.713	101.12
388.938	95.12
389.163	114.12
389.387	87.12
389.612	94.12
389.837	92.12
390.062	87.12
390.287	92.12
390.512	86.12
390.736	95.12
390.961	89.12
391.186	99.12
391.411	93.12
391.636	90.12
391.86	97.12
392.085	100.12
392.31	90.12
392.534	89.12
392.759	84.12
392.984	115.12
393.208	91.12
393.433	105.12
393.658	108.12
393.882	93.12
394.107	91.12
394.331	89.12
394.556	74.12
394.78	92.12
395.005	79.12
395.229	69.12
395.454	77.12
395.678	96.12
395.903	90.12
396.127	100.12
396.352	94.12
396.576	92.12
396.801	77.12
397.025	108.12
397.249	95.12
397.474	92.12
397.698	81.12
397.922	93.12
398.147	84.12
398.371	67.12
398.595	80.12
398.82	86.12
399.044	96.12
399.268	99.12
399.492	96.12
399.717	91.12
399.941	93.12
400.165	77.12
400.389	83.12
400.613	94.12
400.837	94.12
401.062	86.12
401.286	86.12
401.51	91.12
401.734	96.12
401.958	99.12
402.182	111.12
402.406	110.12
402.63	101.12
402.854	97.12
403.078	82.12
403.302	90.12
403.526	75.12
403.75	83.12
403.974	82.12
404.198	95.12
404.422	90.12
404.645	74.12
404.869	88.12
405.093	101.12
405.317	94.12
405.541	91.12
405.765	108.12
405.988	102.12
406.212	138.12
406.436	157.12
406.66	116.12
406.883	84.12
407.107	92.12
407.331	86.12
407.555	98.12
407.778	103.12
408.002	80.12
408.226	90.12
408.449	87.12
408.673	88.12
408.896	90.12
409.12	89.12
409.344	98.12
409.567	101.12
409.791	90.12
410.014	99.12
410.238	98.12
410.461	91.12
410.685	88.12
410.908	111.12
411.132	102.12
411.355	113.12
411.578	95.12
411.802	93.12
412.025	95.12
412.249	87.12
412.472	101.12
412.695	91.12
412.919	74.12
413.142	85.12
413.365	90.12
413.589	93.12
413.812	93.12
414.035	85.12
414.258	91.12
414.482	90.12
414.705	98.12
414.928	104.12
415.151	91.12
415.374	100.12
415.597	95.12
415.821	94.12
416.044	80.12
416.267	79.12
416.49	90.12
416.713	91.12
416.936	81.12
417.159	97.12
417.382	80.12
417.605	99.12
417.828	94.12
418.051	107.12
418.274	100.12
418.497	71.12
418.72	78.12
418.943	89.12
419.166	81.12
419.389	73.12
419.611	86.12
419.834	86.12
420.057	92.12
420.28	97.12
420.503	91.12
420.726	85.12
420.948	84.12
421.171	91.12
421.394	91.12
421.617	92.12
421.839	90.12
422.062	93.12
422.285	91.12
422.507	90.12
422.73	96.12
422.953	93.12
423.175	93.12
423.398	90.12
423.621	79.12
423.843	82.12
424.066	75.12
424.288	84.12
424.511	94.12
424.733	83.12
424.956	106.12
425.178	86.12
425.401	90.12
425.623	94.12
425.846	83.12
426.068	83.12
426.291	98.12
426.513	82.12
426.735	88.12
426.958	95.12
427.18	105.12
427.402	119.12
427.625	124.12
427.847	111.12
428.069	103.12
428.292	95.12
428.514	89.12
428.736	85.12
428.958	85.12
429.181	82.12
429.403	89.12
429.625	90.12
429.847	84.12
430.069	82.12
430.292	101.12
430.514	83.12
430.736	71.12
430.958	95.12
431.18	92.12
431.402	93.12
431.624	91.12
431.846	77.12
432.068	82.12
432.29	83.12
432.512	85.12
432.734	89.12
432.956	89.12
433.178	95.12
433.4	93.12
433.622	86.12
433.844	95.12
434.066	102.12
434.287	95.12
434.509	84.12
434.731	97.12
434.953	96.12
435.175	82.12
435.397	74.12
435.618	86.12
435.84	106.12
436.062	115.12
436.284	120.12
436.505	111.12
436.727	84.12
436.949	98.12
437.17	97.12
437.392	80.12
437.614	94.12
437.835	95.12
438.057	87.12
438.278	99.12
438.5	87.12
438.721	107.12
438.943	95.12
439.165	90.12
439.386	91.12
439.608	101.12
439.829	92.12
440.05	107.12
440.272	108.12
440.493	108.12
440.715	93.12
440.936	81.12
441.158	90.12
441.379	100.12
441.6	82.12
441.822	85.12
442.043	76.12
442.264	93.12
442.486	98.12
442.707	85.12
442.928	86.12
443.149	115.12
443.371	108.12
443.592	103.12
443.813	100.12
444.034	91.12
444.255	93.12
444.476	92.12
444.698	78.12
444.919	102.12
445.14	124.12
445.361	109.12
445.582	96.12
445.803	109.12
446.024	110.12
446.245	104.12
446.466	101.12
446.687	94.12
446.908	84.12
447.129	90.12
447.35	113.12
447.571	106.12
447.792	94.12
448.013	99.12
448.234	107.12
448.455	94.12
448.675	101.12
448.896	107.12
449.117	108.12
449.338	95.12
449.559	111.12
449.779	117.12
450	99.12
450.221	100.12
450.442	99.12
450.662	92.12
450.883	93.12
451.104	101.12
451.324	95.12
451.545	95.12
451.766	73.12
451.986	76.12
452.207	90.12
452.428	93.12
452.648	103.12
452.869	96.12
453.089	100.12
453.31	109.12
453.53	82.12
453.751	105.12
453.971	99.12
454.192	102.12
454.412	98.12
454.633	84.12
454.853	89.12
455.073	83.12
455.294	98.12
455.514	96.12
455.734	87.12
455.955	93.12
456.175	98.12
456.395	85.12
456.616	93.12
456.836	79.12
457.056	70.12
457.276	75.12
457.497	97.12
457.717	91.12
457.937	101.12
458.157	105.12
458.377	94.12
458.598	86.12
458.818	122.12
459.038	124.12
459.258	91.12
459.478	93.12
459.698	84.12
459.918	99.12
460.138	85.12
460.358	89.12
460.578	86.12
460.798	99.12
461.018	99.12
461.238	90.12
461.458	75.12
461.678	95.12
461.898	92.12
462.118	86.12
462.338	89.12
462.558	101.12
462.777	95.12
462.997	92.12
463.217	75.12
463.437	99.12
463.657	92.12
463.876	79.12
464.096	96.12
464.316	82.12
464.536	101.12
464.755	90.12
464.975	93.12
465.195	139.12
465.414	137.12
465.634	96.12
465.854	81.12
466.073	101.12
466.293	78.12
466.512	77.12
466.732	95.12
466.951	78.12
467.171	99.12
467.391	109.12
467.61	103.12
467.829	89.12
468.049	88.12
468.268	88.12
468.488	89.12
468.707	89.12
468.927	76.12
469.146	90.12
469.365	76.12
469.585	80.12
469.804	84.12
470.023	107.12
470.243	94.12
470.462	92.12
470.681	104.12
470.901	89.12
471.12	91.12
471.339	92.12
471.558	81.12
471.777	86.12
471.997	78.12
472.216	99.12
472.435	95.12
472.654	99.12
472.873	95.12
473.092	109.12
473.311	83.12
473.53	73.12
473.749	77.12
473.968	101.12
474.187	94.12
474.406	113.12
474.625	92.12
474.844	94.12
475.063	93.12
475.282	77.12
475.501	99.12
475.72	92.12
475.939	98.12
476.158	80.12
476.377	102.12
476.596	83.12
476.814	91.12
477.033	89.12
477.252	85.12
477.471	91.12
477.69	92.12
477.908	88.12
478.127	86.12
478.346	84.12
478.564	90.12
478.783	101.12
479.002	93.12
479.22	87.12
479.439	99.12
479.658	101.12
479.876	96.12
480.095	98.12
480.313	93.12
480.532	104.12
480.751	85.12
480.969	87.12
481.188	91.12
481.406	96.12
481.624	92.12
481.843	86.12
482.061	85.12
482.28	87.12
482.498	81.12
482.717	90.12
482.935	99.12
483.153	92.12
483.372	100.12
483.59	95.12
483.808	78.12
484.027	93.12
484.245	105.12
484.463	93.12
484.681	102.12
484.9	102.12
485.118	106.12
485.336	101.12
485.554	102.12
485.772	91.12
485.99	115.12
486.209	121.12
486.427	116.12
486.645	116.12
486.863	106.12
487.081	101.12
487.299	99.12
487.517	107.12
487.735	92.12
487.953	84.12
488.171	104.12
488.389	89.12
488.607	83.12
488.825	106.12
489.043	97.12
489.261	75.12
489.479	95.12
489.696	87.12
489.914	98.12
490.132	96.12
490.35	91.12
490.568	91.12
490.786	91.12
491.003	89.12
491.221	93.12
491.439	99.12
491.657	91.12
491.874	85.12
492.092	101.12
492.31	106.12
492.527	108.12
492.745	92.12
492.963	84.12
493.18	93.12
493.398	95.12
493.615	103.12
493.833	92.12
494.05	86.12
494.268	105.12
494.485	89.12
494.703	95.12
494.92	115.12
495.138	100.12
495.355	85.12
495.573	82.12
495.79	86.12
496.008	82.12
496.225	103.12
496.442	88.12
496.66	101.12
496.877	88.12
497.094	112.12
497.312	99.12
497.529	89.12
497.746	96.12
497.963	92.12
498.181	99.12
498.398	94.12
498.615	99.12
498.832	89.12
499.049	77.12
499.267	93.12
499.484	88.12
499.701	99.12
499.918	92.12
500.135	95.12
500.352	89.12
500.569	82.12
500.786	87.12
501.003	97.12
501.22	84.12
501.437	85.12
501.654	93.12
501.871	89.12
502.088	95.12
502.305	95.12
502.522	85.12
502.739	86.12
502.956	105.12
503.172	88.12
503.389	96.12
503.606	93.12
503.823	103.12
504.04	104.12
504.256	108.12
504.473	88.12
504.69	96.12
504.907	111.12
505.123	93.12
505.34	96.12
505.557	89.12
505.773	90.12
505.99	90.12
506.207	77.12
506.423	94.12
506.64	85.12
506.856	98.12
507.073	74.12
507.289	99.12
507.506	99.12
507.722	110.12
507.939	93.12
508.155	87.12
508.372	81.12
508.588	96.12
508.805	84.12
509.021	85.12
509.238	91.12
509.454	108.12
509.67	79.12
509.887	100.12
510.103	124.12
510.319	175.12
510.536	497.12
510.752	1427.12
510.968	445.12
511.184	123.12
511.401	107.12
511.617	100.12
511.833	64.12
512.049	80.12
512.265	100.12
512.481	97.12
512.698	77.12
512.914	102.12
513.13	81.12
513.346	83.12
513.562	91.12
513.778	89.12
513.994	92.12
514.21	87.12
514.426	107.12
514.642	104.12
514.858	118.12
515.074	142.12
515.29	281.12
515.506	795.12
515.721	326.12
515.937	119.12
