Data from Uncirc_2000_H10_HRD10591_00085.txt Node
Date: Wed Jan 03 10:48:34 EST 2024
User: Yrep
Spectrometer: HR+D1059
Trigger mode: 1
Integration Time (sec): 1.000000E-1
Scans to average: 1
Electric dark correction enabled: true
Nonlinearity correction enabled: false
Boxcar width: 0
XAxis mode: Wavelengths
Number of Pixels in Spectrum: 2048
>>>>>Begin Spectral Data<<<<<
223.165	-13.88
223.4	-13.88
223.635	-13.88
223.869	-20.88
224.104	-5.88
224.338	-3.88
224.573	-17.88
224.808	-23.88
225.042	-9.88
225.277	-12.88
225.511	7.12
225.746	11.12
225.98	5.12
226.215	6.12
226.449	13.12
226.683	30.12
226.918	9.12
227.152	27.12
227.387	34.12
227.621	33.12
227.856	49.12
228.09	71.12
228.324	54.12
228.559	59.12
228.793	62.12
229.027	65.12
229.262	57.12
229.496	85.12
229.73	83.12
229.964	83.12
230.199	88.12
230.433	81.12
230.667	79.12
230.901	81.12
231.136	92.12
231.37	74.12
231.604	80.12
231.838	67.12
232.072	88.12
232.306	103.12
232.541	87.12
232.775	81.12
233.009	80.12
233.243	87.12
233.477	74.12
233.711	93.12
233.945	86.12
234.179	75.12
234.413	75.12
234.647	93.12
234.881	76.12
235.115	85.12
235.349	86.12
235.583	89.12
235.817	76.12
236.051	85.12
236.285	70.12
236.519	88.12
236.753	67.12
236.987	86.12
237.221	105.12
237.455	88.12
237.689	96.12
237.922	70.12
238.156	85.12
238.39	75.12
238.624	66.12
238.858	81.12
239.091	70.12
239.325	70.12
239.559	87.12
239.793	89.12
240.027	88.12
240.26	83.12
240.494	71.12
240.728	68.12
240.961	65.12
241.195	95.12
241.429	94.12
241.662	81.12
241.896	81.12
242.13	84.12
242.363	95.12
242.597	75.12
242.83	83.12
243.064	80.12
243.298	70.12
243.531	68.12
243.765	81.12
243.998	79.12
244.232	85.12
244.465	79.12
244.699	82.12
244.932	92.12
245.166	81.12
245.399	82.12
245.633	91.12
245.866	73.12
246.099	87.12
246.333	64.12
246.566	84.12
246.8	84.12
247.033	82.12
247.266	91.12
247.5	68.12
247.733	67.12
247.966	85.12
248.2	73.12
248.433	76.12
248.666	91.12
248.899	87.12
249.133	81.12
249.366	85.12
249.599	102.12
249.832	78.12
250.066	91.12
250.299	77.12
250.532	91.12
250.765	85.12
250.998	85.12
251.231	94.12
251.465	88.12
251.698	72.12
251.931	88.12
252.164	79.12
252.397	102.12
252.63	88.12
252.863	90.12
253.096	93.12
253.329	88.12
253.562	64.12
253.795	94.12
254.028	71.12
254.261	87.12
254.494	86.12
254.727	84.12
254.96	70.12
255.193	83.12
255.426	66.12
255.659	91.12
255.892	70.12
256.124	71.12
256.357	79.12
256.59	82.12
256.823	80.12
257.056	79.12
257.289	80.12
257.521	71.12
257.754	90.12
257.987	85.12
258.22	94.12
258.452	92.12
258.685	95.12
258.918	83.12
259.151	84.12
259.383	76.12
259.616	84.12
259.849	91.12
260.081	77.12
260.314	87.12
260.547	80.12
260.779	96.12
261.012	79.12
261.244	81.12
261.477	93.12
261.71	93.12
261.942	96.12
262.175	119.12
262.407	87.12
262.64	79.12
262.872	77.12
263.105	85.12
263.337	83.12
263.57	89.12
263.802	95.12
264.035	99.12
264.267	78.12
264.499	97.12
264.732	88.12
264.964	85.12
265.197	80.12
265.429	86.12
265.661	80.12
265.894	82.12
266.126	96.12
266.358	95.12
266.591	75.12
266.823	79.12
267.055	80.12
267.287	101.12
267.52	84.12
267.752	85.12
267.984	100.12
268.216	83.12
268.448	91.12
268.681	103.12
268.913	88.12
269.145	83.12
269.377	100.12
269.609	98.12
269.841	89.12
270.073	88.12
270.306	88.12
270.538	84.12
270.77	89.12
271.002	92.12
271.234	84.12
271.466	89.12
271.698	87.12
271.93	92.12
272.162	87.12
272.394	96.12
272.626	93.12
272.858	91.12
273.09	87.12
273.322	80.12
273.553	93.12
273.785	94.12
274.017	81.12
274.249	70.12
274.481	93.12
274.713	85.12
274.945	89.12
275.176	85.12
275.408	79.12
275.64	89.12
275.872	97.12
276.104	95.12
276.335	104.12
276.567	89.12
276.799	115.12
277.031	101.12
277.262	96.12
277.494	81.12
277.726	77.12
277.957	78.12
278.189	94.12
278.421	104.12
278.652	98.12
278.884	74.12
279.115	77.12
279.347	89.12
279.579	88.12
279.81	78.12
280.042	97.12
280.273	89.12
280.505	80.12
280.736	78.12
280.968	73.12
281.199	85.12
281.431	97.12
281.662	99.12
281.894	70.12
282.125	112.12
282.356	123.12
282.588	143.12
282.819	109.12
283.051	106.12
283.282	99.12
283.513	88.12
283.745	87.12
283.976	98.12
284.207	73.12
284.439	94.12
284.67	66.12
284.901	87.12
285.132	80.12
285.364	83.12
285.595	80.12
285.826	90.12
286.057	93.12
286.288	97.12
286.52	108.12
286.751	88.12
286.982	83.12
287.213	76.12
287.444	100.12
287.675	86.12
287.906	85.12
288.138	92.12
288.369	90.12
288.6	99.12
288.831	94.12
289.062	82.12
289.293	78.12
289.524	103.12
289.755	104.12
289.986	85.12
290.217	88.12
290.448	87.12
290.679	94.12
290.91	90.12
291.141	82.12
291.371	98.12
291.602	86.12
291.833	101.12
292.064	102.12
292.295	101.12
292.526	101.12
292.757	87.12
292.987	90.12
293.218	99.12
293.449	85.12
293.68	89.12
293.91	92.12
294.141	100.12
294.372	97.12
294.603	81.12
294.833	101.12
295.064	86.12
295.295	101.12
295.525	98.12
295.756	106.12
295.987	128.12
296.217	136.12
296.448	126.12
296.679	97.12
296.909	109.12
297.14	104.12
297.37	88.12
297.601	95.12
297.831	86.12
298.062	79.12
298.292	93.12
298.523	93.12
298.753	77.12
298.984	89.12
299.214	90.12
299.445	95.12
299.675	92.12
299.905	89.12
300.136	85.12
300.366	99.12
300.597	89.12
300.827	94.12
301.057	101.12
301.288	91.12
301.518	101.12
301.748	78.12
301.979	110.12
302.209	107.12
302.439	100.12
302.669	98.12
302.9	88.12
303.13	105.12
303.36	89.12
303.59	100.12
303.82	110.12
304.051	110.12
304.281	101.12
304.511	94.12
304.741	93.12
304.971	83.12
305.201	88.12
305.431	72.12
305.661	88.12
305.891	101.12
306.121	105.12
306.352	112.12
306.582	102.12
306.812	89.12
307.042	90.12
307.272	93.12
307.502	78.12
307.731	94.12
307.961	89.12
308.191	87.12
308.421	97.12
308.651	84.12
308.881	93.12
309.111	106.12
309.341	103.12
309.571	110.12
309.8	101.12
310.03	106.12
310.26	98.12
310.49	106.12
310.72	91.12
310.949	98.12
311.179	92.12
311.409	87.12
311.639	106.12
311.868	96.12
312.098	99.12
312.328	91.12
312.557	97.12
312.787	89.12
313.017	111.12
313.246	97.12
313.476	88.12
313.706	85.12
313.935	100.12
314.165	110.12
314.394	99.12
314.624	94.12
314.853	101.12
315.083	96.12
315.312	107.12
315.542	106.12
315.771	87.12
316.001	88.12
316.23	94.12
316.46	108.12
316.689	92.12
316.919	98.12
317.148	100.12
317.377	89.12
317.607	107.12
317.836	97.12
318.065	99.12
318.295	89.12
318.524	87.12
318.753	99.12
318.983	102.12
319.212	115.12
319.441	108.12
319.67	129.12
319.9	102.12
320.129	92.12
320.358	93.12
320.587	98.12
320.816	101.12
321.046	114.12
321.275	94.12
321.504	107.12
321.733	96.12
321.962	107.12
322.191	96.12
322.42	109.12
322.649	106.12
322.878	123.12
323.108	126.12
323.337	136.12
323.566	141.12
323.795	134.12
324.024	201.12
324.253	393.12
324.482	823.12
324.71	1675.12
324.939	2209.12
325.168	839.12
325.397	245.12
325.626	145.12
325.855	136.12
326.084	128.12
326.313	119.12
326.542	168.12
326.77	243.12
326.999	456.12
327.228	971.12
327.457	1727.12
327.686	1318.12
327.914	352.12
328.143	179.12
328.372	132.12
328.6	125.12
328.829	127.12
329.058	125.12
329.287	121.12
329.515	102.12
329.744	94.12
329.972	94.12
330.201	110.12
330.43	117.12
330.658	118.12
330.887	119.12
331.115	107.12
331.344	101.12
331.572	82.12
331.801	101.12
332.03	100.12
332.258	95.12
332.486	93.12
332.715	97.12
332.943	91.12
333.172	89.12
333.4	85.12
333.629	100.12
333.857	113.12
334.085	113.12
334.314	89.12
334.542	96.12
334.771	106.12
334.999	100.12
335.227	100.12
335.455	96.12
335.684	92.12
335.912	103.12
336.14	99.12
336.369	106.12
336.597	94.12
336.825	102.12
337.053	83.12
337.281	84.12
337.51	99.12
337.738	97.12
337.966	105.12
338.194	100.12
338.422	75.12
338.65	84.12
338.878	104.12
339.106	91.12
339.334	96.12
339.562	103.12
339.79	89.12
340.018	91.12
340.246	107.12
340.474	96.12
340.702	77.12
340.93	96.12
341.158	90.12
341.386	96.12
341.614	98.12
341.842	100.12
342.07	83.12
342.298	95.12
342.526	96.12
342.754	101.12
342.981	99.12
343.209	104.12
343.437	102.12
343.665	84.12
343.893	88.12
344.12	97.12
344.348	89.12
344.576	95.12
344.804	91.12
345.031	90.12
345.259	103.12
345.487	96.12
345.714	99.12
345.942	91.12
346.17	105.12
346.397	94.12
346.625	93.12
346.853	103.12
347.08	103.12
347.308	97.12
347.535	100.12
347.763	97.12
347.99	100.12
348.218	100.12
348.445	116.12
348.673	101.12
348.9	101.12
349.128	91.12
349.355	108.12
349.583	101.12
349.81	91.12
350.037	105.12
350.265	97.12
350.492	97.12
350.72	114.12
350.947	105.12
351.174	105.12
351.402	106.12
351.629	102.12
351.856	96.12
352.083	99.12
352.311	102.12
352.538	100.12
352.765	115.12
352.992	120.12
353.22	126.12
353.447	106.12
353.674	119.12
353.901	103.12
354.128	99.12
354.355	96.12
354.583	95.12
354.81	95.12
355.037	86.12
355.264	110.12
355.491	108.12
355.718	96.12
355.945	96.12
356.172	102.12
356.399	103.12
356.626	108.12
356.853	88.12
357.08	102.12
357.307	102.12
357.534	101.12
357.761	104.12
357.988	71.12
358.215	102.12
358.441	111.12
358.668	80.12
358.895	90.12
359.122	73.12
359.349	77.12
359.576	104.12
359.802	99.12
360.029	115.12
360.256	110.12
360.483	92.12
360.709	92.12
360.936	109.12
361.163	98.12
361.39	93.12
361.616	82.12
361.843	87.12
362.07	93.12
362.296	101.12
362.523	103.12
362.749	103.12
362.976	87.12
363.203	89.12
363.429	95.12
363.656	84.12
363.882	92.12
364.109	100.12
364.335	105.12
364.562	93.12
364.788	103.12
365.015	83.12
365.241	94.12
365.468	99.12
365.694	101.12
365.92	103.12
366.147	96.12
366.373	95.12
366.599	93.12
366.826	102.12
367.052	91.12
367.278	90.12
367.505	97.12
367.731	89.12
367.957	96.12
368.184	92.12
368.41	85.12
368.636	106.12
368.862	113.12
369.089	105.12
369.315	99.12
369.541	108.12
369.767	101.12
369.993	107.12
370.219	93.12
370.445	88.12
370.672	103.12
370.898	77.12
371.124	88.12
371.35	81.12
371.576	88.12
371.802	87.12
372.028	71.12
372.254	94.12
372.48	92.12
372.706	92.12
372.932	87.12
373.158	108.12
373.384	88.12
373.61	99.12
373.835	90.12
374.061	90.12
374.287	96.12
374.513	85.12
374.739	84.12
374.965	87.12
375.191	85.12
375.416	102.12
375.642	92.12
375.868	83.12
376.094	95.12
376.319	95.12
376.545	88.12
376.771	91.12
376.997	103.12
377.222	93.12
377.448	102.12
377.674	73.12
377.899	95.12
378.125	83.12
378.35	100.12
378.576	86.12
378.802	84.12
379.027	96.12
379.253	111.12
379.478	88.12
379.704	107.12
379.929	99.12
380.155	85.12
380.38	97.12
380.606	81.12
380.831	106.12
381.057	92.12
381.282	105.12
381.507	99.12
381.733	103.12
381.958	93.12
382.184	93.12
382.409	103.12
382.634	111.12
382.86	106.12
383.085	117.12
383.31	106.12
383.535	101.12
383.761	102.12
383.986	91.12
384.211	92.12
384.436	96.12
384.662	98.12
384.887	92.12
385.112	96.12
385.337	108.12
385.562	100.12
385.787	97.12
386.013	109.12
386.238	105.12
386.463	98.12
386.688	111.12
386.913	107.12
387.138	105.12
387.363	107.12
387.588	100.12
387.813	93.12
388.038	115.12
388.263	113.12
388.488	99.12
388.713	106.12
388.938	101.12
389.163	97.12
389.387	90.12
389.612	84.12
389.837	100.12
390.062	99.12
390.287	97.12
390.512	99.12
390.736	98.12
390.961	112.12
391.186	99.12
391.411	94.12
391.636	106.12
391.86	84.12
392.085	91.12
392.31	76.12
392.534	84.12
392.759	89.12
392.984	91.12
393.208	90.12
393.433	75.12
393.658	84.12
393.882	95.12
394.107	97.12
394.331	95.12
394.556	94.12
394.78	87.12
395.005	86.12
395.229	84.12
395.454	96.12
395.678	96.12
395.903	86.12
396.127	96.12
396.352	84.12
396.576	96.12
396.801	87.12
397.025	81.12
397.249	83.12
397.474	97.12
397.698	101.12
397.922	88.12
398.147	93.12
398.371	77.12
398.595	88.12
398.82	82.12
399.044	85.12
399.268	92.12
399.492	93.12
399.717	90.12
399.941	96.12
400.165	88.12
400.389	83.12
400.613	89.12
400.837	94.12
401.062	86.12
401.286	80.12
401.51	87.12
401.734	78.12
401.958	108.12
402.182	135.12
402.406	161.12
402.63	125.12
402.854	83.12
403.078	88.12
403.302	97.12
403.526	102.12
403.75	95.12
403.974	96.12
404.198	85.12
404.422	76.12
404.645	94.12
404.869	94.12
405.093	96.12
405.317	96.12
405.541	89.12
405.765	93.12
405.988	127.12
406.212	169.12
406.436	237.12
406.66	136.12
406.883	97.12
407.107	87.12
407.331	94.12
407.555	92.12
407.778	95.12
408.002	98.12
408.226	100.12
408.449	97.12
408.673	100.12
408.896	110.12
409.12	92.12
409.344	96.12
409.567	99.12
409.791	83.12
410.014	88.12
410.238	99.12
410.461	95.12
410.685	91.12
410.908	93.12
411.132	118.12
411.355	103.12
411.578	93.12
411.802	93.12
412.025	95.12
412.249	88.12
412.472	91.12
412.695	87.12
412.919	90.12
413.142	85.12
413.365	102.12
413.589	96.12
413.812	88.12
414.035	89.12
414.258	100.12
414.482	80.12
414.705	91.12
414.928	103.12
415.151	95.12
415.374	102.12
415.597	112.12
415.821	102.12
416.044	95.12
416.267	87.12
416.49	90.12
416.713	88.12
416.936	86.12
417.159	101.12
417.382	101.12
417.605	89.12
417.828	87.12
418.051	86.12
418.274	101.12
418.497	91.12
418.72	83.12
418.943	93.12
419.166	104.12
419.389	84.12
419.611	100.12
419.834	96.12
420.057	101.12
420.28	83.12
420.503	82.12
420.726	96.12
420.948	85.12
421.171	77.12
421.394	97.12
421.617	72.12
421.839	89.12
422.062	93.12
422.285	96.12
422.507	94.12
422.73	99.12
422.953	96.12
423.175	86.12
423.398	94.12
423.621	80.12
423.843	81.12
424.066	72.12
424.288	84.12
424.511	88.12
424.733	110.12
424.956	105.12
425.178	99.12
425.401	108.12
425.623	101.12
425.846	89.12
426.068	81.12
426.291	100.12
426.513	92.12
426.735	96.12
426.958	105.12
427.18	91.12
427.402	127.12
427.625	157.12
427.847	117.12
428.069	100.12
428.292	81.12
428.514	82.12
428.736	78.12
428.958	84.12
429.181	79.12
429.403	101.12
429.625	96.12
429.847	87.12
430.069	102.12
430.292	100.12
430.514	94.12
430.736	83.12
430.958	86.12
431.18	72.12
431.402	92.12
431.624	96.12
431.846	85.12
432.068	104.12
432.29	89.12
432.512	94.12
432.734	97.12
432.956	92.12
433.178	98.12
433.4	91.12
433.622	102.12
433.844	99.12
434.066	87.12
434.287	100.12
434.509	78.12
434.731	83.12
434.953	90.12
435.175	99.12
435.397	93.12
435.618	95.12
435.84	101.12
436.062	109.12
436.284	119.12
436.505	95.12
436.727	85.12
436.949	93.12
437.17	91.12
437.392	83.12
437.614	88.12
437.835	100.12
438.057	92.12
438.278	113.12
438.5	97.12
438.721	107.12
438.943	95.12
439.165	103.12
439.386	92.12
439.608	93.12
439.829	90.12
440.05	115.12
440.272	126.12
440.493	99.12
440.715	87.12
440.936	102.12
441.158	100.12
441.379	100.12
441.6	92.12
441.822	85.12
442.043	98.12
442.264	95.12
442.486	110.12
442.707	95.12
442.928	108.12
443.149	126.12
443.371	126.12
443.592	100.12
443.813	118.12
444.034	106.12
444.255	97.12
444.476	92.12
444.698	89.12
444.919	82.12
445.14	123.12
445.361	124.12
445.582	111.12
445.803	123.12
446.024	122.12
446.245	124.12
446.466	100.12
446.687	96.12
446.908	87.12
447.129	91.12
447.35	89.12
447.571	95.12
447.792	88.12
448.013	97.12
448.234	105.12
448.455	99.12
448.675	112.12
448.896	110.12
449.117	89.12
449.338	111.12
449.559	121.12
449.779	123.12
450	106.12
450.221	91.12
450.442	91.12
450.662	96.12
450.883	92.12
451.104	110.12
451.324	111.12
451.545	87.12
451.766	87.12
451.986	82.12
452.207	80.12
452.428	99.12
452.648	95.12
452.869	105.12
453.089	120.12
453.31	108.12
453.53	108.12
453.751	98.12
453.971	107.12
454.192	99.12
454.412	105.12
454.633	92.12
454.853	82.12
455.073	81.12
455.294	110.12
455.514	92.12
455.734	83.12
455.955	80.12
456.175	86.12
456.395	82.12
456.616	79.12
456.836	90.12
457.056	80.12
457.276	94.12
457.497	82.12
457.717	77.12
457.937	97.12
458.157	88.12
458.377	86.12
458.598	95.12
458.818	139.12
459.038	168.12
459.258	114.12
459.478	81.12
459.698	85.12
459.918	102.12
460.138	91.12
460.358	93.12
460.578	94.12
460.798	89.12
461.018	101.12
461.238	88.12
461.458	93.12
461.678	85.12
461.898	82.12
462.118	85.12
462.338	92.12
462.558	86.12
462.777	84.12
462.997	97.12
463.217	84.12
463.437	76.12
463.657	81.12
463.876	98.12
464.096	88.12
464.316	88.12
464.536	94.12
464.755	97.12
464.975	103.12
465.195	142.12
465.414	140.12
465.634	90.12
465.854	86.12
466.073	92.12
466.293	96.12
466.512	97.12
466.732	79.12
466.951	92.12
467.171	94.12
467.391	104.12
467.61	85.12
467.829	102.12
468.049	108.12
468.268	89.12
468.488	94.12
468.707	81.12
468.927	87.12
469.146	79.12
469.365	92.12
469.585	94.12
469.804	92.12
470.023	92.12
470.243	96.12
470.462	87.12
470.681	102.12
470.901	71.12
471.12	73.12
471.339	83.12
471.558	83.12
471.777	89.12
471.997	89.12
472.216	90.12
472.435	85.12
472.654	77.12
472.873	79.12
473.092	94.12
473.311	87.12
473.53	65.12
473.749	96.12
473.968	104.12
474.187	105.12
474.406	94.12
474.625	85.12
474.844	90.12
475.063	83.12
475.282	90.12
475.501	87.12
475.72	94.12
475.939	97.12
476.158	94.12
476.377	88.12
476.596	77.12
476.814	92.12
477.033	80.12
477.252	94.12
477.471	78.12
477.69	94.12
477.908	91.12
478.127	89.12
478.346	80.12
478.564	73.12
478.783	94.12
479.002	83.12
479.22	85.12
479.439	92.12
479.658	107.12
479.876	91.12
480.095	96.12
480.313	94.12
480.532	97.12
480.751	86.12
480.969	93.12
481.188	94.12
481.406	96.12
481.624	79.12
481.843	102.12
482.061	91.12
482.28	91.12
482.498	93.12
482.717	88.12
482.935	94.12
483.153	87.12
483.372	87.12
483.59	103.12
483.808	97.12
484.027	89.12
484.245	96.12
484.463	97.12
484.681	91.12
484.9	92.12
485.118	86.12
485.336	86.12
485.554	91.12
485.772	103.12
485.99	96.12
486.209	114.12
486.427	95.12
486.645	107.12
486.863	107.12
487.081	114.12
487.299	104.12
487.517	97.12
487.735	79.12
487.953	87.12
488.171	95.12
488.389	82.12
488.607	87.12
488.825	100.12
489.043	96.12
489.261	87.12
489.479	90.12
489.696	90.12
489.914	88.12
490.132	84.12
490.35	77.12
490.568	88.12
490.786	94.12
491.003	88.12
491.221	85.12
491.439	101.12
491.657	76.12
491.874	89.12
492.092	89.12
492.31	89.12
492.527	86.12
492.745	70.12
492.963	85.12
493.18	104.12
493.398	96.12
493.615	106.12
493.833	77.12
494.05	86.12
494.268	87.12
494.485	98.12
494.703	88.12
494.92	96.12
495.138	102.12
495.355	96.12
495.573	88.12
495.79	92.12
496.008	101.12
496.225	100.12
496.442	91.12
496.66	105.12
496.877	81.12
497.094	91.12
497.312	92.12
497.529	89.12
497.746	104.12
497.963	97.12
498.181	107.12
498.398	99.12
498.615	115.12
498.832	108.12
499.049	92.12
499.267	86.12
499.484	87.12
499.701	80.12
499.918	79.12
500.135	93.12
500.352	88.12
500.569	83.12
500.786	92.12
501.003	84.12
501.22	88.12
501.437	90.12
501.654	85.12
501.871	108.12
502.088	91.12
502.305	80.12
502.522	85.12
502.739	104.12
502.956	95.12
503.172	101.12
503.389	106.12
503.606	104.12
503.823	94.12
504.04	96.12
504.256	102.12
504.473	99.12
504.69	95.12
504.907	90.12
505.123	89.12
505.34	90.12
505.557	89.12
505.773	89.12
505.99	99.12
506.207	84.12
506.423	87.12
506.64	88.12
506.856	84.12
507.073	99.12
507.289	107.12
507.506	85.12
507.722	116.12
507.939	109.12
508.155	95.12
508.372	101.12
508.588	99.12
508.805	97.12
509.021	105.12
509.238	92.12
509.454	100.12
509.67	93.12
509.887	108.12
510.103	133.12
510.319	228.12
510.536	745.12
510.752	2382.12
510.968	670.12
511.184	153.12
511.401	128.12
511.617	97.12
511.833	97.12
512.049	104.12
512.265	100.12
512.481	78.12
512.698	93.12
512.914	95.12
513.13	104.12
513.346	89.12
513.562	92.12
513.778	92.12
513.994	114.12
514.21	99.12
514.426	118.12
514.642	118.12
514.858	138.12
