Data from Uncirc_2000_H10_HRD10591_00068.txt Node
Date: Wed Jan 03 10:48:30 EST 2024
User: Yrep
Spectrometer: HR+D1059
Trigger mode: 1
Integration Time (sec): 1.000000E-1
Scans to average: 1
Electric dark correction enabled: true
Nonlinearity correction enabled: false
Boxcar width: 0
XAxis mode: Wavelengths
Number of Pixels in Spectrum: 2048
>>>>>Begin Spectral Data<<<<<
223.165	-12.75
223.4	-12.75
223.635	-12.75
223.869	-11.75
224.104	-14.75
224.338	-23.75
224.573	-12.75
224.808	-23.75
225.042	-12.75
225.277	-12.75
225.511	-3.75
225.746	-4.75
225.98	18.25
226.215	25.25
226.449	11.25
226.683	27.25
226.918	24.25
227.152	27.25
227.387	43.25
227.621	32.25
227.856	33.25
228.09	51.25
228.324	33.25
228.559	55.25
228.793	48.25
229.027	56.25
229.262	62.25
229.496	79.25
229.73	77.25
229.964	75.25
230.199	77.25
230.433	69.25
230.667	89.25
230.901	76.25
231.136	62.25
231.37	84.25
231.604	81.25
231.838	84.25
232.072	75.25
232.306	80.25
232.541	73.25
232.775	88.25
233.009	69.25
233.243	71.25
233.477	80.25
233.711	71.25
233.945	84.25
234.179	97.25
234.413	75.25
234.647	76.25
234.881	82.25
235.115	74.25
235.349	63.25
235.583	71.25
235.817	57.25
236.051	82.25
236.285	73.25
236.519	85.25
236.753	75.25
236.987	78.25
237.221	77.25
237.455	89.25
237.689	80.25
237.922	67.25
238.156	84.25
238.39	85.25
238.624	63.25
238.858	83.25
239.091	88.25
239.325	84.25
239.559	89.25
239.793	77.25
240.027	83.25
240.26	74.25
240.494	80.25
240.728	67.25
240.961	75.25
241.195	78.25
241.429	78.25
241.662	77.25
241.896	70.25
242.13	59.25
242.363	73.25
242.597	74.25
242.83	85.25
243.064	74.25
243.298	76.25
243.531	80.25
243.765	71.25
243.998	75.25
244.232	68.25
244.465	83.25
244.699	78.25
244.932	67.25
245.166	70.25
245.399	71.25
245.633	81.25
245.866	92.25
246.099	77.25
246.333	74.25
246.566	66.25
246.8	76.25
247.033	74.25
247.266	78.25
247.5	76.25
247.733	67.25
247.966	73.25
248.2	93.25
248.433	79.25
248.666	67.25
248.899	82.25
249.133	76.25
249.366	88.25
249.599	88.25
249.832	83.25
250.066	95.25
250.299	90.25
250.532	75.25
250.765	78.25
250.998	79.25
251.231	87.25
251.465	72.25
251.698	85.25
251.931	73.25
252.164	84.25
252.397	84.25
252.63	92.25
252.863	59.25
253.096	83.25
253.329	75.25
253.562	81.25
253.795	81.25
254.028	89.25
254.261	81.25
254.494	75.25
254.727	83.25
254.96	73.25
255.193	82.25
255.426	90.25
255.659	81.25
255.892	78.25
256.124	81.25
256.357	78.25
256.59	83.25
256.823	78.25
257.056	83.25
257.289	93.25
257.521	76.25
257.754	72.25
257.987	75.25
258.22	79.25
258.452	68.25
258.685	86.25
258.918	73.25
259.151	88.25
259.383	73.25
259.616	79.25
259.849	86.25
260.081	80.25
260.314	86.25
260.547	69.25
260.779	92.25
261.012	94.25
261.244	88.25
261.477	102.25
261.71	100.25
261.942	90.25
262.175	98.25
262.407	85.25
262.64	79.25
262.872	84.25
263.105	91.25
263.337	88.25
263.57	87.25
263.802	92.25
264.035	86.25
264.267	77.25
264.499	85.25
264.732	80.25
264.964	81.25
265.197	86.25
265.429	93.25
265.661	79.25
265.894	71.25
266.126	88.25
266.358	91.25
266.591	85.25
266.823	83.25
267.055	87.25
267.287	70.25
267.52	74.25
267.752	89.25
267.984	80.25
268.216	78.25
268.448	90.25
268.681	71.25
268.913	81.25
269.145	79.25
269.377	86.25
269.609	96.25
269.841	71.25
270.073	60.25
270.306	94.25
270.538	88.25
270.77	77.25
271.002	78.25
271.234	87.25
271.466	75.25
271.698	91.25
271.93	88.25
272.162	92.25
272.394	85.25
272.626	80.25
272.858	77.25
273.09	83.25
273.322	85.25
273.553	93.25
273.785	88.25
274.017	92.25
274.249	84.25
274.481	81.25
274.713	84.25
274.945	81.25
275.176	84.25
275.408	89.25
275.64	95.25
275.872	79.25
276.104	86.25
276.335	83.25
276.567	80.25
276.799	104.25
277.031	100.25
277.262	99.25
277.494	88.25
277.726	75.25
277.957	88.25
278.189	85.25
278.421	89.25
278.652	80.25
278.884	91.25
279.115	88.25
279.347	92.25
279.579	75.25
279.81	105.25
280.042	88.25
280.273	69.25
280.505	79.25
280.736	90.25
280.968	86.25
281.199	79.25
281.431	95.25
281.662	81.25
281.894	84.25
282.125	100.25
282.356	114.25
282.588	131.25
282.819	97.25
283.051	95.25
283.282	89.25
283.513	87.25
283.745	83.25
283.976	98.25
284.207	90.25
284.439	92.25
284.67	94.25
284.901	101.25
285.132	86.25
285.364	87.25
285.595	74.25
285.826	75.25
286.057	83.25
286.288	90.25
286.52	89.25
286.751	76.25
286.982	98.25
287.213	90.25
287.444	102.25
287.675	101.25
287.906	106.25
288.138	86.25
288.369	94.25
288.6	101.25
288.831	87.25
289.062	70.25
289.293	90.25
289.524	93.25
289.755	91.25
289.986	86.25
290.217	79.25
290.448	83.25
290.679	94.25
290.91	80.25
291.141	75.25
291.371	87.25
291.602	82.25
291.833	81.25
292.064	93.25
292.295	79.25
292.526	74.25
292.757	86.25
292.987	86.25
293.218	84.25
293.449	97.25
293.68	92.25
293.91	94.25
294.141	75.25
294.372	91.25
294.603	90.25
294.833	84.25
295.064	92.25
295.295	84.25
295.525	91.25
295.756	107.25
295.987	103.25
296.217	134.25
296.448	125.25
296.679	92.25
296.909	104.25
297.14	93.25
297.37	90.25
297.601	77.25
297.831	72.25
298.062	78.25
298.292	100.25
298.523	96.25
298.753	88.25
298.984	91.25
299.214	91.25
299.445	104.25
299.675	88.25
299.905	85.25
300.136	91.25
300.366	101.25
300.597	99.25
300.827	99.25
301.057	109.25
301.288	108.25
301.518	88.25
301.748	75.25
301.979	88.25
302.209	103.25
302.439	93.25
302.669	95.25
302.9	81.25
303.13	91.25
303.36	95.25
303.59	114.25
303.82	92.25
304.051	90.25
304.281	89.25
304.511	103.25
304.741	94.25
304.971	80.25
305.201	82.25
305.431	96.25
305.661	94.25
305.891	98.25
306.121	92.25
306.352	95.25
306.582	92.25
306.812	97.25
307.042	94.25
307.272	92.25
307.502	86.25
307.731	81.25
307.961	81.25
308.191	88.25
308.421	86.25
308.651	86.25
308.881	86.25
309.111	82.25
309.341	81.25
309.571	95.25
309.8	102.25
310.03	91.25
310.26	86.25
310.49	91.25
310.72	89.25
310.949	111.25
311.179	96.25
311.409	85.25
311.639	90.25
311.868	101.25
312.098	88.25
312.328	85.25
312.557	106.25
312.787	92.25
313.017	100.25
313.246	104.25
313.476	90.25
313.706	97.25
313.935	97.25
314.165	91.25
314.394	93.25
314.624	90.25
314.853	96.25
315.083	98.25
315.312	78.25
315.542	96.25
315.771	79.25
316.001	93.25
316.23	93.25
316.46	93.25
316.689	88.25
316.919	101.25
317.148	97.25
317.377	89.25
317.607	99.25
317.836	86.25
318.065	74.25
318.295	87.25
318.524	74.25
318.753	102.25
318.983	87.25
319.212	103.25
319.441	106.25
319.67	103.25
319.9	104.25
320.129	93.25
320.358	87.25
320.587	87.25
320.816	105.25
321.046	105.25
321.275	100.25
321.504	86.25
321.733	86.25
321.962	103.25
322.191	104.25
322.42	100.25
322.649	94.25
322.878	118.25
323.108	119.25
323.337	122.25
323.566	127.25
323.795	153.25
324.024	204.25
324.253	404.25
324.482	849.25
324.71	1717.25
324.939	2234.25
325.168	791.25
325.397	239.25
325.626	136.25
325.855	129.25
326.084	132.25
326.313	123.25
326.542	156.25
326.77	238.25
326.999	486.25
327.228	963.25
327.457	1796.25
327.686	1383.25
327.914	356.25
328.143	177.25
328.372	141.25
328.6	118.25
328.829	111.25
329.058	121.25
329.287	131.25
329.515	112.25
329.744	96.25
329.972	91.25
330.201	83.25
330.43	91.25
330.658	118.25
330.887	145.25
331.115	111.25
331.344	100.25
331.572	103.25
331.801	105.25
332.03	98.25
332.258	94.25
332.486	92.25
332.715	87.25
332.943	103.25
333.172	102.25
333.4	91.25
333.629	116.25
333.857	93.25
334.085	89.25
334.314	83.25
334.542	83.25
334.771	93.25
334.999	99.25
335.227	94.25
335.455	99.25
335.684	95.25
335.912	87.25
336.14	88.25
336.369	102.25
336.597	98.25
336.825	91.25
337.053	96.25
337.281	88.25
337.51	79.25
337.738	89.25
337.966	105.25
338.194	103.25
338.422	96.25
338.65	76.25
338.878	78.25
339.106	103.25
339.334	89.25
339.562	82.25
339.79	74.25
340.018	87.25
340.246	97.25
340.474	95.25
340.702	95.25
340.93	103.25
341.158	92.25
341.386	96.25
341.614	99.25
341.842	95.25
342.07	85.25
342.298	89.25
342.526	85.25
342.754	97.25
342.981	80.25
343.209	83.25
343.437	93.25
343.665	83.25
343.893	98.25
344.12	89.25
344.348	77.25
344.576	80.25
344.804	78.25
345.031	81.25
345.259	109.25
345.487	80.25
345.714	94.25
345.942	93.25
346.17	96.25
346.397	76.25
346.625	102.25
346.853	94.25
347.08	96.25
347.308	88.25
347.535	88.25
347.763	85.25
347.99	94.25
348.218	103.25
348.445	108.25
348.673	109.25
348.9	101.25
349.128	102.25
349.355	106.25
349.583	93.25
349.81	96.25
350.037	95.25
350.265	102.25
350.492	84.25
350.72	91.25
350.947	107.25
351.174	103.25
351.402	100.25
351.629	113.25
351.856	100.25
352.083	108.25
352.311	98.25
352.538	104.25
352.765	101.25
352.992	107.25
353.22	100.25
353.447	90.25
353.674	107.25
353.901	111.25
354.128	89.25
354.355	100.25
354.583	100.25
354.81	110.25
355.037	93.25
355.264	85.25
355.491	91.25
355.718	92.25
355.945	105.25
356.172	84.25
356.399	92.25
356.626	86.25
356.853	100.25
357.08	85.25
357.307	95.25
357.534	93.25
357.761	98.25
357.988	90.25
358.215	93.25
358.441	99.25
358.668	95.25
358.895	91.25
359.122	101.25
359.349	96.25
359.576	97.25
359.802	98.25
360.029	111.25
360.256	89.25
360.483	105.25
360.709	90.25
360.936	91.25
361.163	93.25
361.39	89.25
361.616	100.25
361.843	89.25
362.07	90.25
362.296	100.25
362.523	80.25
362.749	87.25
362.976	77.25
363.203	86.25
363.429	97.25
363.656	83.25
363.882	92.25
364.109	91.25
364.335	75.25
364.562	69.25
364.788	81.25
365.015	81.25
365.241	91.25
365.468	99.25
365.694	98.25
365.92	92.25
366.147	97.25
366.373	85.25
366.599	93.25
366.826	91.25
367.052	89.25
367.278	93.25
367.505	85.25
367.731	85.25
367.957	93.25
368.184	106.25
368.41	97.25
368.636	107.25
368.862	107.25
369.089	109.25
369.315	97.25
369.541	101.25
369.767	87.25
369.993	93.25
370.219	76.25
370.445	80.25
370.672	82.25
370.898	87.25
371.124	88.25
371.35	82.25
371.576	91.25
371.802	76.25
372.028	87.25
372.254	91.25
372.48	77.25
372.706	83.25
372.932	100.25
373.158	103.25
373.384	93.25
373.61	99.25
373.835	99.25
374.061	87.25
374.287	90.25
374.513	86.25
374.739	85.25
374.965	88.25
375.191	85.25
375.416	91.25
375.642	95.25
375.868	100.25
376.094	95.25
376.319	91.25
376.545	96.25
376.771	92.25
376.997	84.25
377.222	91.25
377.448	79.25
377.674	80.25
377.899	100.25
378.125	92.25
378.35	98.25
378.576	87.25
378.802	102.25
379.027	99.25
379.253	92.25
379.478	103.25
379.704	81.25
379.929	89.25
380.155	81.25
380.38	88.25
380.606	97.25
380.831	79.25
381.057	100.25
381.282	97.25
381.507	96.25
381.733	97.25
381.958	93.25
382.184	89.25
382.409	99.25
382.634	100.25
382.86	98.25
383.085	95.25
383.31	120.25
383.535	101.25
383.761	105.25
383.986	105.25
384.211	109.25
384.436	84.25
384.662	92.25
384.887	103.25
385.112	106.25
385.337	100.25
385.562	108.25
385.787	92.25
386.013	98.25
386.238	105.25
386.463	98.25
386.688	99.25
386.913	90.25
387.138	109.25
387.363	104.25
387.588	99.25
387.813	104.25
388.038	96.25
388.263	104.25
388.488	97.25
388.713	102.25
388.938	97.25
389.163	92.25
389.387	101.25
389.612	86.25
389.837	88.25
390.062	87.25
390.287	92.25
390.512	86.25
390.736	93.25
390.961	90.25
391.186	96.25
391.411	88.25
391.636	101.25
391.86	80.25
392.085	75.25
392.31	82.25
392.534	76.25
392.759	84.25
392.984	99.25
393.208	87.25
393.433	80.25
393.658	103.25
393.882	86.25
394.107	94.25
394.331	88.25
394.556	92.25
394.78	88.25
395.005	95.25
395.229	76.25
395.454	86.25
395.678	85.25
395.903	88.25
396.127	80.25
396.352	90.25
396.576	80.25
396.801	88.25
397.025	98.25
397.249	87.25
397.474	84.25
397.698	84.25
397.922	83.25
398.147	85.25
398.371	84.25
398.595	87.25
398.82	79.25
399.044	91.25
399.268	82.25
399.492	81.25
399.717	101.25
399.941	86.25
400.165	81.25
400.389	86.25
400.613	92.25
400.837	80.25
401.062	83.25
401.286	77.25
401.51	81.25
401.734	88.25
401.958	102.25
402.182	119.25
402.406	149.25
402.63	102.25
402.854	85.25
403.078	74.25
403.302	76.25
403.526	70.25
403.75	85.25
403.974	81.25
404.198	98.25
404.422	77.25
404.645	80.25
404.869	92.25
405.093	91.25
405.317	98.25
405.541	89.25
405.765	97.25
405.988	102.25
406.212	161.25
406.436	199.25
406.66	132.25
406.883	87.25
407.107	97.25
407.331	95.25
407.555	80.25
407.778	97.25
408.002	95.25
408.226	86.25
408.449	93.25
408.673	90.25
408.896	97.25
409.12	90.25
409.344	82.25
409.567	84.25
409.791	88.25
410.014	90.25
410.238	99.25
410.461	84.25
410.685	90.25
410.908	98.25
411.132	84.25
411.355	90.25
411.578	90.25
411.802	90.25
412.025	85.25
412.249	75.25
412.472	93.25
412.695	94.25
412.919	93.25
413.142	83.25
413.365	82.25
413.589	84.25
413.812	88.25
414.035	94.25
414.258	89.25
414.482	90.25
414.705	82.25
414.928	94.25
415.151	92.25
415.374	88.25
415.597	90.25
415.821	88.25
416.044	89.25
416.267	92.25
416.49	75.25
416.713	99.25
416.936	84.25
417.159	74.25
417.382	95.25
417.605	83.25
417.828	98.25
418.051	95.25
418.274	86.25
418.497	95.25
418.72	92.25
418.943	82.25
419.166	83.25
419.389	88.25
419.611	93.25
419.834	83.25
420.057	86.25
420.28	96.25
420.503	91.25
420.726	92.25
420.948	89.25
421.171	92.25
421.394	80.25
421.617	86.25
421.839	95.25
422.062	95.25
422.285	97.25
422.507	98.25
422.73	90.25
422.953	83.25
423.175	76.25
423.398	87.25
423.621	94.25
423.843	88.25
424.066	93.25
424.288	87.25
424.511	89.25
424.733	83.25
424.956	97.25
425.178	88.25
425.401	88.25
425.623	87.25
425.846	93.25
426.068	93.25
426.291	88.25
426.513	91.25
426.735	87.25
426.958	83.25
427.18	102.25
427.402	138.25
427.625	153.25
427.847	115.25
428.069	92.25
428.292	76.25
428.514	80.25
428.736	92.25
428.958	80.25
429.181	80.25
429.403	81.25
429.625	81.25
429.847	91.25
430.069	86.25
430.292	83.25
430.514	92.25
430.736	74.25
430.958	93.25
431.18	95.25
431.402	90.25
431.624	84.25
431.846	84.25
432.068	87.25
432.29	88.25
432.512	87.25
432.734	92.25
432.956	83.25
433.178	100.25
433.4	100.25
433.622	93.25
433.844	88.25
434.066	88.25
434.287	81.25
434.509	87.25
434.731	84.25
434.953	82.25
435.175	101.25
435.397	83.25
435.618	76.25
435.84	97.25
436.062	116.25
436.284	104.25
436.505	103.25
436.727	104.25
436.949	93.25
437.17	77.25
437.392	93.25
437.614	107.25
437.835	100.25
438.057	107.25
438.278	98.25
438.5	76.25
438.721	119.25
438.943	100.25
439.165	89.25
439.386	90.25
439.608	87.25
439.829	100.25
440.05	109.25
440.272	132.25
440.493	93.25
440.715	82.25
440.936	83.25
441.158	101.25
441.379	82.25
441.6	81.25
441.822	99.25
442.043	84.25
442.264	85.25
442.486	88.25
442.707	87.25
442.928	99.25
443.149	121.25
443.371	135.25
443.592	98.25
443.813	103.25
444.034	98.25
444.255	96.25
444.476	102.25
444.698	73.25
444.919	89.25
445.14	147.25
445.361	116.25
445.582	109.25
445.803	119.25
446.024	121.25
446.245	119.25
446.466	102.25
446.687	95.25
446.908	94.25
447.129	85.25
447.35	80.25
447.571	92.25
447.792	88.25
448.013	94.25
448.234	111.25
448.455	79.25
448.675	106.25
448.896	117.25
449.117	113.25
449.338	120.25
449.559	116.25
449.779	116.25
450	97.25
450.221	104.25
450.442	90.25
450.662	77.25
450.883	108.25
451.104	100.25
451.324	88.25
451.545	90.25
451.766	93.25
451.986	88.25
452.207	81.25
452.428	98.25
452.648	100.25
452.869	91.25
453.089	91.25
453.31	100.25
453.53	96.25
453.751	80.25
453.971	91.25
454.192	86.25
454.412	84.25
454.633	79.25
454.853	92.25
455.073	82.25
455.294	84.25
455.514	89.25
455.734	81.25
455.955	70.25
456.175	89.25
456.395	92.25
456.616	92.25
456.836	94.25
457.056	88.25
457.276	84.25
457.497	83.25
457.717	74.25
457.937	74.25
458.157	89.25
458.377	101.25
458.598	108.25
458.818	137.25
459.038	147.25
459.258	96.25
459.478	94.25
459.698	93.25
459.918	83.25
460.138	82.25
460.358	93.25
460.578	78.25
460.798	91.25
461.018	100.25
461.238	80.25
461.458	80.25
461.678	103.25
461.898	82.25
462.118	91.25
462.338	80.25
462.558	86.25
462.777	83.25
462.997	84.25
463.217	81.25
463.437	92.25
463.657	83.25
463.876	98.25
464.096	85.25
464.316	91.25
464.536	101.25
464.755	110.25
464.975	111.25
465.195	149.25
465.414	146.25
465.634	98.25
465.854	80.25
466.073	101.25
466.293	90.25
466.512	86.25
466.732	81.25
466.951	92.25
467.171	84.25
467.391	88.25
467.61	85.25
467.829	92.25
468.049	85.25
468.268	87.25
468.488	76.25
468.707	79.25
468.927	85.25
469.146	77.25
469.365	73.25
469.585	91.25
469.804	96.25
470.023	93.25
470.243	87.25
470.462	101.25
470.681	95.25
470.901	98.25
471.12	77.25
471.339	71.25
471.558	86.25
471.777	94.25
471.997	100.25
472.216	81.25
472.435	88.25
472.654	70.25
472.873	80.25
473.092	80.25
473.311	78.25
473.53	91.25
473.749	81.25
473.968	71.25
474.187	91.25
474.406	107.25
474.625	77.25
474.844	82.25
475.063	73.25
475.282	76.25
475.501	103.25
475.72	78.25
475.939	76.25
476.158	97.25
476.377	87.25
476.596	79.25
476.814	82.25
477.033	95.25
477.252	81.25
477.471	91.25
477.69	87.25
477.908	92.25
478.127	82.25
478.346	100.25
478.564	85.25
478.783	99.25
479.002	91.25
479.22	96.25
479.439	90.25
479.658	88.25
479.876	87.25
480.095	86.25
480.313	90.25
480.532	84.25
480.751	88.25
480.969	103.25
481.188	90.25
481.406	70.25
481.624	90.25
481.843	101.25
482.061	79.25
482.28	84.25
482.498	80.25
482.717	83.25
482.935	99.25
483.153	99.25
483.372	81.25
483.59	87.25
483.808	98.25
484.027	83.25
484.245	89.25
484.463	93.25
484.681	96.25
484.9	107.25
485.118	94.25
485.336	92.25
485.554	98.25
485.772	104.25
485.99	111.25
486.209	115.25
486.427	93.25
486.645	101.25
486.863	104.25
487.081	95.25
487.299	88.25
487.517	74.25
487.735	99.25
487.953	85.25
488.171	86.25
488.389	83.25
488.607	105.25
488.825	101.25
489.043	93.25
489.261	80.25
489.479	91.25
489.696	86.25
489.914	93.25
490.132	93.25
490.35	98.25
490.568	102.25
490.786	76.25
491.003	78.25
491.221	91.25
491.439	88.25
491.657	95.25
491.874	99.25
492.092	95.25
492.31	95.25
492.527	85.25
492.745	82.25
492.963	89.25
493.18	92.25
493.398	86.25
493.615	84.25
493.833	104.25
494.05	93.25
494.268	94.25
494.485	92.25
494.703	97.25
494.92	85.25
495.138	87.25
495.355	92.25
495.573	93.25
495.79	85.25
496.008	89.25
496.225	96.25
496.442	89.25
496.66	86.25
496.877	98.25
497.094	91.25
497.312	88.25
497.529	89.25
497.746	95.25
497.963	91.25
498.181	84.25
498.398	105.25
498.615	112.25
498.832	119.25
499.049	85.25
499.267	92.25
499.484	83.25
499.701	87.25
499.918	103.25
500.135	81.25
500.352	92.25
500.569	86.25
500.786	87.25
501.003	109.25
501.22	85.25
501.437	85.25
501.654	88.25
501.871	116.25
502.088	95.25
502.305	74.25
502.522	82.25
502.739	91.25
502.956	90.25
503.172	96.25
503.389	100.25
503.606	98.25
503.823	89.25
504.04	78.25
504.256	118.25
504.473	98.25
504.69	98.25
504.907	109.25
505.123	84.25
505.34	98.25
505.557	95.25
505.773	81.25
505.99	93.25
506.207	97.25
506.423	86.25
506.64	73.25
506.856	97.25
507.073	97.25
507.289	99.25
507.506	95.25
507.722	107.25
507.939	93.25
508.155	79.25
508.372	98.25
508.588	91.25
508.805	92.25
509.021	97.25
509.238	88.25
509.454	93.25
509.67	98.25
509.887	110.25
510.103	118.25
510.319	201.25
510.536	747.25
510.752	2313.25
510.968	632.25
511.184	151.25
511.401	106.25
511.617	106.25
511.833	82.25
512.049	89.25
512.265	76.25
512.481	90.25
512.698	103.25
512.914	93.25
513.13	89.25
513.346	88.25
513.562	90.25
513.778	92.25
513.994	114.25
514.21	100.25
514.426	120.25
514.642	130.25
514.858	104.25
515.074	157.25
515.29	410.25
515.506	1372.25
515.721	479.25
515.937	153.25
516.153	122.25
516.369	83.25
