Data from Uncirc_2000_H10_HRD10591_00025.txt Node
Date: Wed Jan 03 10:48:22 EST 2024
User: Yrep
Spectrometer: HR+D1059
Trigger mode: 1
Integration Time (sec): 1.000000E-1
Scans to average: 1
Electric dark correction enabled: true
Nonlinearity correction enabled: false
Boxcar width: 0
XAxis mode: Wavelengths
Number of Pixels in Spectrum: 2048
>>>>>Begin Spectral Data<<<<<
223.165	-17.31
223.4	-17.31
223.635	-17.31
223.869	-21.31
224.104	-19.31
224.338	-13.31
224.573	-18.31
224.808	-8.31
225.042	6.69
225.277	-13.31
225.511	-3.31
225.746	9.69
225.98	3.69
226.215	8.69
226.449	13.69
226.683	31.69
226.918	16.69
227.152	23.69
227.387	38.69
227.621	52.69
227.856	49.69
228.09	40.69
228.324	54.69
228.559	74.69
228.793	66.69
229.027	61.69
229.262	75.69
229.496	78.69
229.73	84.69
229.964	87.69
230.199	79.69
230.433	86.69
230.667	82.69
230.901	90.69
231.136	85.69
231.37	82.69
231.604	86.69
231.838	84.69
232.072	80.69
232.306	90.69
232.541	88.69
232.775	84.69
233.009	79.69
233.243	73.69
233.477	83.69
233.711	81.69
233.945	75.69
234.179	79.69
234.413	73.69
234.647	94.69
234.881	90.69
235.115	82.69
235.349	73.69
235.583	88.69
235.817	90.69
236.051	88.69
236.285	83.69
236.519	76.69
236.753	91.69
236.987	84.69
237.221	96.69
237.455	93.69
237.689	74.69
237.922	82.69
238.156	78.69
238.39	73.69
238.624	72.69
238.858	76.69
239.091	88.69
239.325	71.69
239.559	85.69
239.793	83.69
240.027	81.69
240.26	78.69
240.494	89.69
240.728	84.69
240.961	77.69
241.195	90.69
241.429	85.69
241.662	86.69
241.896	72.69
242.13	82.69
242.363	82.69
242.597	87.69
242.83	82.69
243.064	77.69
243.298	66.69
243.531	71.69
243.765	84.69
243.998	76.69
244.232	86.69
244.465	82.69
244.699	92.69
244.932	57.69
245.166	78.69
245.399	73.69
245.633	96.69
245.866	76.69
246.099	91.69
246.333	80.69
246.566	74.69
246.8	69.69
247.033	77.69
247.266	86.69
247.5	73.69
247.733	83.69
247.966	83.69
248.2	82.69
248.433	90.69
248.666	90.69
248.899	89.69
249.133	86.69
249.366	100.69
249.599	100.69
249.832	76.69
250.066	82.69
250.299	59.69
250.532	80.69
250.765	83.69
250.998	75.69
251.231	89.69
251.465	84.69
251.698	90.69
251.931	74.69
252.164	82.69
252.397	78.69
252.63	74.69
252.863	82.69
253.096	83.69
253.329	82.69
253.562	93.69
253.795	83.69
254.028	72.69
254.261	92.69
254.494	83.69
254.727	88.69
254.96	88.69
255.193	86.69
255.426	79.69
255.659	85.69
255.892	78.69
256.124	77.69
256.357	91.69
256.59	70.69
256.823	100.69
257.056	85.69
257.289	76.69
257.521	82.69
257.754	74.69
257.987	73.69
258.22	85.69
258.452	85.69
258.685	96.69
258.918	87.69
259.151	74.69
259.383	84.69
259.616	78.69
259.849	74.69
260.081	82.69
260.314	94.69
260.547	94.69
260.779	86.69
261.012	79.69
261.244	63.69
261.477	99.69
261.71	78.69
261.942	109.69
262.175	118.69
262.407	89.69
262.64	92.69
262.872	74.69
263.105	88.69
263.337	78.69
263.57	74.69
263.802	81.69
264.035	84.69
264.267	84.69
264.499	81.69
264.732	82.69
264.964	83.69
265.197	80.69
265.429	89.69
265.661	80.69
265.894	99.69
266.126	89.69
266.358	80.69
266.591	70.69
266.823	88.69
267.055	72.69
267.287	107.69
267.52	87.69
267.752	92.69
267.984	96.69
268.216	86.69
268.448	83.69
268.681	85.69
268.913	96.69
269.145	79.69
269.377	72.69
269.609	88.69
269.841	85.69
270.073	88.69
270.306	72.69
270.538	96.69
270.77	88.69
271.002	89.69
271.234	85.69
271.466	93.69
271.698	81.69
271.93	88.69
272.162	86.69
272.394	71.69
272.626	74.69
272.858	75.69
273.09	95.69
273.322	75.69
273.553	84.69
273.785	78.69
274.017	80.69
274.249	76.69
274.481	84.69
274.713	95.69
274.945	90.69
275.176	79.69
275.408	90.69
275.64	104.69
275.872	90.69
276.104	94.69
276.335	92.69
276.567	93.69
276.799	103.69
277.031	107.69
277.262	88.69
277.494	97.69
277.726	76.69
277.957	89.69
278.189	93.69
278.421	87.69
278.652	78.69
278.884	92.69
279.115	94.69
279.347	95.69
279.579	91.69
279.81	87.69
280.042	88.69
280.273	93.69
280.505	88.69
280.736	90.69
280.968	86.69
281.199	90.69
281.431	85.69
281.662	89.69
281.894	96.69
282.125	98.69
282.356	110.69
282.588	119.69
282.819	111.69
283.051	90.69
283.282	84.69
283.513	96.69
283.745	87.69
283.976	76.69
284.207	87.69
284.439	84.69
284.67	101.69
284.901	92.69
285.132	87.69
285.364	91.69
285.595	94.69
285.826	96.69
286.057	89.69
286.288	101.69
286.52	82.69
286.751	87.69
286.982	77.69
287.213	95.69
287.444	99.69
287.675	86.69
287.906	90.69
288.138	98.69
288.369	78.69
288.6	73.69
288.831	79.69
289.062	85.69
289.293	90.69
289.524	93.69
289.755	91.69
289.986	95.69
290.217	86.69
290.448	79.69
290.679	93.69
290.91	88.69
291.141	82.69
291.371	82.69
291.602	101.69
291.833	93.69
292.064	91.69
292.295	83.69
292.526	87.69
292.757	89.69
292.987	86.69
293.218	83.69
293.449	90.69
293.68	86.69
293.91	96.69
294.141	100.69
294.372	92.69
294.603	80.69
294.833	82.69
295.064	89.69
295.295	95.69
295.525	108.69
295.756	93.69
295.987	112.69
296.217	131.69
296.448	110.69
296.679	104.69
296.909	87.69
297.14	99.69
297.37	88.69
297.601	85.69
297.831	102.69
298.062	88.69
298.292	94.69
298.523	88.69
298.753	91.69
298.984	81.69
299.214	93.69
299.445	80.69
299.675	96.69
299.905	91.69
300.136	89.69
300.366	95.69
300.597	82.69
300.827	86.69
301.057	114.69
301.288	89.69
301.518	95.69
301.748	99.69
301.979	104.69
302.209	93.69
302.439	89.69
302.669	100.69
302.9	96.69
303.13	100.69
303.36	100.69
303.59	92.69
303.82	110.69
304.051	114.69
304.281	84.69
304.511	90.69
304.741	95.69
304.971	85.69
305.201	86.69
305.431	88.69
305.661	85.69
305.891	89.69
306.121	91.69
306.352	90.69
306.582	104.69
306.812	93.69
307.042	78.69
307.272	87.69
307.502	102.69
307.731	96.69
307.961	95.69
308.191	103.69
308.421	101.69
308.651	95.69
308.881	97.69
309.111	92.69
309.341	88.69
309.571	113.69
309.8	101.69
310.03	85.69
310.26	102.69
310.49	80.69
310.72	101.69
310.949	88.69
311.179	105.69
311.409	77.69
311.639	101.69
311.868	111.69
312.098	99.69
312.328	89.69
312.557	90.69
312.787	95.69
313.017	101.69
313.246	76.69
313.476	96.69
313.706	107.69
313.935	96.69
314.165	115.69
314.394	96.69
314.624	86.69
314.853	89.69
315.083	95.69
315.312	96.69
315.542	91.69
315.771	85.69
316.001	101.69
316.23	86.69
316.46	78.69
316.689	90.69
316.919	79.69
317.148	91.69
317.377	95.69
317.607	89.69
317.836	93.69
318.065	89.69
318.295	87.69
318.524	102.69
318.753	86.69
318.983	90.69
319.212	103.69
319.441	114.69
319.67	107.69
319.9	100.69
320.129	106.69
320.358	93.69
320.587	94.69
320.816	92.69
321.046	100.69
321.275	105.69
321.504	94.69
321.733	87.69
321.962	93.69
322.191	109.69
322.42	94.69
322.649	106.69
322.878	115.69
323.108	119.69
323.337	116.69
323.566	131.69
323.795	149.69
324.024	209.69
324.253	377.69
324.482	794.69
324.71	1619.69
324.939	2096.69
325.168	775.69
325.397	224.69
325.626	159.69
325.855	130.69
326.084	132.69
326.313	126.69
326.542	148.69
326.77	240.69
326.999	448.69
327.228	886.69
327.457	1626.69
327.686	1298.69
327.914	355.69
328.143	174.69
328.372	149.69
328.6	115.69
328.829	106.69
329.058	99.69
329.287	128.69
329.515	95.69
329.744	101.69
329.972	107.69
330.201	102.69
330.43	100.69
330.658	122.69
330.887	134.69
331.115	110.69
331.344	110.69
331.572	106.69
331.801	104.69
332.03	88.69
332.258	96.69
332.486	95.69
332.715	94.69
332.943	90.69
333.172	104.69
333.4	96.69
333.629	98.69
333.857	102.69
334.085	107.69
334.314	95.69
334.542	105.69
334.771	111.69
334.999	101.69
335.227	93.69
335.455	99.69
335.684	104.69
335.912	98.69
336.14	118.69
336.369	96.69
336.597	97.69
336.825	112.69
337.053	86.69
337.281	96.69
337.51	97.69
337.738	100.69
337.966	96.69
338.194	99.69
338.422	74.69
338.65	95.69
338.878	95.69
339.106	96.69
339.334	96.69
339.562	88.69
339.79	94.69
340.018	76.69
340.246	93.69
340.474	95.69
340.702	103.69
340.93	81.69
341.158	87.69
341.386	95.69
341.614	108.69
341.842	103.69
342.07	101.69
342.298	74.69
342.526	77.69
342.754	95.69
342.981	87.69
343.209	85.69
343.437	106.69
343.665	98.69
343.893	85.69
344.12	91.69
344.348	93.69
344.576	95.69
344.804	82.69
345.031	86.69
345.259	87.69
345.487	101.69
345.714	102.69
345.942	91.69
346.17	96.69
346.397	98.69
346.625	86.69
346.853	90.69
347.08	99.69
347.308	88.69
347.535	96.69
347.763	74.69
347.99	92.69
348.218	95.69
348.445	119.69
348.673	91.69
348.9	104.69
349.128	103.69
349.355	90.69
349.583	102.69
349.81	87.69
350.037	98.69
350.265	99.69
350.492	95.69
350.72	104.69
350.947	89.69
351.174	109.69
351.402	109.69
351.629	100.69
351.856	89.69
352.083	99.69
352.311	102.69
352.538	96.69
352.765	101.69
352.992	97.69
353.22	112.69
353.447	104.69
353.674	110.69
353.901	107.69
354.128	102.69
354.355	107.69
354.583	102.69
354.81	110.69
355.037	101.69
355.264	95.69
355.491	86.69
355.718	102.69
355.945	83.69
356.172	83.69
356.399	94.69
356.626	91.69
356.853	87.69
357.08	90.69
357.307	90.69
357.534	102.69
357.761	85.69
357.988	96.69
358.215	88.69
358.441	96.69
358.668	81.69
358.895	86.69
359.122	81.69
359.349	102.69
359.576	95.69
359.802	113.69
360.029	111.69
360.256	106.69
360.483	89.69
360.709	99.69
360.936	108.69
361.163	91.69
361.39	90.69
361.616	104.69
361.843	92.69
362.07	80.69
362.296	93.69
362.523	93.69
362.749	106.69
362.976	82.69
363.203	89.69
363.429	87.69
363.656	102.69
363.882	103.69
364.109	92.69
364.335	100.69
364.562	76.69
364.788	87.69
365.015	85.69
365.241	104.69
365.468	127.69
365.694	107.69
365.92	99.69
366.147	93.69
366.373	83.69
366.599	83.69
366.826	102.69
367.052	78.69
367.278	101.69
367.505	94.69
367.731	94.69
367.957	84.69
368.184	94.69
368.41	104.69
368.636	122.69
368.862	123.69
369.089	102.69
369.315	95.69
369.541	98.69
369.767	90.69
369.993	75.69
370.219	91.69
370.445	92.69
370.672	110.69
370.898	85.69
371.124	101.69
371.35	84.69
371.576	94.69
371.802	75.69
372.028	79.69
372.254	93.69
372.48	93.69
372.706	98.69
372.932	89.69
373.158	94.69
373.384	93.69
373.61	94.69
373.835	98.69
374.061	94.69
374.287	84.69
374.513	94.69
374.739	88.69
374.965	86.69
375.191	83.69
375.416	92.69
375.642	100.69
375.868	95.69
376.094	96.69
376.319	95.69
376.545	94.69
376.771	105.69
376.997	90.69
377.222	90.69
377.448	86.69
377.674	82.69
377.899	86.69
378.125	83.69
378.35	88.69
378.576	75.69
378.802	90.69
379.027	95.69
379.253	98.69
379.478	92.69
379.704	101.69
379.929	100.69
380.155	100.69
380.38	90.69
380.606	98.69
380.831	101.69
381.057	93.69
381.282	90.69
381.507	88.69
381.733	101.69
381.958	88.69
382.184	95.69
382.409	95.69
382.634	103.69
382.86	92.69
383.085	104.69
383.31	94.69
383.535	118.69
383.761	87.69
383.986	84.69
384.211	93.69
384.436	109.69
384.662	109.69
384.887	112.69
385.112	105.69
385.337	106.69
385.562	102.69
385.787	118.69
386.013	107.69
386.238	90.69
386.463	107.69
386.688	130.69
386.913	116.69
387.138	105.69
387.363	100.69
387.588	101.69
387.813	100.69
388.038	109.69
388.263	97.69
388.488	111.69
388.713	104.69
388.938	94.69
389.163	104.69
389.387	87.69
389.612	80.69
389.837	96.69
390.062	105.69
390.287	93.69
390.512	83.69
390.736	92.69
390.961	91.69
391.186	84.69
391.411	103.69
391.636	80.69
391.86	102.69
392.085	84.69
392.31	96.69
392.534	83.69
392.759	95.69
392.984	92.69
393.208	92.69
393.433	95.69
393.658	98.69
393.882	98.69
394.107	96.69
394.331	88.69
394.556	89.69
394.78	105.69
395.005	86.69
395.229	88.69
395.454	96.69
395.678	86.69
395.903	105.69
396.127	107.69
396.352	83.69
396.576	92.69
396.801	106.69
397.025	88.69
397.249	84.69
397.474	82.69
397.698	100.69
397.922	85.69
398.147	101.69
398.371	92.69
398.595	86.69
398.82	99.69
399.044	95.69
399.268	74.69
399.492	98.69
399.717	85.69
399.941	83.69
400.165	95.69
400.389	93.69
400.613	91.69
400.837	94.69
401.062	92.69
401.286	91.69
401.51	86.69
401.734	98.69
401.958	107.69
402.182	107.69
402.406	149.69
402.63	98.69
402.854	86.69
403.078	94.69
403.302	90.69
403.526	92.69
403.75	81.69
403.974	104.69
404.198	105.69
404.422	91.69
404.645	92.69
404.869	104.69
405.093	88.69
405.317	87.69
405.541	92.69
405.765	103.69
405.988	116.69
406.212	148.69
406.436	185.69
406.66	129.69
406.883	92.69
407.107	107.69
407.331	87.69
407.555	101.69
407.778	104.69
408.002	89.69
408.226	81.69
408.449	103.69
408.673	100.69
408.896	100.69
409.12	83.69
409.344	83.69
409.567	82.69
409.791	104.69
410.014	83.69
410.238	90.69
410.461	93.69
410.685	89.69
410.908	80.69
411.132	109.69
411.355	99.69
411.578	79.69
411.802	86.69
412.025	95.69
412.249	78.69
412.472	100.69
412.695	84.69
412.919	74.69
413.142	81.69
413.365	85.69
413.589	86.69
413.812	102.69
414.035	101.69
414.258	87.69
414.482	85.69
414.705	96.69
414.928	93.69
415.151	97.69
415.374	95.69
415.597	94.69
415.821	95.69
416.044	104.69
416.267	88.69
416.49	100.69
416.713	99.69
416.936	78.69
417.159	82.69
417.382	87.69
417.605	90.69
417.828	79.69
418.051	80.69
418.274	92.69
418.497	87.69
418.72	94.69
418.943	80.69
419.166	79.69
419.389	88.69
419.611	84.69
419.834	94.69
420.057	89.69
420.28	87.69
420.503	92.69
420.726	90.69
420.948	94.69
421.171	84.69
421.394	85.69
421.617	95.69
421.839	89.69
422.062	84.69
422.285	94.69
422.507	97.69
422.73	108.69
422.953	91.69
423.175	87.69
423.398	96.69
423.621	90.69
423.843	83.69
424.066	93.69
424.288	91.69
424.511	93.69
424.733	94.69
424.956	99.69
425.178	95.69
425.401	114.69
425.623	106.69
425.846	85.69
426.068	96.69
426.291	89.69
426.513	92.69
426.735	94.69
426.958	96.69
427.18	107.69
427.402	123.69
427.625	160.69
427.847	107.69
428.069	100.69
428.292	95.69
428.514	92.69
428.736	88.69
428.958	90.69
429.181	80.69
429.403	80.69
429.625	106.69
429.847	92.69
430.069	97.69
430.292	89.69
430.514	82.69
430.736	81.69
430.958	82.69
431.18	102.69
431.402	83.69
431.624	86.69
431.846	87.69
432.068	85.69
432.29	89.69
432.512	91.69
432.734	90.69
432.956	86.69
433.178	85.69
433.4	109.69
433.622	102.69
433.844	78.69
434.066	97.69
434.287	88.69
434.509	77.69
434.731	91.69
434.953	91.69
435.175	111.69
435.397	98.69
435.618	96.69
435.84	108.69
436.062	110.69
436.284	110.69
436.505	97.69
436.727	100.69
436.949	82.69
437.17	87.69
437.392	78.69
437.614	106.69
437.835	104.69
438.057	107.69
438.278	89.69
438.5	106.69
438.721	111.69
438.943	99.69
439.165	109.69
439.386	79.69
439.608	108.69
439.829	103.69
440.05	94.69
440.272	127.69
440.493	91.69
440.715	90.69
440.936	94.69
441.158	84.69
441.379	84.69
441.6	99.69
441.822	104.69
442.043	83.69
442.264	99.69
442.486	84.69
442.707	93.69
442.928	94.69
443.149	125.69
443.371	127.69
443.592	124.69
443.813	117.69
444.034	96.69
444.255	95.69
444.476	83.69
444.698	90.69
444.919	96.69
445.14	136.69
445.361	124.69
445.582	111.69
445.803	142.69
446.024	115.69
446.245	131.69
446.466	109.69
446.687	94.69
446.908	91.69
447.129	84.69
447.35	85.69
447.571	89.69
447.792	102.69
448.013	102.69
448.234	96.69
448.455	104.69
448.675	106.69
448.896	121.69
449.117	96.69
449.338	91.69
449.559	124.69
449.779	117.69
450	97.69
450.221	89.69
450.442	88.69
450.662	98.69
450.883	115.69
451.104	114.69
451.324	99.69
451.545	95.69
451.766	79.69
451.986	94.69
452.207	90.69
452.428	99.69
452.648	102.69
452.869	109.69
453.089	107.69
453.31	112.69
453.53	94.69
453.751	78.69
453.971	99.69
454.192	100.69
454.412	99.69
454.633	91.69
454.853	68.69
455.073	86.69
455.294	90.69
455.514	91.69
455.734	79.69
455.955	79.69
456.175	84.69
456.395	91.69
456.616	94.69
456.836	83.69
457.056	86.69
457.276	68.69
457.497	90.69
457.717	87.69
457.937	81.69
458.157	94.69
458.377	85.69
458.598	100.69
458.818	132.69
459.038	155.69
459.258	120.69
459.478	93.69
459.698	104.69
459.918	93.69
460.138	91.69
460.358	106.69
460.578	87.69
460.798	88.69
461.018	93.69
461.238	83.69
461.458	98.69
461.678	78.69
461.898	73.69
462.118	88.69
462.338	83.69
462.558	82.69
462.777	83.69
462.997	75.69
463.217	86.69
463.437	87.69
463.657	86.69
463.876	94.69
464.096	90.69
464.316	97.69
464.536	98.69
464.755	97.69
464.975	92.69
465.195	163.69
465.414	148.69
465.634	108.69
465.854	88.69
466.073	91.69
466.293	86.69
466.512	79.69
466.732	83.69
466.951	86.69
467.171	76.69
467.391	82.69
467.61	99.69
467.829	101.69
468.049	91.69
468.268	71.69
468.488	91.69
468.707	92.69
468.927	86.69
469.146	99.69
469.365	92.69
469.585	86.69
469.804	82.69
470.023	93.69
470.243	103.69
470.462	82.69
470.681	110.69
470.901	102.69
471.12	78.69
471.339	83.69
471.558	79.69
471.777	84.69
471.997	90.69
472.216	82.69
472.435	92.69
472.654	94.69
472.873	92.69
473.092	80.69
473.311	96.69
473.53	90.69
473.749	84.69
473.968	96.69
474.187	93.69
474.406	89.69
474.625	78.69
474.844	98.69
475.063	93.69
475.282	74.69
475.501	87.69
475.72	89.69
475.939	94.69
476.158	90.69
476.377	79.69
476.596	92.69
476.814	100.69
477.033	90.69
477.252	95.69
477.471	87.69
477.69	82.69
477.908	84.69
478.127	90.69
478.346	94.69
478.564	96.69
478.783	100.69
479.002	88.69
479.22	99.69
479.439	104.69
479.658	103.69
479.876	89.69
480.095	94.69
480.313	104.69
480.532	84.69
480.751	85.69
480.969	96.69
481.188	102.69
481.406	122.69
481.624	87.69
481.843	94.69
482.061	87.69
482.28	90.69
482.498	79.69
482.717	88.69
482.935	85.69
483.153	90.69
483.372	90.69
483.59	86.69
483.808	86.69
484.027	90.69
484.245	84.69
484.463	91.69
484.681	101.69
484.9	91.69
485.118	95.69
485.336	101.69
485.554	93.69
485.772	100.69
485.99	102.69
486.209	99.69
486.427	86.69
486.645	120.69
486.863	111.69
487.081	94.69
487.299	94.69
487.517	98.69
487.735	104.69
487.953	98.69
488.171	96.69
488.389	93.69
488.607	106.69
488.825	93.69
489.043	95.69
489.261	93.69
489.479	95.69
489.696	87.69
489.914	92.69
490.132	110.69
490.35	88.69
490.568	99.69
490.786	86.69
491.003	74.69
491.221	93.69
491.439	82.69
491.657	89.69
491.874	96.69
492.092	91.69
492.31	99.69
492.527	91.69
492.745	94.69
492.963	91.69
493.18	95.69
493.398	101.69
493.615	100.69
493.833	91.69
494.05	91.69
494.268	71.69
494.485	95.69
494.703	84.69
494.92	91.69
495.138	82.69
495.355	88.69
495.573	94.69
495.79	90.69
496.008	93.69
496.225	103.69
496.442	90.69
496.66	110.69
496.877	107.69
497.094	100.69
497.312	101.69
497.529	90.69
497.746	91.69
497.963	99.69
498.181	109.69
498.398	102.69
498.615	101.69
498.832	95.69
499.049	76.69
499.267	77.69
499.484	82.69
499.701	82.69
499.918	95.69
500.135	100.69
500.352	97.69
500.569	77.69
500.786	89.69
501.003	96.69
501.22	101.69
501.437	102.69
501.654	96.69
501.871	112.69
502.088	77.69
502.305	84.69
502.522	92.69
502.739	80.69
502.956	90.69
503.172	106.69
503.389	83.69
503.606	112.69
503.823	93.69
504.04	98.69
504.256	68.69
504.473	101.69
504.69	92.69
504.907	79.69
505.123	81.69
505.34	77.69
505.557	86.69
505.773	104.69
505.99	92.69
506.207	84.69
506.423	88.69
506.64	86.69
506.856	95.69
507.073	93.69
507.289	87.69
507.506	95.69
507.722	114.69
507.939	92.69
508.155	99.69
508.372	91.69
508.588	80.69
508.805	98.69
509.021	96.69
509.238	100.69
509.454	98.69
509.67	98.69
509.887	106.69
510.103	126.69
510.319	195.69
510.536	690.69
510.752	2167.69
510.968	618.69
511.184	143.69
511.401	109.69
511.617	109.69
511.833	92.69
512.049	95.69
512.265	87.69
512.481	96.69
512.698	87.69
512.914	101.69
513.13	110.69
513.346	95.69
513.562	99.69
513.778	89.69
513.994	89.69
514.21	82.69
514.426	114.69
514.642	126.69
514.858	125.69
515.074	148.69
515.29	405.69
