Data from Uncirc_2000_H10_HRD10591_00043.txt Node
Date: Wed Jan 03 10:48:25 EST 2024
User: Yrep
Spectrometer: HR+D1059
Trigger mode: 1
Integration Time (sec): 1.000000E-1
Scans to average: 1
Electric dark correction enabled: true
Nonlinearity correction enabled: false
Boxcar width: 0
XAxis mode: Wavelengths
Number of Pixels in Spectrum: 2048
>>>>>Begin Spectral Data<<<<<
223.165	-13.19
223.4	-13.19
223.635	-13.19
223.869	-2.19
224.104	-13.19
224.338	-28.19
224.573	-18.19
224.808	-20.19
225.042	-1.19
225.277	0.81
225.511	-21.19
225.746	4.81
225.98	8.81
226.215	6.81
226.449	6.81
226.683	29.81
226.918	31.81
227.152	27.81
227.387	28.81
227.621	30.81
227.856	31.81
228.09	35.81
228.324	49.81
228.559	58.81
228.793	51.81
229.027	53.81
229.262	73.81
229.496	78.81
229.73	68.81
229.964	84.81
230.199	70.81
230.433	70.81
230.667	83.81
230.901	80.81
231.136	73.81
231.37	86.81
231.604	80.81
231.838	76.81
232.072	70.81
232.306	91.81
232.541	86.81
232.775	103.81
233.009	84.81
233.243	78.81
233.477	81.81
233.711	83.81
233.945	85.81
234.179	82.81
234.413	73.81
234.647	82.81
234.881	84.81
235.115	82.81
235.349	77.81
235.583	87.81
235.817	86.81
236.051	70.81
236.285	75.81
236.519	82.81
236.753	81.81
236.987	86.81
237.221	83.81
237.455	75.81
237.689	66.81
237.922	61.81
238.156	68.81
238.39	72.81
238.624	85.81
238.858	87.81
239.091	79.81
239.325	86.81
239.559	66.81
239.793	84.81
240.027	71.81
240.26	81.81
240.494	77.81
240.728	84.81
240.961	68.81
241.195	78.81
241.429	75.81
241.662	53.81
241.896	69.81
242.13	84.81
242.363	68.81
242.597	78.81
242.83	90.81
243.064	77.81
243.298	66.81
243.531	74.81
243.765	87.81
243.998	70.81
244.232	80.81
244.465	84.81
244.699	83.81
244.932	85.81
245.166	89.81
245.399	98.81
245.633	91.81
245.866	91.81
246.099	93.81
246.333	72.81
246.566	82.81
246.8	86.81
247.033	71.81
247.266	75.81
247.5	78.81
247.733	86.81
247.966	88.81
248.2	95.81
248.433	80.81
248.666	74.81
248.899	73.81
249.133	72.81
249.366	88.81
249.599	90.81
249.832	74.81
250.066	89.81
250.299	88.81
250.532	78.81
250.765	82.81
250.998	81.81
251.231	76.81
251.465	75.81
251.698	81.81
251.931	82.81
252.164	85.81
252.397	87.81
252.63	77.81
252.863	76.81
253.096	89.81
253.329	82.81
253.562	70.81
253.795	75.81
254.028	90.81
254.261	73.81
254.494	84.81
254.727	89.81
254.96	72.81
255.193	86.81
255.426	68.81
255.659	90.81
255.892	90.81
256.124	92.81
256.357	78.81
256.59	82.81
256.823	66.81
257.056	73.81
257.289	87.81
257.521	81.81
257.754	94.81
257.987	77.81
258.22	88.81
258.452	68.81
258.685	91.81
258.918	80.81
259.151	90.81
259.383	89.81
259.616	104.81
259.849	83.81
260.081	89.81
260.314	78.81
260.547	76.81
260.779	77.81
261.012	86.81
261.244	92.81
261.477	91.81
261.71	82.81
261.942	107.81
262.175	97.81
262.407	83.81
262.64	70.81
262.872	86.81
263.105	84.81
263.337	87.81
263.57	81.81
263.802	92.81
264.035	93.81
264.267	75.81
264.499	90.81
264.732	84.81
264.964	83.81
265.197	82.81
265.429	85.81
265.661	91.81
265.894	91.81
266.126	85.81
266.358	90.81
266.591	81.81
266.823	71.81
267.055	88.81
267.287	95.81
267.52	77.81
267.752	69.81
267.984	74.81
268.216	88.81
268.448	75.81
268.681	83.81
268.913	82.81
269.145	94.81
269.377	82.81
269.609	86.81
269.841	73.81
270.073	92.81
270.306	81.81
270.538	99.81
270.77	80.81
271.002	90.81
271.234	90.81
271.466	92.81
271.698	82.81
271.93	88.81
272.162	73.81
272.394	90.81
272.626	79.81
272.858	98.81
273.09	95.81
273.322	89.81
273.553	86.81
273.785	77.81
274.017	74.81
274.249	98.81
274.481	91.81
274.713	78.81
274.945	86.81
275.176	89.81
275.408	82.81
275.64	81.81
275.872	97.81
276.104	73.81
276.335	83.81
276.567	90.81
276.799	110.81
277.031	91.81
277.262	76.81
277.494	89.81
277.726	94.81
277.957	96.81
278.189	93.81
278.421	84.81
278.652	94.81
278.884	92.81
279.115	96.81
279.347	84.81
279.579	83.81
279.81	76.81
280.042	76.81
280.273	86.81
280.505	88.81
280.736	79.81
280.968	78.81
281.199	91.81
281.431	90.81
281.662	85.81
281.894	92.81
282.125	82.81
282.356	106.81
282.588	126.81
282.819	99.81
283.051	96.81
283.282	89.81
283.513	81.81
283.745	81.81
283.976	82.81
284.207	73.81
284.439	76.81
284.67	73.81
284.901	83.81
285.132	94.81
285.364	81.81
285.595	86.81
285.826	78.81
286.057	87.81
286.288	78.81
286.52	79.81
286.751	89.81
286.982	73.81
287.213	91.81
287.444	94.81
287.675	90.81
287.906	89.81
288.138	71.81
288.369	96.81
288.6	102.81
288.831	68.81
289.062	92.81
289.293	80.81
289.524	75.81
289.755	94.81
289.986	84.81
290.217	76.81
290.448	89.81
290.679	85.81
290.91	86.81
291.141	85.81
291.371	94.81
291.602	90.81
291.833	84.81
292.064	83.81
292.295	100.81
292.526	90.81
292.757	81.81
292.987	83.81
293.218	87.81
293.449	76.81
293.68	80.81
293.91	85.81
294.141	101.81
294.372	76.81
294.603	76.81
294.833	92.81
295.064	77.81
295.295	82.81
295.525	96.81
295.756	102.81
295.987	111.81
296.217	130.81
296.448	117.81
296.679	100.81
296.909	86.81
297.14	93.81
297.37	100.81
297.601	92.81
297.831	75.81
298.062	89.81
298.292	74.81
298.523	87.81
298.753	82.81
298.984	78.81
299.214	80.81
299.445	90.81
299.675	98.81
299.905	92.81
300.136	98.81
300.366	93.81
300.597	88.81
300.827	94.81
301.057	90.81
301.288	101.81
301.518	87.81
301.748	93.81
301.979	114.81
302.209	94.81
302.439	97.81
302.669	74.81
302.9	90.81
303.13	89.81
303.36	91.81
303.59	97.81
303.82	101.81
304.051	94.81
304.281	80.81
304.511	96.81
304.741	84.81
304.971	82.81
305.201	97.81
305.431	92.81
305.661	101.81
305.891	86.81
306.121	93.81
306.352	75.81
306.582	92.81
306.812	84.81
307.042	86.81
307.272	98.81
307.502	101.81
307.731	101.81
307.961	103.81
308.191	87.81
308.421	85.81
308.651	90.81
308.881	91.81
309.111	92.81
309.341	89.81
309.571	100.81
309.8	98.81
310.03	91.81
310.26	101.81
310.49	95.81
310.72	92.81
310.949	97.81
311.179	99.81
311.409	95.81
311.639	108.81
311.868	104.81
312.098	84.81
312.328	83.81
312.557	104.81
312.787	107.81
313.017	96.81
313.246	93.81
313.476	97.81
313.706	91.81
313.935	91.81
314.165	106.81
314.394	104.81
314.624	93.81
314.853	104.81
315.083	94.81
315.312	92.81
315.542	93.81
315.771	84.81
316.001	84.81
316.23	94.81
316.46	96.81
316.689	94.81
316.919	92.81
317.148	106.81
317.377	100.81
317.607	98.81
317.836	83.81
318.065	72.81
318.295	106.81
318.524	109.81
318.753	87.81
318.983	84.81
319.212	92.81
319.441	114.81
319.67	113.81
319.9	90.81
320.129	99.81
320.358	90.81
320.587	89.81
320.816	99.81
321.046	105.81
321.275	102.81
321.504	102.81
321.733	94.81
321.962	94.81
322.191	105.81
322.42	101.81
322.649	107.81
322.878	103.81
323.108	119.81
323.337	120.81
323.566	127.81
323.795	151.81
324.024	197.81
324.253	392.81
324.482	828.81
324.71	1690.81
324.939	2219.81
325.168	812.81
325.397	247.81
325.626	165.81
325.855	118.81
326.084	100.81
326.313	122.81
326.542	159.81
326.77	230.81
326.999	482.81
327.228	919.81
327.457	1713.81
327.686	1333.81
327.914	354.81
328.143	196.81
328.372	134.81
328.6	128.81
328.829	130.81
329.058	116.81
329.287	114.81
329.515	94.81
329.744	105.81
329.972	94.81
330.201	89.81
330.43	103.81
330.658	115.81
330.887	128.81
331.115	112.81
331.344	105.81
331.572	99.81
331.801	94.81
332.03	90.81
332.258	85.81
332.486	112.81
332.715	97.81
332.943	97.81
333.172	115.81
333.4	99.81
333.629	81.81
333.857	98.81
334.085	103.81
334.314	95.81
334.542	86.81
334.771	101.81
334.999	110.81
335.227	90.81
335.455	100.81
335.684	94.81
335.912	99.81
336.14	99.81
336.369	98.81
336.597	85.81
336.825	88.81
337.053	88.81
337.281	91.81
337.51	91.81
337.738	87.81
337.966	84.81
338.194	87.81
338.422	78.81
338.65	98.81
338.878	104.81
339.106	93.81
339.334	101.81
339.562	101.81
339.79	103.81
340.018	82.81
340.246	82.81
340.474	103.81
340.702	86.81
340.93	97.81
341.158	89.81
341.386	103.81
341.614	100.81
341.842	87.81
342.07	79.81
342.298	94.81
342.526	96.81
342.754	80.81
342.981	93.81
343.209	94.81
343.437	104.81
343.665	104.81
343.893	97.81
344.12	101.81
344.348	97.81
344.576	97.81
344.804	73.81
345.031	107.81
345.259	91.81
345.487	92.81
345.714	85.81
345.942	88.81
346.17	80.81
346.397	85.81
346.625	98.81
346.853	93.81
347.08	90.81
347.308	100.81
347.535	98.81
347.763	94.81
347.99	98.81
348.218	89.81
348.445	100.81
348.673	98.81
348.9	89.81
349.128	91.81
349.355	100.81
349.583	80.81
349.81	86.81
350.037	90.81
350.265	83.81
350.492	82.81
350.72	99.81
350.947	104.81
351.174	91.81
351.402	107.81
351.629	91.81
351.856	102.81
352.083	102.81
352.311	109.81
352.538	118.81
352.765	106.81
352.992	113.81
353.22	104.81
353.447	106.81
353.674	108.81
353.901	98.81
354.128	94.81
354.355	103.81
354.583	79.81
354.81	101.81
355.037	92.81
355.264	84.81
355.491	100.81
355.718	92.81
355.945	93.81
356.172	89.81
356.399	98.81
356.626	85.81
356.853	106.81
357.08	97.81
357.307	80.81
357.534	86.81
357.761	92.81
357.988	105.81
358.215	99.81
358.441	93.81
358.668	99.81
358.895	99.81
359.122	98.81
359.349	94.81
359.576	88.81
359.802	85.81
360.029	101.81
360.256	118.81
360.483	85.81
360.709	84.81
360.936	96.81
361.163	86.81
361.39	92.81
361.616	87.81
361.843	86.81
362.07	107.81
362.296	100.81
362.523	84.81
362.749	98.81
362.976	88.81
363.203	82.81
363.429	85.81
363.656	90.81
363.882	89.81
364.109	92.81
364.335	97.81
364.562	84.81
364.788	85.81
365.015	102.81
365.241	89.81
365.468	108.81
365.694	89.81
365.92	99.81
366.147	112.81
366.373	71.81
366.599	72.81
366.826	89.81
367.052	76.81
367.278	82.81
367.505	104.81
367.731	85.81
367.957	92.81
368.184	74.81
368.41	89.81
368.636	96.81
368.862	115.81
369.089	112.81
369.315	98.81
369.541	97.81
369.767	60.81
369.993	82.81
370.219	77.81
370.445	82.81
370.672	103.81
370.898	98.81
371.124	79.81
371.35	87.81
371.576	90.81
371.802	94.81
372.028	82.81
372.254	75.81
372.48	92.81
372.706	75.81
372.932	84.81
373.158	82.81
373.384	86.81
373.61	88.81
373.835	84.81
374.061	88.81
374.287	85.81
374.513	95.81
374.739	84.81
374.965	91.81
375.191	83.81
375.416	93.81
375.642	65.81
375.868	108.81
376.094	94.81
376.319	93.81
376.545	76.81
376.771	94.81
376.997	95.81
377.222	80.81
377.448	101.81
377.674	88.81
377.899	87.81
378.125	78.81
378.35	86.81
378.576	89.81
378.802	89.81
379.027	88.81
379.253	101.81
379.478	96.81
379.704	101.81
379.929	88.81
380.155	87.81
380.38	97.81
380.606	100.81
380.831	92.81
381.057	93.81
381.282	80.81
381.507	104.81
381.733	107.81
381.958	106.81
382.184	92.81
382.409	97.81
382.634	107.81
382.86	89.81
383.085	106.81
383.31	86.81
383.535	110.81
383.761	103.81
383.986	90.81
384.211	98.81
384.436	105.81
384.662	105.81
384.887	91.81
385.112	98.81
385.337	96.81
385.562	85.81
385.787	107.81
386.013	103.81
386.238	105.81
386.463	100.81
386.688	108.81
386.913	89.81
387.138	94.81
387.363	104.81
387.588	107.81
387.813	94.81
388.038	106.81
388.263	114.81
388.488	102.81
388.713	89.81
388.938	93.81
389.163	95.81
389.387	104.81
389.612	89.81
389.837	90.81
390.062	92.81
390.287	74.81
390.512	96.81
390.736	102.81
390.961	100.81
391.186	84.81
391.411	97.81
391.636	76.81
391.86	85.81
392.085	99.81
392.31	91.81
392.534	100.81
392.759	94.81
392.984	72.81
393.208	93.81
393.433	86.81
393.658	84.81
393.882	98.81
394.107	85.81
394.331	83.81
394.556	78.81
394.78	94.81
395.005	82.81
395.229	81.81
395.454	97.81
395.678	90.81
395.903	85.81
396.127	82.81
396.352	72.81
396.576	78.81
396.801	93.81
397.025	98.81
397.249	90.81
397.474	97.81
397.698	83.81
397.922	93.81
398.147	78.81
398.371	85.81
398.595	87.81
398.82	88.81
399.044	87.81
399.268	80.81
399.492	92.81
399.717	102.81
399.941	83.81
400.165	81.81
400.389	89.81
400.613	88.81
400.837	80.81
401.062	89.81
401.286	90.81
401.51	90.81
401.734	94.81
401.958	110.81
402.182	103.81
402.406	158.81
402.63	118.81
402.854	82.81
403.078	85.81
403.302	78.81
403.526	88.81
403.75	91.81
403.974	91.81
404.198	58.81
404.422	84.81
404.645	87.81
404.869	95.81
405.093	85.81
405.317	96.81
405.541	87.81
405.765	101.81
405.988	123.81
406.212	164.81
406.436	211.81
406.66	130.81
406.883	108.81
407.107	97.81
407.331	89.81
407.555	85.81
407.778	97.81
408.002	86.81
408.226	81.81
408.449	93.81
408.673	84.81
408.896	106.81
409.12	92.81
409.344	93.81
409.567	92.81
409.791	80.81
410.014	94.81
410.238	111.81
410.461	97.81
410.685	90.81
410.908	92.81
411.132	102.81
411.355	88.81
411.578	97.81
411.802	84.81
412.025	94.81
412.249	89.81
412.472	96.81
412.695	86.81
412.919	95.81
413.142	86.81
413.365	74.81
413.589	81.81
413.812	88.81
414.035	102.81
414.258	95.81
414.482	82.81
414.705	105.81
414.928	81.81
415.151	87.81
415.374	96.81
415.597	89.81
415.821	85.81
416.044	90.81
416.267	82.81
416.49	81.81
416.713	82.81
416.936	95.81
417.159	79.81
417.382	95.81
417.605	97.81
417.828	92.81
418.051	91.81
418.274	83.81
418.497	77.81
418.72	103.81
418.943	95.81
419.166	92.81
419.389	90.81
419.611	87.81
419.834	88.81
420.057	97.81
420.28	87.81
420.503	86.81
420.726	88.81
420.948	86.81
421.171	72.81
421.394	90.81
421.617	85.81
421.839	76.81
422.062	83.81
422.285	86.81
422.507	105.81
422.73	102.81
422.953	97.81
423.175	87.81
423.398	84.81
423.621	95.81
423.843	75.81
424.066	85.81
424.288	96.81
424.511	84.81
424.733	105.81
424.956	94.81
425.178	87.81
425.401	99.81
425.623	100.81
425.846	76.81
426.068	89.81
426.291	68.81
426.513	104.81
426.735	89.81
426.958	101.81
427.18	107.81
427.402	128.81
427.625	141.81
427.847	124.81
428.069	100.81
428.292	88.81
428.514	84.81
428.736	75.81
428.958	75.81
429.181	84.81
429.403	85.81
429.625	92.81
429.847	83.81
430.069	95.81
430.292	98.81
430.514	81.81
430.736	88.81
430.958	94.81
431.18	86.81
431.402	80.81
431.624	84.81
431.846	96.81
432.068	87.81
432.29	93.81
432.512	81.81
432.734	72.81
432.956	92.81
433.178	104.81
433.4	87.81
433.622	101.81
433.844	92.81
434.066	83.81
434.287	102.81
434.509	85.81
434.731	95.81
434.953	97.81
435.175	91.81
435.397	96.81
435.618	102.81
435.84	109.81
436.062	107.81
436.284	111.81
436.505	98.81
436.727	92.81
436.949	98.81
437.17	93.81
437.392	88.81
437.614	88.81
437.835	114.81
438.057	96.81
438.278	116.81
438.5	92.81
438.721	107.81
438.943	94.81
439.165	94.81
439.386	76.81
439.608	93.81
439.829	100.81
440.05	105.81
440.272	119.81
440.493	101.81
440.715	88.81
440.936	93.81
441.158	90.81
441.379	94.81
441.6	77.81
441.822	85.81
442.043	81.81
442.264	97.81
442.486	105.81
442.707	86.81
442.928	102.81
443.149	124.81
443.371	123.81
443.592	102.81
443.813	99.81
444.034	80.81
444.255	88.81
444.476	85.81
444.698	98.81
444.919	74.81
445.14	128.81
445.361	120.81
445.582	114.81
445.803	130.81
446.024	123.81
446.245	129.81
446.466	106.81
446.687	95.81
446.908	77.81
447.129	81.81
447.35	97.81
447.571	83.81
447.792	96.81
448.013	89.81
448.234	102.81
448.455	105.81
448.675	111.81
448.896	113.81
449.117	97.81
449.338	96.81
449.559	129.81
449.779	130.81
450	101.81
450.221	83.81
450.442	84.81
450.662	85.81
450.883	107.81
451.104	108.81
451.324	86.81
451.545	84.81
451.766	85.81
451.986	84.81
452.207	101.81
452.428	96.81
452.648	90.81
452.869	102.81
453.089	108.81
453.31	104.81
453.53	88.81
453.751	98.81
453.971	116.81
454.192	102.81
454.412	88.81
454.633	87.81
454.853	85.81
455.073	85.81
455.294	88.81
455.514	94.81
455.734	99.81
455.955	97.81
456.175	85.81
456.395	90.81
456.616	85.81
456.836	83.81
457.056	85.81
457.276	84.81
457.497	74.81
457.717	89.81
457.937	86.81
458.157	94.81
458.377	99.81
458.598	108.81
458.818	155.81
459.038	147.81
459.258	107.81
459.478	83.81
459.698	85.81
459.918	91.81
460.138	88.81
460.358	84.81
460.578	89.81
460.798	92.81
461.018	82.81
461.238	84.81
461.458	78.81
461.678	86.81
461.898	94.81
462.118	94.81
462.338	76.81
462.558	86.81
462.777	80.81
462.997	82.81
463.217	96.81
463.437	82.81
463.657	84.81
463.876	88.81
464.096	94.81
464.316	91.81
464.536	92.81
464.755	88.81
464.975	101.81
465.195	150.81
465.414	140.81
465.634	101.81
465.854	73.81
466.073	87.81
466.293	83.81
466.512	87.81
466.732	88.81
466.951	88.81
467.171	93.81
467.391	89.81
467.61	101.81
467.829	99.81
468.049	101.81
468.268	92.81
468.488	81.81
468.707	75.81
468.927	94.81
469.146	79.81
469.365	83.81
469.585	85.81
469.804	86.81
470.023	100.81
470.243	99.81
470.462	92.81
470.681	104.81
470.901	81.81
471.12	84.81
471.339	96.81
471.558	81.81
471.777	79.81
471.997	95.81
472.216	87.81
472.435	80.81
472.654	82.81
472.873	91.81
473.092	84.81
473.311	89.81
473.53	100.81
473.749	94.81
473.968	86.81
474.187	90.81
474.406	91.81
474.625	87.81
474.844	82.81
475.063	89.81
475.282	88.81
475.501	88.81
475.72	90.81
475.939	76.81
476.158	89.81
476.377	90.81
476.596	93.81
476.814	87.81
477.033	79.81
477.252	88.81
477.471	82.81
477.69	83.81
477.908	83.81
478.127	85.81
478.346	90.81
478.564	76.81
478.783	80.81
479.002	88.81
479.22	76.81
479.439	97.81
479.658	91.81
479.876	97.81
480.095	88.81
480.313	85.81
480.532	93.81
480.751	88.81
480.969	85.81
481.188	91.81
481.406	111.81
481.624	83.81
481.843	88.81
482.061	86.81
482.28	79.81
482.498	93.81
482.717	96.81
482.935	83.81
483.153	95.81
483.372	97.81
483.59	98.81
483.808	89.81
484.027	83.81
484.245	105.81
484.463	94.81
484.681	81.81
484.9	81.81
485.118	79.81
485.336	92.81
485.554	92.81
485.772	100.81
485.99	117.81
486.209	99.81
486.427	105.81
486.645	114.81
486.863	106.81
487.081	91.81
487.299	102.81
487.517	103.81
487.735	93.81
487.953	91.81
488.171	99.81
488.389	94.81
488.607	95.81
488.825	92.81
489.043	94.81
489.261	77.81
489.479	96.81
489.696	98.81
489.914	87.81
490.132	83.81
490.35	77.81
490.568	98.81
490.786	102.81
491.003	86.81
491.221	92.81
491.439	92.81
491.657	96.81
491.874	86.81
492.092	101.81
492.31	90.81
492.527	84.81
492.745	95.81
492.963	90.81
493.18	87.81
493.398	91.81
493.615	102.81
493.833	102.81
494.05	82.81
494.268	90.81
494.485	98.81
494.703	90.81
494.92	99.81
495.138	93.81
495.355	95.81
495.573	84.81
495.79	89.81
496.008	96.81
496.225	102.81
496.442	94.81
496.66	90.81
496.877	99.81
497.094	90.81
497.312	77.81
497.529	92.81
497.746	92.81
497.963	93.81
498.181	98.81
498.398	77.81
498.615	116.81
498.832	97.81
499.049	94.81
499.267	90.81
499.484	105.81
499.701	89.81
499.918	81.81
500.135	92.81
500.352	88.81
500.569	83.81
500.786	101.81
501.003	76.81
501.22	93.81
501.437	85.81
501.654	99.81
501.871	101.81
502.088	88.81
502.305	88.81
502.522	74.81
502.739	90.81
502.956	109.81
503.172	89.81
503.389	91.81
503.606	104.81
503.823	105.81
504.04	105.81
504.256	93.81
504.473	90.81
504.69	91.81
504.907	93.81
505.123	103.81
505.34	87.81
505.557	92.81
505.773	102.81
505.99	106.81
506.207	102.81
506.423	111.81
506.64	94.81
506.856	82.81
507.073	85.81
507.289	116.81
507.506	92.81
507.722	104.81
507.939	104.81
508.155	97.81
508.372	107.81
508.588	98.81
508.805	121.81
509.021	107.81
509.238	94.81
509.454	98.81
509.67	92.81
509.887	112.81
510.103	132.81
510.319	202.81
510.536	731.81
510.752	2226.81
510.968	624.81
511.184	160.81
511.401	113.81
511.617	92.81
511.833	92.81
512.049	91.81
512.265	102.81
512.481	101.81
512.698	92.81
512.914	70.81
513.13	88.81
513.346	86.81
513.562	100.81
513.778	96.81
513.994	94.81
514.21	97.81
514.426	109.81
514.642	127.81
514.858	119.81
515.074	176.81
515.29	410.81
515.506	1302.81
515.721	482.81
515.937	139.81
