Data from Uncirc_2000_H10_HRD10591_00090.txt Node
Date: Wed Jan 03 10:48:35 EST 2024
User: Yrep
Spectrometer: HR+D1059
Trigger mode: 1
Integration Time (sec): 1.000000E-1
Scans to average: 1
Electric dark correction enabled: true
Nonlinearity correction enabled: false
Boxcar width: 0
XAxis mode: Wavelengths
Number of Pixels in Spectrum: 2048
>>>>>Begin Spectral Data<<<<<
223.165	-30.56
223.4	-30.56
223.635	-30.56
223.869	-25.56
224.104	-18.56
224.338	-22.56
224.573	-10.56
224.808	-15.56
225.042	-7.56
225.277	6.44
225.511	4.44
225.746	8.44
225.98	10.44
226.215	11.44
226.449	15.44
226.683	16.44
226.918	20.44
227.152	37.44
227.387	45.44
227.621	44.44
227.856	40.44
228.09	39.44
228.324	56.44
228.559	62.44
228.793	68.44
229.027	66.44
229.262	61.44
229.496	63.44
229.73	85.44
229.964	67.44
230.199	58.44
230.433	78.44
230.667	89.44
230.901	89.44
231.136	95.44
231.37	79.44
231.604	91.44
231.838	75.44
232.072	76.44
232.306	79.44
232.541	89.44
232.775	83.44
233.009	81.44
233.243	67.44
233.477	88.44
233.711	98.44
233.945	78.44
234.179	77.44
234.413	85.44
234.647	73.44
234.881	78.44
235.115	91.44
235.349	96.44
235.583	81.44
235.817	84.44
236.051	79.44
236.285	86.44
236.519	78.44
236.753	86.44
236.987	71.44
237.221	79.44
237.455	87.44
237.689	61.44
237.922	71.44
238.156	67.44
238.39	74.44
238.624	77.44
238.858	94.44
239.091	85.44
239.325	77.44
239.559	69.44
239.793	76.44
240.027	90.44
240.26	92.44
240.494	77.44
240.728	81.44
240.961	85.44
241.195	91.44
241.429	76.44
241.662	73.44
241.896	67.44
242.13	85.44
242.363	71.44
242.597	77.44
242.83	78.44
243.064	68.44
243.298	68.44
243.531	86.44
243.765	72.44
243.998	88.44
244.232	90.44
244.465	90.44
244.699	84.44
244.932	82.44
245.166	88.44
245.399	91.44
245.633	83.44
245.866	81.44
246.099	81.44
246.333	74.44
246.566	83.44
246.8	76.44
247.033	85.44
247.266	75.44
247.5	88.44
247.733	93.44
247.966	97.44
248.2	86.44
248.433	70.44
248.666	81.44
248.899	84.44
249.133	83.44
249.366	94.44
249.599	108.44
249.832	94.44
250.066	75.44
250.299	77.44
250.532	64.44
250.765	72.44
250.998	81.44
251.231	73.44
251.465	89.44
251.698	99.44
251.931	74.44
252.164	73.44
252.397	82.44
252.63	81.44
252.863	82.44
253.096	76.44
253.329	75.44
253.562	90.44
253.795	96.44
254.028	81.44
254.261	75.44
254.494	79.44
254.727	87.44
254.96	80.44
255.193	86.44
255.426	91.44
255.659	72.44
255.892	90.44
256.124	88.44
256.357	70.44
256.59	87.44
256.823	85.44
257.056	81.44
257.289	78.44
257.521	83.44
257.754	86.44
257.987	78.44
258.22	86.44
258.452	75.44
258.685	92.44
258.918	87.44
259.151	87.44
259.383	87.44
259.616	85.44
259.849	78.44
260.081	92.44
260.314	79.44
260.547	78.44
260.779	75.44
261.012	76.44
261.244	87.44
261.477	93.44
261.71	90.44
261.942	102.44
262.175	122.44
262.407	107.44
262.64	83.44
262.872	94.44
263.105	91.44
263.337	92.44
263.57	80.44
263.802	80.44
264.035	86.44
264.267	85.44
264.499	89.44
264.732	91.44
264.964	80.44
265.197	91.44
265.429	80.44
265.661	91.44
265.894	85.44
266.126	87.44
266.358	84.44
266.591	87.44
266.823	86.44
267.055	81.44
267.287	87.44
267.52	76.44
267.752	87.44
267.984	87.44
268.216	87.44
268.448	91.44
268.681	88.44
268.913	97.44
269.145	94.44
269.377	99.44
269.609	89.44
269.841	91.44
270.073	70.44
270.306	98.44
270.538	80.44
270.77	100.44
271.002	87.44
271.234	87.44
271.466	74.44
271.698	82.44
271.93	87.44
272.162	96.44
272.394	106.44
272.626	95.44
272.858	96.44
273.09	81.44
273.322	92.44
273.553	81.44
273.785	97.44
274.017	92.44
274.249	83.44
274.481	90.44
274.713	67.44
274.945	99.44
275.176	92.44
275.408	85.44
275.64	89.44
275.872	97.44
276.104	76.44
276.335	84.44
276.567	103.44
276.799	107.44
277.031	93.44
277.262	91.44
277.494	83.44
277.726	84.44
277.957	102.44
278.189	92.44
278.421	71.44
278.652	88.44
278.884	87.44
279.115	103.44
279.347	80.44
279.579	93.44
279.81	80.44
280.042	84.44
280.273	98.44
280.505	92.44
280.736	100.44
280.968	90.44
281.199	97.44
281.431	89.44
281.662	83.44
281.894	103.44
282.125	102.44
282.356	116.44
282.588	125.44
282.819	99.44
283.051	84.44
283.282	93.44
283.513	94.44
283.745	90.44
283.976	83.44
284.207	96.44
284.439	93.44
284.67	88.44
284.901	85.44
285.132	85.44
285.364	86.44
285.595	87.44
285.826	87.44
286.057	86.44
286.288	87.44
286.52	92.44
286.751	81.44
286.982	93.44
287.213	95.44
287.444	87.44
287.675	100.44
287.906	105.44
288.138	95.44
288.369	103.44
288.6	89.44
288.831	76.44
289.062	85.44
289.293	84.44
289.524	87.44
289.755	98.44
289.986	100.44
290.217	88.44
290.448	92.44
290.679	87.44
290.91	91.44
291.141	89.44
291.371	103.44
291.602	97.44
291.833	95.44
292.064	101.44
292.295	97.44
292.526	81.44
292.757	96.44
292.987	94.44
293.218	90.44
293.449	111.44
293.68	91.44
293.91	89.44
294.141	93.44
294.372	90.44
294.603	84.44
294.833	95.44
295.064	95.44
295.295	81.44
295.525	87.44
295.756	109.44
295.987	115.44
296.217	131.44
296.448	119.44
296.679	89.44
296.909	97.44
297.14	87.44
297.37	90.44
297.601	80.44
297.831	88.44
298.062	85.44
298.292	97.44
298.523	94.44
298.753	92.44
298.984	83.44
299.214	93.44
299.445	103.44
299.675	107.44
299.905	97.44
300.136	87.44
300.366	93.44
300.597	94.44
300.827	89.44
301.057	103.44
301.288	102.44
301.518	100.44
301.748	87.44
301.979	106.44
302.209	84.44
302.439	85.44
302.669	86.44
302.9	88.44
303.13	85.44
303.36	99.44
303.59	106.44
303.82	90.44
304.051	102.44
304.281	106.44
304.511	102.44
304.741	118.44
304.971	90.44
305.201	92.44
305.431	107.44
305.661	108.44
305.891	97.44
306.121	119.44
306.352	92.44
306.582	107.44
306.812	93.44
307.042	104.44
307.272	89.44
307.502	94.44
307.731	88.44
307.961	100.44
308.191	91.44
308.421	79.44
308.651	92.44
308.881	97.44
309.111	90.44
309.341	80.44
309.571	99.44
309.8	103.44
310.03	104.44
310.26	93.44
310.49	101.44
310.72	85.44
310.949	115.44
311.179	103.44
311.409	92.44
311.639	88.44
311.868	103.44
312.098	86.44
312.328	108.44
312.557	115.44
312.787	94.44
313.017	105.44
313.246	95.44
313.476	88.44
313.706	88.44
313.935	113.44
314.165	92.44
314.394	116.44
314.624	95.44
314.853	101.44
315.083	105.44
315.312	110.44
315.542	105.44
315.771	104.44
316.001	91.44
316.23	109.44
316.46	95.44
316.689	103.44
316.919	78.44
317.148	90.44
317.377	108.44
317.607	95.44
317.836	108.44
318.065	87.44
318.295	98.44
318.524	97.44
318.753	104.44
318.983	104.44
319.212	107.44
319.441	99.44
319.67	110.44
319.9	99.44
320.129	108.44
320.358	97.44
320.587	95.44
320.816	87.44
321.046	117.44
321.275	101.44
321.504	89.44
321.733	102.44
321.962	99.44
322.191	94.44
322.42	107.44
322.649	107.44
322.878	116.44
323.108	107.44
323.337	136.44
323.566	138.44
323.795	145.44
324.024	197.44
324.253	381.44
324.482	807.44
324.71	1615.44
324.939	2160.44
325.168	793.44
325.397	246.44
325.626	162.44
325.855	125.44
326.084	133.44
326.313	139.44
326.542	153.44
326.77	234.44
326.999	475.44
327.228	935.44
327.457	1689.44
327.686	1331.44
327.914	365.44
328.143	199.44
328.372	133.44
328.6	128.44
328.829	110.44
329.058	128.44
329.287	119.44
329.515	113.44
329.744	102.44
329.972	98.44
330.201	118.44
330.43	110.44
330.658	117.44
330.887	134.44
331.115	122.44
331.344	110.44
331.572	96.44
331.801	102.44
332.03	105.44
332.258	109.44
332.486	106.44
332.715	88.44
332.943	83.44
333.172	102.44
333.4	93.44
333.629	104.44
333.857	118.44
334.085	103.44
334.314	103.44
334.542	87.44
334.771	81.44
334.999	99.44
335.227	100.44
335.455	107.44
335.684	95.44
335.912	92.44
336.14	107.44
336.369	106.44
336.597	99.44
336.825	108.44
337.053	92.44
337.281	83.44
337.51	83.44
337.738	90.44
337.966	94.44
338.194	98.44
338.422	107.44
338.65	107.44
338.878	89.44
339.106	97.44
339.334	97.44
339.562	97.44
339.79	100.44
340.018	89.44
340.246	99.44
340.474	108.44
340.702	111.44
340.93	92.44
341.158	105.44
341.386	95.44
341.614	93.44
341.842	107.44
342.07	96.44
342.298	96.44
342.526	104.44
342.754	87.44
342.981	96.44
343.209	85.44
343.437	91.44
343.665	91.44
343.893	93.44
344.12	102.44
344.348	92.44
344.576	94.44
344.804	92.44
345.031	95.44
345.259	107.44
345.487	112.44
345.714	103.44
345.942	99.44
346.17	102.44
346.397	101.44
346.625	100.44
346.853	109.44
347.08	94.44
347.308	102.44
347.535	92.44
347.763	101.44
347.99	102.44
348.218	103.44
348.445	85.44
348.673	102.44
348.9	104.44
349.128	97.44
349.355	105.44
349.583	102.44
349.81	92.44
350.037	91.44
350.265	96.44
350.492	92.44
350.72	88.44
350.947	96.44
351.174	113.44
351.402	123.44
351.629	102.44
351.856	110.44
352.083	101.44
352.311	111.44
352.538	118.44
352.765	119.44
352.992	106.44
353.22	110.44
353.447	99.44
353.674	109.44
353.901	104.44
354.128	99.44
354.355	98.44
354.583	92.44
354.81	106.44
355.037	105.44
355.264	101.44
355.491	101.44
355.718	97.44
355.945	111.44
356.172	87.44
356.399	94.44
356.626	94.44
356.853	88.44
357.08	99.44
357.307	106.44
357.534	95.44
357.761	92.44
357.988	87.44
358.215	98.44
358.441	108.44
358.668	84.44
358.895	79.44
359.122	92.44
359.349	100.44
359.576	92.44
359.802	99.44
360.029	109.44
360.256	114.44
360.483	108.44
360.709	97.44
360.936	106.44
361.163	110.44
361.39	93.44
361.616	91.44
361.843	96.44
362.07	99.44
362.296	96.44
362.523	87.44
362.749	91.44
362.976	86.44
363.203	100.44
363.429	91.44
363.656	104.44
363.882	89.44
364.109	112.44
364.335	100.44
364.562	95.44
364.788	101.44
365.015	106.44
365.241	102.44
365.468	107.44
365.694	103.44
365.92	77.44
366.147	80.44
366.373	83.44
366.599	95.44
366.826	92.44
367.052	86.44
367.278	101.44
367.505	92.44
367.731	81.44
367.957	90.44
368.184	87.44
368.41	89.44
368.636	117.44
368.862	112.44
369.089	107.44
369.315	87.44
369.541	102.44
369.767	95.44
369.993	88.44
370.219	87.44
370.445	97.44
370.672	111.44
370.898	85.44
371.124	88.44
371.35	85.44
371.576	77.44
371.802	81.44
372.028	89.44
372.254	89.44
372.48	89.44
372.706	91.44
372.932	89.44
373.158	102.44
373.384	82.44
373.61	94.44
373.835	95.44
374.061	99.44
374.287	90.44
374.513	79.44
374.739	80.44
374.965	93.44
375.191	88.44
375.416	93.44
375.642	96.44
375.868	91.44
376.094	85.44
376.319	97.44
376.545	87.44
376.771	88.44
376.997	94.44
377.222	81.44
377.448	82.44
377.674	100.44
377.899	108.44
378.125	88.44
378.35	101.44
378.576	81.44
378.802	95.44
379.027	81.44
379.253	104.44
379.478	91.44
379.704	83.44
379.929	102.44
380.155	88.44
380.38	77.44
380.606	91.44
380.831	98.44
381.057	96.44
381.282	87.44
381.507	96.44
381.733	90.44
381.958	103.44
382.184	81.44
382.409	96.44
382.634	99.44
382.86	98.44
383.085	91.44
383.31	104.44
383.535	90.44
383.761	103.44
383.986	81.44
384.211	93.44
384.436	100.44
384.662	111.44
384.887	94.44
385.112	92.44
385.337	107.44
385.562	108.44
385.787	93.44
386.013	122.44
386.238	106.44
386.463	108.44
386.688	101.44
386.913	101.44
387.138	99.44
387.363	112.44
387.588	103.44
387.813	107.44
388.038	104.44
388.263	103.44
388.488	87.44
388.713	107.44
388.938	115.44
389.163	99.44
389.387	79.44
389.612	84.44
389.837	94.44
390.062	103.44
390.287	101.44
390.512	104.44
390.736	83.44
390.961	93.44
391.186	88.44
391.411	76.44
391.636	100.44
391.86	82.44
392.085	102.44
392.31	89.44
392.534	97.44
392.759	91.44
392.984	80.44
393.208	109.44
393.433	89.44
393.658	96.44
393.882	86.44
394.107	77.44
394.331	80.44
394.556	71.44
394.78	87.44
395.005	95.44
395.229	86.44
395.454	94.44
395.678	84.44
395.903	87.44
396.127	95.44
396.352	91.44
396.576	74.44
396.801	83.44
397.025	78.44
397.249	93.44
397.474	90.44
397.698	95.44
397.922	91.44
398.147	87.44
398.371	88.44
398.595	90.44
398.82	94.44
399.044	86.44
399.268	96.44
399.492	78.44
399.717	87.44
399.941	92.44
400.165	104.44
400.389	87.44
400.613	88.44
400.837	100.44
401.062	85.44
401.286	95.44
401.51	97.44
401.734	93.44
401.958	105.44
402.182	128.44
402.406	151.44
402.63	114.44
402.854	91.44
403.078	83.44
403.302	88.44
403.526	94.44
403.75	99.44
403.974	95.44
404.198	85.44
404.422	110.44
404.645	97.44
404.869	107.44
405.093	90.44
405.317	95.44
405.541	89.44
405.765	98.44
405.988	133.44
406.212	162.44
406.436	213.44
406.66	134.44
406.883	95.44
407.107	101.44
407.331	91.44
407.555	80.44
407.778	85.44
408.002	97.44
408.226	103.44
408.449	95.44
408.673	97.44
408.896	72.44
409.12	92.44
409.344	85.44
409.567	93.44
409.791	88.44
410.014	104.44
410.238	103.44
410.461	105.44
410.685	109.44
410.908	101.44
411.132	118.44
411.355	95.44
411.578	97.44
411.802	103.44
412.025	80.44
412.249	85.44
412.472	89.44
412.695	93.44
412.919	90.44
413.142	77.44
413.365	91.44
413.589	93.44
413.812	105.44
414.035	101.44
414.258	99.44
414.482	90.44
414.705	91.44
414.928	96.44
415.151	77.44
415.374	113.44
415.597	90.44
415.821	88.44
416.044	95.44
416.267	96.44
416.49	93.44
416.713	92.44
416.936	103.44
417.159	83.44
417.382	84.44
417.605	85.44
417.828	103.44
418.051	85.44
418.274	97.44
418.497	94.44
418.72	87.44
418.943	89.44
419.166	107.44
419.389	86.44
419.611	93.44
419.834	92.44
420.057	94.44
420.28	107.44
420.503	90.44
420.726	85.44
420.948	84.44
421.171	98.44
421.394	100.44
421.617	101.44
421.839	94.44
422.062	97.44
422.285	96.44
422.507	95.44
422.73	84.44
422.953	109.44
423.175	93.44
423.398	102.44
423.621	90.44
423.843	96.44
424.066	107.44
424.288	93.44
424.511	89.44
424.733	94.44
424.956	108.44
425.178	103.44
425.401	113.44
425.623	92.44
425.846	108.44
426.068	94.44
426.291	92.44
426.513	116.44
426.735	91.44
426.958	96.44
427.18	118.44
427.402	133.44
427.625	160.44
427.847	131.44
428.069	103.44
428.292	99.44
428.514	100.44
428.736	83.44
428.958	75.44
429.181	83.44
429.403	90.44
429.625	94.44
429.847	97.44
430.069	96.44
430.292	96.44
430.514	83.44
430.736	103.44
430.958	88.44
431.18	94.44
431.402	97.44
431.624	99.44
431.846	91.44
432.068	80.44
432.29	90.44
432.512	94.44
432.734	95.44
432.956	100.44
433.178	91.44
433.4	108.44
433.622	84.44
433.844	96.44
434.066	92.44
434.287	97.44
434.509	91.44
434.731	112.44
434.953	97.44
435.175	93.44
435.397	88.44
435.618	93.44
435.84	93.44
436.062	106.44
436.284	108.44
436.505	103.44
436.727	82.44
436.949	92.44
437.17	95.44
437.392	92.44
437.614	85.44
437.835	108.44
438.057	123.44
438.278	115.44
438.5	107.44
438.721	116.44
438.943	93.44
439.165	81.44
439.386	81.44
439.608	96.44
439.829	102.44
440.05	106.44
440.272	136.44
440.493	114.44
440.715	86.44
440.936	90.44
441.158	94.44
441.379	84.44
441.6	84.44
441.822	106.44
442.043	88.44
442.264	97.44
442.486	101.44
442.707	109.44
442.928	100.44
443.149	123.44
443.371	126.44
443.592	105.44
443.813	108.44
444.034	106.44
444.255	100.44
444.476	95.44
444.698	83.44
444.919	86.44
445.14	136.44
445.361	117.44
445.582	117.44
445.803	112.44
446.024	124.44
446.245	126.44
446.466	105.44
446.687	91.44
446.908	82.44
447.129	73.44
447.35	77.44
447.571	103.44
447.792	90.44
448.013	100.44
448.234	100.44
448.455	100.44
448.675	126.44
448.896	122.44
449.117	97.44
449.338	95.44
449.559	119.44
449.779	129.44
450	96.44
450.221	76.44
450.442	88.44
450.662	86.44
450.883	110.44
451.104	119.44
451.324	102.44
451.545	94.44
451.766	88.44
451.986	77.44
452.207	88.44
452.428	97.44
452.648	112.44
452.869	118.44
453.089	93.44
453.31	115.44
453.53	91.44
453.751	81.44
453.971	101.44
454.192	126.44
454.412	107.44
454.633	89.44
454.853	87.44
455.073	83.44
455.294	91.44
455.514	98.44
455.734	103.44
455.955	83.44
456.175	83.44
456.395	75.44
456.616	82.44
456.836	87.44
457.056	109.44
457.276	85.44
457.497	89.44
457.717	80.44
457.937	83.44
458.157	101.44
458.377	82.44
458.598	103.44
458.818	155.44
459.038	143.44
459.258	104.44
459.478	98.44
459.698	86.44
459.918	92.44
460.138	100.44
460.358	81.44
460.578	86.44
460.798	93.44
461.018	83.44
461.238	77.44
461.458	87.44
461.678	86.44
461.898	86.44
462.118	100.44
462.338	92.44
462.558	88.44
462.777	101.44
462.997	96.44
463.217	99.44
463.437	78.44
463.657	87.44
463.876	84.44
464.096	92.44
464.316	100.44
464.536	87.44
464.755	98.44
464.975	113.44
465.195	157.44
465.414	153.44
465.634	112.44
465.854	91.44
466.073	77.44
466.293	83.44
466.512	90.44
466.732	89.44
466.951	98.44
467.171	91.44
467.391	93.44
467.61	100.44
467.829	104.44
468.049	82.44
468.268	92.44
468.488	79.44
468.707	65.44
468.927	76.44
469.146	81.44
469.365	89.44
469.585	88.44
469.804	104.44
470.023	89.44
470.243	80.44
470.462	91.44
470.681	102.44
470.901	90.44
471.12	103.44
471.339	75.44
471.558	96.44
471.777	82.44
471.997	95.44
472.216	91.44
472.435	85.44
472.654	99.44
472.873	94.44
473.092	70.44
473.311	95.44
473.53	102.44
473.749	87.44
473.968	80.44
474.187	97.44
474.406	116.44
474.625	96.44
474.844	90.44
475.063	80.44
475.282	85.44
475.501	96.44
475.72	92.44
475.939	94.44
476.158	94.44
476.377	91.44
476.596	87.44
476.814	87.44
477.033	85.44
477.252	96.44
477.471	80.44
477.69	89.44
477.908	91.44
478.127	91.44
478.346	93.44
478.564	93.44
478.783	100.44
479.002	102.44
479.22	100.44
479.439	76.44
479.658	89.44
479.876	104.44
480.095	95.44
480.313	101.44
480.532	87.44
480.751	95.44
480.969	90.44
481.188	97.44
481.406	102.44
481.624	81.44
481.843	83.44
482.061	74.44
482.28	76.44
482.498	97.44
482.717	96.44
482.935	95.44
483.153	99.44
483.372	79.44
483.59	91.44
483.808	102.44
484.027	102.44
484.245	96.44
484.463	92.44
484.681	97.44
484.9	105.44
485.118	100.44
485.336	105.44
485.554	99.44
485.772	100.44
485.99	90.44
486.209	110.44
486.427	103.44
486.645	107.44
486.863	112.44
487.081	96.44
487.299	94.44
487.517	102.44
487.735	105.44
487.953	96.44
488.171	86.44
488.389	86.44
488.607	84.44
488.825	94.44
489.043	91.44
489.261	94.44
489.479	83.44
489.696	89.44
489.914	91.44
490.132	89.44
490.35	90.44
490.568	96.44
490.786	95.44
491.003	96.44
491.221	83.44
491.439	90.44
491.657	101.44
491.874	100.44
492.092	93.44
492.31	81.44
492.527	94.44
492.745	106.44
492.963	96.44
493.18	89.44
493.398	91.44
493.615	85.44
493.833	94.44
494.05	87.44
494.268	84.44
494.485	94.44
494.703	89.44
494.92	94.44
495.138	93.44
495.355	81.44
495.573	87.44
495.79	105.44
496.008	90.44
496.225	101.44
496.442	90.44
496.66	86.44
496.877	76.44
497.094	86.44
497.312	91.44
497.529	95.44
497.746	111.44
497.963	92.44
498.181	92.44
498.398	90.44
498.615	111.44
498.832	87.44
499.049	83.44
499.267	82.44
499.484	91.44
499.701	92.44
499.918	84.44
500.135	89.44
500.352	95.44
500.569	87.44
500.786	88.44
501.003	94.44
501.22	94.44
501.437	86.44
501.654	92.44
501.871	106.44
502.088	98.44
502.305	81.44
502.522	85.44
502.739	91.44
502.956	96.44
503.172	99.44
503.389	109.44
503.606	111.44
503.823	91.44
504.04	107.44
504.256	96.44
504.473	95.44
504.69	96.44
504.907	97.44
505.123	84.44
505.34	78.44
505.557	86.44
505.773	98.44
505.99	87.44
506.207	97.44
506.423	94.44
506.64	88.44
506.856	71.44
507.073	80.44
507.289	96.44
507.506	110.44
507.722	116.44
507.939	109.44
508.155	104.44
508.372	88.44
508.588	82.44
508.805	107.44
509.021	100.44
509.238	97.44
509.454	96.44
509.67	106.44
509.887	109.44
510.103	136.44
510.319	220.44
510.536	741.44
510.752	2316.44
510.968	643.44
511.184	157.44
511.401	112.44
511.617	96.44
511.833	91.44
512.049	92.44
512.265	81.44
512.481	92.44
512.698	92.44
512.914	96.44
513.13	95.44
513.346	92.44
513.562	103.44
513.778	98.44
513.994	97.44
514.21	96.44
514.426	110.44
514.642	127.44
