Data from Uncirc_2000_H10_HRD10591_00034.txt Node
Date: Wed Jan 03 10:48:24 EST 2024
User: Yrep
Spectrometer: HR+D1059
Trigger mode: 1
Integration Time (sec): 1.000000E-1
Scans to average: 1
Electric dark correction enabled: true
Nonlinearity correction enabled: false
Boxcar width: 0
XAxis mode: Wavelengths
Number of Pixels in Spectrum: 2048
>>>>>Begin Spectral Data<<<<<
223.165	-23.94
223.4	-23.94
223.635	-23.94
223.869	-16.94
224.104	-24.94
224.338	-3.94
224.573	-16.94
224.808	-19.94
225.042	-10.94
225.277	-2.94
225.511	-11.94
225.746	12.06
225.98	4.06
226.215	19.06
226.449	16.06
226.683	9.06
226.918	37.06
227.152	35.06
227.387	43.06
227.621	24.06
227.856	48.06
228.09	50.06
228.324	39.06
228.559	52.06
228.793	66.06
229.027	59.06
229.262	54.06
229.496	76.06
229.73	76.06
229.964	84.06
230.199	72.06
230.433	68.06
230.667	73.06
230.901	78.06
231.136	69.06
231.37	74.06
231.604	85.06
231.838	80.06
232.072	73.06
232.306	87.06
232.541	69.06
232.775	81.06
233.009	80.06
233.243	82.06
233.477	85.06
233.711	83.06
233.945	64.06
234.179	61.06
234.413	71.06
234.647	79.06
234.881	83.06
235.115	59.06
235.349	75.06
235.583	67.06
235.817	82.06
236.051	58.06
236.285	71.06
236.519	94.06
236.753	81.06
236.987	80.06
237.221	90.06
237.455	77.06
237.689	84.06
237.922	74.06
238.156	77.06
238.39	70.06
238.624	82.06
238.858	69.06
239.091	79.06
239.325	87.06
239.559	94.06
239.793	72.06
240.027	87.06
240.26	79.06
240.494	69.06
240.728	80.06
240.961	85.06
241.195	87.06
241.429	60.06
241.662	69.06
241.896	71.06
242.13	59.06
242.363	67.06
242.597	56.06
242.83	93.06
243.064	72.06
243.298	83.06
243.531	79.06
243.765	84.06
243.998	67.06
244.232	80.06
244.465	77.06
244.699	72.06
244.932	67.06
245.166	72.06
245.399	84.06
245.633	85.06
245.866	84.06
246.099	75.06
246.333	88.06
246.566	73.06
246.8	65.06
247.033	64.06
247.266	70.06
247.5	71.06
247.733	77.06
247.966	90.06
248.2	73.06
248.433	68.06
248.666	72.06
248.899	84.06
249.133	87.06
249.366	99.06
249.599	88.06
249.832	77.06
250.066	85.06
250.299	70.06
250.532	75.06
250.765	76.06
250.998	75.06
251.231	74.06
251.465	82.06
251.698	93.06
251.931	76.06
252.164	98.06
252.397	71.06
252.63	75.06
252.863	79.06
253.096	71.06
253.329	85.06
253.562	80.06
253.795	72.06
254.028	83.06
254.261	64.06
254.494	83.06
254.727	67.06
254.96	91.06
255.193	82.06
255.426	81.06
255.659	85.06
255.892	79.06
256.124	71.06
256.357	83.06
256.59	76.06
256.823	75.06
257.056	68.06
257.289	78.06
257.521	73.06
257.754	80.06
257.987	76.06
258.22	81.06
258.452	68.06
258.685	80.06
258.918	71.06
259.151	92.06
259.383	80.06
259.616	79.06
259.849	95.06
260.081	88.06
260.314	72.06
260.547	76.06
260.779	79.06
261.012	82.06
261.244	73.06
261.477	78.06
261.71	83.06
261.942	96.06
262.175	106.06
262.407	78.06
262.64	74.06
262.872	77.06
263.105	79.06
263.337	83.06
263.57	99.06
263.802	63.06
264.035	88.06
264.267	77.06
264.499	80.06
264.732	87.06
264.964	86.06
265.197	84.06
265.429	69.06
265.661	74.06
265.894	88.06
266.126	75.06
266.358	91.06
266.591	75.06
266.823	86.06
267.055	100.06
267.287	90.06
267.52	76.06
267.752	78.06
267.984	70.06
268.216	78.06
268.448	101.06
268.681	74.06
268.913	87.06
269.145	79.06
269.377	83.06
269.609	82.06
269.841	87.06
270.073	87.06
270.306	81.06
270.538	80.06
270.77	79.06
271.002	79.06
271.234	72.06
271.466	82.06
271.698	77.06
271.93	81.06
272.162	85.06
272.394	85.06
272.626	76.06
272.858	96.06
273.09	82.06
273.322	89.06
273.553	71.06
273.785	69.06
274.017	80.06
274.249	76.06
274.481	92.06
274.713	69.06
274.945	80.06
275.176	74.06
275.408	76.06
275.64	67.06
275.872	83.06
276.104	75.06
276.335	76.06
276.567	71.06
276.799	109.06
277.031	90.06
277.262	86.06
277.494	100.06
277.726	83.06
277.957	87.06
278.189	76.06
278.421	96.06
278.652	89.06
278.884	89.06
279.115	104.06
279.347	89.06
279.579	76.06
279.81	93.06
280.042	95.06
280.273	93.06
280.505	97.06
280.736	83.06
280.968	90.06
281.199	82.06
281.431	90.06
281.662	79.06
281.894	90.06
282.125	89.06
282.356	101.06
282.588	131.06
282.819	102.06
283.051	81.06
283.282	85.06
283.513	82.06
283.745	97.06
283.976	85.06
284.207	88.06
284.439	77.06
284.67	81.06
284.901	77.06
285.132	83.06
285.364	77.06
285.595	99.06
285.826	98.06
286.057	93.06
286.288	92.06
286.52	105.06
286.751	76.06
286.982	87.06
287.213	85.06
287.444	81.06
287.675	91.06
287.906	71.06
288.138	96.06
288.369	82.06
288.6	96.06
288.831	87.06
289.062	93.06
289.293	76.06
289.524	73.06
289.755	95.06
289.986	93.06
290.217	91.06
290.448	87.06
290.679	100.06
290.91	86.06
291.141	75.06
291.371	92.06
291.602	87.06
291.833	93.06
292.064	80.06
292.295	89.06
292.526	85.06
292.757	81.06
292.987	63.06
293.218	84.06
293.449	91.06
293.68	81.06
293.91	68.06
294.141	86.06
294.372	83.06
294.603	97.06
294.833	95.06
295.064	76.06
295.295	89.06
295.525	90.06
295.756	97.06
295.987	104.06
296.217	112.06
296.448	129.06
296.679	99.06
296.909	89.06
297.14	87.06
297.37	89.06
297.601	95.06
297.831	94.06
298.062	108.06
298.292	84.06
298.523	79.06
298.753	80.06
298.984	100.06
299.214	99.06
299.445	88.06
299.675	87.06
299.905	93.06
300.136	98.06
300.366	83.06
300.597	65.06
300.827	80.06
301.057	86.06
301.288	91.06
301.518	75.06
301.748	89.06
301.979	93.06
302.209	93.06
302.439	84.06
302.669	83.06
302.9	101.06
303.13	83.06
303.36	100.06
303.59	96.06
303.82	91.06
304.051	89.06
304.281	91.06
304.511	87.06
304.741	69.06
304.971	80.06
305.201	94.06
305.431	87.06
305.661	74.06
305.891	90.06
306.121	100.06
306.352	90.06
306.582	93.06
306.812	89.06
307.042	93.06
307.272	96.06
307.502	80.06
307.731	81.06
307.961	92.06
308.191	80.06
308.421	74.06
308.651	85.06
308.881	104.06
309.111	81.06
309.341	84.06
309.571	89.06
309.8	91.06
310.03	82.06
310.26	97.06
310.49	100.06
310.72	102.06
310.949	92.06
311.179	82.06
311.409	81.06
311.639	90.06
311.868	103.06
312.098	96.06
312.328	106.06
312.557	107.06
312.787	100.06
313.017	85.06
313.246	81.06
313.476	87.06
313.706	87.06
313.935	84.06
314.165	105.06
314.394	88.06
314.624	93.06
314.853	96.06
315.083	86.06
315.312	97.06
315.542	83.06
315.771	91.06
316.001	81.06
316.23	93.06
316.46	96.06
316.689	80.06
316.919	86.06
317.148	89.06
317.377	109.06
317.607	111.06
317.836	85.06
318.065	75.06
318.295	89.06
318.524	86.06
318.753	80.06
318.983	97.06
319.212	104.06
319.441	89.06
319.67	91.06
319.9	77.06
320.129	90.06
320.358	98.06
320.587	90.06
320.816	111.06
321.046	98.06
321.275	99.06
321.504	93.06
321.733	97.06
321.962	96.06
322.191	95.06
322.42	114.06
322.649	92.06
322.878	96.06
323.108	121.06
323.337	121.06
323.566	118.06
323.795	145.06
324.024	209.06
324.253	342.06
324.482	753.06
324.71	1530.06
324.939	2022.06
325.168	724.06
325.397	219.06
325.626	140.06
325.855	116.06
326.084	113.06
326.313	124.06
326.542	164.06
326.77	215.06
326.999	409.06
327.228	843.06
327.457	1571.06
327.686	1255.06
327.914	324.06
328.143	177.06
328.372	121.06
328.6	114.06
328.829	123.06
329.058	126.06
329.287	108.06
329.515	113.06
329.744	108.06
329.972	89.06
330.201	98.06
330.43	99.06
330.658	115.06
330.887	122.06
331.115	114.06
331.344	86.06
331.572	82.06
331.801	96.06
332.03	88.06
332.258	96.06
332.486	98.06
332.715	89.06
332.943	95.06
333.172	99.06
333.4	92.06
333.629	87.06
333.857	101.06
334.085	99.06
334.314	81.06
334.542	98.06
334.771	92.06
334.999	92.06
335.227	112.06
335.455	91.06
335.684	85.06
335.912	104.06
336.14	104.06
336.369	100.06
336.597	99.06
336.825	91.06
337.053	85.06
337.281	84.06
337.51	89.06
337.738	109.06
337.966	95.06
338.194	102.06
338.422	107.06
338.65	90.06
338.878	93.06
339.106	85.06
339.334	96.06
339.562	93.06
339.79	84.06
340.018	76.06
340.246	94.06
340.474	84.06
340.702	84.06
340.93	92.06
341.158	88.06
341.386	88.06
341.614	98.06
341.842	78.06
342.07	91.06
342.298	97.06
342.526	90.06
342.754	101.06
342.981	82.06
343.209	93.06
343.437	105.06
343.665	97.06
343.893	91.06
344.12	85.06
344.348	98.06
344.576	88.06
344.804	92.06
345.031	99.06
345.259	93.06
345.487	97.06
345.714	86.06
345.942	92.06
346.17	96.06
346.397	93.06
346.625	89.06
346.853	76.06
347.08	86.06
347.308	108.06
347.535	100.06
347.763	104.06
347.99	92.06
348.218	90.06
348.445	106.06
348.673	93.06
348.9	84.06
349.128	86.06
349.355	95.06
349.583	98.06
349.81	93.06
350.037	84.06
350.265	99.06
350.492	98.06
350.72	107.06
350.947	107.06
351.174	104.06
351.402	109.06
351.629	112.06
351.856	115.06
352.083	100.06
352.311	96.06
352.538	98.06
352.765	104.06
352.992	105.06
353.22	110.06
353.447	96.06
353.674	95.06
353.901	101.06
354.128	99.06
354.355	86.06
354.583	79.06
354.81	97.06
355.037	102.06
355.264	91.06
355.491	93.06
355.718	106.06
355.945	92.06
356.172	102.06
356.399	89.06
356.626	89.06
356.853	105.06
357.08	87.06
357.307	89.06
357.534	87.06
357.761	98.06
357.988	95.06
358.215	99.06
358.441	85.06
358.668	79.06
358.895	96.06
359.122	91.06
359.349	76.06
359.576	102.06
359.802	92.06
360.029	106.06
360.256	105.06
360.483	94.06
360.709	68.06
360.936	102.06
361.163	91.06
361.39	99.06
361.616	85.06
361.843	101.06
362.07	93.06
362.296	96.06
362.523	87.06
362.749	75.06
362.976	95.06
363.203	89.06
363.429	87.06
363.656	86.06
363.882	90.06
364.109	90.06
364.335	74.06
364.562	82.06
364.788	83.06
365.015	96.06
365.241	97.06
365.468	107.06
365.694	107.06
365.92	101.06
366.147	101.06
366.373	94.06
366.599	91.06
366.826	92.06
367.052	82.06
367.278	86.06
367.505	82.06
367.731	101.06
367.957	93.06
368.184	83.06
368.41	99.06
368.636	114.06
368.862	115.06
369.089	109.06
369.315	101.06
369.541	95.06
369.767	106.06
369.993	85.06
370.219	79.06
370.445	81.06
370.672	87.06
370.898	92.06
371.124	60.06
371.35	76.06
371.576	80.06
371.802	82.06
372.028	97.06
372.254	83.06
372.48	94.06
372.706	107.06
372.932	79.06
373.158	84.06
373.384	85.06
373.61	97.06
373.835	92.06
374.061	83.06
374.287	82.06
374.513	81.06
374.739	93.06
374.965	85.06
375.191	84.06
375.416	99.06
375.642	95.06
375.868	86.06
376.094	91.06
376.319	100.06
376.545	90.06
376.771	76.06
376.997	96.06
377.222	72.06
377.448	84.06
377.674	96.06
377.899	85.06
378.125	84.06
378.35	100.06
378.576	91.06
378.802	82.06
379.027	92.06
379.253	77.06
379.478	86.06
379.704	100.06
379.929	87.06
380.155	83.06
380.38	79.06
380.606	74.06
380.831	79.06
381.057	93.06
381.282	83.06
381.507	89.06
381.733	92.06
381.958	105.06
382.184	87.06
382.409	106.06
382.634	100.06
382.86	113.06
383.085	97.06
383.31	97.06
383.535	108.06
383.761	107.06
383.986	100.06
384.211	92.06
384.436	88.06
384.662	92.06
384.887	90.06
385.112	100.06
385.337	89.06
385.562	95.06
385.787	99.06
386.013	106.06
386.238	103.06
386.463	98.06
386.688	113.06
386.913	101.06
387.138	116.06
387.363	97.06
387.588	106.06
387.813	93.06
388.038	103.06
388.263	101.06
388.488	89.06
388.713	94.06
388.938	103.06
389.163	88.06
389.387	100.06
389.612	99.06
389.837	90.06
390.062	100.06
390.287	92.06
390.512	91.06
390.736	80.06
390.961	95.06
391.186	101.06
391.411	107.06
391.636	91.06
391.86	81.06
392.085	88.06
392.31	74.06
392.534	83.06
392.759	84.06
392.984	115.06
393.208	98.06
393.433	101.06
393.658	98.06
393.882	93.06
394.107	81.06
394.331	86.06
394.556	79.06
394.78	104.06
395.005	81.06
395.229	81.06
395.454	78.06
395.678	103.06
395.903	85.06
396.127	100.06
396.352	87.06
396.576	91.06
396.801	91.06
397.025	98.06
397.249	93.06
397.474	92.06
397.698	95.06
397.922	81.06
398.147	95.06
398.371	93.06
398.595	94.06
398.82	77.06
399.044	84.06
399.268	78.06
399.492	88.06
399.717	81.06
399.941	80.06
400.165	94.06
400.389	73.06
400.613	89.06
400.837	83.06
401.062	88.06
401.286	66.06
401.51	79.06
401.734	108.06
401.958	90.06
402.182	120.06
402.406	137.06
402.63	102.06
402.854	84.06
403.078	90.06
403.302	71.06
403.526	88.06
403.75	86.06
403.974	86.06
404.198	95.06
404.422	85.06
404.645	87.06
404.869	103.06
405.093	90.06
405.317	89.06
405.541	97.06
405.765	92.06
405.988	107.06
406.212	157.06
406.436	205.06
406.66	127.06
406.883	89.06
407.107	98.06
407.331	90.06
407.555	89.06
407.778	104.06
408.002	98.06
408.226	97.06
408.449	92.06
408.673	87.06
408.896	90.06
409.12	93.06
409.344	96.06
409.567	101.06
409.791	94.06
410.014	97.06
410.238	88.06
410.461	97.06
410.685	97.06
410.908	99.06
411.132	104.06
411.355	100.06
411.578	77.06
411.802	93.06
412.025	88.06
412.249	91.06
412.472	82.06
412.695	90.06
412.919	77.06
413.142	88.06
413.365	86.06
413.589	86.06
413.812	81.06
414.035	92.06
414.258	102.06
414.482	85.06
414.705	96.06
414.928	90.06
415.151	91.06
415.374	88.06
415.597	93.06
415.821	84.06
416.044	82.06
416.267	104.06
416.49	96.06
416.713	84.06
416.936	96.06
417.159	86.06
417.382	81.06
417.605	83.06
417.828	95.06
418.051	67.06
418.274	91.06
418.497	89.06
418.72	94.06
418.943	96.06
419.166	82.06
419.389	88.06
419.611	90.06
419.834	91.06
420.057	91.06
420.28	85.06
420.503	92.06
420.726	82.06
420.948	77.06
421.171	83.06
421.394	79.06
421.617	83.06
421.839	80.06
422.062	100.06
422.285	82.06
422.507	101.06
422.73	101.06
422.953	87.06
423.175	82.06
423.398	93.06
423.621	89.06
423.843	105.06
424.066	87.06
424.288	88.06
424.511	109.06
424.733	101.06
424.956	101.06
425.178	87.06
425.401	99.06
425.623	106.06
425.846	101.06
426.068	91.06
426.291	84.06
426.513	82.06
426.735	83.06
426.958	87.06
427.18	95.06
427.402	124.06
427.625	143.06
427.847	108.06
428.069	90.06
428.292	89.06
428.514	71.06
428.736	86.06
428.958	81.06
429.181	98.06
429.403	79.06
429.625	89.06
429.847	96.06
430.069	75.06
430.292	100.06
430.514	74.06
430.736	85.06
430.958	83.06
431.18	89.06
431.402	96.06
431.624	78.06
431.846	81.06
432.068	84.06
432.29	78.06
432.512	105.06
432.734	83.06
432.956	80.06
433.178	93.06
433.4	100.06
433.622	91.06
433.844	90.06
434.066	84.06
434.287	98.06
434.509	85.06
434.731	76.06
434.953	89.06
435.175	90.06
435.397	82.06
435.618	106.06
435.84	101.06
436.062	117.06
436.284	112.06
436.505	90.06
436.727	103.06
436.949	104.06
437.17	85.06
437.392	95.06
437.614	95.06
437.835	105.06
438.057	93.06
438.278	96.06
438.5	94.06
438.721	100.06
438.943	83.06
439.165	74.06
439.386	87.06
439.608	101.06
439.829	95.06
440.05	122.06
440.272	119.06
440.493	84.06
440.715	82.06
440.936	97.06
441.158	92.06
441.379	92.06
441.6	90.06
441.822	92.06
442.043	97.06
442.264	105.06
442.486	105.06
442.707	102.06
442.928	95.06
443.149	114.06
443.371	110.06
443.592	92.06
443.813	100.06
444.034	101.06
444.255	99.06
444.476	86.06
444.698	86.06
444.919	84.06
445.14	128.06
445.361	118.06
445.582	106.06
445.803	124.06
446.024	132.06
446.245	122.06
446.466	111.06
446.687	79.06
446.908	87.06
447.129	77.06
447.35	91.06
447.571	101.06
447.792	94.06
448.013	104.06
448.234	105.06
448.455	90.06
448.675	89.06
448.896	106.06
449.117	102.06
449.338	96.06
449.559	123.06
449.779	113.06
450	90.06
450.221	91.06
450.442	86.06
450.662	88.06
450.883	99.06
451.104	103.06
451.324	85.06
451.545	80.06
451.766	86.06
451.986	87.06
452.207	72.06
452.428	87.06
452.648	96.06
452.869	113.06
453.089	109.06
453.31	109.06
453.53	93.06
453.751	99.06
453.971	101.06
454.192	107.06
454.412	104.06
454.633	93.06
454.853	78.06
455.073	73.06
455.294	89.06
455.514	104.06
455.734	71.06
455.955	90.06
456.175	84.06
456.395	89.06
456.616	69.06
456.836	81.06
457.056	85.06
457.276	91.06
457.497	91.06
457.717	83.06
457.937	78.06
458.157	88.06
458.377	89.06
458.598	101.06
458.818	134.06
459.038	127.06
459.258	105.06
459.478	95.06
459.698	88.06
459.918	79.06
460.138	79.06
460.358	84.06
460.578	85.06
460.798	75.06
461.018	93.06
461.238	93.06
461.458	86.06
461.678	92.06
461.898	97.06
462.118	69.06
462.338	80.06
462.558	93.06
462.777	89.06
462.997	87.06
463.217	83.06
463.437	81.06
463.657	85.06
463.876	101.06
464.096	87.06
464.316	81.06
464.536	90.06
464.755	82.06
464.975	90.06
465.195	141.06
465.414	125.06
465.634	81.06
465.854	88.06
466.073	83.06
466.293	82.06
466.512	97.06
466.732	90.06
466.951	103.06
467.171	94.06
467.391	94.06
467.61	100.06
467.829	98.06
468.049	83.06
468.268	85.06
468.488	79.06
468.707	87.06
468.927	89.06
469.146	81.06
469.365	90.06
469.585	79.06
469.804	79.06
470.023	77.06
470.243	75.06
470.462	93.06
470.681	112.06
470.901	92.06
471.12	82.06
471.339	86.06
471.558	66.06
471.777	72.06
471.997	97.06
472.216	80.06
472.435	87.06
472.654	91.06
472.873	92.06
473.092	89.06
473.311	76.06
473.53	87.06
473.749	99.06
473.968	100.06
474.187	109.06
474.406	88.06
474.625	83.06
474.844	81.06
475.063	80.06
475.282	92.06
475.501	92.06
475.72	82.06
475.939	91.06
476.158	99.06
476.377	86.06
476.596	89.06
476.814	84.06
477.033	85.06
477.252	81.06
477.471	83.06
477.69	107.06
477.908	88.06
478.127	88.06
478.346	89.06
478.564	93.06
478.783	97.06
479.002	77.06
479.22	100.06
479.439	85.06
479.658	92.06
479.876	95.06
480.095	91.06
480.313	75.06
480.532	78.06
480.751	72.06
480.969	90.06
481.188	90.06
481.406	93.06
481.624	88.06
481.843	82.06
482.061	90.06
482.28	80.06
482.498	106.06
482.717	92.06
482.935	83.06
483.153	89.06
483.372	93.06
483.59	85.06
483.808	89.06
484.027	87.06
484.245	104.06
484.463	87.06
484.681	92.06
484.9	96.06
485.118	76.06
485.336	88.06
485.554	109.06
485.772	107.06
485.99	102.06
486.209	97.06
486.427	92.06
486.645	115.06
486.863	97.06
487.081	103.06
487.299	87.06
487.517	96.06
487.735	90.06
487.953	95.06
488.171	86.06
488.389	80.06
488.607	95.06
488.825	97.06
489.043	92.06
489.261	88.06
489.479	102.06
489.696	81.06
489.914	73.06
490.132	84.06
490.35	96.06
490.568	83.06
490.786	91.06
491.003	94.06
491.221	91.06
491.439	91.06
491.657	88.06
491.874	100.06
492.092	82.06
492.31	88.06
492.527	88.06
492.745	93.06
492.963	95.06
493.18	92.06
493.398	90.06
493.615	96.06
493.833	101.06
494.05	90.06
494.268	90.06
494.485	104.06
494.703	83.06
494.92	87.06
495.138	88.06
495.355	96.06
495.573	95.06
495.79	95.06
496.008	86.06
496.225	82.06
496.442	85.06
496.66	97.06
496.877	92.06
497.094	88.06
497.312	79.06
497.529	80.06
497.746	91.06
497.963	98.06
498.181	92.06
498.398	88.06
498.615	106.06
498.832	105.06
499.049	98.06
499.267	84.06
499.484	93.06
499.701	105.06
499.918	98.06
500.135	88.06
500.352	91.06
500.569	88.06
500.786	88.06
501.003	80.06
501.22	87.06
501.437	93.06
501.654	86.06
501.871	89.06
502.088	82.06
502.305	91.06
502.522	95.06
502.739	91.06
502.956	79.06
503.172	104.06
503.389	98.06
503.606	103.06
503.823	92.06
504.04	85.06
504.256	79.06
504.473	96.06
504.69	95.06
504.907	85.06
505.123	93.06
505.34	93.06
505.557	92.06
505.773	94.06
505.99	79.06
506.207	91.06
506.423	79.06
506.64	103.06
506.856	79.06
507.073	95.06
507.289	92.06
507.506	105.06
507.722	103.06
507.939	102.06
508.155	88.06
508.372	98.06
508.588	85.06
508.805	99.06
509.021	89.06
509.238	104.06
509.454	94.06
509.67	100.06
509.887	112.06
510.103	124.06
510.319	191.06
510.536	667.06
510.752	2056.06
510.968	604.06
511.184	148.06
511.401	104.06
511.617	99.06
511.833	92.06
512.049	88.06
512.265	87.06
512.481	97.06
512.698	101.06
512.914	92.06
513.13	102.06
513.346	91.06
513.562	76.06
513.778	98.06
513.994	93.06
514.21	117.06
514.426	106.06
514.642	117.06
514.858	109.06
515.074	155.06
515.29	374.06
515.506	1189.06
515.721	447.06
515.937	147.06
516.153	98.06
516.369	85.06
