Data from Uncirc_2000_H10_HRD10591_00062.txt Node
Date: Wed Jan 03 10:48:29 EST 2024
User: Yrep
Spectrometer: HR+D1059
Trigger mode: 1
Integration Time (sec): 1.000000E-1
Scans to average: 1
Electric dark correction enabled: true
Nonlinearity correction enabled: false
Boxcar width: 0
XAxis mode: Wavelengths
Number of Pixels in Spectrum: 2048
>>>>>Begin Spectral Data<<<<<
223.165	-17.94
223.4	-17.94
223.635	-17.94
223.869	-25.94
224.104	-21.94
224.338	-10.94
224.573	-7.94
224.808	-13.94
225.042	-16.94
225.277	6.06
225.511	8.06
225.746	2.06
225.98	4.06
226.215	1.06
226.449	13.06
226.683	21.06
226.918	22.06
227.152	38.06
227.387	32.06
227.621	19.06
227.856	36.06
228.09	35.06
228.324	50.06
228.559	48.06
228.793	52.06
229.027	47.06
229.262	73.06
229.496	77.06
229.73	78.06
229.964	80.06
230.199	74.06
230.433	70.06
230.667	80.06
230.901	86.06
231.136	74.06
231.37	83.06
231.604	64.06
231.838	75.06
232.072	84.06
232.306	83.06
232.541	77.06
232.775	84.06
233.009	76.06
233.243	81.06
233.477	80.06
233.711	78.06
233.945	74.06
234.179	78.06
234.413	73.06
234.647	82.06
234.881	72.06
235.115	69.06
235.349	82.06
235.583	73.06
235.817	74.06
236.051	80.06
236.285	77.06
236.519	80.06
236.753	75.06
236.987	79.06
237.221	82.06
237.455	74.06
237.689	69.06
237.922	63.06
238.156	70.06
238.39	67.06
238.624	60.06
238.858	58.06
239.091	63.06
239.325	69.06
239.559	67.06
239.793	68.06
240.027	61.06
240.26	74.06
240.494	58.06
240.728	59.06
240.961	71.06
241.195	81.06
241.429	86.06
241.662	58.06
241.896	76.06
242.13	68.06
242.363	71.06
242.597	63.06
242.83	69.06
243.064	78.06
243.298	79.06
243.531	67.06
243.765	71.06
243.998	81.06
244.232	87.06
244.465	81.06
244.699	73.06
244.932	66.06
245.166	74.06
245.399	73.06
245.633	65.06
245.866	68.06
246.099	89.06
246.333	73.06
246.566	69.06
246.8	81.06
247.033	85.06
247.266	69.06
247.5	69.06
247.733	85.06
247.966	71.06
248.2	76.06
248.433	78.06
248.666	72.06
248.899	68.06
249.133	79.06
249.366	83.06
249.599	91.06
249.832	73.06
250.066	76.06
250.299	84.06
250.532	83.06
250.765	98.06
250.998	82.06
251.231	89.06
251.465	66.06
251.698	66.06
251.931	71.06
252.164	78.06
252.397	63.06
252.63	76.06
252.863	72.06
253.096	83.06
253.329	78.06
253.562	89.06
253.795	77.06
254.028	72.06
254.261	78.06
254.494	81.06
254.727	79.06
254.96	72.06
255.193	72.06
255.426	73.06
255.659	77.06
255.892	77.06
256.124	65.06
256.357	75.06
256.59	90.06
256.823	69.06
257.056	72.06
257.289	81.06
257.521	71.06
257.754	80.06
257.987	76.06
258.22	75.06
258.452	70.06
258.685	80.06
258.918	71.06
259.151	87.06
259.383	80.06
259.616	63.06
259.849	72.06
260.081	72.06
260.314	72.06
260.547	71.06
260.779	81.06
261.012	78.06
261.244	66.06
261.477	84.06
261.71	97.06
261.942	95.06
262.175	107.06
262.407	59.06
262.64	66.06
262.872	74.06
263.105	77.06
263.337	80.06
263.57	80.06
263.802	66.06
264.035	82.06
264.267	98.06
264.499	73.06
264.732	73.06
264.964	65.06
265.197	68.06
265.429	80.06
265.661	89.06
265.894	91.06
266.126	80.06
266.358	73.06
266.591	88.06
266.823	72.06
267.055	77.06
267.287	93.06
267.52	77.06
267.752	72.06
267.984	83.06
268.216	83.06
268.448	86.06
268.681	87.06
268.913	68.06
269.145	78.06
269.377	79.06
269.609	70.06
269.841	90.06
270.073	74.06
270.306	71.06
270.538	79.06
270.77	73.06
271.002	73.06
271.234	87.06
271.466	88.06
271.698	87.06
271.93	91.06
272.162	79.06
272.394	79.06
272.626	79.06
272.858	95.06
273.09	81.06
273.322	90.06
273.553	72.06
273.785	83.06
274.017	93.06
274.249	84.06
274.481	87.06
274.713	73.06
274.945	80.06
275.176	77.06
275.408	88.06
275.64	81.06
275.872	77.06
276.104	73.06
276.335	84.06
276.567	71.06
276.799	98.06
277.031	86.06
277.262	63.06
277.494	80.06
277.726	83.06
277.957	73.06
278.189	86.06
278.421	74.06
278.652	71.06
278.884	73.06
279.115	87.06
279.347	77.06
279.579	73.06
279.81	79.06
280.042	70.06
280.273	96.06
280.505	94.06
280.736	74.06
280.968	73.06
281.199	81.06
281.431	78.06
281.662	93.06
281.894	92.06
282.125	78.06
282.356	115.06
282.588	122.06
282.819	96.06
283.051	80.06
283.282	80.06
283.513	82.06
283.745	86.06
283.976	80.06
284.207	75.06
284.439	93.06
284.67	76.06
284.901	97.06
285.132	93.06
285.364	98.06
285.595	83.06
285.826	93.06
286.057	88.06
286.288	77.06
286.52	72.06
286.751	73.06
286.982	79.06
287.213	78.06
287.444	82.06
287.675	83.06
287.906	95.06
288.138	85.06
288.369	86.06
288.6	85.06
288.831	79.06
289.062	93.06
289.293	74.06
289.524	70.06
289.755	91.06
289.986	81.06
290.217	87.06
290.448	82.06
290.679	73.06
290.91	83.06
291.141	69.06
291.371	95.06
291.602	78.06
291.833	86.06
292.064	89.06
292.295	80.06
292.526	83.06
292.757	71.06
292.987	101.06
293.218	88.06
293.449	82.06
293.68	81.06
293.91	79.06
294.141	77.06
294.372	87.06
294.603	85.06
294.833	81.06
295.064	84.06
295.295	85.06
295.525	88.06
295.756	97.06
295.987	101.06
296.217	127.06
296.448	103.06
296.679	86.06
296.909	87.06
297.14	96.06
297.37	92.06
297.601	82.06
297.831	77.06
298.062	80.06
298.292	79.06
298.523	83.06
298.753	81.06
298.984	89.06
299.214	86.06
299.445	74.06
299.675	99.06
299.905	91.06
300.136	86.06
300.366	77.06
300.597	78.06
300.827	90.06
301.057	90.06
301.288	94.06
301.518	69.06
301.748	93.06
301.979	89.06
302.209	87.06
302.439	81.06
302.669	88.06
302.9	81.06
303.13	82.06
303.36	94.06
303.59	101.06
303.82	95.06
304.051	83.06
304.281	89.06
304.511	85.06
304.741	90.06
304.971	86.06
305.201	82.06
305.431	84.06
305.661	85.06
305.891	87.06
306.121	87.06
306.352	94.06
306.582	104.06
306.812	85.06
307.042	77.06
307.272	83.06
307.502	81.06
307.731	86.06
307.961	90.06
308.191	73.06
308.421	84.06
308.651	97.06
308.881	87.06
309.111	82.06
309.341	91.06
309.571	79.06
309.8	105.06
310.03	88.06
310.26	95.06
310.49	94.06
310.72	103.06
310.949	92.06
311.179	93.06
311.409	90.06
311.639	91.06
311.868	94.06
312.098	83.06
312.328	95.06
312.557	108.06
312.787	109.06
313.017	95.06
313.246	85.06
313.476	96.06
313.706	102.06
313.935	88.06
314.165	87.06
314.394	90.06
314.624	73.06
314.853	90.06
315.083	89.06
315.312	79.06
315.542	89.06
315.771	101.06
316.001	97.06
316.23	82.06
316.46	93.06
316.689	90.06
316.919	94.06
317.148	79.06
317.377	90.06
317.607	77.06
317.836	101.06
318.065	72.06
318.295	78.06
318.524	94.06
318.753	80.06
318.983	95.06
319.212	103.06
319.441	91.06
319.67	91.06
319.9	79.06
320.129	85.06
320.358	88.06
320.587	95.06
320.816	87.06
321.046	101.06
321.275	87.06
321.504	93.06
321.733	94.06
321.962	86.06
322.191	89.06
322.42	87.06
322.649	100.06
322.878	106.06
323.108	115.06
323.337	121.06
323.566	109.06
323.795	149.06
324.024	181.06
324.253	362.06
324.482	736.06
324.71	1513.06
324.939	1990.06
325.168	731.06
325.397	214.06
325.626	133.06
325.855	119.06
326.084	134.06
326.313	144.06
326.542	155.06
326.77	241.06
326.999	416.06
327.228	853.06
327.457	1539.06
327.686	1214.06
327.914	339.06
328.143	160.06
328.372	131.06
328.6	91.06
328.829	106.06
329.058	111.06
329.287	130.06
329.515	102.06
329.744	82.06
329.972	104.06
330.201	102.06
330.43	101.06
330.658	99.06
330.887	113.06
331.115	108.06
331.344	84.06
331.572	95.06
331.801	105.06
332.03	88.06
332.258	85.06
332.486	96.06
332.715	75.06
332.943	77.06
333.172	73.06
333.4	83.06
333.629	105.06
333.857	104.06
334.085	83.06
334.314	72.06
334.542	91.06
334.771	82.06
334.999	86.06
335.227	91.06
335.455	77.06
335.684	103.06
335.912	99.06
336.14	95.06
336.369	89.06
336.597	113.06
336.825	86.06
337.053	90.06
337.281	98.06
337.51	93.06
337.738	86.06
337.966	77.06
338.194	97.06
338.422	86.06
338.65	95.06
338.878	90.06
339.106	81.06
339.334	105.06
339.562	95.06
339.79	59.06
340.018	83.06
340.246	98.06
340.474	84.06
340.702	94.06
340.93	100.06
341.158	74.06
341.386	88.06
341.614	95.06
341.842	91.06
342.07	91.06
342.298	73.06
342.526	77.06
342.754	84.06
342.981	97.06
343.209	80.06
343.437	94.06
343.665	89.06
343.893	80.06
344.12	87.06
344.348	80.06
344.576	95.06
344.804	93.06
345.031	106.06
345.259	77.06
345.487	76.06
345.714	87.06
345.942	93.06
346.17	81.06
346.397	91.06
346.625	82.06
346.853	91.06
347.08	78.06
347.308	96.06
347.535	96.06
347.763	87.06
347.99	85.06
348.218	101.06
348.445	92.06
348.673	96.06
348.9	95.06
349.128	97.06
349.355	90.06
349.583	97.06
349.81	91.06
350.037	99.06
350.265	91.06
350.492	101.06
350.72	95.06
350.947	90.06
351.174	89.06
351.402	101.06
351.629	97.06
351.856	99.06
352.083	94.06
352.311	100.06
352.538	90.06
352.765	112.06
352.992	104.06
353.22	103.06
353.447	85.06
353.674	86.06
353.901	98.06
354.128	93.06
354.355	100.06
354.583	98.06
354.81	80.06
355.037	89.06
355.264	94.06
355.491	81.06
355.718	88.06
355.945	88.06
356.172	89.06
356.399	89.06
356.626	85.06
356.853	90.06
357.08	84.06
357.307	87.06
357.534	90.06
357.761	95.06
357.988	91.06
358.215	85.06
358.441	96.06
358.668	87.06
358.895	89.06
359.122	84.06
359.349	73.06
359.576	102.06
359.802	88.06
360.029	90.06
360.256	82.06
360.483	91.06
360.709	71.06
360.936	88.06
361.163	92.06
361.39	88.06
361.616	83.06
361.843	91.06
362.07	91.06
362.296	93.06
362.523	93.06
362.749	91.06
362.976	77.06
363.203	96.06
363.429	86.06
363.656	84.06
363.882	81.06
364.109	94.06
364.335	71.06
364.562	72.06
364.788	86.06
365.015	77.06
365.241	91.06
365.468	90.06
365.694	92.06
365.92	93.06
366.147	73.06
366.373	82.06
366.599	97.06
366.826	91.06
367.052	92.06
367.278	89.06
367.505	79.06
367.731	101.06
367.957	100.06
368.184	86.06
368.41	66.06
368.636	107.06
368.862	106.06
369.089	101.06
369.315	92.06
369.541	88.06
369.767	89.06
369.993	83.06
370.219	89.06
370.445	65.06
370.672	74.06
370.898	79.06
371.124	94.06
371.35	83.06
371.576	91.06
371.802	79.06
372.028	87.06
372.254	89.06
372.48	85.06
372.706	87.06
372.932	81.06
373.158	85.06
373.384	87.06
373.61	87.06
373.835	82.06
374.061	96.06
374.287	89.06
374.513	86.06
374.739	91.06
374.965	83.06
375.191	84.06
375.416	77.06
375.642	91.06
375.868	80.06
376.094	95.06
376.319	81.06
376.545	81.06
376.771	91.06
376.997	92.06
377.222	101.06
377.448	75.06
377.674	93.06
377.899	83.06
378.125	71.06
378.35	97.06
378.576	73.06
378.802	97.06
379.027	84.06
379.253	88.06
379.478	79.06
379.704	86.06
379.929	85.06
380.155	91.06
380.38	83.06
380.606	89.06
380.831	92.06
381.057	84.06
381.282	80.06
381.507	94.06
381.733	104.06
381.958	83.06
382.184	91.06
382.409	89.06
382.634	95.06
382.86	96.06
383.085	99.06
383.31	100.06
383.535	101.06
383.761	98.06
383.986	91.06
384.211	88.06
384.436	86.06
384.662	92.06
384.887	85.06
385.112	99.06
385.337	102.06
385.562	99.06
385.787	100.06
386.013	101.06
386.238	96.06
386.463	110.06
386.688	112.06
386.913	90.06
387.138	105.06
387.363	94.06
387.588	104.06
387.813	96.06
388.038	107.06
388.263	115.06
388.488	107.06
388.713	99.06
388.938	95.06
389.163	96.06
389.387	99.06
389.612	81.06
389.837	85.06
390.062	98.06
390.287	83.06
390.512	85.06
390.736	96.06
390.961	88.06
391.186	97.06
391.411	94.06
391.636	95.06
391.86	77.06
392.085	83.06
392.31	89.06
392.534	70.06
392.759	79.06
392.984	79.06
393.208	78.06
393.433	81.06
393.658	65.06
393.882	70.06
394.107	91.06
394.331	80.06
394.556	90.06
394.78	85.06
395.005	86.06
395.229	77.06
395.454	98.06
395.678	72.06
395.903	73.06
396.127	75.06
396.352	72.06
396.576	89.06
396.801	80.06
397.025	76.06
397.249	78.06
397.474	85.06
397.698	78.06
397.922	84.06
398.147	79.06
398.371	89.06
398.595	89.06
398.82	62.06
399.044	83.06
399.268	83.06
399.492	66.06
399.717	71.06
399.941	86.06
400.165	84.06
400.389	97.06
400.613	71.06
400.837	78.06
401.062	81.06
401.286	93.06
401.51	89.06
401.734	94.06
401.958	97.06
402.182	120.06
402.406	143.06
402.63	102.06
402.854	103.06
403.078	86.06
403.302	85.06
403.526	91.06
403.75	81.06
403.974	82.06
404.198	82.06
404.422	86.06
404.645	86.06
404.869	102.06
405.093	86.06
405.317	74.06
405.541	87.06
405.765	84.06
405.988	100.06
406.212	150.06
406.436	191.06
406.66	130.06
406.883	75.06
407.107	88.06
407.331	94.06
407.555	97.06
407.778	95.06
408.002	92.06
408.226	86.06
408.449	87.06
408.673	86.06
408.896	78.06
409.12	87.06
409.344	81.06
409.567	83.06
409.791	83.06
410.014	86.06
410.238	82.06
410.461	81.06
410.685	89.06
410.908	86.06
411.132	96.06
411.355	89.06
411.578	83.06
411.802	88.06
412.025	65.06
412.249	80.06
412.472	83.06
412.695	79.06
412.919	80.06
413.142	99.06
413.365	80.06
413.589	79.06
413.812	90.06
414.035	100.06
414.258	85.06
414.482	83.06
414.705	85.06
414.928	69.06
415.151	93.06
415.374	88.06
415.597	83.06
415.821	79.06
416.044	72.06
416.267	98.06
416.49	85.06
416.713	70.06
416.936	78.06
417.159	78.06
417.382	66.06
417.605	82.06
417.828	91.06
418.051	80.06
418.274	83.06
418.497	91.06
418.72	93.06
418.943	69.06
419.166	93.06
419.389	86.06
419.611	80.06
419.834	85.06
420.057	91.06
420.28	87.06
420.503	74.06
420.726	88.06
420.948	91.06
421.171	78.06
421.394	72.06
421.617	93.06
421.839	79.06
422.062	88.06
422.285	92.06
422.507	100.06
422.73	103.06
422.953	90.06
423.175	87.06
423.398	88.06
423.621	80.06
423.843	96.06
424.066	97.06
424.288	87.06
424.511	81.06
424.733	87.06
424.956	98.06
425.178	78.06
425.401	102.06
425.623	101.06
425.846	82.06
426.068	102.06
426.291	77.06
426.513	83.06
426.735	81.06
426.958	87.06
427.18	114.06
427.402	133.06
427.625	157.06
427.847	117.06
428.069	97.06
428.292	102.06
428.514	81.06
428.736	87.06
428.958	78.06
429.181	80.06
429.403	89.06
429.625	90.06
429.847	82.06
430.069	105.06
430.292	93.06
430.514	64.06
430.736	89.06
430.958	67.06
431.18	80.06
431.402	87.06
431.624	87.06
431.846	89.06
432.068	73.06
432.29	77.06
432.512	87.06
432.734	76.06
432.956	86.06
433.178	94.06
433.4	87.06
433.622	80.06
433.844	91.06
434.066	87.06
434.287	97.06
434.509	91.06
434.731	94.06
434.953	95.06
435.175	79.06
435.397	82.06
435.618	91.06
435.84	88.06
436.062	104.06
436.284	109.06
436.505	85.06
436.727	90.06
436.949	88.06
437.17	90.06
437.392	83.06
437.614	89.06
437.835	116.06
438.057	106.06
438.278	110.06
438.5	100.06
438.721	106.06
438.943	97.06
439.165	70.06
439.386	99.06
439.608	78.06
439.829	88.06
440.05	109.06
440.272	128.06
440.493	101.06
440.715	77.06
440.936	81.06
441.158	87.06
441.379	88.06
441.6	95.06
441.822	84.06
442.043	87.06
442.264	95.06
442.486	101.06
442.707	91.06
442.928	105.06
443.149	106.06
443.371	121.06
443.592	107.06
443.813	99.06
444.034	106.06
444.255	87.06
444.476	74.06
444.698	88.06
444.919	93.06
445.14	128.06
445.361	114.06
445.582	105.06
445.803	121.06
446.024	116.06
446.245	122.06
446.466	101.06
446.687	78.06
446.908	83.06
447.129	95.06
447.35	96.06
447.571	86.06
447.792	91.06
448.013	101.06
448.234	89.06
448.455	82.06
448.675	106.06
448.896	108.06
449.117	93.06
449.338	89.06
449.559	120.06
449.779	111.06
450	73.06
450.221	82.06
450.442	90.06
450.662	99.06
450.883	120.06
451.104	97.06
451.324	88.06
451.545	79.06
451.766	78.06
451.986	74.06
452.207	73.06
452.428	84.06
452.648	94.06
452.869	111.06
453.089	109.06
453.31	101.06
453.53	86.06
453.751	82.06
453.971	91.06
454.192	107.06
454.412	74.06
454.633	80.06
454.853	70.06
455.073	84.06
455.294	77.06
455.514	87.06
455.734	79.06
455.955	85.06
456.175	70.06
456.395	84.06
456.616	93.06
456.836	77.06
457.056	74.06
457.276	95.06
457.497	61.06
457.717	83.06
457.937	80.06
458.157	83.06
458.377	86.06
458.598	90.06
458.818	135.06
459.038	125.06
459.258	102.06
459.478	81.06
459.698	95.06
459.918	78.06
460.138	84.06
460.358	75.06
460.578	88.06
460.798	99.06
461.018	88.06
461.238	93.06
461.458	83.06
461.678	85.06
461.898	71.06
462.118	92.06
462.338	83.06
462.558	78.06
462.777	83.06
462.997	82.06
463.217	81.06
463.437	73.06
463.657	81.06
463.876	78.06
464.096	94.06
464.316	79.06
464.536	78.06
464.755	83.06
464.975	90.06
465.195	131.06
465.414	132.06
465.634	98.06
465.854	96.06
466.073	86.06
466.293	86.06
466.512	90.06
466.732	79.06
466.951	79.06
467.171	90.06
467.391	82.06
467.61	101.06
467.829	74.06
468.049	64.06
468.268	88.06
468.488	86.06
468.707	89.06
468.927	96.06
469.146	77.06
469.365	90.06
469.585	80.06
469.804	82.06
470.023	101.06
470.243	87.06
470.462	95.06
470.681	102.06
470.901	73.06
471.12	90.06
471.339	80.06
471.558	84.06
471.777	76.06
471.997	102.06
472.216	81.06
472.435	95.06
472.654	90.06
472.873	85.06
473.092	74.06
473.311	100.06
473.53	85.06
473.749	81.06
473.968	103.06
474.187	104.06
474.406	80.06
474.625	79.06
474.844	89.06
475.063	79.06
475.282	72.06
475.501	84.06
475.72	66.06
475.939	73.06
476.158	81.06
476.377	77.06
476.596	97.06
476.814	78.06
477.033	94.06
477.252	77.06
477.471	86.06
477.69	92.06
477.908	86.06
478.127	81.06
478.346	81.06
478.564	89.06
478.783	99.06
479.002	78.06
479.22	85.06
479.439	108.06
479.658	99.06
479.876	87.06
480.095	89.06
480.313	75.06
480.532	66.06
480.751	81.06
480.969	85.06
481.188	96.06
481.406	91.06
481.624	81.06
481.843	78.06
482.061	71.06
482.28	97.06
482.498	90.06
482.717	79.06
482.935	82.06
483.153	72.06
483.372	83.06
483.59	83.06
483.808	89.06
484.027	89.06
484.245	79.06
484.463	94.06
484.681	90.06
484.9	94.06
485.118	98.06
485.336	100.06
485.554	103.06
485.772	102.06
485.99	90.06
486.209	103.06
486.427	102.06
486.645	96.06
486.863	90.06
487.081	85.06
487.299	90.06
487.517	83.06
487.735	97.06
487.953	89.06
488.171	91.06
488.389	83.06
488.607	98.06
488.825	95.06
489.043	84.06
489.261	83.06
489.479	80.06
489.696	90.06
489.914	81.06
490.132	89.06
490.35	74.06
490.568	96.06
490.786	96.06
491.003	82.06
491.221	66.06
491.439	89.06
491.657	88.06
491.874	85.06
492.092	81.06
492.31	89.06
492.527	95.06
492.745	100.06
492.963	91.06
493.18	96.06
493.398	88.06
493.615	84.06
493.833	96.06
494.05	97.06
494.268	83.06
494.485	87.06
494.703	98.06
494.92	73.06
495.138	86.06
495.355	87.06
495.573	81.06
495.79	75.06
496.008	73.06
496.225	79.06
496.442	90.06
496.66	89.06
496.877	93.06
497.094	104.06
497.312	85.06
497.529	89.06
497.746	83.06
497.963	89.06
498.181	80.06
498.398	82.06
498.615	112.06
498.832	99.06
499.049	85.06
499.267	88.06
499.484	94.06
499.701	85.06
499.918	102.06
500.135	95.06
500.352	75.06
500.569	83.06
500.786	78.06
501.003	94.06
501.22	89.06
501.437	85.06
501.654	88.06
501.871	98.06
502.088	89.06
502.305	93.06
502.522	91.06
502.739	83.06
502.956	90.06
503.172	81.06
503.389	83.06
503.606	93.06
503.823	83.06
504.04	90.06
504.256	93.06
504.473	88.06
504.69	75.06
504.907	71.06
505.123	96.06
505.34	74.06
505.557	87.06
505.773	83.06
505.99	93.06
506.207	94.06
506.423	95.06
506.64	88.06
506.856	66.06
507.073	85.06
507.289	75.06
507.506	87.06
507.722	106.06
507.939	103.06
508.155	90.06
508.372	91.06
508.588	103.06
508.805	93.06
509.021	81.06
509.238	85.06
509.454	102.06
509.67	112.06
509.887	83.06
510.103	118.06
510.319	185.06
510.536	650.06
510.752	2115.06
510.968	581.06
511.184	147.06
511.401	101.06
511.617	88.06
511.833	89.06
512.049	85.06
512.265	88.06
512.481	90.06
512.698	81.06
512.914	81.06
513.13	90.06
513.346	90.06
513.562	94.06
513.778	86.06
513.994	81.06
514.21	88.06
514.426	105.06
514.642	121.06
514.858	117.06
515.074	145.06
515.29	381.06
515.506	1184.06
515.721	460.06
515.937	154.06
516.153	97.06
516.369	106.06
516.585	95.06
516.801	100.06
517.016	87.06
517.232	102.06
517.448	96.06
