Data from Uncirc_2000_H10_HRD10591_00060.txt Node
Date: Wed Jan 03 10:48:29 EST 2024
User: Yrep
Spectrometer: HR+D1059
Trigger mode: 1
Integration Time (sec): 1.000000E-1
Scans to average: 1
Electric dark correction enabled: true
Nonlinearity correction enabled: false
Boxcar width: 0
XAxis mode: Wavelengths
Number of Pixels in Spectrum: 2048
>>>>>Begin Spectral Data<<<<<
223.165	-22.62
223.4	-22.62
223.635	-22.62
223.869	-18.62
224.104	-25.62
224.338	-17.62
224.573	-15.62
224.808	-10.62
225.042	5.38
225.277	-11.62
225.511	5.38
225.746	12.38
225.98	-0.62
226.215	16.38
226.449	14.38
226.683	17.38
226.918	17.38
227.152	34.38
227.387	32.38
227.621	40.38
227.856	46.38
228.09	44.38
228.324	53.38
228.559	41.38
228.793	60.38
229.027	55.38
229.262	66.38
229.496	60.38
229.73	71.38
229.964	75.38
230.199	83.38
230.433	60.38
230.667	73.38
230.901	78.38
231.136	66.38
231.37	60.38
231.604	90.38
231.838	80.38
232.072	67.38
232.306	74.38
232.541	89.38
232.775	77.38
233.009	72.38
233.243	69.38
233.477	70.38
233.711	82.38
233.945	72.38
234.179	80.38
234.413	67.38
234.647	85.38
234.881	76.38
235.115	59.38
235.349	72.38
235.583	67.38
235.817	79.38
236.051	92.38
236.285	60.38
236.519	74.38
236.753	71.38
236.987	64.38
237.221	77.38
237.455	78.38
237.689	72.38
237.922	76.38
238.156	84.38
238.39	66.38
238.624	76.38
238.858	62.38
239.091	73.38
239.325	85.38
239.559	77.38
239.793	71.38
240.027	60.38
240.26	65.38
240.494	62.38
240.728	74.38
240.961	75.38
241.195	79.38
241.429	74.38
241.662	65.38
241.896	80.38
242.13	80.38
242.363	72.38
242.597	67.38
242.83	74.38
243.064	77.38
243.298	79.38
243.531	73.38
243.765	62.38
243.998	76.38
244.232	74.38
244.465	96.38
244.699	70.38
244.932	73.38
245.166	69.38
245.399	68.38
245.633	77.38
245.866	67.38
246.099	69.38
246.333	72.38
246.566	84.38
246.8	68.38
247.033	68.38
247.266	72.38
247.5	79.38
247.733	74.38
247.966	94.38
248.2	75.38
248.433	72.38
248.666	72.38
248.899	80.38
249.133	76.38
249.366	88.38
249.599	88.38
249.832	77.38
250.066	88.38
250.299	64.38
250.532	77.38
250.765	90.38
250.998	70.38
251.231	64.38
251.465	94.38
251.698	66.38
251.931	77.38
252.164	89.38
252.397	93.38
252.63	76.38
252.863	78.38
253.096	67.38
253.329	72.38
253.562	72.38
253.795	79.38
254.028	59.38
254.261	76.38
254.494	75.38
254.727	68.38
254.96	69.38
255.193	80.38
255.426	73.38
255.659	73.38
255.892	74.38
256.124	78.38
256.357	85.38
256.59	87.38
256.823	77.38
257.056	69.38
257.289	78.38
257.521	62.38
257.754	74.38
257.987	92.38
258.22	63.38
258.452	67.38
258.685	82.38
258.918	72.38
259.151	67.38
259.383	71.38
259.616	70.38
259.849	76.38
260.081	81.38
260.314	70.38
260.547	78.38
260.779	70.38
261.012	67.38
261.244	85.38
261.477	83.38
261.71	84.38
261.942	101.38
262.175	93.38
262.407	70.38
262.64	70.38
262.872	85.38
263.105	89.38
263.337	79.38
263.57	74.38
263.802	80.38
264.035	72.38
264.267	85.38
264.499	72.38
264.732	87.38
264.964	77.38
265.197	81.38
265.429	72.38
265.661	77.38
265.894	81.38
266.126	85.38
266.358	74.38
266.591	73.38
266.823	58.38
267.055	76.38
267.287	76.38
267.52	74.38
267.752	84.38
267.984	72.38
268.216	84.38
268.448	70.38
268.681	84.38
268.913	86.38
269.145	75.38
269.377	74.38
269.609	71.38
269.841	80.38
270.073	72.38
270.306	78.38
270.538	84.38
270.77	76.38
271.002	76.38
271.234	90.38
271.466	72.38
271.698	88.38
271.93	77.38
272.162	94.38
272.394	87.38
272.626	69.38
272.858	78.38
273.09	72.38
273.322	69.38
273.553	76.38
273.785	77.38
274.017	77.38
274.249	78.38
274.481	86.38
274.713	76.38
274.945	85.38
275.176	86.38
275.408	82.38
275.64	87.38
275.872	71.38
276.104	64.38
276.335	95.38
276.567	92.38
276.799	97.38
277.031	105.38
277.262	77.38
277.494	87.38
277.726	82.38
277.957	68.38
278.189	64.38
278.421	85.38
278.652	80.38
278.884	90.38
279.115	91.38
279.347	76.38
279.579	90.38
279.81	92.38
280.042	82.38
280.273	88.38
280.505	92.38
280.736	83.38
280.968	80.38
281.199	80.38
281.431	85.38
281.662	71.38
281.894	93.38
282.125	99.38
282.356	114.38
282.588	117.38
282.819	118.38
283.051	85.38
283.282	89.38
283.513	88.38
283.745	68.38
283.976	72.38
284.207	70.38
284.439	71.38
284.67	81.38
284.901	90.38
285.132	84.38
285.364	86.38
285.595	75.38
285.826	76.38
286.057	85.38
286.288	82.38
286.52	91.38
286.751	84.38
286.982	69.38
287.213	88.38
287.444	78.38
287.675	78.38
287.906	87.38
288.138	89.38
288.369	87.38
288.6	96.38
288.831	77.38
289.062	73.38
289.293	89.38
289.524	81.38
289.755	81.38
289.986	70.38
290.217	81.38
290.448	87.38
290.679	68.38
290.91	91.38
291.141	78.38
291.371	90.38
291.602	84.38
291.833	75.38
292.064	90.38
292.295	82.38
292.526	76.38
292.757	88.38
292.987	92.38
293.218	82.38
293.449	68.38
293.68	95.38
293.91	82.38
294.141	88.38
294.372	71.38
294.603	88.38
294.833	73.38
295.064	63.38
295.295	81.38
295.525	78.38
295.756	77.38
295.987	105.38
296.217	111.38
296.448	112.38
296.679	105.38
296.909	92.38
297.14	83.38
297.37	85.38
297.601	96.38
297.831	89.38
298.062	96.38
298.292	81.38
298.523	82.38
298.753	94.38
298.984	77.38
299.214	65.38
299.445	85.38
299.675	84.38
299.905	84.38
300.136	72.38
300.366	90.38
300.597	94.38
300.827	95.38
301.057	92.38
301.288	94.38
301.518	91.38
301.748	81.38
301.979	68.38
302.209	90.38
302.439	81.38
302.669	81.38
302.9	83.38
303.13	75.38
303.36	96.38
303.59	83.38
303.82	103.38
304.051	68.38
304.281	85.38
304.511	89.38
304.741	81.38
304.971	86.38
305.201	78.38
305.431	84.38
305.661	87.38
305.891	95.38
306.121	85.38
306.352	82.38
306.582	87.38
306.812	72.38
307.042	98.38
307.272	79.38
307.502	93.38
307.731	77.38
307.961	105.38
308.191	81.38
308.421	73.38
308.651	78.38
308.881	88.38
309.111	88.38
309.341	95.38
309.571	82.38
309.8	92.38
310.03	88.38
310.26	96.38
310.49	85.38
310.72	108.38
310.949	87.38
311.179	88.38
311.409	94.38
311.639	101.38
311.868	90.38
312.098	101.38
312.328	102.38
312.557	97.38
312.787	98.38
313.017	96.38
313.246	86.38
313.476	76.38
313.706	85.38
313.935	75.38
314.165	90.38
314.394	94.38
314.624	106.38
314.853	93.38
315.083	95.38
315.312	88.38
315.542	91.38
315.771	85.38
316.001	94.38
316.23	76.38
316.46	73.38
316.689	81.38
316.919	89.38
317.148	93.38
317.377	95.38
317.607	88.38
317.836	84.38
318.065	75.38
318.295	79.38
318.524	91.38
318.753	81.38
318.983	83.38
319.212	76.38
319.441	94.38
319.67	108.38
319.9	92.38
320.129	97.38
320.358	82.38
320.587	103.38
320.816	101.38
321.046	94.38
321.275	100.38
321.504	85.38
321.733	72.38
321.962	94.38
322.191	94.38
322.42	102.38
322.649	101.38
322.878	96.38
323.108	113.38
323.337	100.38
323.566	115.38
323.795	140.38
324.024	185.38
324.253	351.38
324.482	786.38
324.71	1565.38
324.939	2078.38
325.168	743.38
325.397	241.38
325.626	163.38
325.855	122.38
326.084	136.38
326.313	114.38
326.542	153.38
326.77	207.38
326.999	432.38
327.228	918.38
327.457	1588.38
327.686	1296.38
327.914	352.38
328.143	162.38
328.372	142.38
328.6	126.38
328.829	113.38
329.058	131.38
329.287	124.38
329.515	94.38
329.744	89.38
329.972	87.38
330.201	83.38
330.43	96.38
330.658	110.38
330.887	114.38
331.115	116.38
331.344	91.38
331.572	103.38
331.801	100.38
332.03	89.38
332.258	84.38
332.486	87.38
332.715	101.38
332.943	101.38
333.172	99.38
333.4	93.38
333.629	92.38
333.857	106.38
334.085	100.38
334.314	82.38
334.542	111.38
334.771	89.38
334.999	89.38
335.227	87.38
335.455	79.38
335.684	89.38
335.912	95.38
336.14	101.38
336.369	88.38
336.597	97.38
336.825	91.38
337.053	88.38
337.281	98.38
337.51	96.38
337.738	75.38
337.966	86.38
338.194	79.38
338.422	85.38
338.65	103.38
338.878	90.38
339.106	92.38
339.334	92.38
339.562	88.38
339.79	80.38
340.018	86.38
340.246	92.38
340.474	103.38
340.702	88.38
340.93	92.38
341.158	87.38
341.386	90.38
341.614	91.38
341.842	96.38
342.07	88.38
342.298	97.38
342.526	84.38
342.754	81.38
342.981	79.38
343.209	89.38
343.437	93.38
343.665	94.38
343.893	90.38
344.12	94.38
344.348	89.38
344.576	92.38
344.804	90.38
345.031	94.38
345.259	90.38
345.487	90.38
345.714	100.38
345.942	81.38
346.17	84.38
346.397	85.38
346.625	98.38
346.853	97.38
347.08	77.38
347.308	91.38
347.535	95.38
347.763	87.38
347.99	96.38
348.218	96.38
348.445	101.38
348.673	86.38
348.9	96.38
349.128	101.38
349.355	84.38
349.583	92.38
349.81	87.38
350.037	90.38
350.265	92.38
350.492	96.38
350.72	81.38
350.947	92.38
351.174	104.38
351.402	94.38
351.629	106.38
351.856	101.38
352.083	92.38
352.311	92.38
352.538	90.38
352.765	119.38
352.992	101.38
353.22	97.38
353.447	99.38
353.674	96.38
353.901	86.38
354.128	94.38
354.355	78.38
354.583	100.38
354.81	103.38
355.037	78.38
355.264	91.38
355.491	89.38
355.718	76.38
355.945	76.38
356.172	94.38
356.399	92.38
356.626	77.38
356.853	92.38
357.08	95.38
357.307	94.38
357.534	101.38
357.761	86.38
357.988	85.38
358.215	94.38
358.441	86.38
358.668	93.38
358.895	93.38
359.122	77.38
359.349	84.38
359.576	88.38
359.802	88.38
360.029	106.38
360.256	93.38
360.483	86.38
360.709	78.38
360.936	83.38
361.163	84.38
361.39	96.38
361.616	81.38
361.843	86.38
362.07	102.38
362.296	88.38
362.523	87.38
362.749	93.38
362.976	94.38
363.203	83.38
363.429	86.38
363.656	87.38
363.882	84.38
364.109	68.38
364.335	92.38
364.562	93.38
364.788	73.38
365.015	82.38
365.241	93.38
365.468	96.38
365.694	92.38
365.92	83.38
366.147	80.38
366.373	81.38
366.599	102.38
366.826	91.38
367.052	80.38
367.278	96.38
367.505	93.38
367.731	80.38
367.957	88.38
368.184	96.38
368.41	103.38
368.636	94.38
368.862	94.38
369.089	80.38
369.315	86.38
369.541	85.38
369.767	72.38
369.993	78.38
370.219	93.38
370.445	80.38
370.672	83.38
370.898	78.38
371.124	92.38
371.35	82.38
371.576	90.38
371.802	81.38
372.028	77.38
372.254	95.38
372.48	91.38
372.706	87.38
372.932	82.38
373.158	83.38
373.384	81.38
373.61	64.38
373.835	91.38
374.061	72.38
374.287	84.38
374.513	82.38
374.739	94.38
374.965	76.38
375.191	76.38
375.416	87.38
375.642	92.38
375.868	90.38
376.094	70.38
376.319	89.38
376.545	91.38
376.771	83.38
376.997	91.38
377.222	79.38
377.448	92.38
377.674	92.38
377.899	81.38
378.125	92.38
378.35	90.38
378.576	100.38
378.802	106.38
379.027	95.38
379.253	88.38
379.478	87.38
379.704	89.38
379.929	81.38
380.155	73.38
380.38	80.38
380.606	85.38
380.831	81.38
381.057	87.38
381.282	94.38
381.507	87.38
381.733	96.38
381.958	106.38
382.184	109.38
382.409	112.38
382.634	100.38
382.86	71.38
383.085	90.38
383.31	101.38
383.535	106.38
383.761	100.38
383.986	103.38
384.211	95.38
384.436	103.38
384.662	100.38
384.887	90.38
385.112	98.38
385.337	91.38
385.562	82.38
385.787	102.38
386.013	96.38
386.238	95.38
386.463	98.38
386.688	98.38
386.913	88.38
387.138	98.38
387.363	96.38
387.588	80.38
387.813	96.38
388.038	87.38
388.263	97.38
388.488	101.38
388.713	87.38
388.938	100.38
389.163	98.38
389.387	97.38
389.612	95.38
389.837	80.38
390.062	88.38
390.287	79.38
390.512	93.38
390.736	99.38
390.961	96.38
391.186	90.38
391.411	93.38
391.636	85.38
391.86	74.38
392.085	80.38
392.31	82.38
392.534	80.38
392.759	94.38
392.984	83.38
393.208	78.38
393.433	92.38
393.658	83.38
393.882	77.38
394.107	78.38
394.331	78.38
394.556	93.38
394.78	97.38
395.005	77.38
395.229	81.38
395.454	89.38
395.678	84.38
395.903	91.38
396.127	86.38
396.352	78.38
396.576	91.38
396.801	85.38
397.025	97.38
397.249	96.38
397.474	79.38
397.698	91.38
397.922	82.38
398.147	78.38
398.371	85.38
398.595	80.38
398.82	70.38
399.044	79.38
399.268	83.38
399.492	70.38
399.717	82.38
399.941	85.38
400.165	97.38
400.389	83.38
400.613	77.38
400.837	90.38
401.062	94.38
401.286	75.38
401.51	76.38
401.734	89.38
401.958	92.38
402.182	117.38
402.406	141.38
402.63	110.38
402.854	91.38
403.078	80.38
403.302	80.38
403.526	86.38
403.75	82.38
403.974	76.38
404.198	86.38
404.422	92.38
404.645	83.38
404.869	96.38
405.093	90.38
405.317	92.38
405.541	76.38
405.765	99.38
405.988	101.38
406.212	133.38
406.436	206.38
406.66	129.38
406.883	96.38
407.107	89.38
407.331	98.38
407.555	98.38
407.778	93.38
408.002	98.38
408.226	89.38
408.449	90.38
408.673	94.38
408.896	94.38
409.12	90.38
409.344	106.38
409.567	84.38
409.791	94.38
410.014	83.38
410.238	86.38
410.461	78.38
410.685	83.38
410.908	93.38
411.132	98.38
411.355	97.38
411.578	85.38
411.802	85.38
412.025	73.38
412.249	77.38
412.472	97.38
412.695	92.38
412.919	77.38
413.142	80.38
413.365	86.38
413.589	78.38
413.812	78.38
414.035	85.38
414.258	81.38
414.482	98.38
414.705	76.38
414.928	72.38
415.151	87.38
415.374	85.38
415.597	81.38
415.821	86.38
416.044	83.38
416.267	73.38
416.49	90.38
416.713	79.38
416.936	88.38
417.159	97.38
417.382	92.38
417.605	88.38
417.828	88.38
418.051	80.38
418.274	79.38
418.497	69.38
418.72	81.38
418.943	85.38
419.166	89.38
419.389	90.38
419.611	96.38
419.834	90.38
420.057	77.38
420.28	76.38
420.503	90.38
420.726	72.38
420.948	89.38
421.171	87.38
421.394	74.38
421.617	96.38
421.839	69.38
422.062	85.38
422.285	95.38
422.507	85.38
422.73	101.38
422.953	88.38
423.175	95.38
423.398	89.38
423.621	81.38
423.843	73.38
424.066	83.38
424.288	80.38
424.511	86.38
424.733	101.38
424.956	100.38
425.178	105.38
425.401	88.38
425.623	95.38
425.846	89.38
426.068	76.38
426.291	102.38
426.513	85.38
426.735	74.38
426.958	88.38
427.18	98.38
427.402	125.38
427.625	134.38
427.847	108.38
428.069	89.38
428.292	93.38
428.514	78.38
428.736	89.38
428.958	76.38
429.181	94.38
429.403	83.38
429.625	76.38
429.847	79.38
430.069	83.38
430.292	97.38
430.514	86.38
430.736	80.38
430.958	95.38
431.18	73.38
431.402	80.38
431.624	78.38
431.846	90.38
432.068	85.38
432.29	94.38
432.512	85.38
432.734	78.38
432.956	90.38
433.178	86.38
433.4	98.38
433.622	96.38
433.844	89.38
434.066	87.38
434.287	95.38
434.509	85.38
434.731	86.38
434.953	75.38
435.175	87.38
435.397	88.38
435.618	97.38
435.84	96.38
436.062	108.38
436.284	107.38
436.505	85.38
436.727	83.38
436.949	84.38
437.17	97.38
437.392	77.38
437.614	84.38
437.835	101.38
438.057	105.38
438.278	101.38
438.5	88.38
438.721	110.38
438.943	98.38
439.165	93.38
439.386	67.38
439.608	86.38
439.829	101.38
440.05	109.38
440.272	126.38
440.493	85.38
440.715	85.38
440.936	79.38
441.158	85.38
441.379	93.38
441.6	85.38
441.822	79.38
442.043	105.38
442.264	90.38
442.486	98.38
442.707	76.38
442.928	102.38
443.149	103.38
443.371	100.38
443.592	104.38
443.813	101.38
444.034	101.38
444.255	77.38
444.476	77.38
444.698	79.38
444.919	85.38
445.14	110.38
445.361	112.38
445.582	113.38
445.803	130.38
446.024	133.38
446.245	135.38
446.466	100.38
446.687	84.38
446.908	76.38
447.129	72.38
447.35	86.38
447.571	87.38
447.792	91.38
448.013	86.38
448.234	91.38
448.455	82.38
448.675	109.38
448.896	92.38
449.117	94.38
449.338	94.38
449.559	116.38
449.779	121.38
450	94.38
450.221	78.38
450.442	79.38
450.662	86.38
450.883	89.38
451.104	108.38
451.324	87.38
451.545	83.38
451.766	89.38
451.986	79.38
452.207	81.38
452.428	87.38
452.648	104.38
452.869	113.38
453.089	103.38
453.31	85.38
453.53	86.38
453.751	76.38
453.971	93.38
454.192	96.38
454.412	80.38
454.633	81.38
454.853	74.38
455.073	87.38
455.294	84.38
455.514	92.38
455.734	87.38
455.955	88.38
456.175	68.38
456.395	88.38
456.616	89.38
456.836	86.38
457.056	87.38
457.276	86.38
457.497	90.38
457.717	84.38
457.937	84.38
458.157	88.38
458.377	87.38
458.598	85.38
458.818	121.38
459.038	134.38
459.258	94.38
459.478	95.38
459.698	81.38
459.918	72.38
460.138	101.38
460.358	83.38
460.578	78.38
460.798	76.38
461.018	83.38
461.238	74.38
461.458	99.38
461.678	72.38
461.898	85.38
462.118	86.38
462.338	90.38
462.558	83.38
462.777	81.38
462.997	83.38
463.217	82.38
463.437	81.38
463.657	86.38
463.876	70.38
464.096	74.38
464.316	84.38
464.536	81.38
464.755	97.38
464.975	101.38
465.195	153.38
465.414	140.38
465.634	82.38
465.854	85.38
466.073	84.38
466.293	65.38
466.512	90.38
466.732	80.38
466.951	101.38
467.171	105.38
467.391	92.38
467.61	89.38
467.829	85.38
468.049	97.38
468.268	83.38
468.488	86.38
468.707	93.38
468.927	99.38
469.146	83.38
469.365	78.38
469.585	95.38
469.804	80.38
470.023	78.38
470.243	83.38
470.462	71.38
470.681	108.38
470.901	93.38
471.12	81.38
471.339	80.38
471.558	96.38
471.777	93.38
471.997	86.38
472.216	81.38
472.435	89.38
472.654	92.38
472.873	75.38
473.092	80.38
473.311	93.38
473.53	96.38
473.749	77.38
473.968	94.38
474.187	111.38
474.406	88.38
474.625	83.38
474.844	88.38
475.063	68.38
475.282	101.38
475.501	72.38
475.72	84.38
475.939	77.38
476.158	82.38
476.377	80.38
476.596	85.38
476.814	83.38
477.033	98.38
477.252	90.38
477.471	85.38
477.69	94.38
477.908	92.38
478.127	87.38
478.346	74.38
478.564	77.38
478.783	108.38
479.002	71.38
479.22	89.38
479.439	94.38
479.658	101.38
479.876	83.38
480.095	94.38
480.313	91.38
480.532	77.38
480.751	100.38
480.969	79.38
481.188	88.38
481.406	89.38
481.624	84.38
481.843	81.38
482.061	83.38
482.28	72.38
482.498	89.38
482.717	89.38
482.935	78.38
483.153	98.38
483.372	85.38
483.59	78.38
483.808	81.38
484.027	82.38
484.245	95.38
484.463	94.38
484.681	94.38
484.9	77.38
485.118	99.38
485.336	90.38
485.554	90.38
485.772	94.38
485.99	85.38
486.209	102.38
486.427	103.38
486.645	105.38
486.863	95.38
487.081	90.38
487.299	89.38
487.517	86.38
487.735	93.38
487.953	80.38
488.171	92.38
488.389	73.38
488.607	93.38
488.825	82.38
489.043	77.38
489.261	94.38
489.479	79.38
489.696	84.38
489.914	82.38
490.132	86.38
490.35	83.38
490.568	89.38
490.786	86.38
491.003	80.38
491.221	76.38
491.439	77.38
491.657	90.38
491.874	91.38
492.092	84.38
492.31	81.38
492.527	89.38
492.745	86.38
492.963	85.38
493.18	98.38
493.398	95.38
493.615	101.38
493.833	93.38
494.05	94.38
494.268	83.38
494.485	89.38
494.703	99.38
494.92	94.38
495.138	78.38
495.355	97.38
495.573	92.38
495.79	95.38
496.008	98.38
496.225	92.38
496.442	74.38
496.66	90.38
496.877	95.38
497.094	84.38
497.312	86.38
497.529	88.38
497.746	80.38
497.963	77.38
498.181	93.38
498.398	71.38
498.615	107.38
498.832	96.38
499.049	85.38
499.267	97.38
499.484	83.38
499.701	94.38
499.918	78.38
500.135	87.38
500.352	77.38
500.569	95.38
500.786	85.38
501.003	92.38
501.22	78.38
501.437	79.38
501.654	98.38
501.871	98.38
502.088	81.38
502.305	92.38
502.522	96.38
502.739	89.38
502.956	89.38
503.172	84.38
503.389	102.38
503.606	89.38
503.823	95.38
504.04	92.38
504.256	84.38
504.473	83.38
504.69	82.38
504.907	92.38
505.123	92.38
505.34	89.38
505.557	82.38
505.773	76.38
505.99	84.38
506.207	99.38
506.423	94.38
506.64	87.38
506.856	92.38
507.073	80.38
507.289	105.38
507.506	88.38
507.722	99.38
507.939	98.38
508.155	78.38
508.372	96.38
508.588	103.38
508.805	91.38
509.021	88.38
509.238	104.38
509.454	97.38
509.67	90.38
509.887	100.38
510.103	137.38
510.319	205.38
510.536	717.38
510.752	2272.38
510.968	634.38
511.184	148.38
511.401	89.38
511.617	89.38
511.833	80.38
512.049	97.38
512.265	85.38
512.481	84.38
512.698	88.38
512.914	79.38
513.13	101.38
513.346	96.38
513.562	85.38
513.778	82.38
513.994	104.38
514.21	104.38
514.426	106.38
514.642	131.38
514.858	113.38
515.074	148.38
515.29	404.38
515.506	1326.38
515.721	478.38
515.937	136.38
516.153	96.38
516.369	76.38
516.585	73.38
516.801	74.38
517.016	83.38
517.232	97.38
517.448	96.38
