Data from Uncirc_2000_H10_HRD10591_00056.txt Node
Date: Wed Jan 03 10:48:28 EST 2024
User: Yrep
Spectrometer: HR+D1059
Trigger mode: 1
Integration Time (sec): 1.000000E-1
Scans to average: 1
Electric dark correction enabled: true
Nonlinearity correction enabled: false
Boxcar width: 0
XAxis mode: Wavelengths
Number of Pixels in Spectrum: 2048
>>>>>Begin Spectral Data<<<<<
223.165	-25.31
223.4	-25.31
223.635	-25.31
223.869	-20.31
224.104	-23.31
224.338	-23.31
224.573	-17.31
224.808	-7.31
225.042	0.69
225.277	-0.31
225.511	8.69
225.746	-1.31
225.98	-5.31
226.215	18.69
226.449	32.69
226.683	19.69
226.918	17.69
227.152	25.69
227.387	38.69
227.621	39.69
227.856	30.69
228.09	49.69
228.324	46.69
228.559	47.69
228.793	142.69
229.027	438.69
229.262	489.69
229.496	556.69
229.73	702.69
229.964	754.69
230.199	513.69
230.433	442.69
230.667	442.69
230.901	438.69
231.136	425.69
231.37	416.69
231.604	420.69
231.838	432.69
232.072	403.69
232.306	431.69
232.541	442.69
232.775	442.69
233.009	452.69
233.243	436.69
233.477	466.69
233.711	454.69
233.945	456.69
234.179	496.69
234.413	473.69
234.647	481.69
234.881	484.69
235.115	496.69
235.349	548.69
235.583	528.69
235.817	550.69
236.051	606.69
236.285	554.69
236.519	569.69
236.753	671.69
236.987	864.69
237.221	1318.69
237.455	1428.69
237.689	832.69
237.922	709.69
238.156	686.69
238.39	635.69
238.624	619.69
238.858	603.69
239.091	623.69
239.325	643.69
239.559	638.69
239.793	647.69
240.027	722.69
240.26	860.69
240.494	889.69
240.728	880.69
240.961	856.69
241.195	773.69
241.429	744.69
241.662	716.69
241.896	718.69
242.13	720.69
242.363	718.69
242.597	776.69
242.83	769.69
243.064	779.69
243.298	794.69
243.531	793.69
243.765	768.69
243.998	775.69
244.232	792.69
244.465	818.69
244.699	836.69
244.932	846.69
245.166	841.69
245.399	867.69
245.633	837.69
245.866	844.69
246.099	859.69
246.333	903.69
246.566	892.69
246.8	912.69
247.033	968.69
247.266	958.69
247.5	1019.69
247.733	1096.69
247.966	1065.69
248.2	1086.69
248.433	1084.69
248.666	1154.69
248.899	1257.69
249.133	1357.69
249.366	1323.69
249.599	1218.69
249.832	1132.69
250.066	1126.69
250.299	1150.69
250.532	1230.69
250.765	1407.69
250.998	1603.69
251.231	1539.69
251.465	1375.69
251.698	1326.69
251.931	1299.69
252.164	1321.69
252.397	1346.69
252.63	1358.69
252.863	1428.69
253.096	1584.69
253.329	1631.69
253.562	1548.69
253.795	1446.69
254.028	1518.69
254.261	1548.69
254.494	1700.69
254.727	1986.69
254.96	2079.69
255.193	1839.69
255.426	1627.69
255.659	1529.69
255.892	1424.69
256.124	1441.69
256.357	1440.69
256.59	1409.69
256.823	1372.69
257.056	1399.69
257.289	1427.69
257.521	1450.69
257.754	1457.69
257.987	1416.69
258.22	1428.69
258.452	1428.69
258.685	1443.69
258.918	1467.69
259.151	1546.69
259.383	1586.69
259.616	1593.69
259.849	1710.69
260.081	1839.69
260.314	1941.69
260.547	1873.69
260.779	1735.69
261.012	1678.69
261.244	1631.69
261.477	1575.69
261.71	1598.69
261.942	1651.69
262.175	1691.69
262.407	1607.69
262.64	1590.69
262.872	1535.69
263.105	1566.69
263.337	1579.69
263.57	1554.69
263.802	1570.69
264.035	1563.69
264.267	1555.69
264.499	1605.69
264.732	1615.69
264.964	1612.69
265.197	1603.69
265.429	1607.69
265.661	1605.69
265.894	1634.69
266.126	1611.69
266.358	1655.69
266.591	1670.69
266.823	1764.69
267.055	1768.69
267.287	1777.69
267.52	1769.69
267.752	1802.69
267.984	1778.69
268.216	1822.69
268.448	1858.69
268.681	1904.69
268.913	2030.69
269.145	2193.69
269.377	2238.69
269.609	2148.69
269.841	2162.69
270.073	2242.69
270.306	2546.69
270.538	2656.69
270.77	2497.69
271.002	2369.69
271.234	2323.69
271.466	2479.69
271.698	2580.69
271.93	2615.69
272.162	2582.69
272.394	2500.69
272.626	2382.69
272.858	2282.69
273.09	2171.69
273.322	2139.69
273.553	2120.69
273.785	2111.69
274.017	2122.69
274.249	2153.69
274.481	2139.69
274.713	2140.69
274.945	2145.69
275.176	2190.69
275.408	2122.69
275.64	2124.69
275.872	2140.69
276.104	2186.69
276.335	2248.69
276.567	2282.69
276.799	2437.69
277.031	2619.69
277.262	2754.69
277.494	2630.69
277.726	2434.69
277.957	2354.69
278.189	2338.69
278.421	2273.69
278.652	2302.69
278.884	2257.69
279.115	2230.69
279.347	2255.69
279.579	2274.69
279.81	2315.69
280.042	2259.69
280.273	2266.69
280.505	2324.69
280.736	2247.69
280.968	2271.69
281.199	2321.69
281.431	2331.69
281.662	2326.69
281.894	2324.69
282.125	2424.69
282.356	2561.69
282.588	2701.69
282.819	2495.69
283.051	2434.69
283.282	2428.69
283.513	2452.69
283.745	2558.69
283.976	2534.69
284.207	2536.69
284.439	2490.69
284.67	2486.69
284.901	2500.69
285.132	2468.69
285.364	2494.69
285.595	2510.69
285.826	2526.69
286.057	2524.69
286.288	2475.69
286.52	2535.69
286.751	2562.69
286.982	2598.69
287.213	2604.69
287.444	2657.69
287.675	2705.69
287.906	2770.69
288.138	2812.69
288.369	2763.69
288.6	2742.69
288.831	2735.69
289.062	2731.69
289.293	2703.69
289.524	2662.69
289.755	2640.69
289.986	2699.69
290.217	2711.69
290.448	2675.69
290.679	2694.69
290.91	2696.69
291.141	2748.69
291.371	2735.69
291.602	2710.69
291.833	2716.69
292.064	2687.69
292.295	2704.69
292.526	2739.69
292.757	2704.69
292.987	2682.69
293.218	2680.69
293.449	2775.69
293.68	2754.69
293.91	2719.69
294.141	2758.69
294.372	2728.69
294.603	2806.69
294.833	2761.69
295.064	2748.69
295.295	2816.69
295.525	2822.69
295.756	2821.69
295.987	2893.69
296.217	3004.69
296.448	2964.69
296.679	2838.69
296.909	2856.69
297.14	2831.69
297.37	2857.69
297.601	2926.69
297.831	2929.69
298.062	2904.69
298.292	2908.69
298.523	2994.69
298.753	3014.69
298.984	2926.69
299.214	2963.69
299.445	2974.69
299.675	2986.69
299.905	3017.69
300.136	3031.69
300.366	3024.69
300.597	3039.69
300.827	3111.69
301.057	3229.69
301.288	3242.69
301.518	3178.69
301.748	3202.69
301.979	3258.69
302.209	3215.69
302.439	3284.69
302.669	3209.69
302.9	3179.69
303.13	3146.69
303.36	3219.69
303.59	3218.69
303.82	3249.69
304.051	3240.69
304.281	3168.69
304.511	3176.69
304.741	3160.69
304.971	3175.69
305.201	3171.69
305.431	3130.69
305.661	3167.69
305.891	3159.69
306.121	3191.69
306.352	3243.69
306.582	3211.69
306.812	3128.69
307.042	3169.69
307.272	3178.69
307.502	3139.69
307.731	3185.69
307.961	3171.69
308.191	3174.69
308.421	3140.69
308.651	3201.69
308.881	3239.69
309.111	3236.69
309.341	3226.69
309.571	3372.69
309.8	3463.69
310.03	3409.69
310.26	3425.69
310.49	3395.69
310.72	3577.69
310.949	3610.69
311.179	3526.69
311.409	3470.69
311.639	3471.69
311.868	3516.69
312.098	3591.69
312.328	3620.69
312.557	3699.69
312.787	3812.69
313.017	3702.69
313.246	3602.69
313.476	3609.69
313.706	3567.69
313.935	3676.69
314.165	3788.69
314.394	3792.69
314.624	3768.69
314.853	3669.69
315.083	3612.69
315.312	3635.69
315.542	3612.69
315.771	3586.69
316.001	3534.69
316.23	3524.69
316.46	3486.69
316.689	3570.69
316.919	3642.69
317.148	3647.69
317.377	3620.69
317.607	3634.69
317.836	3580.69
318.065	3539.69
318.295	3533.69
318.524	3513.69
318.753	3531.69
318.983	3552.69
319.212	3478.69
319.441	3640.69
319.67	3679.69
319.9	3558.69
320.129	3554.69
320.358	3561.69
320.587	3577.69
320.816	3688.69
321.046	3717.69
321.275	3674.69
321.504	3672.69
321.733	3750.69
321.962	3810.69
322.191	3816.69
322.42	3905.69
322.649	3952.69
322.878	4085.69
323.108	4221.69
323.337	4354.69
323.566	4419.69
323.795	4764.69
324.024	5310.69
324.253	6898.69
324.482	10516.69
324.71	14917.69
324.939	15612.69
325.168	11883.69
325.397	6189.69
325.626	5058.69
325.855	4627.69
326.084	4589.69
326.313	4569.69
326.542	4725.69
326.77	5288.69
326.999	6747.69
327.228	9885.69
327.457	13922.69
327.686	12879.69
327.914	6878.69
328.143	5483.69
328.372	5082.69
328.6	4937.69
328.829	4950.69
329.058	5006.69
329.287	5043.69
329.515	4735.69
329.744	4547.69
329.972	4535.69
330.201	4654.69
330.43	4898.69
330.658	5087.69
330.887	5328.69
331.115	5058.69
331.344	4761.69
331.572	4674.69
331.801	4780.69
332.03	4791.69
332.258	4790.69
332.486	4775.69
332.715	4854.69
332.943	4991.69
333.172	5191.69
333.4	5327.69
333.629	5333.69
333.857	5454.69
334.085	5286.69
334.314	5213.69
334.542	5136.69
334.771	5187.69
334.999	5035.69
335.227	5063.69
335.455	4923.69
335.684	4854.69
335.912	4828.69
336.14	4788.69
336.369	4765.69
336.597	4896.69
336.825	4790.69
337.053	4765.69
337.281	4575.69
337.51	4561.69
337.738	4614.69
337.966	4496.69
338.194	4530.69
338.422	4434.69
338.65	4346.69
338.878	4424.69
339.106	4412.69
339.334	4374.69
339.562	4345.69
339.79	4251.69
340.018	4286.69
340.246	4283.69
340.474	4329.69
340.702	4265.69
340.93	4246.69
341.158	4282.69
341.386	4230.69
341.614	4221.69
341.842	4257.69
342.07	4174.69
342.298	4146.69
342.526	4186.69
342.754	4176.69
342.981	4169.69
343.209	4267.69
343.437	4532.69
343.665	4754.69
343.893	5035.69
344.12	5067.69
344.348	4825.69
344.576	4548.69
344.804	4590.69
345.031	4433.69
345.259	4444.69
345.487	4271.69
345.714	4190.69
345.942	4104.69
346.17	4151.69
346.397	4052.69
346.625	4054.69
346.853	4026.69
347.08	4105.69
347.308	4078.69
347.535	4124.69
347.763	4184.69
347.99	4109.69
348.218	4160.69
348.445	4164.69
348.673	4107.69
348.9	4033.69
349.128	3946.69
349.355	3946.69
349.583	3968.69
349.81	3941.69
350.037	3941.69
350.265	3880.69
350.492	3985.69
350.72	3954.69
350.947	3987.69
351.174	4006.69
351.402	4110.69
351.629	4009.69
351.856	4051.69
352.083	4054.69
352.311	4101.69
352.538	4102.69
352.765	4073.69
352.992	4041.69
353.22	3971.69
353.447	3944.69
353.674	3887.69
353.901	3844.69
354.128	3898.69
354.355	3849.69
354.583	3831.69
354.81	3806.69
355.037	3880.69
355.264	3855.69
355.491	3767.69
355.718	3817.69
355.945	3835.69
356.172	3820.69
356.399	3840.69
356.626	3836.69
356.853	3889.69
357.08	3799.69
357.307	3826.69
357.534	3868.69
357.761	3806.69
357.988	3842.69
358.215	3852.69
358.441	3843.69
358.668	3860.69
358.895	3879.69
359.122	3958.69
359.349	4052.69
359.576	4151.69
359.802	4291.69
360.029	4398.69
360.256	4386.69
360.483	4211.69
360.709	4058.69
360.936	4039.69
361.163	4077.69
361.39	4093.69
361.616	4087.69
361.843	4001.69
362.07	4064.69
362.296	4062.69
362.523	4040.69
362.749	4039.69
362.976	3957.69
363.203	3920.69
363.429	3930.69
363.656	3937.69
363.882	3889.69
364.109	3892.69
364.335	3851.69
364.562	3918.69
364.788	3894.69
365.015	3917.69
365.241	3895.69
365.468	3958.69
365.694	3959.69
365.92	3979.69
366.147	3940.69
366.373	3893.69
366.599	3899.69
366.826	3891.69
367.052	3864.69
367.278	3870.69
367.505	3922.69
367.731	3962.69
367.957	3973.69
368.184	4010.69
368.41	4030.69
368.636	4143.69
368.862	4145.69
369.089	4082.69
369.315	4048.69
369.541	3993.69
369.767	4059.69
369.993	4065.69
370.219	4057.69
370.445	4029.69
370.672	4095.69
370.898	4114.69
371.124	4193.69
371.35	4217.69
371.576	4172.69
371.802	4152.69
372.028	4174.69
372.254	4174.69
372.48	4337.69
372.706	4339.69
372.932	4417.69
373.158	4281.69
373.384	4244.69
373.61	4231.69
373.835	4239.69
374.061	4246.69
374.287	4332.69
374.513	4383.69
374.739	4500.69
374.965	4607.69
375.191	4570.69
375.416	4498.69
375.642	4433.69
375.868	4354.69
376.094	4317.69
376.319	4256.69
376.545	4210.69
376.771	4228.69
376.997	4167.69
377.222	4205.69
377.448	4233.69
377.674	4184.69
377.899	4147.69
378.125	4184.69
378.35	4162.69
378.576	4131.69
378.802	4167.69
379.027	4139.69
379.253	4196.69
379.478	4159.69
379.704	4159.69
379.929	4150.69
380.155	4181.69
380.38	4176.69
380.606	4230.69
380.831	4218.69
381.057	4267.69
381.282	4211.69
381.507	4187.69
381.733	4283.69
381.958	4315.69
382.184	4352.69
382.409	4404.69
382.634	4389.69
382.86	4409.69
383.085	4506.69
383.31	4508.69
383.535	4642.69
383.761	4693.69
383.986	4728.69
384.211	4857.69
384.436	4934.69
384.662	5002.69
384.887	5044.69
385.112	5021.69
385.337	5133.69
385.562	5118.69
385.787	5111.69
386.013	5120.69
386.238	5152.69
386.463	5188.69
386.688	5159.69
386.913	5058.69
387.138	5008.69
387.363	5012.69
387.588	4956.69
387.813	5052.69
388.038	4998.69
388.263	5000.69
388.488	5070.69
388.713	5057.69
388.938	5006.69
389.163	4977.69
389.387	4966.69
389.612	4888.69
389.837	4939.69
390.062	4887.69
390.287	4993.69
390.512	4994.69
390.736	5009.69
390.961	5120.69
391.186	5211.69
391.411	5337.69
391.636	5448.69
391.86	5727.69
392.085	5635.69
392.31	5583.69
392.534	5406.69
392.759	5324.69
392.984	5216.69
393.208	5249.69
393.433	5242.69
393.658	5194.69
393.882	5208.69
394.107	5210.69
394.331	5342.69
394.556	5306.69
394.78	5375.69
395.005	5414.69
395.229	5396.69
395.454	5632.69
395.678	5735.69
395.903	5658.69
396.127	5704.69
396.352	5531.69
396.576	5335.69
396.801	5285.69
397.025	5391.69
397.249	5481.69
397.474	5603.69
397.698	5710.69
397.922	5770.69
398.147	5913.69
398.371	5998.69
398.595	6129.69
398.82	6424.69
399.044	7060.69
399.268	7788.69
399.492	8794.69
399.717	9467.69
399.941	9128.69
400.165	8519.69
400.389	7795.69
400.613	7065.69
400.837	6575.69
401.062	6531.69
401.286	6413.69
401.51	6331.69
401.734	6299.69
401.958	6415.69
402.182	6599.69
402.406	6633.69
402.63	6759.69
402.854	6786.69
403.078	6942.69
403.302	7023.69
403.526	7136.69
403.75	7148.69
403.974	7205.69
404.198	7211.69
404.422	7362.69
404.645	7186.69
404.869	7136.69
405.093	7172.69
405.317	7323.69
405.541	7321.69
405.765	7044.69
405.988	7066.69
406.212	7218.69
406.436	7488.69
406.66	7527.69
406.883	7594.69
407.107	8120.69
407.331	8670.69
407.555	9111.69
407.778	8772.69
408.002	8096.69
408.226	7671.69
408.449	7548.69
408.673	7415.69
408.896	7590.69
409.12	7757.69
409.344	7310.69
409.567	6948.69
409.791	6926.69
410.014	6844.69
410.238	6792.69
410.461	6759.69
410.685	6887.69
410.908	6933.69
411.132	7164.69
411.355	7224.69
411.578	6874.69
411.802	6568.69
412.025	6526.69
412.249	6653.69
412.472	6616.69
412.695	6440.69
412.919	6218.69
413.142	6208.69
413.365	6183.69
413.589	6275.69
413.812	6151.69
414.035	6130.69
414.258	6135.69
414.482	6217.69
414.705	6181.69
414.928	6222.69
415.151	6278.69
415.374	6280.69
415.597	6185.69
415.821	6008.69
416.044	6075.69
416.267	6068.69
416.49	6076.69
416.713	6006.69
416.936	6123.69
417.159	6111.69
417.382	6187.69
417.605	6185.69
417.828	6322.69
418.051	6462.69
418.274	6318.69
418.497	6263.69
418.72	6371.69
418.943	6274.69
419.166	6742.69
419.389	7066.69
419.611	6887.69
419.834	6748.69
420.057	6599.69
420.28	6384.69
420.503	6254.69
420.726	6295.69
420.948	6439.69
421.171	6941.69
421.394	6833.69
421.617	6310.69
421.839	6330.69
422.062	6445.69
422.285	6555.69
422.507	7227.69
422.73	7824.69
422.953	7159.69
423.175	6789.69
423.398	6802.69
423.621	6869.69
423.843	7110.69
424.066	7064.69
424.288	6914.69
424.511	7114.69
424.733	7632.69
424.956	7971.69
425.178	7467.69
425.401	7743.69
425.623	7531.69
425.846	6672.69
426.068	6531.69
426.291	6319.69
426.513	6351.69
426.735	6500.69
426.958	7031.69
427.18	7629.69
427.402	8788.69
427.625	8666.69
427.847	7359.69
428.069	6492.69
428.292	6197.69
428.514	5934.69
428.736	5772.69
428.958	5830.69
429.181	5608.69
429.403	5673.69
429.625	5867.69
429.847	6152.69
430.069	6599.69
430.292	6086.69
430.514	5670.69
430.736	5663.69
430.958	5596.69
431.18	5531.69
431.402	5440.69
431.624	5504.69
431.846	5625.69
432.068	5567.69
432.29	5679.69
432.512	5531.69
432.734	5675.69
432.956	5550.69
433.178	5637.69
433.4	5637.69
433.622	5647.69
433.844	5664.69
434.066	5663.69
434.287	5712.69
434.509	6015.69
434.731	6178.69
434.953	6370.69
435.175	6416.69
435.397	6505.69
435.618	6376.69
435.84	6847.69
436.062	7497.69
436.284	7431.69
436.505	6382.69
436.727	6040.69
436.949	5817.69
437.17	5680.69
437.392	5704.69
437.614	5794.69
437.835	6222.69
438.057	7155.69
438.278	7713.69
438.5	7584.69
438.721	8476.69
438.943	7413.69
439.165	6240.69
439.386	6115.69
439.608	6104.69
439.829	6213.69
440.05	6511.69
440.272	6811.69
440.493	6247.69
440.715	5955.69
440.936	5991.69
441.158	5995.69
441.379	6086.69
441.6	6410.69
441.822	6659.69
442.043	7090.69
442.264	7890.69
442.486	7543.69
442.707	6753.69
442.928	6572.69
443.149	6809.69
443.371	7004.69
443.592	7512.69
443.813	8498.69
444.034	8356.69
444.255	7334.69
444.476	7119.69
444.698	7238.69
444.919	7389.69
445.14	7283.69
445.361	7125.69
445.582	7201.69
445.803	7710.69
446.024	8308.69
446.245	7884.69
446.466	7191.69
446.687	6290.69
446.908	6023.69
447.129	5683.69
447.35	5540.69
447.571	5503.69
447.792	5414.69
448.013	5498.69
448.234	5730.69
448.455	6355.69
448.675	7548.69
448.896	7879.69
449.117	6550.69
449.338	6777.69
449.559	8055.69
449.779	8219.69
450	6206.69
450.221	5607.69
450.442	5353.69
450.662	5336.69
450.883	5389.69
451.104	5435.69
451.324	5276.69
451.545	5139.69
451.766	5120.69
451.986	4993.69
452.207	4956.69
452.428	4922.69
452.648	4941.69
452.869	4912.69
453.089	5063.69
453.31	5106.69
453.53	4939.69
453.751	4975.69
453.971	4919.69
454.192	5031.69
454.412	4818.69
454.633	4799.69
454.853	4709.69
455.073	4841.69
455.294	5201.69
455.514	5650.69
455.734	5216.69
455.955	4710.69
456.175	4586.69
456.395	4569.69
456.616	4523.69
456.836	4510.69
457.056	4466.69
457.276	4458.69
457.497	4683.69
457.717	4583.69
457.937	4676.69
458.157	4719.69
458.377	4883.69
458.598	5177.69
458.818	5760.69
459.038	6489.69
459.258	6428.69
459.478	5730.69
459.698	5677.69
459.918	5774.69
460.138	5970.69
460.358	6115.69
460.578	6138.69
460.798	6297.69
461.018	6247.69
461.238	6053.69
461.458	6113.69
461.678	6052.69
461.898	6231.69
462.118	6276.69
462.338	6583.69
462.558	6742.69
462.777	7001.69
462.997	7600.69
463.217	8002.69
463.437	7755.69
463.657	7164.69
463.876	6955.69
464.096	7094.69
464.316	7020.69
464.536	6961.69
464.755	6853.69
464.975	6730.69
465.195	6828.69
465.414	6822.69
465.634	5956.69
465.854	5678.69
466.073	5487.69
466.293	5379.69
466.512	5156.69
466.732	5149.69
466.951	5111.69
467.171	5100.69
467.391	5154.69
467.61	5221.69
467.829	5159.69
468.049	5022.69
468.268	4852.69
468.488	4777.69
468.707	4877.69
468.927	4842.69
469.146	4858.69
469.365	4936.69
469.585	5016.69
469.804	5184.69
470.023	5269.69
470.243	5248.69
470.462	5338.69
470.681	5486.69
470.901	5376.69
471.12	5276.69
471.339	5158.69
471.558	5202.69
471.777	5087.69
471.997	4968.69
472.216	4947.69
472.435	4875.69
472.654	4832.69
472.873	4785.69
473.092	4837.69
473.311	4783.69
473.53	4955.69
473.749	5051.69
473.968	5529.69
474.187	6406.69
474.406	5956.69
474.625	5182.69
474.844	4919.69
475.063	4918.69
475.282	4889.69
475.501	5022.69
475.72	4978.69
475.939	5101.69
476.158	5020.69
476.377	5023.69
476.596	5056.69
476.814	5294.69
477.033	5267.69
477.252	5338.69
477.471	5392.69
477.69	5466.69
477.908	5601.69
478.127	5688.69
478.346	5775.69
478.564	5940.69
478.783	6048.69
479.002	6218.69
479.22	6172.69
479.439	6252.69
479.658	6376.69
479.876	6415.69
480.095	6645.69
480.313	6905.69
480.532	6820.69
480.751	6752.69
480.969	6490.69
481.188	6346.69
481.406	6199.69
481.624	5991.69
481.843	5874.69
482.061	5850.69
482.28	5792.69
482.498	5709.69
482.717	5678.69
482.935	5717.69
483.153	5752.69
483.372	5672.69
483.59	5682.69
483.808	5693.69
484.027	5767.69
484.245	5646.69
484.463	5807.69
484.681	5847.69
484.9	5943.69
485.118	5888.69
485.336	5902.69
485.554	6014.69
485.772	6155.69
485.99	6092.69
486.209	6156.69
486.427	6093.69
486.645	6136.69
486.863	6244.69
487.081	6185.69
487.299	6106.69
487.517	6123.69
487.735	6101.69
487.953	6075.69
