Data from Uncirc_2000_H10_HRD10591_00074.txt Node
Date: Wed Jan 03 10:48:32 EST 2024
User: Yrep
Spectrometer: HR+D1059
Trigger mode: 1
Integration Time (sec): 1.000000E-1
Scans to average: 1
Electric dark correction enabled: true
Nonlinearity correction enabled: false
Boxcar width: 0
XAxis mode: Wavelengths
Number of Pixels in Spectrum: 2048
>>>>>Begin Spectral Data<<<<<
223.165	-27.69
223.4	-27.69
223.635	-27.69
223.869	-18.69
224.104	-19.69
224.338	-16.69
224.573	-14.69
224.808	-13.69
225.042	-13.69
225.277	3.31
225.511	17.31
225.746	2.31
225.98	13.31
226.215	10.31
226.449	14.31
226.683	17.31
226.918	23.31
227.152	23.31
227.387	39.31
227.621	26.31
227.856	46.31
228.09	58.31
228.324	38.31
228.559	57.31
228.793	45.31
229.027	51.31
229.262	58.31
229.496	71.31
229.73	85.31
229.964	73.31
230.199	77.31
230.433	78.31
230.667	79.31
230.901	63.31
231.136	66.31
231.37	84.31
231.604	73.31
231.838	81.31
232.072	81.31
232.306	72.31
232.541	95.31
232.775	78.31
233.009	81.31
233.243	76.31
233.477	86.31
233.711	78.31
233.945	69.31
234.179	64.31
234.413	70.31
234.647	77.31
234.881	83.31
235.115	74.31
235.349	81.31
235.583	81.31
235.817	67.31
236.051	78.31
236.285	80.31
236.519	84.31
236.753	73.31
236.987	81.31
237.221	81.31
237.455	76.31
237.689	79.31
237.922	78.31
238.156	75.31
238.39	72.31
238.624	72.31
238.858	68.31
239.091	80.31
239.325	67.31
239.559	75.31
239.793	88.31
240.027	81.31
240.26	72.31
240.494	71.31
240.728	79.31
240.961	66.31
241.195	71.31
241.429	75.31
241.662	85.31
241.896	86.31
242.13	78.31
242.363	78.31
242.597	73.31
242.83	89.31
243.064	66.31
243.298	83.31
243.531	77.31
243.765	86.31
243.998	75.31
244.232	78.31
244.465	77.31
244.699	76.31
244.932	90.31
245.166	70.31
245.399	72.31
245.633	68.31
245.866	84.31
246.099	82.31
246.333	80.31
246.566	73.31
246.8	79.31
247.033	88.31
247.266	76.31
247.5	83.31
247.733	71.31
247.966	77.31
248.2	78.31
248.433	73.31
248.666	91.31
248.899	66.31
249.133	72.31
249.366	91.31
249.599	96.31
249.832	76.31
250.066	77.31
250.299	79.31
250.532	90.31
250.765	80.31
250.998	88.31
251.231	81.31
251.465	89.31
251.698	77.31
251.931	81.31
252.164	64.31
252.397	85.31
252.63	76.31
252.863	66.31
253.096	83.31
253.329	87.31
253.562	75.31
253.795	78.31
254.028	77.31
254.261	90.31
254.494	74.31
254.727	62.31
254.96	64.31
255.193	71.31
255.426	75.31
255.659	74.31
255.892	85.31
256.124	81.31
256.357	71.31
256.59	89.31
256.823	82.31
257.056	73.31
257.289	58.31
257.521	76.31
257.754	72.31
257.987	81.31
258.22	70.31
258.452	87.31
258.685	86.31
258.918	76.31
259.151	83.31
259.383	78.31
259.616	73.31
259.849	76.31
260.081	82.31
260.314	83.31
260.547	77.31
260.779	81.31
261.012	85.31
261.244	80.31
261.477	90.31
261.71	85.31
261.942	93.31
262.175	109.31
262.407	75.31
262.64	80.31
262.872	95.31
263.105	81.31
263.337	87.31
263.57	74.31
263.802	77.31
264.035	73.31
264.267	80.31
264.499	75.31
264.732	76.31
264.964	91.31
265.197	82.31
265.429	88.31
265.661	71.31
265.894	73.31
266.126	90.31
266.358	96.31
266.591	80.31
266.823	79.31
267.055	79.31
267.287	80.31
267.52	82.31
267.752	90.31
267.984	88.31
268.216	78.31
268.448	78.31
268.681	75.31
268.913	78.31
269.145	82.31
269.377	69.31
269.609	77.31
269.841	77.31
270.073	75.31
270.306	79.31
270.538	98.31
270.77	84.31
271.002	88.31
271.234	83.31
271.466	78.31
271.698	83.31
271.93	76.31
272.162	95.31
272.394	77.31
272.626	90.31
272.858	85.31
273.09	82.31
273.322	71.31
273.553	81.31
273.785	84.31
274.017	83.31
274.249	92.31
274.481	79.31
274.713	84.31
274.945	88.31
275.176	81.31
275.408	79.31
275.64	78.31
275.872	100.31
276.104	81.31
276.335	91.31
276.567	92.31
276.799	109.31
277.031	99.31
277.262	82.31
277.494	73.31
277.726	87.31
277.957	85.31
278.189	81.31
278.421	78.31
278.652	77.31
278.884	81.31
279.115	80.31
279.347	69.31
279.579	71.31
279.81	88.31
280.042	84.31
280.273	82.31
280.505	80.31
280.736	90.31
280.968	82.31
281.199	71.31
281.431	71.31
281.662	87.31
281.894	86.31
282.125	81.31
282.356	106.31
282.588	118.31
282.819	105.31
283.051	78.31
283.282	69.31
283.513	89.31
283.745	86.31
283.976	94.31
284.207	89.31
284.439	80.31
284.67	95.31
284.901	105.31
285.132	86.31
285.364	89.31
285.595	86.31
285.826	89.31
286.057	85.31
286.288	89.31
286.52	89.31
286.751	81.31
286.982	95.31
287.213	82.31
287.444	87.31
287.675	77.31
287.906	76.31
288.138	88.31
288.369	74.31
288.6	82.31
288.831	82.31
289.062	95.31
289.293	89.31
289.524	75.31
289.755	86.31
289.986	90.31
290.217	85.31
290.448	97.31
290.679	87.31
290.91	79.31
291.141	63.31
291.371	86.31
291.602	77.31
291.833	83.31
292.064	81.31
292.295	77.31
292.526	77.31
292.757	77.31
292.987	95.31
293.218	86.31
293.449	82.31
293.68	82.31
293.91	80.31
294.141	74.31
294.372	85.31
294.603	80.31
294.833	67.31
295.064	70.31
295.295	87.31
295.525	63.31
295.756	91.31
295.987	112.31
296.217	123.31
296.448	117.31
296.679	99.31
296.909	83.31
297.14	80.31
297.37	86.31
297.601	85.31
297.831	81.31
298.062	87.31
298.292	80.31
298.523	86.31
298.753	75.31
298.984	78.31
299.214	84.31
299.445	80.31
299.675	106.31
299.905	77.31
300.136	89.31
300.366	85.31
300.597	94.31
300.827	74.31
301.057	97.31
301.288	95.31
301.518	94.31
301.748	81.31
301.979	101.31
302.209	84.31
302.439	89.31
302.669	77.31
302.9	102.31
303.13	81.31
303.36	98.31
303.59	92.31
303.82	118.31
304.051	96.31
304.281	95.31
304.511	93.31
304.741	85.31
304.971	77.31
305.201	91.31
305.431	88.31
305.661	90.31
305.891	86.31
306.121	102.31
306.352	97.31
306.582	92.31
306.812	99.31
307.042	89.31
307.272	100.31
307.502	78.31
307.731	85.31
307.961	87.31
308.191	78.31
308.421	94.31
308.651	111.31
308.881	89.31
309.111	86.31
309.341	87.31
309.571	94.31
309.8	94.31
310.03	98.31
310.26	81.31
310.49	80.31
310.72	97.31
310.949	100.31
311.179	92.31
311.409	80.31
311.639	86.31
311.868	97.31
312.098	77.31
312.328	97.31
312.557	89.31
312.787	103.31
313.017	94.31
313.246	85.31
313.476	93.31
313.706	80.31
313.935	96.31
314.165	106.31
314.394	100.31
314.624	81.31
314.853	100.31
315.083	98.31
315.312	80.31
315.542	75.31
315.771	93.31
316.001	81.31
316.23	88.31
316.46	93.31
316.689	85.31
316.919	97.31
317.148	96.31
317.377	81.31
317.607	81.31
317.836	78.31
318.065	73.31
318.295	81.31
318.524	79.31
318.753	90.31
318.983	94.31
319.212	96.31
319.441	96.31
319.67	101.31
319.9	89.31
320.129	103.31
320.358	100.31
320.587	96.31
320.816	118.31
321.046	88.31
321.275	98.31
321.504	84.31
321.733	93.31
321.962	109.31
322.191	90.31
322.42	83.31
322.649	110.31
322.878	92.31
323.108	106.31
323.337	125.31
323.566	125.31
323.795	148.31
324.024	199.31
324.253	360.31
324.482	739.31
324.71	1498.31
324.939	1954.31
325.168	718.31
325.397	214.31
325.626	142.31
325.855	122.31
326.084	118.31
326.313	128.31
326.542	149.31
326.77	227.31
326.999	414.31
327.228	842.31
327.457	1540.31
327.686	1171.31
327.914	317.31
328.143	177.31
328.372	141.31
328.6	115.31
328.829	103.31
329.058	112.31
329.287	110.31
329.515	100.31
329.744	97.31
329.972	100.31
330.201	103.31
330.43	100.31
330.658	115.31
330.887	108.31
331.115	111.31
331.344	102.31
331.572	93.31
331.801	89.31
332.03	100.31
332.258	89.31
332.486	83.31
332.715	84.31
332.943	79.31
333.172	90.31
333.4	111.31
333.629	104.31
333.857	110.31
334.085	105.31
334.314	90.31
334.542	103.31
334.771	102.31
334.999	96.31
335.227	85.31
335.455	98.31
335.684	98.31
335.912	84.31
336.14	90.31
336.369	92.31
336.597	107.31
336.825	86.31
337.053	86.31
337.281	78.31
337.51	73.31
337.738	85.31
337.966	95.31
338.194	97.31
338.422	103.31
338.65	78.31
338.878	91.31
339.106	77.31
339.334	85.31
339.562	87.31
339.79	110.31
340.018	85.31
340.246	100.31
340.474	78.31
340.702	90.31
340.93	74.31
341.158	87.31
341.386	93.31
341.614	89.31
341.842	87.31
342.07	85.31
342.298	83.31
342.526	76.31
342.754	79.31
342.981	84.31
343.209	98.31
343.437	100.31
343.665	87.31
343.893	71.31
344.12	80.31
344.348	109.31
344.576	84.31
344.804	98.31
345.031	87.31
345.259	75.31
345.487	79.31
345.714	93.31
345.942	85.31
346.17	95.31
346.397	92.31
346.625	82.31
346.853	86.31
347.08	89.31
347.308	95.31
347.535	93.31
347.763	96.31
347.99	95.31
348.218	93.31
348.445	85.31
348.673	89.31
348.9	90.31
349.128	91.31
349.355	78.31
349.583	88.31
349.81	90.31
350.037	98.31
350.265	104.31
350.492	82.31
350.72	110.31
350.947	98.31
351.174	89.31
351.402	105.31
351.629	102.31
351.856	93.31
352.083	99.31
352.311	97.31
352.538	108.31
352.765	99.31
352.992	91.31
353.22	96.31
353.447	98.31
353.674	88.31
353.901	101.31
354.128	96.31
354.355	98.31
354.583	89.31
354.81	97.31
355.037	97.31
355.264	94.31
355.491	104.31
355.718	99.31
355.945	94.31
356.172	93.31
356.399	91.31
356.626	92.31
356.853	74.31
357.08	80.31
357.307	107.31
357.534	92.31
357.761	86.31
357.988	87.31
358.215	93.31
358.441	91.31
358.668	78.31
358.895	80.31
359.122	91.31
359.349	83.31
359.576	90.31
359.802	87.31
360.029	119.31
360.256	118.31
360.483	78.31
360.709	90.31
360.936	80.31
361.163	82.31
361.39	94.31
361.616	90.31
361.843	86.31
362.07	86.31
362.296	85.31
362.523	79.31
362.749	81.31
362.976	77.31
363.203	83.31
363.429	79.31
363.656	94.31
363.882	84.31
364.109	90.31
364.335	98.31
364.562	74.31
364.788	95.31
365.015	79.31
365.241	90.31
365.468	101.31
365.694	85.31
365.92	81.31
366.147	73.31
366.373	85.31
366.599	97.31
366.826	89.31
367.052	86.31
367.278	84.31
367.505	96.31
367.731	99.31
367.957	92.31
368.184	79.31
368.41	103.31
368.636	104.31
368.862	85.31
369.089	94.31
369.315	99.31
369.541	90.31
369.767	91.31
369.993	99.31
370.219	81.31
370.445	86.31
370.672	86.31
370.898	95.31
371.124	90.31
371.35	80.31
371.576	81.31
371.802	77.31
372.028	75.31
372.254	81.31
372.48	79.31
372.706	73.31
372.932	65.31
373.158	95.31
373.384	98.31
373.61	83.31
373.835	97.31
374.061	84.31
374.287	86.31
374.513	91.31
374.739	88.31
374.965	90.31
375.191	90.31
375.416	94.31
375.642	73.31
375.868	93.31
376.094	102.31
376.319	83.31
376.545	77.31
376.771	84.31
376.997	89.31
377.222	82.31
377.448	88.31
377.674	86.31
377.899	84.31
378.125	98.31
378.35	99.31
378.576	93.31
378.802	87.31
379.027	95.31
379.253	101.31
379.478	92.31
379.704	79.31
379.929	85.31
380.155	97.31
380.38	93.31
380.606	99.31
380.831	86.31
381.057	84.31
381.282	88.31
381.507	98.31
381.733	99.31
381.958	91.31
382.184	97.31
382.409	91.31
382.634	81.31
382.86	95.31
383.085	103.31
383.31	103.31
383.535	98.31
383.761	89.31
383.986	87.31
384.211	96.31
384.436	100.31
384.662	96.31
384.887	105.31
385.112	113.31
385.337	108.31
385.562	96.31
385.787	98.31
386.013	107.31
386.238	106.31
386.463	92.31
386.688	86.31
386.913	97.31
387.138	97.31
387.363	95.31
387.588	97.31
387.813	100.31
388.038	94.31
388.263	87.31
388.488	100.31
388.713	85.31
388.938	82.31
389.163	77.31
389.387	100.31
389.612	101.31
389.837	88.31
390.062	99.31
390.287	86.31
390.512	73.31
390.736	75.31
390.961	82.31
391.186	79.31
391.411	91.31
391.636	89.31
391.86	86.31
392.085	75.31
392.31	85.31
392.534	88.31
392.759	89.31
392.984	97.31
393.208	85.31
393.433	85.31
393.658	89.31
393.882	78.31
394.107	77.31
394.331	77.31
394.556	91.31
394.78	86.31
395.005	98.31
395.229	77.31
395.454	81.31
395.678	91.31
395.903	88.31
396.127	90.31
396.352	90.31
396.576	80.31
396.801	90.31
397.025	88.31
397.249	70.31
397.474	97.31
397.698	83.31
397.922	82.31
398.147	89.31
398.371	92.31
398.595	77.31
398.82	79.31
399.044	71.31
399.268	79.31
399.492	86.31
399.717	78.31
399.941	93.31
400.165	88.31
400.389	85.31
400.613	88.31
400.837	89.31
401.062	80.31
401.286	82.31
401.51	84.31
401.734	84.31
401.958	99.31
402.182	112.31
402.406	143.31
402.63	111.31
402.854	93.31
403.078	80.31
403.302	89.31
403.526	75.31
403.75	71.31
403.974	82.31
404.198	84.31
404.422	80.31
404.645	78.31
404.869	95.31
405.093	93.31
405.317	90.31
405.541	87.31
405.765	79.31
405.988	111.31
406.212	159.31
406.436	214.31
406.66	143.31
406.883	102.31
407.107	91.31
407.331	84.31
407.555	88.31
407.778	81.31
408.002	97.31
408.226	89.31
408.449	71.31
408.673	76.31
408.896	106.31
409.12	98.31
409.344	95.31
409.567	86.31
409.791	73.31
410.014	93.31
410.238	88.31
410.461	91.31
410.685	97.31
410.908	88.31
411.132	93.31
411.355	99.31
411.578	86.31
411.802	80.31
412.025	90.31
412.249	88.31
412.472	86.31
412.695	80.31
412.919	85.31
413.142	70.31
413.365	82.31
413.589	75.31
413.812	94.31
414.035	74.31
414.258	84.31
414.482	82.31
414.705	85.31
414.928	81.31
415.151	98.31
415.374	86.31
415.597	94.31
415.821	81.31
416.044	82.31
416.267	94.31
416.49	81.31
416.713	83.31
416.936	101.31
417.159	96.31
417.382	81.31
417.605	81.31
417.828	103.31
418.051	86.31
418.274	79.31
418.497	86.31
418.72	85.31
418.943	84.31
419.166	86.31
419.389	84.31
419.611	77.31
419.834	86.31
420.057	93.31
420.28	78.31
420.503	74.31
420.726	91.31
420.948	81.31
421.171	95.31
421.394	83.31
421.617	93.31
421.839	88.31
422.062	85.31
422.285	104.31
422.507	84.31
422.73	98.31
422.953	106.31
423.175	89.31
423.398	96.31
423.621	65.31
423.843	83.31
424.066	65.31
424.288	86.31
424.511	89.31
424.733	91.31
424.956	84.31
425.178	101.31
425.401	97.31
425.623	100.31
425.846	84.31
426.068	95.31
426.291	89.31
426.513	90.31
426.735	81.31
426.958	86.31
427.18	94.31
427.402	129.31
427.625	145.31
427.847	104.31
428.069	93.31
428.292	95.31
428.514	87.31
428.736	72.31
428.958	71.31
429.181	84.31
429.403	85.31
429.625	88.31
429.847	94.31
430.069	88.31
430.292	103.31
430.514	81.31
430.736	88.31
430.958	93.31
431.18	83.31
431.402	84.31
431.624	76.31
431.846	96.31
432.068	81.31
432.29	88.31
432.512	88.31
432.734	78.31
432.956	75.31
433.178	90.31
433.4	101.31
433.622	96.31
433.844	84.31
434.066	81.31
434.287	83.31
434.509	83.31
434.731	73.31
434.953	94.31
435.175	77.31
435.397	76.31
435.618	80.31
435.84	87.31
436.062	105.31
436.284	101.31
436.505	91.31
436.727	98.31
436.949	76.31
437.17	76.31
437.392	91.31
437.614	87.31
437.835	95.31
438.057	109.31
438.278	101.31
438.5	99.31
438.721	123.31
438.943	83.31
439.165	74.31
439.386	75.31
439.608	89.31
439.829	90.31
440.05	99.31
440.272	129.31
440.493	92.31
440.715	86.31
440.936	82.31
441.158	78.31
441.379	78.31
441.6	86.31
441.822	97.31
442.043	79.31
442.264	113.31
442.486	80.31
442.707	85.31
442.928	92.31
443.149	113.31
443.371	135.31
443.592	111.31
443.813	113.31
444.034	90.31
444.255	84.31
444.476	79.31
444.698	93.31
444.919	81.31
445.14	126.31
445.361	116.31
445.582	112.31
445.803	130.31
446.024	117.31
446.245	130.31
446.466	104.31
446.687	95.31
446.908	86.31
447.129	100.31
447.35	107.31
447.571	95.31
447.792	101.31
448.013	94.31
448.234	105.31
448.455	97.31
448.675	107.31
448.896	110.31
449.117	102.31
449.338	89.31
449.559	114.31
449.779	144.31
450	65.31
450.221	94.31
450.442	83.31
450.662	78.31
450.883	113.31
451.104	105.31
451.324	96.31
451.545	78.31
451.766	83.31
451.986	82.31
452.207	84.31
452.428	91.31
452.648	92.31
452.869	102.31
453.089	98.31
453.31	109.31
453.53	85.31
453.751	100.31
453.971	110.31
454.192	91.31
454.412	80.31
454.633	88.31
454.853	76.31
455.073	85.31
455.294	73.31
455.514	91.31
455.734	86.31
455.955	76.31
456.175	78.31
456.395	68.31
456.616	80.31
456.836	69.31
457.056	83.31
457.276	78.31
457.497	76.31
457.717	87.31
457.937	78.31
458.157	89.31
458.377	77.31
458.598	88.31
458.818	123.31
459.038	152.31
459.258	113.31
459.478	84.31
459.698	87.31
459.918	93.31
460.138	71.31
460.358	91.31
460.578	81.31
460.798	82.31
461.018	72.31
461.238	73.31
461.458	78.31
461.678	87.31
461.898	73.31
462.118	87.31
462.338	81.31
462.558	74.31
462.777	84.31
462.997	87.31
463.217	81.31
463.437	81.31
463.657	86.31
463.876	96.31
464.096	99.31
464.316	83.31
464.536	93.31
464.755	95.31
464.975	110.31
465.195	135.31
465.414	130.31
465.634	79.31
465.854	84.31
466.073	89.31
466.293	75.31
466.512	74.31
466.732	81.31
466.951	94.31
467.171	86.31
467.391	93.31
467.61	99.31
467.829	96.31
468.049	80.31
468.268	91.31
468.488	76.31
468.707	104.31
468.927	85.31
469.146	93.31
469.365	89.31
469.585	88.31
469.804	95.31
470.023	94.31
470.243	90.31
470.462	98.31
470.681	95.31
470.901	95.31
471.12	79.31
471.339	84.31
471.558	86.31
471.777	85.31
471.997	94.31
472.216	82.31
472.435	95.31
472.654	87.31
472.873	87.31
473.092	96.31
473.311	85.31
473.53	65.31
473.749	88.31
473.968	96.31
474.187	101.31
474.406	89.31
474.625	88.31
474.844	82.31
475.063	73.31
475.282	68.31
475.501	78.31
475.72	86.31
475.939	88.31
476.158	79.31
476.377	73.31
476.596	81.31
476.814	96.31
477.033	80.31
477.252	83.31
477.471	74.31
477.69	93.31
477.908	90.31
478.127	70.31
478.346	84.31
478.564	89.31
478.783	94.31
479.002	96.31
479.22	97.31
479.439	104.31
479.658	91.31
479.876	88.31
480.095	88.31
480.313	89.31
480.532	88.31
480.751	94.31
480.969	89.31
481.188	98.31
481.406	81.31
481.624	99.31
481.843	98.31
482.061	96.31
482.28	80.31
482.498	89.31
482.717	93.31
482.935	78.31
483.153	86.31
483.372	78.31
483.59	90.31
483.808	90.31
484.027	75.31
484.245	80.31
484.463	96.31
484.681	97.31
484.9	99.31
485.118	88.31
485.336	97.31
485.554	94.31
485.772	82.31
485.99	91.31
486.209	102.31
486.427	99.31
486.645	100.31
486.863	102.31
487.081	107.31
487.299	104.31
487.517	101.31
487.735	88.31
487.953	90.31
488.171	97.31
488.389	87.31
488.607	105.31
488.825	87.31
489.043	91.31
489.261	104.31
489.479	93.31
489.696	85.31
489.914	77.31
490.132	87.31
490.35	78.31
490.568	73.31
490.786	90.31
491.003	80.31
491.221	79.31
491.439	82.31
491.657	86.31
491.874	94.31
492.092	91.31
492.31	79.31
492.527	95.31
492.745	88.31
492.963	74.31
493.18	83.31
493.398	94.31
493.615	83.31
493.833	91.31
494.05	95.31
494.268	84.31
494.485	100.31
494.703	82.31
494.92	76.31
495.138	83.31
495.355	97.31
495.573	97.31
495.79	88.31
496.008	75.31
496.225	85.31
496.442	79.31
496.66	88.31
496.877	77.31
497.094	97.31
497.312	91.31
497.529	78.31
497.746	86.31
497.963	92.31
498.181	89.31
498.398	98.31
498.615	109.31
498.832	102.31
499.049	80.31
499.267	97.31
499.484	89.31
499.701	96.31
499.918	88.31
500.135	89.31
500.352	79.31
500.569	83.31
500.786	85.31
501.003	81.31
501.22	88.31
501.437	77.31
501.654	92.31
501.871	105.31
502.088	94.31
502.305	94.31
502.522	78.31
502.739	105.31
502.956	90.31
503.172	93.31
503.389	87.31
503.606	108.31
503.823	88.31
504.04	83.31
504.256	88.31
504.473	77.31
504.69	86.31
504.907	77.31
505.123	73.31
505.34	82.31
505.557	77.31
505.773	90.31
505.99	79.31
506.207	82.31
506.423	97.31
506.64	91.31
506.856	73.31
507.073	85.31
507.289	95.31
507.506	91.31
507.722	111.31
507.939	104.31
508.155	97.31
508.372	93.31
508.588	95.31
508.805	97.31
509.021	91.31
509.238	90.31
509.454	84.31
509.67	97.31
509.887	98.31
510.103	120.31
510.319	204.31
510.536	710.31
510.752	2193.31
510.968	615.31
511.184	157.31
511.401	96.31
511.617	94.31
511.833	103.31
512.049	87.31
512.265	83.31
512.481	97.31
512.698	82.31
512.914	82.31
513.13	97.31
513.346	75.31
513.562	89.31
513.778	97.31
513.994	87.31
514.21	104.31
514.426	110.31
514.642	122.31
514.858	119.31
515.074	149.31
515.29	403.31
515.506	1268.31
515.721	482.31
515.937	141.31
516.153	89.31
516.369	90.31
516.585	89.31
516.801	84.31
517.016	94.31
517.232	88.31
