Data from Uncirc_2000_H10_HRD10591_00081.txt Node
Date: Wed Jan 03 10:48:33 EST 2024
User: Yrep
Spectrometer: HR+D1059
Trigger mode: 1
Integration Time (sec): 1.000000E-1
Scans to average: 1
Electric dark correction enabled: true
Nonlinearity correction enabled: false
Boxcar width: 0
XAxis mode: Wavelengths
Number of Pixels in Spectrum: 2048
>>>>>Begin Spectral Data<<<<<
223.165	-25.44
223.4	-25.44
223.635	-25.44
223.869	-25.44
224.104	-29.44
224.338	-7.44
224.573	-15.44
224.808	-9.44
225.042	-15.44
225.277	0.56
225.511	4.56
225.746	-2.44
225.98	16.56
226.215	11.56
226.449	4.56
226.683	28.56
226.918	31.56
227.152	32.56
227.387	39.56
227.621	31.56
227.856	37.56
228.09	54.56
228.324	48.56
228.559	69.56
228.793	169.56
229.027	424.56
229.262	508.56
229.496	563.56
229.73	801.56
229.964	804.56
230.199	535.56
230.433	452.56
230.667	459.56
230.901	459.56
231.136	437.56
231.37	442.56
231.604	452.56
231.838	436.56
232.072	436.56
232.306	453.56
232.541	467.56
232.775	466.56
233.009	467.56
233.243	476.56
233.477	495.56
233.711	456.56
233.945	494.56
234.179	496.56
234.413	501.56
234.647	485.56
234.881	500.56
235.115	502.56
235.349	516.56
235.583	541.56
235.817	578.56
236.051	621.56
236.285	600.56
236.519	594.56
236.753	678.56
236.987	901.56
237.221	1335.56
237.455	1428.56
237.689	892.56
237.922	720.56
238.156	717.56
238.39	646.56
238.624	650.56
238.858	623.56
239.091	626.56
239.325	642.56
239.559	642.56
239.793	683.56
240.027	748.56
240.26	876.56
240.494	908.56
240.728	941.56
240.961	896.56
241.195	787.56
241.429	773.56
241.662	723.56
241.896	754.56
242.13	748.56
242.363	743.56
242.597	736.56
242.83	782.56
243.064	796.56
243.298	779.56
243.531	790.56
243.765	780.56
243.998	825.56
244.232	781.56
244.465	839.56
244.699	879.56
244.932	863.56
245.166	851.56
245.399	871.56
245.633	873.56
245.866	864.56
246.099	849.56
246.333	888.56
246.566	928.56
246.8	940.56
247.033	987.56
247.266	1021.56
247.5	1069.56
247.733	1141.56
247.966	1088.56
248.2	1107.56
248.433	1143.56
248.666	1172.56
248.899	1299.56
249.133	1394.56
249.366	1376.56
249.599	1288.56
249.832	1163.56
250.066	1159.56
250.299	1199.56
250.532	1261.56
250.765	1503.56
250.998	1668.56
251.231	1591.56
251.465	1397.56
251.698	1381.56
251.931	1359.56
252.164	1322.56
252.397	1382.56
252.63	1434.56
252.863	1509.56
253.096	1640.56
253.329	1689.56
253.562	1586.56
253.795	1507.56
254.028	1520.56
254.261	1532.56
254.494	1766.56
254.727	2077.56
254.96	2194.56
255.193	1866.56
255.426	1690.56
255.659	1535.56
255.892	1521.56
256.124	1473.56
256.357	1445.56
256.59	1440.56
256.823	1441.56
257.056	1440.56
257.289	1430.56
257.521	1468.56
257.754	1495.56
257.987	1497.56
258.22	1461.56
258.452	1456.56
258.685	1496.56
258.918	1495.56
259.151	1558.56
259.383	1650.56
259.616	1660.56
259.849	1694.56
260.081	1888.56
260.314	2027.56
260.547	1963.56
260.779	1812.56
261.012	1732.56
261.244	1647.56
261.477	1627.56
261.71	1631.56
261.942	1661.56
262.175	1723.56
262.407	1655.56
262.64	1604.56
262.872	1589.56
263.105	1598.56
263.337	1596.56
263.57	1589.56
263.802	1614.56
264.035	1599.56
264.267	1618.56
264.499	1592.56
264.732	1639.56
264.964	1647.56
265.197	1672.56
265.429	1618.56
265.661	1651.56
265.894	1677.56
266.126	1688.56
266.358	1714.56
266.591	1701.56
266.823	1837.56
267.055	1858.56
267.287	1812.56
267.52	1784.56
267.752	1791.56
267.984	1816.56
268.216	1822.56
268.448	1875.56
268.681	1949.56
268.913	2074.56
269.145	2258.56
269.377	2288.56
269.609	2258.56
269.841	2199.56
270.073	2306.56
270.306	2610.56
270.538	2777.56
270.77	2647.56
271.002	2429.56
271.234	2381.56
271.466	2546.56
271.698	2690.56
271.93	2714.56
272.162	2677.56
272.394	2598.56
272.626	2442.56
272.858	2299.56
273.09	2247.56
273.322	2240.56
273.553	2192.56
273.785	2185.56
274.017	2214.56
274.249	2195.56
274.481	2186.56
274.713	2224.56
274.945	2235.56
275.176	2217.56
275.408	2246.56
275.64	2205.56
275.872	2187.56
276.104	2236.56
276.335	2262.56
276.567	2366.56
276.799	2514.56
277.031	2710.56
277.262	2784.56
277.494	2684.56
277.726	2529.56
277.957	2435.56
278.189	2351.56
278.421	2316.56
278.652	2324.56
278.884	2322.56
279.115	2356.56
279.347	2360.56
279.579	2301.56
279.81	2284.56
280.042	2282.56
280.273	2334.56
280.505	2386.56
280.736	2343.56
280.968	2282.56
281.199	2372.56
281.431	2355.56
281.662	2357.56
281.894	2402.56
282.125	2405.56
282.356	2606.56
282.588	2745.56
282.819	2614.56
283.051	2508.56
283.282	2506.56
283.513	2535.56
283.745	2575.56
283.976	2575.56
284.207	2653.56
284.439	2546.56
284.67	2594.56
284.901	2577.56
285.132	2558.56
285.364	2530.56
285.595	2559.56
285.826	2578.56
286.057	2615.56
286.288	2623.56
286.52	2628.56
286.751	2620.56
286.982	2676.56
287.213	2646.56
287.444	2737.56
287.675	2747.56
287.906	2807.56
288.138	2872.56
288.369	2823.56
288.6	2862.56
288.831	2848.56
289.062	2778.56
289.293	2786.56
289.524	2720.56
289.755	2759.56
289.986	2755.56
290.217	2807.56
290.448	2741.56
290.679	2783.56
290.91	2747.56
291.141	2754.56
291.371	2793.56
291.602	2775.56
291.833	2745.56
292.064	2803.56
292.295	2824.56
292.526	2778.56
292.757	2801.56
292.987	2714.56
293.218	2750.56
293.449	2892.56
293.68	2778.56
293.91	2810.56
294.141	2792.56
294.372	2801.56
294.603	2852.56
294.833	2888.56
295.064	2843.56
295.295	2868.56
295.525	2869.56
295.756	2886.56
295.987	2983.56
296.217	3111.56
296.448	3044.56
296.679	2924.56
296.909	2902.56
297.14	2936.56
297.37	2996.56
297.601	3057.56
297.831	3002.56
298.062	3025.56
298.292	2989.56
298.523	3083.56
298.753	3097.56
298.984	2996.56
299.214	3072.56
299.445	3023.56
299.675	3090.56
299.905	3114.56
300.136	3090.56
300.366	3090.56
300.597	3143.56
300.827	3244.56
301.057	3269.56
301.288	3313.56
301.518	3275.56
301.748	3236.56
301.979	3327.56
302.209	3370.56
302.439	3356.56
302.669	3255.56
302.9	3295.56
303.13	3226.56
303.36	3338.56
303.59	3286.56
303.82	3295.56
304.051	3347.56
304.281	3295.56
304.511	3170.56
304.741	3253.56
304.971	3257.56
305.201	3173.56
305.431	3219.56
305.661	3267.56
305.891	3224.56
306.121	3240.56
306.352	3287.56
306.582	3280.56
306.812	3218.56
307.042	3189.56
307.272	3251.56
307.502	3206.56
307.731	3264.56
307.961	3207.56
308.191	3220.56
308.421	3255.56
308.651	3239.56
308.881	3253.56
309.111	3291.56
309.341	3321.56
309.571	3390.56
309.8	3448.56
310.03	3504.56
310.26	3535.56
310.49	3564.56
310.72	3591.56
310.949	3714.56
311.179	3661.56
311.409	3597.56
311.639	3565.56
311.868	3573.56
312.098	3677.56
312.328	3667.56
312.557	3835.56
312.787	3874.56
313.017	3764.56
313.246	3758.56
313.476	3662.56
313.706	3719.56
313.935	3807.56
314.165	3868.56
314.394	3938.56
314.624	3826.56
314.853	3814.56
315.083	3724.56
315.312	3719.56
315.542	3708.56
315.771	3632.56
316.001	3596.56
316.23	3661.56
316.46	3638.56
316.689	3698.56
316.919	3724.56
317.148	3748.56
317.377	3712.56
317.607	3679.56
317.836	3650.56
318.065	3564.56
318.295	3635.56
318.524	3631.56
318.753	3590.56
318.983	3615.56
319.212	3575.56
319.441	3744.56
319.67	3712.56
319.9	3667.56
320.129	3677.56
320.358	3670.56
320.587	3744.56
320.816	3742.56
321.046	3820.56
321.275	3784.56
321.504	3721.56
321.733	3856.56
321.962	3852.56
322.191	3929.56
322.42	4035.56
322.649	4059.56
322.878	4163.56
323.108	4279.56
323.337	4422.56
323.566	4666.56
323.795	4871.56
324.024	5426.56
324.253	7136.56
324.482	10523.56
324.71	15007.56
324.939	15616.56
325.168	12533.56
325.397	6508.56
325.626	5179.56
325.855	4851.56
326.084	4699.56
326.313	4677.56
326.542	4886.56
326.77	5507.56
326.999	6834.56
327.228	9941.56
327.457	14018.56
327.686	13189.56
327.914	7113.56
328.143	5643.56
328.372	5258.56
328.6	5085.56
328.829	5061.56
329.058	5225.56
329.287	5175.56
329.515	4854.56
329.744	4650.56
329.972	4689.56
330.201	4804.56
330.43	4984.56
330.658	5225.56
330.887	5551.56
331.115	5220.56
331.344	4886.56
331.572	4865.56
331.801	4891.56
332.03	4901.56
332.258	4877.56
332.486	4895.56
332.715	4948.56
332.943	5140.56
333.172	5291.56
333.4	5439.56
333.629	5488.56
333.857	5492.56
334.085	5470.56
334.314	5325.56
334.542	5255.56
334.771	5360.56
334.999	5180.56
335.227	5127.56
335.455	5124.56
335.684	4989.56
335.912	5016.56
336.14	4917.56
336.369	4847.56
336.597	4932.56
336.825	4884.56
337.053	4774.56
337.281	4697.56
337.51	4638.56
337.738	4696.56
337.966	4633.56
338.194	4669.56
338.422	4579.56
338.65	4519.56
338.878	4501.56
339.106	4472.56
339.334	4476.56
339.562	4408.56
339.79	4334.56
340.018	4354.56
340.246	4400.56
340.474	4383.56
340.702	4368.56
340.93	4341.56
341.158	4347.56
341.386	4366.56
341.614	4399.56
341.842	4343.56
342.07	4312.56
342.298	4269.56
342.526	4286.56
342.754	4249.56
342.981	4391.56
343.209	4376.56
343.437	4637.56
343.665	4895.56
343.893	5144.56
344.12	5262.56
344.348	4938.56
344.576	4788.56
344.804	4688.56
345.031	4581.56
345.259	4526.56
345.487	4436.56
345.714	4331.56
345.942	4217.56
346.17	4203.56
346.397	4205.56
346.625	4198.56
346.853	4123.56
347.08	4058.56
347.308	4136.56
347.535	4295.56
347.763	4278.56
347.99	4202.56
348.218	4257.56
348.445	4294.56
348.673	4254.56
348.9	4142.56
349.128	4073.56
349.355	4035.56
349.583	4054.56
349.81	4070.56
350.037	4037.56
350.265	4014.56
350.492	4016.56
350.72	4099.56
350.947	4100.56
351.174	4136.56
351.402	4161.56
351.629	4162.56
351.856	4138.56
352.083	4179.56
352.311	4193.56
352.538	4231.56
352.765	4145.56
352.992	4133.56
353.22	4054.56
353.447	4010.56
353.674	4037.56
353.901	3975.56
354.128	3926.56
354.355	3894.56
354.583	3924.56
354.81	3880.56
355.037	3988.56
355.264	3918.56
355.491	3911.56
355.718	3935.56
355.945	3885.56
356.172	3957.56
356.399	3879.56
356.626	3944.56
356.853	3986.56
357.08	3957.56
357.307	3967.56
357.534	3934.56
357.761	3922.56
357.988	3976.56
358.215	3866.56
358.441	4007.56
358.668	3973.56
358.895	4062.56
359.122	4036.56
359.349	4085.56
359.576	4176.56
359.802	4391.56
360.029	4558.56
360.256	4536.56
360.483	4366.56
360.709	4172.56
360.936	4205.56
361.163	4172.56
361.39	4160.56
361.616	4202.56
361.843	4126.56
362.07	4150.56
362.296	4221.56
362.523	4095.56
362.749	4133.56
362.976	4073.56
363.203	4063.56
363.429	4037.56
363.656	4039.56
363.882	4028.56
364.109	3946.56
364.335	4031.56
364.562	4043.56
364.788	3976.56
365.015	4024.56
365.241	4039.56
365.468	4062.56
365.694	4093.56
365.92	4032.56
366.147	4027.56
366.373	4045.56
366.599	4005.56
366.826	3899.56
367.052	3973.56
367.278	3995.56
367.505	4014.56
367.731	4055.56
367.957	3980.56
368.184	4096.56
368.41	4170.56
368.636	4197.56
368.862	4227.56
369.089	4157.56
369.315	4125.56
369.541	4142.56
369.767	4164.56
369.993	4186.56
370.219	4135.56
370.445	4124.56
370.672	4118.56
370.898	4183.56
371.124	4279.56
371.35	4299.56
371.576	4312.56
371.802	4188.56
372.028	4233.56
372.254	4245.56
372.48	4347.56
372.706	4418.56
372.932	4482.56
373.158	4341.56
373.384	4311.56
373.61	4317.56
373.835	4318.56
374.061	4359.56
374.287	4429.56
374.513	4463.56
374.739	4552.56
374.965	4705.56
375.191	4712.56
375.416	4686.56
375.642	4475.56
375.868	4437.56
376.094	4331.56
376.319	4380.56
376.545	4358.56
376.771	4354.56
376.997	4299.56
377.222	4370.56
377.448	4312.56
377.674	4261.56
377.899	4222.56
378.125	4282.56
378.35	4268.56
378.576	4247.56
378.802	4287.56
379.027	4262.56
379.253	4285.56
379.478	4242.56
379.704	4215.56
379.929	4306.56
380.155	4251.56
380.38	4349.56
380.606	4325.56
380.831	4347.56
381.057	4405.56
381.282	4319.56
381.507	4369.56
381.733	4364.56
381.958	4465.56
382.184	4436.56
382.409	4486.56
382.634	4580.56
382.86	4530.56
383.085	4590.56
383.31	4697.56
383.535	4719.56
383.761	4745.56
383.986	4811.56
384.211	4985.56
384.436	5062.56
384.662	5035.56
384.887	5095.56
385.112	5169.56
385.337	5239.56
385.562	5183.56
385.787	5242.56
386.013	5278.56
386.238	5331.56
386.463	5208.56
386.688	5254.56
386.913	5147.56
387.138	5125.56
387.363	5102.56
387.588	5072.56
387.813	5154.56
388.038	5127.56
388.263	5165.56
388.488	5150.56
388.713	5143.56
388.938	5154.56
389.163	5142.56
389.387	5101.56
389.612	5068.56
389.837	5113.56
390.062	5022.56
390.287	5074.56
390.512	5119.56
390.736	5142.56
390.961	5228.56
391.186	5314.56
391.411	5451.56
391.636	5631.56
391.86	5732.56
392.085	5758.56
392.31	5666.56
392.534	5582.56
392.759	5420.56
392.984	5357.56
393.208	5250.56
393.433	5361.56
393.658	5306.56
393.882	5410.56
394.107	5382.56
394.331	5358.56
394.556	5381.56
394.78	5512.56
395.005	5531.56
395.229	5504.56
395.454	5648.56
395.678	5819.56
395.903	5836.56
396.127	5855.56
396.352	5576.56
396.576	5493.56
396.801	5408.56
397.025	5545.56
397.249	5616.56
397.474	5736.56
397.698	5842.56
397.922	5985.56
398.147	6032.56
398.371	6150.56
398.595	6341.56
398.82	6617.56
399.044	7186.56
399.268	7963.56
399.492	8942.56
399.717	9643.56
399.941	9463.56
400.165	8761.56
400.389	8067.56
400.613	7295.56
400.837	6777.56
401.062	6671.56
401.286	6540.56
401.51	6491.56
401.734	6459.56
401.958	6594.56
402.182	6775.56
402.406	6823.56
402.63	6909.56
402.854	7038.56
403.078	7032.56
403.302	7165.56
403.526	7358.56
403.75	7427.56
403.974	7487.56
404.198	7402.56
404.422	7425.56
404.645	7471.56
404.869	7242.56
405.093	7510.56
405.317	7496.56
405.541	7470.56
405.765	7200.56
405.988	7186.56
406.212	7396.56
406.436	7503.56
406.66	7638.56
406.883	7687.56
407.107	8319.56
407.331	8752.56
407.555	9413.56
407.778	9070.56
408.002	8304.56
408.226	7880.56
408.449	7710.56
408.673	7614.56
408.896	7746.56
409.12	8020.56
409.344	7503.56
409.567	7146.56
409.791	7148.56
410.014	7074.56
410.238	6920.56
410.461	6989.56
410.685	7019.56
410.908	7065.56
411.132	7331.56
411.355	7382.56
411.578	7005.56
411.802	6762.56
412.025	6774.56
412.249	6780.56
412.472	6729.56
412.695	6562.56
412.919	6436.56
413.142	6395.56
413.365	6412.56
413.589	6513.56
413.812	6335.56
414.035	6271.56
414.258	6258.56
414.482	6386.56
414.705	6479.56
414.928	6490.56
415.151	6446.56
415.374	6314.56
415.597	6356.56
415.821	6276.56
416.044	6174.56
416.267	6242.56
416.49	6146.56
416.713	6166.56
416.936	6360.56
417.159	6345.56
417.382	6287.56
417.605	6371.56
417.828	6494.56
418.051	6515.56
418.274	6548.56
418.497	6423.56
418.72	6516.56
418.943	6450.56
419.166	6885.56
419.389	7186.56
419.611	7118.56
419.834	6879.56
420.057	6839.56
420.28	6533.56
420.503	6389.56
420.726	6478.56
420.948	6674.56
421.171	6973.56
421.394	7031.56
421.617	6579.56
421.839	6412.56
422.062	6577.56
422.285	6700.56
422.507	7494.56
422.73	7950.56
422.953	7374.56
423.175	7010.56
423.398	6957.56
423.621	6962.56
423.843	7335.56
424.066	7234.56
424.288	7125.56
424.511	7270.56
424.733	7784.56
424.956	8189.56
425.178	7737.56
425.401	7853.56
425.623	7754.56
425.846	6804.56
426.068	6673.56
426.291	6525.56
426.513	6532.56
426.735	6636.56
426.958	7132.56
427.18	7770.56
427.402	8990.56
427.625	8874.56
427.847	7468.56
428.069	6644.56
428.292	6357.56
428.514	6074.56
428.736	5945.56
428.958	5901.56
429.181	5797.56
429.403	5845.56
429.625	6027.56
429.847	6299.56
430.069	6803.56
430.292	6357.56
430.514	5765.56
430.736	5754.56
430.958	5675.56
431.18	5589.56
431.402	5638.56
431.624	5655.56
431.846	5751.56
432.068	5747.56
432.29	5905.56
432.512	5690.56
432.734	5906.56
432.956	5769.56
433.178	5786.56
433.4	5841.56
433.622	5707.56
433.844	5732.56
434.066	5811.56
434.287	5892.56
434.509	6140.56
434.731	6296.56
434.953	6495.56
435.175	6618.56
435.397	6646.56
435.618	6630.56
435.84	6926.56
436.062	7724.56
436.284	7726.56
436.505	6571.56
436.727	6232.56
436.949	5924.56
437.17	5841.56
437.392	5738.56
437.614	5947.56
437.835	6296.56
438.057	7296.56
438.278	7894.56
438.5	7862.56
438.721	8710.56
438.943	7694.56
439.165	6386.56
439.386	6148.56
439.608	6303.56
439.829	6285.56
440.05	6588.56
440.272	6955.56
440.493	6437.56
440.715	6110.56
440.936	6091.56
441.158	6125.56
441.379	6216.56
441.6	6553.56
441.822	6764.56
442.043	7294.56
442.264	8071.56
442.486	7790.56
442.707	6942.56
442.928	6746.56
443.149	6902.56
443.371	7138.56
443.592	7756.56
443.813	8729.56
444.034	8559.56
444.255	7450.56
444.476	7301.56
444.698	7510.56
444.919	7625.56
445.14	7406.56
445.361	7295.56
445.582	7359.56
445.803	7910.56
446.024	8622.56
446.245	8216.56
446.466	7403.56
446.687	6461.56
446.908	6146.56
447.129	5770.56
447.35	5718.56
447.571	5717.56
447.792	5559.56
448.013	5705.56
448.234	5842.56
448.455	6436.56
448.675	7710.56
448.896	8073.56
449.117	6783.56
449.338	6994.56
449.559	8251.56
449.779	8410.56
450	6436.56
450.221	5789.56
450.442	5529.56
450.662	5442.56
450.883	5517.56
451.104	5534.56
451.324	5408.56
451.545	5278.56
451.766	5209.56
451.986	5087.56
452.207	5024.56
452.428	5002.56
452.648	5042.56
452.869	5036.56
453.089	5203.56
453.31	5250.56
453.53	5094.56
453.751	5026.56
453.971	5100.56
454.192	5166.56
454.412	4915.56
454.633	4885.56
454.853	4904.56
455.073	4954.56
455.294	5323.56
455.514	5836.56
455.734	5284.56
455.955	4782.56
456.175	4653.56
456.395	4682.56
456.616	4620.56
456.836	4644.56
457.056	4612.56
457.276	4599.56
457.497	4679.56
457.717	4711.56
457.937	4734.56
458.157	4853.56
458.377	4951.56
458.598	5259.56
458.818	5969.56
459.038	6675.56
459.258	6636.56
459.478	5960.56
459.698	5832.56
459.918	5964.56
460.138	5995.56
460.358	6250.56
460.578	6279.56
460.798	6342.56
461.018	6352.56
461.238	6183.56
461.458	6223.56
461.678	6229.56
461.898	6315.56
462.118	6380.56
462.338	6731.56
462.558	6843.56
462.777	7158.56
462.997	7654.56
463.217	8091.56
463.437	7875.56
463.657	7340.56
463.876	7076.56
464.096	7183.56
464.316	7195.56
464.536	7263.56
464.755	6902.56
464.975	6825.56
465.195	6994.56
465.414	6932.56
465.634	6119.56
465.854	5894.56
466.073	5640.56
466.293	5467.56
466.512	5291.56
466.732	5220.56
466.951	5172.56
467.171	5200.56
467.391	5296.56
467.61	5291.56
467.829	5205.56
468.049	5151.56
468.268	5037.56
468.488	4997.56
468.707	4968.56
468.927	4952.56
469.146	4996.56
469.365	5006.56
469.585	5114.56
469.804	5209.56
470.023	5459.56
470.243	5383.56
470.462	5451.56
470.681	5571.56
470.901	5404.56
471.12	5243.56
471.339	5254.56
471.558	5246.56
471.777	5133.56
471.997	4994.56
472.216	5014.56
472.435	4946.56
472.654	4956.56
472.873	4908.56
473.092	4875.56
473.311	4958.56
473.53	5002.56
473.749	5069.56
473.968	5617.56
474.187	6558.56
474.406	6124.56
474.625	5250.56
474.844	5032.56
475.063	4967.56
475.282	4962.56
475.501	5140.56
475.72	5111.56
475.939	5073.56
476.158	5141.56
476.377	5112.56
476.596	5169.56
476.814	5290.56
477.033	5309.56
477.252	5450.56
477.471	5588.56
477.69	5743.56
477.908	5712.56
478.127	5910.56
478.346	6000.56
478.564	6104.56
478.783	6146.56
479.002	6310.56
479.22	6359.56
479.439	6390.56
479.658	6451.56
479.876	6583.56
480.095	6808.56
480.313	7245.56
480.532	6998.56
480.751	6886.56
480.969	6765.56
481.188	6609.56
481.406	6366.56
481.624	6157.56
481.843	6081.56
482.061	6017.56
482.28	5867.56
482.498	5866.56
482.717	5835.56
482.935	5869.56
483.153	5772.56
483.372	5779.56
483.59	5762.56
483.808	5795.56
484.027	5843.56
484.245	5920.56
484.463	5936.56
484.681	6030.56
484.9	6025.56
485.118	6103.56
485.336	6153.56
485.554	6210.56
485.772	6206.56
485.99	6223.56
486.209	6237.56
486.427	6279.56
486.645	6336.56
486.863	6334.56
487.081	6346.56
487.299	6302.56
487.517	6255.56
487.735	6199.56
487.953	6274.56
