Data from Uncirc_2000_H10_HRD10591_00071.txt Node
Date: Wed Jan 03 10:48:31 EST 2024
User: Yrep
Spectrometer: HR+D1059
Trigger mode: 1
Integration Time (sec): 1.000000E-1
Scans to average: 1
Electric dark correction enabled: true
Nonlinearity correction enabled: false
Boxcar width: 0
XAxis mode: Wavelengths
Number of Pixels in Spectrum: 2048
>>>>>Begin Spectral Data<<<<<
223.165	-10.38
223.4	-10.38
223.635	-10.38
223.869	-15.38
224.104	-22.38
224.338	-23.38
224.573	-24.38
224.808	-7.38
225.042	-0.38
225.277	-10.38
225.511	0.62
225.746	-5.38
225.98	12.62
226.215	3.62
226.449	27.62
226.683	15.62
226.918	29.62
227.152	29.62
227.387	31.62
227.621	28.62
227.856	38.62
228.09	48.62
228.324	56.62
228.559	51.62
228.793	58.62
229.027	70.62
229.262	65.62
229.496	57.62
229.73	66.62
229.964	66.62
230.199	67.62
230.433	75.62
230.667	79.62
230.901	99.62
231.136	67.62
231.37	71.62
231.604	78.62
231.838	70.62
232.072	94.62
232.306	96.62
232.541	95.62
232.775	71.62
233.009	78.62
233.243	89.62
233.477	72.62
233.711	72.62
233.945	80.62
234.179	71.62
234.413	66.62
234.647	57.62
234.881	77.62
235.115	80.62
235.349	72.62
235.583	79.62
235.817	64.62
236.051	55.62
236.285	72.62
236.519	82.62
236.753	91.62
236.987	88.62
237.221	80.62
237.455	90.62
237.689	80.62
237.922	69.62
238.156	73.62
238.39	72.62
238.624	66.62
238.858	83.62
239.091	70.62
239.325	75.62
239.559	78.62
239.793	92.62
240.027	74.62
240.26	76.62
240.494	80.62
240.728	76.62
240.961	75.62
241.195	63.62
241.429	74.62
241.662	77.62
241.896	66.62
242.13	79.62
242.363	64.62
242.597	71.62
242.83	77.62
243.064	71.62
243.298	71.62
243.531	76.62
243.765	81.62
243.998	70.62
244.232	68.62
244.465	80.62
244.699	85.62
244.932	88.62
245.166	77.62
245.399	72.62
245.633	95.62
245.866	80.62
246.099	70.62
246.333	75.62
246.566	86.62
246.8	62.62
247.033	72.62
247.266	66.62
247.5	82.62
247.733	65.62
247.966	84.62
248.2	72.62
248.433	83.62
248.666	88.62
248.899	87.62
249.133	74.62
249.366	85.62
249.599	97.62
249.832	72.62
250.066	77.62
250.299	94.62
250.532	90.62
250.765	69.62
250.998	71.62
251.231	79.62
251.465	73.62
251.698	68.62
251.931	73.62
252.164	70.62
252.397	76.62
252.63	79.62
252.863	85.62
253.096	83.62
253.329	79.62
253.562	79.62
253.795	77.62
254.028	73.62
254.261	82.62
254.494	90.62
254.727	88.62
254.96	86.62
255.193	73.62
255.426	84.62
255.659	79.62
255.892	82.62
256.124	75.62
256.357	78.62
256.59	81.62
256.823	75.62
257.056	83.62
257.289	82.62
257.521	81.62
257.754	79.62
257.987	75.62
258.22	83.62
258.452	80.62
258.685	76.62
258.918	94.62
259.151	79.62
259.383	84.62
259.616	83.62
259.849	86.62
260.081	82.62
260.314	73.62
260.547	80.62
260.779	87.62
261.012	77.62
261.244	72.62
261.477	78.62
261.71	76.62
261.942	106.62
262.175	118.62
262.407	88.62
262.64	62.62
262.872	78.62
263.105	79.62
263.337	71.62
263.57	83.62
263.802	70.62
264.035	74.62
264.267	78.62
264.499	86.62
264.732	79.62
264.964	78.62
265.197	74.62
265.429	84.62
265.661	68.62
265.894	79.62
266.126	88.62
266.358	71.62
266.591	91.62
266.823	91.62
267.055	74.62
267.287	66.62
267.52	85.62
267.752	79.62
267.984	70.62
268.216	88.62
268.448	63.62
268.681	82.62
268.913	86.62
269.145	82.62
269.377	89.62
269.609	92.62
269.841	66.62
270.073	82.62
270.306	93.62
270.538	82.62
270.77	93.62
271.002	80.62
271.234	82.62
271.466	79.62
271.698	78.62
271.93	81.62
272.162	94.62
272.394	74.62
272.626	86.62
272.858	72.62
273.09	88.62
273.322	89.62
273.553	89.62
273.785	76.62
274.017	81.62
274.249	66.62
274.481	77.62
274.713	82.62
274.945	72.62
275.176	75.62
275.408	95.62
275.64	83.62
275.872	79.62
276.104	76.62
276.335	86.62
276.567	82.62
276.799	120.62
277.031	83.62
277.262	96.62
277.494	92.62
277.726	98.62
277.957	81.62
278.189	79.62
278.421	78.62
278.652	86.62
278.884	86.62
279.115	97.62
279.347	77.62
279.579	78.62
279.81	86.62
280.042	71.62
280.273	83.62
280.505	95.62
280.736	93.62
280.968	81.62
281.199	71.62
281.431	86.62
281.662	84.62
281.894	83.62
282.125	91.62
282.356	94.62
282.588	123.62
282.819	96.62
283.051	77.62
283.282	70.62
283.513	84.62
283.745	86.62
283.976	80.62
284.207	86.62
284.439	89.62
284.67	89.62
284.901	69.62
285.132	91.62
285.364	83.62
285.595	73.62
285.826	86.62
286.057	81.62
286.288	85.62
286.52	98.62
286.751	70.62
286.982	83.62
287.213	80.62
287.444	87.62
287.675	95.62
287.906	79.62
288.138	92.62
288.369	83.62
288.6	83.62
288.831	82.62
289.062	94.62
289.293	95.62
289.524	82.62
289.755	70.62
289.986	86.62
290.217	88.62
290.448	82.62
290.679	88.62
290.91	84.62
291.141	95.62
291.371	83.62
291.602	76.62
291.833	96.62
292.064	83.62
292.295	81.62
292.526	94.62
292.757	88.62
292.987	80.62
293.218	81.62
293.449	78.62
293.68	92.62
293.91	74.62
294.141	75.62
294.372	78.62
294.603	82.62
294.833	89.62
295.064	90.62
295.295	75.62
295.525	92.62
295.756	95.62
295.987	106.62
296.217	114.62
296.448	124.62
296.679	85.62
296.909	79.62
297.14	96.62
297.37	94.62
297.601	87.62
297.831	82.62
298.062	92.62
298.292	68.62
298.523	74.62
298.753	93.62
298.984	81.62
299.214	89.62
299.445	89.62
299.675	98.62
299.905	74.62
300.136	91.62
300.366	74.62
300.597	87.62
300.827	106.62
301.057	98.62
301.288	92.62
301.518	82.62
301.748	91.62
301.979	97.62
302.209	80.62
302.439	76.62
302.669	83.62
302.9	89.62
303.13	78.62
303.36	86.62
303.59	87.62
303.82	97.62
304.051	98.62
304.281	94.62
304.511	87.62
304.741	84.62
304.971	96.62
305.201	96.62
305.431	82.62
305.661	81.62
305.891	82.62
306.121	97.62
306.352	95.62
306.582	81.62
306.812	76.62
307.042	89.62
307.272	93.62
307.502	81.62
307.731	86.62
307.961	95.62
308.191	89.62
308.421	102.62
308.651	99.62
308.881	95.62
309.111	93.62
309.341	85.62
309.571	93.62
309.8	84.62
310.03	88.62
310.26	89.62
310.49	91.62
310.72	102.62
310.949	98.62
311.179	92.62
311.409	85.62
311.639	102.62
311.868	99.62
312.098	92.62
312.328	79.62
312.557	99.62
312.787	92.62
313.017	97.62
313.246	99.62
313.476	85.62
313.706	85.62
313.935	102.62
314.165	95.62
314.394	108.62
314.624	95.62
314.853	99.62
315.083	87.62
315.312	101.62
315.542	87.62
315.771	103.62
316.001	85.62
316.23	97.62
316.46	82.62
316.689	74.62
316.919	59.62
317.148	85.62
317.377	84.62
317.607	86.62
317.836	95.62
318.065	85.62
318.295	83.62
318.524	86.62
318.753	82.62
318.983	91.62
319.212	95.62
319.441	98.62
319.67	105.62
319.9	87.62
320.129	87.62
320.358	97.62
320.587	94.62
320.816	90.62
321.046	96.62
321.275	85.62
321.504	98.62
321.733	86.62
321.962	82.62
322.191	89.62
322.42	89.62
322.649	102.62
322.878	100.62
323.108	110.62
323.337	110.62
323.566	120.62
323.795	142.62
324.024	177.62
324.253	330.62
324.482	745.62
324.71	1506.62
324.939	2002.62
325.168	705.62
325.397	241.62
325.626	149.62
325.855	129.62
326.084	123.62
326.313	142.62
326.542	152.62
326.77	226.62
326.999	447.62
327.228	858.62
327.457	1544.62
327.686	1259.62
327.914	347.62
328.143	171.62
328.372	113.62
328.6	119.62
328.829	126.62
329.058	113.62
329.287	119.62
329.515	101.62
329.744	96.62
329.972	97.62
330.201	105.62
330.43	101.62
330.658	104.62
330.887	109.62
331.115	108.62
331.344	100.62
331.572	100.62
331.801	83.62
332.03	100.62
332.258	79.62
332.486	84.62
332.715	78.62
332.943	102.62
333.172	93.62
333.4	99.62
333.629	103.62
333.857	90.62
334.085	91.62
334.314	100.62
334.542	88.62
334.771	98.62
334.999	90.62
335.227	88.62
335.455	85.62
335.684	99.62
335.912	87.62
336.14	95.62
336.369	84.62
336.597	103.62
336.825	102.62
337.053	86.62
337.281	99.62
337.51	84.62
337.738	98.62
337.966	88.62
338.194	94.62
338.422	91.62
338.65	77.62
338.878	83.62
339.106	94.62
339.334	91.62
339.562	97.62
339.79	80.62
340.018	88.62
340.246	87.62
340.474	93.62
340.702	88.62
340.93	81.62
341.158	91.62
341.386	90.62
341.614	68.62
341.842	95.62
342.07	80.62
342.298	82.62
342.526	100.62
342.754	81.62
342.981	94.62
343.209	90.62
343.437	97.62
343.665	102.62
343.893	86.62
344.12	99.62
344.348	80.62
344.576	82.62
344.804	108.62
345.031	85.62
345.259	83.62
345.487	89.62
345.714	77.62
345.942	92.62
346.17	82.62
346.397	98.62
346.625	90.62
346.853	83.62
347.08	90.62
347.308	79.62
347.535	91.62
347.763	92.62
347.99	86.62
348.218	92.62
348.445	84.62
348.673	94.62
348.9	91.62
349.128	88.62
349.355	90.62
349.583	86.62
349.81	102.62
350.037	93.62
350.265	91.62
350.492	91.62
350.72	88.62
350.947	95.62
351.174	87.62
351.402	83.62
351.629	101.62
351.856	107.62
352.083	103.62
352.311	101.62
352.538	107.62
352.765	115.62
352.992	114.62
353.22	119.62
353.447	108.62
353.674	101.62
353.901	95.62
354.128	105.62
354.355	83.62
354.583	87.62
354.81	112.62
355.037	94.62
355.264	95.62
355.491	98.62
355.718	97.62
355.945	82.62
356.172	94.62
356.399	104.62
356.626	89.62
356.853	89.62
357.08	92.62
357.307	99.62
357.534	82.62
357.761	106.62
357.988	98.62
358.215	86.62
358.441	89.62
358.668	103.62
358.895	86.62
359.122	85.62
359.349	78.62
359.576	91.62
359.802	94.62
360.029	98.62
360.256	104.62
360.483	90.62
360.709	90.62
360.936	80.62
361.163	75.62
361.39	94.62
361.616	104.62
361.843	101.62
362.07	95.62
362.296	82.62
362.523	83.62
362.749	79.62
362.976	92.62
363.203	86.62
363.429	83.62
363.656	91.62
363.882	92.62
364.109	90.62
364.335	97.62
364.562	77.62
364.788	96.62
365.015	99.62
365.241	99.62
365.468	89.62
365.694	99.62
365.92	81.62
366.147	84.62
366.373	102.62
366.599	83.62
366.826	86.62
367.052	91.62
367.278	78.62
367.505	86.62
367.731	83.62
367.957	90.62
368.184	86.62
368.41	92.62
368.636	109.62
368.862	123.62
369.089	96.62
369.315	91.62
369.541	94.62
369.767	90.62
369.993	84.62
370.219	79.62
370.445	71.62
370.672	95.62
370.898	99.62
371.124	87.62
371.35	95.62
371.576	80.62
371.802	75.62
372.028	62.62
372.254	82.62
372.48	93.62
372.706	84.62
372.932	80.62
373.158	81.62
373.384	86.62
373.61	94.62
373.835	96.62
374.061	87.62
374.287	101.62
374.513	80.62
374.739	76.62
374.965	88.62
375.191	102.62
375.416	82.62
375.642	94.62
375.868	87.62
376.094	84.62
376.319	92.62
376.545	90.62
376.771	85.62
376.997	95.62
377.222	94.62
377.448	74.62
377.674	74.62
377.899	86.62
378.125	92.62
378.35	88.62
378.576	89.62
378.802	82.62
379.027	83.62
379.253	104.62
379.478	87.62
379.704	87.62
379.929	90.62
380.155	81.62
380.38	84.62
380.606	93.62
380.831	102.62
381.057	95.62
381.282	84.62
381.507	92.62
381.733	84.62
381.958	92.62
382.184	87.62
382.409	91.62
382.634	93.62
382.86	96.62
383.085	89.62
383.31	98.62
383.535	83.62
383.761	82.62
383.986	92.62
384.211	95.62
384.436	87.62
384.662	86.62
384.887	100.62
385.112	100.62
385.337	94.62
385.562	88.62
385.787	115.62
386.013	85.62
386.238	105.62
386.463	99.62
386.688	111.62
386.913	108.62
387.138	90.62
387.363	72.62
387.588	104.62
387.813	87.62
388.038	97.62
388.263	92.62
388.488	107.62
388.713	83.62
388.938	87.62
389.163	99.62
389.387	88.62
389.612	84.62
389.837	101.62
390.062	85.62
390.287	104.62
390.512	85.62
390.736	77.62
390.961	85.62
391.186	74.62
391.411	102.62
391.636	95.62
391.86	92.62
392.085	81.62
392.31	77.62
392.534	90.62
392.759	82.62
392.984	69.62
393.208	96.62
393.433	81.62
393.658	83.62
393.882	96.62
394.107	94.62
394.331	89.62
394.556	93.62
394.78	82.62
395.005	80.62
395.229	89.62
395.454	95.62
395.678	76.62
395.903	84.62
396.127	91.62
396.352	83.62
396.576	96.62
396.801	94.62
397.025	88.62
397.249	86.62
397.474	101.62
397.698	86.62
397.922	81.62
398.147	99.62
398.371	82.62
398.595	95.62
398.82	76.62
399.044	85.62
399.268	85.62
399.492	86.62
399.717	84.62
399.941	73.62
400.165	95.62
400.389	96.62
400.613	75.62
400.837	77.62
401.062	78.62
401.286	79.62
401.51	90.62
401.734	98.62
401.958	84.62
402.182	118.62
402.406	138.62
402.63	100.62
402.854	97.62
403.078	79.62
403.302	93.62
403.526	81.62
403.75	73.62
403.974	79.62
404.198	84.62
404.422	85.62
404.645	98.62
404.869	103.62
405.093	89.62
405.317	95.62
405.541	92.62
405.765	87.62
405.988	115.62
406.212	145.62
406.436	201.62
406.66	115.62
406.883	92.62
407.107	82.62
407.331	80.62
407.555	78.62
407.778	94.62
408.002	83.62
408.226	77.62
408.449	83.62
408.673	101.62
408.896	87.62
409.12	91.62
409.344	84.62
409.567	85.62
409.791	74.62
410.014	76.62
410.238	90.62
410.461	96.62
410.685	97.62
410.908	80.62
411.132	92.62
411.355	102.62
411.578	103.62
411.802	89.62
412.025	83.62
412.249	91.62
412.472	92.62
412.695	75.62
412.919	83.62
413.142	82.62
413.365	81.62
413.589	88.62
413.812	88.62
414.035	91.62
414.258	70.62
414.482	70.62
414.705	82.62
414.928	83.62
415.151	89.62
415.374	90.62
415.597	90.62
415.821	71.62
416.044	106.62
416.267	80.62
416.49	79.62
416.713	86.62
416.936	85.62
417.159	83.62
417.382	97.62
417.605	99.62
417.828	84.62
418.051	85.62
418.274	86.62
418.497	79.62
418.72	85.62
418.943	96.62
419.166	75.62
419.389	80.62
419.611	87.62
419.834	86.62
420.057	85.62
420.28	80.62
420.503	89.62
420.726	72.62
420.948	79.62
421.171	87.62
421.394	114.62
421.617	92.62
421.839	82.62
422.062	85.62
422.285	79.62
422.507	90.62
422.73	92.62
422.953	105.62
423.175	90.62
423.398	88.62
423.621	102.62
423.843	79.62
424.066	72.62
424.288	75.62
424.511	92.62
424.733	70.62
424.956	99.62
425.178	100.62
425.401	92.62
425.623	92.62
425.846	91.62
426.068	96.62
426.291	95.62
426.513	80.62
426.735	89.62
426.958	103.62
427.18	107.62
427.402	127.62
427.625	143.62
427.847	115.62
428.069	85.62
428.292	81.62
428.514	86.62
428.736	97.62
428.958	71.62
429.181	85.62
429.403	82.62
429.625	73.62
429.847	96.62
430.069	96.62
430.292	90.62
430.514	84.62
430.736	87.62
430.958	86.62
431.18	99.62
431.402	89.62
431.624	93.62
431.846	89.62
432.068	90.62
432.29	74.62
432.512	81.62
432.734	82.62
432.956	92.62
433.178	97.62
433.4	91.62
433.622	77.62
433.844	91.62
434.066	86.62
434.287	90.62
434.509	82.62
434.731	82.62
434.953	86.62
435.175	90.62
435.397	92.62
435.618	105.62
435.84	93.62
436.062	109.62
436.284	110.62
436.505	84.62
436.727	101.62
436.949	113.62
437.17	88.62
437.392	83.62
437.614	80.62
437.835	81.62
438.057	107.62
438.278	95.62
438.5	91.62
438.721	102.62
438.943	101.62
439.165	88.62
439.386	82.62
439.608	90.62
439.829	94.62
440.05	116.62
440.272	107.62
440.493	84.62
440.715	83.62
440.936	81.62
441.158	87.62
441.379	92.62
441.6	92.62
441.822	96.62
442.043	100.62
442.264	85.62
442.486	102.62
442.707	100.62
442.928	106.62
443.149	118.62
443.371	126.62
443.592	100.62
443.813	117.62
444.034	96.62
444.255	94.62
444.476	73.62
444.698	91.62
444.919	86.62
445.14	142.62
445.361	121.62
445.582	107.62
445.803	117.62
446.024	114.62
446.245	107.62
446.466	119.62
446.687	86.62
446.908	91.62
447.129	78.62
447.35	75.62
447.571	86.62
447.792	85.62
448.013	91.62
448.234	97.62
448.455	101.62
448.675	105.62
448.896	114.62
449.117	85.62
449.338	89.62
449.559	126.62
449.779	115.62
450	73.62
450.221	83.62
450.442	81.62
450.662	98.62
450.883	92.62
451.104	110.62
451.324	83.62
451.545	74.62
451.766	101.62
451.986	89.62
452.207	90.62
452.428	94.62
452.648	85.62
452.869	93.62
453.089	101.62
453.31	100.62
453.53	92.62
453.751	98.62
453.971	102.62
454.192	104.62
454.412	92.62
454.633	76.62
454.853	86.62
455.073	77.62
455.294	78.62
455.514	95.62
455.734	93.62
455.955	97.62
456.175	86.62
456.395	81.62
456.616	86.62
456.836	76.62
457.056	86.62
457.276	78.62
457.497	80.62
457.717	79.62
457.937	72.62
458.157	83.62
458.377	76.62
458.598	104.62
458.818	134.62
459.038	134.62
459.258	106.62
459.478	90.62
459.698	87.62
459.918	80.62
460.138	88.62
460.358	76.62
460.578	84.62
460.798	85.62
461.018	89.62
461.238	74.62
461.458	84.62
461.678	82.62
461.898	74.62
462.118	82.62
462.338	83.62
462.558	76.62
462.777	83.62
462.997	85.62
463.217	99.62
463.437	75.62
463.657	89.62
463.876	82.62
464.096	76.62
464.316	77.62
464.536	93.62
464.755	83.62
464.975	84.62
465.195	139.62
465.414	151.62
465.634	91.62
465.854	91.62
466.073	90.62
466.293	79.62
466.512	82.62
466.732	83.62
466.951	88.62
467.171	82.62
467.391	80.62
467.61	92.62
467.829	93.62
468.049	88.62
468.268	86.62
468.488	79.62
468.707	95.62
468.927	83.62
469.146	77.62
469.365	76.62
469.585	87.62
469.804	80.62
470.023	91.62
470.243	94.62
470.462	92.62
470.681	103.62
470.901	97.62
471.12	77.62
471.339	78.62
471.558	80.62
471.777	74.62
471.997	94.62
472.216	90.62
472.435	88.62
472.654	77.62
472.873	82.62
473.092	75.62
473.311	90.62
473.53	78.62
473.749	82.62
473.968	94.62
474.187	87.62
474.406	86.62
474.625	86.62
474.844	84.62
475.063	83.62
475.282	85.62
475.501	84.62
475.72	102.62
475.939	93.62
476.158	79.62
476.377	87.62
476.596	90.62
476.814	105.62
477.033	80.62
477.252	82.62
477.471	76.62
477.69	86.62
477.908	87.62
478.127	87.62
478.346	91.62
478.564	97.62
478.783	92.62
479.002	94.62
479.22	70.62
479.439	80.62
479.658	83.62
479.876	87.62
480.095	82.62
480.313	92.62
480.532	103.62
480.751	85.62
480.969	88.62
481.188	97.62
481.406	93.62
481.624	94.62
481.843	89.62
482.061	76.62
482.28	88.62
482.498	89.62
482.717	84.62
482.935	86.62
483.153	74.62
483.372	80.62
483.59	79.62
483.808	79.62
484.027	81.62
484.245	102.62
484.463	88.62
484.681	92.62
484.9	95.62
485.118	80.62
485.336	90.62
485.554	85.62
485.772	107.62
485.99	97.62
486.209	114.62
486.427	113.62
486.645	111.62
486.863	103.62
487.081	106.62
487.299	102.62
487.517	93.62
487.735	95.62
487.953	95.62
488.171	81.62
488.389	92.62
488.607	88.62
488.825	83.62
489.043	91.62
489.261	96.62
489.479	87.62
489.696	87.62
489.914	82.62
490.132	80.62
490.35	91.62
490.568	97.62
490.786	98.62
491.003	96.62
491.221	84.62
491.439	92.62
491.657	95.62
491.874	82.62
492.092	82.62
492.31	89.62
492.527	75.62
492.745	92.62
492.963	104.62
493.18	83.62
493.398	91.62
493.615	100.62
493.833	82.62
494.05	85.62
494.268	97.62
494.485	82.62
494.703	85.62
494.92	87.62
495.138	83.62
495.355	80.62
495.573	85.62
495.79	97.62
496.008	105.62
496.225	94.62
496.442	99.62
496.66	87.62
496.877	87.62
497.094	103.62
497.312	89.62
497.529	98.62
497.746	100.62
497.963	88.62
498.181	96.62
498.398	100.62
498.615	98.62
498.832	96.62
499.049	79.62
499.267	93.62
499.484	84.62
499.701	99.62
499.918	86.62
500.135	81.62
500.352	99.62
500.569	91.62
500.786	81.62
501.003	99.62
501.22	86.62
501.437	108.62
501.654	85.62
501.871	94.62
502.088	97.62
502.305	96.62
502.522	89.62
502.739	86.62
502.956	98.62
503.172	84.62
503.389	83.62
503.606	107.62
503.823	90.62
504.04	82.62
504.256	108.62
504.473	83.62
504.69	102.62
504.907	91.62
505.123	98.62
505.34	83.62
505.557	88.62
505.773	90.62
505.99	90.62
506.207	77.62
506.423	94.62
506.64	77.62
506.856	70.62
507.073	94.62
507.289	99.62
507.506	90.62
507.722	108.62
507.939	108.62
508.155	85.62
508.372	97.62
508.588	89.62
508.805	89.62
509.021	83.62
509.238	104.62
509.454	98.62
509.67	91.62
509.887	99.62
510.103	134.62
510.319	190.62
510.536	673.62
510.752	2082.62
510.968	561.62
511.184	142.62
511.401	107.62
511.617	101.62
511.833	88.62
512.049	80.62
512.265	74.62
512.481	91.62
512.698	84.62
512.914	83.62
513.13	86.62
513.346	86.62
513.562	102.62
513.778	91.62
513.994	98.62
514.21	104.62
514.426	104.62
514.642	120.62
514.858	108.62
515.074	142.62
515.29	379.62
515.506	1155.62
515.721	454.62
515.937	136.62
516.153	108.62
516.369	86.62
516.585	92.62
516.801	106.62
517.016	95.62
