Data from Uncirc_2000_H10_HRD10591_00095.txt Node
Date: Wed Jan 03 10:48:36 EST 2024
User: Yrep
Spectrometer: HR+D1059
Trigger mode: 1
Integration Time (sec): 1.000000E-1
Scans to average: 1
Electric dark correction enabled: true
Nonlinearity correction enabled: false
Boxcar width: 0
XAxis mode: Wavelengths
Number of Pixels in Spectrum: 2048
>>>>>Begin Spectral Data<<<<<
223.165	-13.31
223.4	-13.31
223.635	-13.31
223.869	-8.31
224.104	-19.31
224.338	-18.31
224.573	-13.31
224.808	-9.31
225.042	-17.31
225.277	-10.31
225.511	1.69
225.746	-6.31
225.98	12.69
226.215	21.69
226.449	11.69
226.683	28.69
226.918	19.69
227.152	19.69
227.387	38.69
227.621	30.69
227.856	47.69
228.09	47.69
228.324	47.69
228.559	50.69
228.793	59.69
229.027	74.69
229.262	78.69
229.496	84.69
229.73	77.69
229.964	71.69
230.199	67.69
230.433	77.69
230.667	74.69
230.901	76.69
231.136	80.69
231.37	78.69
231.604	84.69
231.838	68.69
232.072	77.69
232.306	84.69
232.541	85.69
232.775	82.69
233.009	74.69
233.243	88.69
233.477	84.69
233.711	78.69
233.945	78.69
234.179	85.69
234.413	81.69
234.647	74.69
234.881	87.69
235.115	84.69
235.349	72.69
235.583	72.69
235.817	90.69
236.051	66.69
236.285	94.69
236.519	75.69
236.753	81.69
236.987	83.69
237.221	92.69
237.455	78.69
237.689	77.69
237.922	73.69
238.156	79.69
238.39	72.69
238.624	90.69
238.858	73.69
239.091	77.69
239.325	78.69
239.559	81.69
239.793	76.69
240.027	67.69
240.26	59.69
240.494	83.69
240.728	87.69
240.961	82.69
241.195	67.69
241.429	75.69
241.662	79.69
241.896	69.69
242.13	82.69
242.363	79.69
242.597	72.69
242.83	83.69
243.064	72.69
243.298	81.69
243.531	87.69
243.765	81.69
243.998	79.69
244.232	83.69
244.465	83.69
244.699	73.69
244.932	78.69
245.166	72.69
245.399	77.69
245.633	70.69
245.866	86.69
246.099	79.69
246.333	90.69
246.566	85.69
246.8	89.69
247.033	69.69
247.266	75.69
247.5	84.69
247.733	85.69
247.966	88.69
248.2	76.69
248.433	84.69
248.666	76.69
248.899	79.69
249.133	92.69
249.366	86.69
249.599	90.69
249.832	74.69
250.066	91.69
250.299	91.69
250.532	74.69
250.765	87.69
250.998	68.69
251.231	75.69
251.465	82.69
251.698	98.69
251.931	82.69
252.164	83.69
252.397	73.69
252.63	84.69
252.863	91.69
253.096	75.69
253.329	73.69
253.562	68.69
253.795	87.69
254.028	76.69
254.261	81.69
254.494	75.69
254.727	85.69
254.96	75.69
255.193	74.69
255.426	86.69
255.659	70.69
255.892	88.69
256.124	80.69
256.357	95.69
256.59	92.69
256.823	90.69
257.056	69.69
257.289	87.69
257.521	62.69
257.754	72.69
257.987	85.69
258.22	84.69
258.452	82.69
258.685	77.69
258.918	92.69
259.151	79.69
259.383	82.69
259.616	62.69
259.849	88.69
260.081	76.69
260.314	88.69
260.547	88.69
260.779	87.69
261.012	77.69
261.244	92.69
261.477	81.69
261.71	97.69
261.942	106.69
262.175	104.69
262.407	91.69
262.64	96.69
262.872	78.69
263.105	74.69
263.337	101.69
263.57	81.69
263.802	90.69
264.035	84.69
264.267	85.69
264.499	79.69
264.732	108.69
264.964	100.69
265.197	84.69
265.429	75.69
265.661	77.69
265.894	66.69
266.126	92.69
266.358	105.69
266.591	71.69
266.823	83.69
267.055	74.69
267.287	91.69
267.52	74.69
267.752	79.69
267.984	84.69
268.216	84.69
268.448	83.69
268.681	82.69
268.913	91.69
269.145	77.69
269.377	77.69
269.609	66.69
269.841	80.69
270.073	81.69
270.306	84.69
270.538	86.69
270.77	77.69
271.002	80.69
271.234	89.69
271.466	91.69
271.698	92.69
271.93	80.69
272.162	82.69
272.394	94.69
272.626	87.69
272.858	82.69
273.09	83.69
273.322	90.69
273.553	88.69
273.785	94.69
274.017	87.69
274.249	78.69
274.481	92.69
274.713	67.69
274.945	81.69
275.176	82.69
275.408	97.69
275.64	87.69
275.872	94.69
276.104	90.69
276.335	89.69
276.567	109.69
276.799	124.69
277.031	93.69
277.262	95.69
277.494	93.69
277.726	60.69
277.957	87.69
278.189	85.69
278.421	86.69
278.652	87.69
278.884	85.69
279.115	85.69
279.347	94.69
279.579	85.69
279.81	83.69
280.042	98.69
280.273	79.69
280.505	83.69
280.736	87.69
280.968	93.69
281.199	89.69
281.431	92.69
281.662	92.69
281.894	93.69
282.125	74.69
282.356	116.69
282.588	117.69
282.819	107.69
283.051	90.69
283.282	88.69
283.513	92.69
283.745	83.69
283.976	86.69
284.207	91.69
284.439	90.69
284.67	95.69
284.901	79.69
285.132	94.69
285.364	77.69
285.595	87.69
285.826	90.69
286.057	88.69
286.288	80.69
286.52	73.69
286.751	101.69
286.982	91.69
287.213	87.69
287.444	74.69
287.675	97.69
287.906	95.69
288.138	90.69
288.369	73.69
288.6	84.69
288.831	85.69
289.062	85.69
289.293	78.69
289.524	65.69
289.755	84.69
289.986	85.69
290.217	89.69
290.448	84.69
290.679	91.69
290.91	82.69
291.141	91.69
291.371	98.69
291.602	85.69
291.833	89.69
292.064	94.69
292.295	82.69
292.526	87.69
292.757	86.69
292.987	84.69
293.218	96.69
293.449	90.69
293.68	98.69
293.91	86.69
294.141	89.69
294.372	77.69
294.603	91.69
294.833	93.69
295.064	88.69
295.295	97.69
295.525	101.69
295.756	98.69
295.987	114.69
296.217	130.69
296.448	127.69
296.679	88.69
296.909	85.69
297.14	89.69
297.37	86.69
297.601	89.69
297.831	87.69
298.062	98.69
298.292	80.69
298.523	86.69
298.753	98.69
298.984	104.69
299.214	82.69
299.445	79.69
299.675	103.69
299.905	84.69
300.136	89.69
300.366	84.69
300.597	82.69
300.827	91.69
301.057	106.69
301.288	109.69
301.518	92.69
301.748	90.69
301.979	96.69
302.209	94.69
302.439	97.69
302.669	85.69
302.9	80.69
303.13	85.69
303.36	94.69
303.59	97.69
303.82	109.69
304.051	101.69
304.281	95.69
304.511	90.69
304.741	98.69
304.971	88.69
305.201	77.69
305.431	101.69
305.661	86.69
305.891	95.69
306.121	95.69
306.352	103.69
306.582	119.69
306.812	102.69
307.042	100.69
307.272	91.69
307.502	105.69
307.731	86.69
307.961	105.69
308.191	95.69
308.421	90.69
308.651	85.69
308.881	87.69
309.111	86.69
309.341	106.69
309.571	106.69
309.8	84.69
310.03	94.69
310.26	99.69
310.49	83.69
310.72	89.69
310.949	94.69
311.179	104.69
311.409	94.69
311.639	92.69
311.868	85.69
312.098	101.69
312.328	87.69
312.557	102.69
312.787	118.69
313.017	102.69
313.246	92.69
313.476	89.69
313.706	90.69
313.935	90.69
314.165	102.69
314.394	98.69
314.624	98.69
314.853	115.69
315.083	92.69
315.312	97.69
315.542	109.69
315.771	94.69
316.001	83.69
316.23	84.69
316.46	92.69
316.689	99.69
316.919	92.69
317.148	88.69
317.377	95.69
317.607	94.69
317.836	91.69
318.065	97.69
318.295	108.69
318.524	88.69
318.753	88.69
318.983	100.69
319.212	103.69
319.441	115.69
319.67	103.69
319.9	89.69
320.129	104.69
320.358	90.69
320.587	103.69
320.816	97.69
321.046	110.69
321.275	101.69
321.504	92.69
321.733	109.69
321.962	102.69
322.191	102.69
322.42	99.69
322.649	122.69
322.878	102.69
323.108	103.69
323.337	136.69
323.566	122.69
323.795	159.69
324.024	203.69
324.253	391.69
324.482	824.69
324.71	1690.69
324.939	2211.69
325.168	809.69
325.397	245.69
325.626	141.69
325.855	133.69
326.084	124.69
326.313	126.69
326.542	147.69
326.77	231.69
326.999	474.69
327.228	947.69
327.457	1720.69
327.686	1375.69
327.914	376.69
328.143	179.69
328.372	159.69
328.6	130.69
328.829	130.69
329.058	123.69
329.287	124.69
329.515	103.69
329.744	93.69
329.972	106.69
330.201	104.69
330.43	109.69
330.658	124.69
330.887	128.69
331.115	102.69
331.344	92.69
331.572	88.69
331.801	91.69
332.03	103.69
332.258	93.69
332.486	105.69
332.715	90.69
332.943	94.69
333.172	90.69
333.4	86.69
333.629	103.69
333.857	87.69
334.085	103.69
334.314	92.69
334.542	91.69
334.771	95.69
334.999	82.69
335.227	97.69
335.455	86.69
335.684	101.69
335.912	99.69
336.14	95.69
336.369	107.69
336.597	91.69
336.825	103.69
337.053	96.69
337.281	91.69
337.51	105.69
337.738	93.69
337.966	95.69
338.194	91.69
338.422	95.69
338.65	83.69
338.878	105.69
339.106	85.69
339.334	92.69
339.562	79.69
339.79	102.69
340.018	98.69
340.246	91.69
340.474	94.69
340.702	96.69
340.93	98.69
341.158	110.69
341.386	91.69
341.614	93.69
341.842	85.69
342.07	107.69
342.298	103.69
342.526	97.69
342.754	92.69
342.981	93.69
343.209	87.69
343.437	109.69
343.665	95.69
343.893	86.69
344.12	97.69
344.348	92.69
344.576	93.69
344.804	112.69
345.031	87.69
345.259	91.69
345.487	85.69
345.714	87.69
345.942	89.69
346.17	97.69
346.397	97.69
346.625	102.69
346.853	98.69
347.08	100.69
347.308	99.69
347.535	106.69
347.763	105.69
347.99	96.69
348.218	111.69
348.445	110.69
348.673	97.69
348.9	94.69
349.128	88.69
349.355	102.69
349.583	87.69
349.81	88.69
350.037	85.69
350.265	92.69
350.492	92.69
350.72	90.69
350.947	94.69
351.174	109.69
351.402	93.69
351.629	103.69
351.856	95.69
352.083	99.69
352.311	125.69
352.538	115.69
352.765	113.69
352.992	116.69
353.22	104.69
353.447	103.69
353.674	89.69
353.901	87.69
354.128	106.69
354.355	108.69
354.583	101.69
354.81	89.69
355.037	101.69
355.264	87.69
355.491	99.69
355.718	94.69
355.945	84.69
356.172	78.69
356.399	89.69
356.626	93.69
356.853	82.69
357.08	92.69
357.307	100.69
357.534	95.69
357.761	83.69
357.988	100.69
358.215	96.69
358.441	77.69
358.668	96.69
358.895	76.69
359.122	93.69
359.349	88.69
359.576	85.69
359.802	94.69
360.029	100.69
360.256	90.69
360.483	97.69
360.709	89.69
360.936	99.69
361.163	91.69
361.39	103.69
361.616	98.69
361.843	102.69
362.07	87.69
362.296	94.69
362.523	102.69
362.749	94.69
362.976	111.69
363.203	108.69
363.429	78.69
363.656	83.69
363.882	96.69
364.109	78.69
364.335	97.69
364.562	85.69
364.788	92.69
365.015	91.69
365.241	95.69
365.468	106.69
365.694	84.69
365.92	102.69
366.147	84.69
366.373	87.69
366.599	83.69
366.826	88.69
367.052	84.69
367.278	90.69
367.505	78.69
367.731	101.69
367.957	94.69
368.184	105.69
368.41	109.69
368.636	115.69
368.862	120.69
369.089	103.69
369.315	83.69
369.541	89.69
369.767	89.69
369.993	89.69
370.219	104.69
370.445	75.69
370.672	95.69
370.898	85.69
371.124	90.69
371.35	99.69
371.576	73.69
371.802	97.69
372.028	91.69
372.254	92.69
372.48	94.69
372.706	85.69
372.932	84.69
373.158	91.69
373.384	86.69
373.61	93.69
373.835	90.69
374.061	103.69
374.287	99.69
374.513	89.69
374.739	99.69
374.965	90.69
375.191	88.69
375.416	101.69
375.642	103.69
375.868	85.69
376.094	90.69
376.319	88.69
376.545	88.69
376.771	100.69
376.997	90.69
377.222	94.69
377.448	94.69
377.674	86.69
377.899	91.69
378.125	79.69
378.35	104.69
378.576	86.69
378.802	113.69
379.027	92.69
379.253	85.69
379.478	90.69
379.704	84.69
379.929	96.69
380.155	94.69
380.38	94.69
380.606	90.69
380.831	84.69
381.057	93.69
381.282	91.69
381.507	98.69
381.733	82.69
381.958	95.69
382.184	82.69
382.409	97.69
382.634	105.69
382.86	98.69
383.085	90.69
383.31	103.69
383.535	95.69
383.761	101.69
383.986	88.69
384.211	100.69
384.436	98.69
384.662	104.69
384.887	91.69
385.112	78.69
385.337	95.69
385.562	111.69
385.787	93.69
386.013	99.69
386.238	99.69
386.463	89.69
386.688	101.69
386.913	90.69
387.138	102.69
387.363	107.69
387.588	89.69
387.813	114.69
388.038	103.69
388.263	118.69
388.488	101.69
388.713	90.69
388.938	97.69
389.163	93.69
389.387	105.69
389.612	99.69
389.837	94.69
390.062	94.69
390.287	95.69
390.512	93.69
390.736	98.69
390.961	89.69
391.186	91.69
391.411	96.69
391.636	91.69
391.86	87.69
392.085	83.69
392.31	93.69
392.534	78.69
392.759	77.69
392.984	88.69
393.208	87.69
393.433	101.69
393.658	103.69
393.882	81.69
394.107	87.69
394.331	88.69
394.556	88.69
394.78	84.69
395.005	89.69
395.229	86.69
395.454	96.69
395.678	90.69
395.903	90.69
396.127	88.69
396.352	90.69
396.576	70.69
396.801	76.69
397.025	78.69
397.249	100.69
397.474	92.69
397.698	73.69
397.922	86.69
398.147	89.69
398.371	85.69
398.595	106.69
398.82	73.69
399.044	76.69
399.268	88.69
399.492	89.69
399.717	95.69
399.941	89.69
400.165	103.69
400.389	97.69
400.613	88.69
400.837	87.69
401.062	81.69
401.286	89.69
401.51	87.69
401.734	90.69
401.958	108.69
402.182	122.69
402.406	143.69
402.63	110.69
402.854	94.69
403.078	73.69
403.302	76.69
403.526	82.69
403.75	99.69
403.974	89.69
404.198	81.69
404.422	94.69
404.645	95.69
404.869	97.69
405.093	88.69
405.317	99.69
405.541	97.69
405.765	110.69
405.988	116.69
406.212	168.69
406.436	216.69
406.66	133.69
406.883	92.69
407.107	85.69
407.331	99.69
407.555	106.69
407.778	89.69
408.002	82.69
408.226	92.69
408.449	95.69
408.673	83.69
408.896	92.69
409.12	95.69
409.344	84.69
409.567	87.69
409.791	103.69
410.014	86.69
410.238	88.69
410.461	83.69
410.685	98.69
410.908	99.69
411.132	94.69
411.355	87.69
411.578	91.69
411.802	76.69
412.025	94.69
412.249	106.69
412.472	82.69
412.695	94.69
412.919	93.69
413.142	103.69
413.365	108.69
413.589	95.69
413.812	96.69
414.035	86.69
414.258	92.69
414.482	94.69
414.705	94.69
414.928	95.69
415.151	81.69
415.374	98.69
415.597	93.69
415.821	91.69
416.044	86.69
416.267	100.69
416.49	91.69
416.713	85.69
416.936	85.69
417.159	78.69
417.382	82.69
417.605	93.69
417.828	98.69
418.051	95.69
418.274	94.69
418.497	87.69
418.72	94.69
418.943	92.69
419.166	105.69
419.389	98.69
419.611	94.69
419.834	95.69
420.057	84.69
420.28	88.69
420.503	86.69
420.726	92.69
420.948	103.69
421.171	90.69
421.394	86.69
421.617	86.69
421.839	102.69
422.062	85.69
422.285	93.69
422.507	101.69
422.73	101.69
422.953	106.69
423.175	82.69
423.398	79.69
423.621	92.69
423.843	87.69
424.066	103.69
424.288	89.69
424.511	78.69
424.733	94.69
424.956	106.69
425.178	96.69
425.401	102.69
425.623	94.69
425.846	92.69
426.068	92.69
426.291	92.69
426.513	90.69
426.735	89.69
426.958	110.69
427.18	107.69
427.402	123.69
427.625	148.69
427.847	117.69
428.069	105.69
428.292	87.69
428.514	93.69
428.736	79.69
428.958	96.69
429.181	87.69
429.403	89.69
429.625	87.69
429.847	94.69
430.069	88.69
430.292	83.69
430.514	87.69
430.736	76.69
430.958	85.69
431.18	85.69
431.402	92.69
431.624	94.69
431.846	89.69
432.068	97.69
432.29	99.69
432.512	94.69
432.734	95.69
432.956	83.69
433.178	90.69
433.4	103.69
433.622	93.69
433.844	88.69
434.066	87.69
434.287	92.69
434.509	83.69
434.731	84.69
434.953	101.69
435.175	88.69
435.397	105.69
435.618	94.69
435.84	91.69
436.062	109.69
436.284	115.69
436.505	98.69
436.727	96.69
436.949	103.69
437.17	91.69
437.392	88.69
437.614	90.69
437.835	101.69
438.057	115.69
438.278	113.69
438.5	95.69
438.721	111.69
438.943	104.69
439.165	83.69
439.386	85.69
439.608	81.69
439.829	93.69
440.05	103.69
440.272	142.69
440.493	101.69
440.715	93.69
440.936	75.69
441.158	93.69
441.379	89.69
441.6	90.69
441.822	88.69
442.043	94.69
442.264	106.69
442.486	93.69
442.707	109.69
442.928	90.69
443.149	129.69
443.371	123.69
443.592	99.69
443.813	110.69
444.034	110.69
444.255	99.69
444.476	85.69
444.698	91.69
444.919	83.69
445.14	115.69
445.361	111.69
445.582	111.69
445.803	129.69
446.024	122.69
446.245	116.69
446.466	106.69
446.687	73.69
446.908	91.69
447.129	101.69
447.35	99.69
447.571	106.69
447.792	92.69
448.013	97.69
448.234	99.69
448.455	94.69
448.675	95.69
448.896	106.69
449.117	84.69
449.338	123.69
449.559	114.69
449.779	122.69
450	67.69
450.221	87.69
450.442	94.69
450.662	93.69
450.883	103.69
451.104	114.69
451.324	99.69
451.545	93.69
451.766	84.69
451.986	93.69
452.207	85.69
452.428	87.69
452.648	111.69
452.869	115.69
453.089	110.69
453.31	115.69
453.53	89.69
453.751	89.69
453.971	95.69
454.192	116.69
454.412	95.69
454.633	77.69
454.853	67.69
455.073	79.69
455.294	102.69
455.514	94.69
455.734	72.69
455.955	75.69
456.175	77.69
456.395	98.69
456.616	86.69
456.836	82.69
457.056	90.69
457.276	82.69
457.497	85.69
457.717	92.69
457.937	78.69
458.157	84.69
458.377	99.69
458.598	91.69
458.818	136.69
459.038	141.69
459.258	112.69
459.478	95.69
459.698	81.69
459.918	97.69
460.138	101.69
460.358	92.69
460.578	83.69
460.798	89.69
461.018	98.69
461.238	90.69
461.458	93.69
461.678	89.69
461.898	95.69
462.118	79.69
462.338	96.69
462.558	81.69
462.777	94.69
462.997	76.69
463.217	81.69
463.437	70.69
463.657	87.69
463.876	93.69
464.096	84.69
464.316	92.69
464.536	85.69
464.755	104.69
464.975	99.69
465.195	154.69
465.414	135.69
465.634	102.69
465.854	88.69
466.073	90.69
466.293	84.69
466.512	88.69
466.732	98.69
466.951	90.69
467.171	103.69
467.391	106.69
467.61	97.69
467.829	86.69
468.049	94.69
468.268	82.69
468.488	75.69
468.707	111.69
468.927	91.69
469.146	89.69
469.365	88.69
469.585	89.69
469.804	97.69
470.023	73.69
470.243	98.69
470.462	113.69
470.681	103.69
470.901	90.69
471.12	84.69
471.339	96.69
471.558	94.69
471.777	87.69
471.997	78.69
472.216	95.69
472.435	82.69
472.654	84.69
472.873	94.69
473.092	79.69
473.311	95.69
473.53	78.69
473.749	82.69
473.968	91.69
474.187	89.69
474.406	95.69
474.625	80.69
474.844	78.69
475.063	78.69
475.282	91.69
475.501	101.69
475.72	95.69
475.939	68.69
476.158	95.69
476.377	88.69
476.596	83.69
476.814	104.69
477.033	87.69
477.252	101.69
477.471	91.69
477.69	90.69
477.908	90.69
478.127	95.69
478.346	82.69
478.564	88.69
478.783	93.69
479.002	95.69
479.22	86.69
479.439	91.69
479.658	98.69
479.876	98.69
480.095	91.69
480.313	95.69
480.532	90.69
480.751	84.69
480.969	93.69
481.188	96.69
481.406	87.69
481.624	84.69
481.843	81.69
482.061	93.69
482.28	102.69
482.498	91.69
482.717	88.69
482.935	84.69
483.153	84.69
483.372	84.69
483.59	98.69
483.808	81.69
484.027	71.69
484.245	91.69
484.463	83.69
484.681	86.69
484.9	100.69
485.118	79.69
485.336	89.69
485.554	98.69
485.772	88.69
485.99	95.69
486.209	99.69
486.427	112.69
486.645	98.69
486.863	105.69
487.081	109.69
487.299	93.69
487.517	102.69
487.735	98.69
487.953	81.69
488.171	106.69
488.389	103.69
488.607	99.69
488.825	92.69
489.043	73.69
489.261	92.69
489.479	85.69
489.696	84.69
489.914	84.69
490.132	90.69
490.35	104.69
490.568	82.69
490.786	91.69
491.003	90.69
491.221	91.69
491.439	86.69
491.657	96.69
491.874	94.69
492.092	94.69
492.31	71.69
492.527	76.69
492.745	84.69
492.963	89.69
493.18	95.69
493.398	86.69
493.615	95.69
493.833	90.69
494.05	81.69
494.268	94.69
494.485	83.69
494.703	87.69
494.92	92.69
495.138	73.69
495.355	85.69
495.573	100.69
495.79	89.69
496.008	87.69
496.225	83.69
496.442	107.69
496.66	82.69
496.877	89.69
497.094	90.69
497.312	86.69
497.529	85.69
497.746	92.69
497.963	106.69
498.181	101.69
498.398	96.69
498.615	112.69
498.832	99.69
499.049	84.69
499.267	96.69
499.484	99.69
499.701	92.69
499.918	92.69
500.135	96.69
500.352	94.69
500.569	87.69
500.786	100.69
501.003	97.69
501.22	110.69
501.437	85.69
501.654	90.69
501.871	107.69
502.088	85.69
502.305	103.69
502.522	93.69
502.739	84.69
502.956	87.69
503.172	93.69
503.389	91.69
503.606	115.69
503.823	98.69
504.04	90.69
504.256	85.69
504.473	76.69
504.69	84.69
504.907	94.69
505.123	88.69
505.34	99.69
505.557	92.69
505.773	93.69
505.99	90.69
506.207	95.69
506.423	84.69
506.64	87.69
506.856	78.69
507.073	99.69
507.289	98.69
507.506	94.69
507.722	121.69
507.939	99.69
508.155	93.69
508.372	98.69
508.588	96.69
508.805	78.69
509.021	95.69
509.238	95.69
509.454	104.69
509.67	103.69
509.887	101.69
510.103	116.69
510.319	203.69
510.536	770.69
510.752	2373.69
510.968	655.69
511.184	162.69
511.401	111.69
511.617	98.69
511.833	94.69
512.049	96.69
512.265	98.69
512.481	91.69
512.698	99.69
512.914	89.69
513.13	92.69
513.346	100.69
513.562	84.69
513.778	98.69
513.994	98.69
514.21	95.69
514.426	121.69
514.642	118.69
514.858	131.69
515.074	145.69
515.29	415.69
515.506	1347.69
515.721	526.69
515.937	157.69
