Data from Uncirc_2000_H10_HRD10591_00007.txt Node
Date: Wed Jan 03 10:48:18 EST 2024
User: Yrep
Spectrometer: HR+D1059
Trigger mode: 1
Integration Time (sec): 1.000000E-1
Scans to average: 1
Electric dark correction enabled: true
Nonlinearity correction enabled: false
Boxcar width: 0
XAxis mode: Wavelengths
Number of Pixels in Spectrum: 2048
>>>>>Begin Spectral Data<<<<<
223.165	-25.81
223.4	-25.81
223.635	-25.81
223.869	-22.81
224.104	-13.81
224.338	-6.81
224.573	-16.81
224.808	-11.81
225.042	-6.81
225.277	-19.81
225.511	3.19
225.746	-1.81
225.98	15.19
226.215	21.19
226.449	4.19
226.683	5.19
226.918	31.19
227.152	46.19
227.387	37.19
227.621	51.19
227.856	42.19
228.09	45.19
228.324	53.19
228.559	57.19
228.793	59.19
229.027	64.19
229.262	57.19
229.496	71.19
229.73	76.19
229.964	80.19
230.199	57.19
230.433	77.19
230.667	73.19
230.901	68.19
231.136	69.19
231.37	89.19
231.604	86.19
231.838	71.19
232.072	78.19
232.306	76.19
232.541	75.19
232.775	78.19
233.009	69.19
233.243	83.19
233.477	79.19
233.711	80.19
233.945	86.19
234.179	84.19
234.413	65.19
234.647	73.19
234.881	74.19
235.115	68.19
235.349	94.19
235.583	88.19
235.817	76.19
236.051	83.19
236.285	94.19
236.519	85.19
236.753	68.19
236.987	75.19
237.221	75.19
237.455	77.19
237.689	71.19
237.922	78.19
238.156	86.19
238.39	85.19
238.624	82.19
238.858	78.19
239.091	77.19
239.325	82.19
239.559	70.19
239.793	80.19
240.027	70.19
240.26	75.19
240.494	75.19
240.728	82.19
240.961	78.19
241.195	77.19
241.429	91.19
241.662	77.19
241.896	61.19
242.13	82.19
242.363	75.19
242.597	80.19
242.83	85.19
243.064	66.19
243.298	76.19
243.531	78.19
243.765	81.19
243.998	80.19
244.232	86.19
244.465	76.19
244.699	69.19
244.932	75.19
245.166	76.19
245.399	92.19
245.633	81.19
245.866	72.19
246.099	83.19
246.333	89.19
246.566	76.19
246.8	92.19
247.033	84.19
247.266	81.19
247.5	80.19
247.733	79.19
247.966	110.19
248.2	100.19
248.433	67.19
248.666	81.19
248.899	70.19
249.133	100.19
249.366	96.19
249.599	78.19
249.832	79.19
250.066	67.19
250.299	72.19
250.532	83.19
250.765	80.19
250.998	68.19
251.231	70.19
251.465	79.19
251.698	83.19
251.931	97.19
252.164	89.19
252.397	98.19
252.63	72.19
252.863	71.19
253.096	78.19
253.329	85.19
253.562	85.19
253.795	86.19
254.028	81.19
254.261	84.19
254.494	83.19
254.727	90.19
254.96	69.19
255.193	68.19
255.426	63.19
255.659	77.19
255.892	76.19
256.124	71.19
256.357	81.19
256.59	95.19
256.823	83.19
257.056	81.19
257.289	83.19
257.521	74.19
257.754	75.19
257.987	77.19
258.22	83.19
258.452	91.19
258.685	88.19
258.918	82.19
259.151	76.19
259.383	86.19
259.616	84.19
259.849	82.19
260.081	93.19
260.314	84.19
260.547	95.19
260.779	84.19
261.012	77.19
261.244	83.19
261.477	85.19
261.71	81.19
261.942	87.19
262.175	105.19
262.407	86.19
262.64	72.19
262.872	77.19
263.105	90.19
263.337	77.19
263.57	81.19
263.802	93.19
264.035	79.19
264.267	84.19
264.499	80.19
264.732	89.19
264.964	108.19
265.197	83.19
265.429	69.19
265.661	84.19
265.894	89.19
266.126	86.19
266.358	86.19
266.591	86.19
266.823	85.19
267.055	86.19
267.287	93.19
267.52	92.19
267.752	73.19
267.984	73.19
268.216	76.19
268.448	91.19
268.681	77.19
268.913	91.19
269.145	97.19
269.377	88.19
269.609	76.19
269.841	87.19
270.073	71.19
270.306	82.19
270.538	93.19
270.77	97.19
271.002	89.19
271.234	88.19
271.466	87.19
271.698	85.19
271.93	79.19
272.162	82.19
272.394	86.19
272.626	77.19
272.858	77.19
273.09	85.19
273.322	79.19
273.553	97.19
273.785	90.19
274.017	98.19
274.249	87.19
274.481	69.19
274.713	74.19
274.945	94.19
275.176	91.19
275.408	85.19
275.64	90.19
275.872	84.19
276.104	90.19
276.335	96.19
276.567	95.19
276.799	109.19
277.031	89.19
277.262	78.19
277.494	83.19
277.726	101.19
277.957	81.19
278.189	82.19
278.421	91.19
278.652	83.19
278.884	89.19
279.115	86.19
279.347	98.19
279.579	70.19
279.81	81.19
280.042	86.19
280.273	97.19
280.505	91.19
280.736	91.19
280.968	94.19
281.199	79.19
281.431	75.19
281.662	84.19
281.894	97.19
282.125	99.19
282.356	110.19
282.588	126.19
282.819	95.19
283.051	100.19
283.282	71.19
283.513	94.19
283.745	87.19
283.976	83.19
284.207	95.19
284.439	81.19
284.67	90.19
284.901	61.19
285.132	88.19
285.364	92.19
285.595	83.19
285.826	88.19
286.057	71.19
286.288	97.19
286.52	84.19
286.751	82.19
286.982	95.19
287.213	96.19
287.444	106.19
287.675	91.19
287.906	79.19
288.138	87.19
288.369	87.19
288.6	98.19
288.831	96.19
289.062	90.19
289.293	90.19
289.524	86.19
289.755	87.19
289.986	87.19
290.217	92.19
290.448	85.19
290.679	91.19
290.91	85.19
291.141	99.19
291.371	88.19
291.602	89.19
291.833	78.19
292.064	110.19
292.295	82.19
292.526	92.19
292.757	99.19
292.987	91.19
293.218	79.19
293.449	77.19
293.68	94.19
293.91	99.19
294.141	90.19
294.372	91.19
294.603	83.19
294.833	82.19
295.064	78.19
295.295	100.19
295.525	82.19
295.756	90.19
295.987	93.19
296.217	115.19
296.448	108.19
296.679	99.19
296.909	87.19
297.14	82.19
297.37	80.19
297.601	98.19
297.831	93.19
298.062	90.19
298.292	90.19
298.523	93.19
298.753	78.19
298.984	93.19
299.214	76.19
299.445	78.19
299.675	90.19
299.905	90.19
300.136	78.19
300.366	83.19
300.597	89.19
300.827	91.19
301.057	88.19
301.288	96.19
301.518	97.19
301.748	92.19
301.979	86.19
302.209	99.19
302.439	98.19
302.669	79.19
302.9	77.19
303.13	92.19
303.36	108.19
303.59	92.19
303.82	99.19
304.051	102.19
304.281	102.19
304.511	110.19
304.741	100.19
304.971	89.19
305.201	93.19
305.431	77.19
305.661	85.19
305.891	91.19
306.121	107.19
306.352	86.19
306.582	102.19
306.812	93.19
307.042	105.19
307.272	97.19
307.502	73.19
307.731	101.19
307.961	91.19
308.191	88.19
308.421	94.19
308.651	79.19
308.881	84.19
309.111	93.19
309.341	92.19
309.571	88.19
309.8	100.19
310.03	90.19
310.26	83.19
310.49	97.19
310.72	97.19
310.949	90.19
311.179	99.19
311.409	91.19
311.639	85.19
311.868	99.19
312.098	79.19
312.328	100.19
312.557	91.19
312.787	95.19
313.017	101.19
313.246	99.19
313.476	89.19
313.706	85.19
313.935	113.19
314.165	86.19
314.394	102.19
314.624	83.19
314.853	95.19
315.083	82.19
315.312	94.19
315.542	98.19
315.771	97.19
316.001	87.19
316.23	79.19
316.46	86.19
316.689	97.19
316.919	92.19
317.148	81.19
317.377	95.19
317.607	98.19
317.836	95.19
318.065	95.19
318.295	94.19
318.524	88.19
318.753	84.19
318.983	89.19
319.212	98.19
319.441	101.19
319.67	87.19
319.9	97.19
320.129	94.19
320.358	87.19
320.587	89.19
320.816	100.19
321.046	99.19
321.275	104.19
321.504	101.19
321.733	112.19
321.962	84.19
322.191	87.19
322.42	99.19
322.649	89.19
322.878	93.19
323.108	98.19
323.337	90.19
323.566	101.19
323.795	143.19
324.024	183.19
324.253	318.19
324.482	653.19
324.71	1294.19
324.939	1711.19
325.168	629.19
325.397	206.19
325.626	129.19
325.855	134.19
326.084	117.19
326.313	129.19
326.542	135.19
326.77	193.19
326.999	382.19
327.228	759.19
327.457	1338.19
327.686	1055.19
327.914	308.19
328.143	159.19
328.372	133.19
328.6	105.19
328.829	119.19
329.058	107.19
329.287	97.19
329.515	104.19
329.744	97.19
329.972	92.19
330.201	95.19
330.43	91.19
330.658	105.19
330.887	104.19
331.115	105.19
331.344	104.19
331.572	95.19
331.801	113.19
332.03	84.19
332.258	82.19
332.486	95.19
332.715	104.19
332.943	83.19
333.172	93.19
333.4	92.19
333.629	109.19
333.857	101.19
334.085	92.19
334.314	87.19
334.542	102.19
334.771	99.19
334.999	91.19
335.227	102.19
335.455	84.19
335.684	94.19
335.912	82.19
336.14	101.19
336.369	105.19
336.597	99.19
336.825	95.19
337.053	93.19
337.281	87.19
337.51	86.19
337.738	94.19
337.966	97.19
338.194	99.19
338.422	93.19
338.65	88.19
338.878	79.19
339.106	89.19
339.334	101.19
339.562	94.19
339.79	102.19
340.018	78.19
340.246	83.19
340.474	80.19
340.702	100.19
340.93	88.19
341.158	83.19
341.386	101.19
341.614	96.19
341.842	100.19
342.07	84.19
342.298	98.19
342.526	85.19
342.754	84.19
342.981	85.19
343.209	93.19
343.437	84.19
343.665	86.19
343.893	87.19
344.12	93.19
344.348	83.19
344.576	89.19
344.804	84.19
345.031	93.19
345.259	92.19
345.487	93.19
345.714	95.19
345.942	91.19
346.17	87.19
346.397	93.19
346.625	89.19
346.853	101.19
347.08	84.19
347.308	85.19
347.535	86.19
347.763	98.19
347.99	92.19
348.218	99.19
348.445	87.19
348.673	96.19
348.9	93.19
349.128	97.19
349.355	89.19
349.583	95.19
349.81	105.19
350.037	77.19
350.265	94.19
350.492	79.19
350.72	101.19
350.947	87.19
351.174	94.19
351.402	101.19
351.629	97.19
351.856	101.19
352.083	97.19
352.311	101.19
352.538	97.19
352.765	88.19
352.992	112.19
353.22	105.19
353.447	106.19
353.674	105.19
353.901	81.19
354.128	97.19
354.355	85.19
354.583	92.19
354.81	96.19
355.037	101.19
355.264	110.19
355.491	105.19
355.718	100.19
355.945	86.19
356.172	111.19
356.399	105.19
356.626	106.19
356.853	104.19
357.08	94.19
357.307	88.19
357.534	96.19
357.761	105.19
357.988	107.19
358.215	104.19
358.441	109.19
358.668	94.19
358.895	77.19
359.122	86.19
359.349	89.19
359.576	99.19
359.802	105.19
360.029	93.19
360.256	101.19
360.483	85.19
360.709	89.19
360.936	91.19
361.163	85.19
361.39	91.19
361.616	94.19
361.843	93.19
362.07	90.19
362.296	88.19
362.523	91.19
362.749	99.19
362.976	86.19
363.203	83.19
363.429	77.19
363.656	92.19
363.882	86.19
364.109	92.19
364.335	97.19
364.562	100.19
364.788	91.19
365.015	93.19
365.241	81.19
365.468	91.19
365.694	98.19
365.92	94.19
366.147	89.19
366.373	71.19
366.599	84.19
366.826	88.19
367.052	94.19
367.278	93.19
367.505	86.19
367.731	81.19
367.957	83.19
368.184	106.19
368.41	101.19
368.636	104.19
368.862	95.19
369.089	100.19
369.315	91.19
369.541	92.19
369.767	92.19
369.993	82.19
370.219	97.19
370.445	90.19
370.672	91.19
370.898	85.19
371.124	97.19
371.35	84.19
371.576	84.19
371.802	84.19
372.028	86.19
372.254	99.19
372.48	92.19
372.706	83.19
372.932	89.19
373.158	87.19
373.384	100.19
373.61	91.19
373.835	99.19
374.061	109.19
374.287	76.19
374.513	94.19
374.739	84.19
374.965	78.19
375.191	100.19
375.416	79.19
375.642	90.19
375.868	104.19
376.094	102.19
376.319	89.19
376.545	89.19
376.771	97.19
376.997	90.19
377.222	85.19
377.448	107.19
377.674	76.19
377.899	89.19
378.125	91.19
378.35	89.19
378.576	104.19
378.802	96.19
379.027	96.19
379.253	102.19
379.478	85.19
379.704	91.19
379.929	85.19
380.155	94.19
380.38	84.19
380.606	89.19
380.831	92.19
381.057	96.19
381.282	95.19
381.507	102.19
381.733	94.19
381.958	119.19
382.184	107.19
382.409	99.19
382.634	107.19
382.86	109.19
383.085	109.19
383.31	99.19
383.535	114.19
383.761	102.19
383.986	103.19
384.211	103.19
384.436	111.19
384.662	112.19
384.887	106.19
385.112	105.19
385.337	97.19
385.562	109.19
385.787	112.19
386.013	111.19
386.238	112.19
386.463	108.19
386.688	114.19
386.913	115.19
387.138	111.19
387.363	91.19
387.588	106.19
387.813	104.19
388.038	106.19
388.263	131.19
388.488	118.19
388.713	91.19
388.938	101.19
389.163	105.19
389.387	88.19
389.612	99.19
389.837	86.19
390.062	91.19
390.287	95.19
390.512	87.19
390.736	82.19
390.961	88.19
391.186	97.19
391.411	100.19
391.636	95.19
391.86	90.19
392.085	93.19
392.31	79.19
392.534	82.19
392.759	86.19
392.984	86.19
393.208	95.19
393.433	107.19
393.658	113.19
393.882	86.19
394.107	87.19
394.331	91.19
394.556	94.19
394.78	105.19
395.005	83.19
395.229	96.19
395.454	94.19
395.678	82.19
395.903	93.19
396.127	105.19
396.352	84.19
396.576	93.19
396.801	97.19
397.025	94.19
397.249	85.19
397.474	85.19
397.698	93.19
397.922	91.19
398.147	90.19
398.371	86.19
398.595	95.19
398.82	90.19
399.044	96.19
399.268	81.19
399.492	100.19
399.717	86.19
399.941	90.19
400.165	91.19
400.389	97.19
400.613	91.19
400.837	98.19
401.062	98.19
401.286	89.19
401.51	84.19
401.734	88.19
401.958	100.19
402.182	112.19
402.406	95.19
402.63	99.19
402.854	92.19
403.078	78.19
403.302	98.19
403.526	94.19
403.75	88.19
403.974	91.19
404.198	78.19
404.422	81.19
404.645	83.19
404.869	90.19
405.093	80.19
405.317	84.19
405.541	98.19
405.765	95.19
405.988	115.19
406.212	150.19
406.436	177.19
406.66	131.19
406.883	91.19
407.107	95.19
407.331	92.19
407.555	93.19
407.778	95.19
408.002	94.19
408.226	97.19
408.449	84.19
408.673	91.19
408.896	104.19
409.12	99.19
409.344	92.19
409.567	91.19
409.791	95.19
410.014	85.19
410.238	91.19
410.461	90.19
410.685	113.19
410.908	102.19
411.132	107.19
411.355	101.19
411.578	94.19
411.802	92.19
412.025	95.19
412.249	98.19
412.472	98.19
412.695	90.19
412.919	91.19
413.142	98.19
413.365	87.19
413.589	82.19
413.812	95.19
414.035	95.19
414.258	97.19
414.482	89.19
414.705	83.19
414.928	95.19
415.151	100.19
415.374	111.19
415.597	90.19
415.821	94.19
416.044	92.19
416.267	73.19
416.49	89.19
416.713	77.19
416.936	89.19
417.159	93.19
417.382	89.19
417.605	77.19
417.828	100.19
418.051	94.19
418.274	93.19
418.497	76.19
418.72	88.19
418.943	92.19
419.166	90.19
419.389	100.19
419.611	85.19
419.834	85.19
420.057	89.19
420.28	93.19
420.503	104.19
420.726	77.19
420.948	85.19
421.171	98.19
421.394	87.19
421.617	81.19
421.839	94.19
422.062	91.19
422.285	93.19
422.507	109.19
422.73	107.19
422.953	95.19
423.175	95.19
423.398	100.19
423.621	91.19
423.843	92.19
424.066	87.19
424.288	84.19
424.511	92.19
424.733	92.19
424.956	104.19
425.178	99.19
425.401	105.19
425.623	93.19
425.846	88.19
426.068	93.19
426.291	97.19
426.513	101.19
426.735	99.19
426.958	98.19
427.18	85.19
427.402	121.19
427.625	135.19
427.847	108.19
428.069	91.19
428.292	86.19
428.514	83.19
428.736	85.19
428.958	96.19
429.181	85.19
429.403	95.19
429.625	91.19
429.847	99.19
430.069	89.19
430.292	91.19
430.514	87.19
430.736	94.19
430.958	88.19
431.18	86.19
431.402	93.19
431.624	72.19
431.846	87.19
432.068	87.19
432.29	82.19
432.512	90.19
432.734	105.19
432.956	85.19
433.178	99.19
433.4	91.19
433.622	72.19
433.844	77.19
434.066	91.19
434.287	95.19
434.509	102.19
434.731	94.19
434.953	78.19
435.175	94.19
435.397	110.19
435.618	100.19
435.84	87.19
436.062	106.19
436.284	106.19
436.505	92.19
436.727	102.19
436.949	91.19
437.17	92.19
437.392	84.19
437.614	89.19
437.835	91.19
438.057	98.19
438.278	91.19
438.5	94.19
438.721	114.19
438.943	96.19
439.165	86.19
439.386	98.19
439.608	95.19
439.829	98.19
440.05	109.19
440.272	135.19
440.493	92.19
440.715	85.19
440.936	89.19
441.158	78.19
441.379	95.19
441.6	101.19
441.822	103.19
442.043	85.19
442.264	107.19
442.486	98.19
442.707	107.19
442.928	94.19
443.149	99.19
443.371	101.19
443.592	91.19
443.813	101.19
444.034	86.19
444.255	88.19
444.476	82.19
444.698	98.19
444.919	94.19
445.14	115.19
445.361	111.19
445.582	104.19
445.803	130.19
446.024	120.19
446.245	114.19
446.466	101.19
446.687	85.19
446.908	98.19
447.129	80.19
447.35	100.19
447.571	93.19
447.792	92.19
448.013	88.19
448.234	112.19
448.455	96.19
448.675	99.19
448.896	101.19
449.117	93.19
449.338	90.19
449.559	114.19
449.779	112.19
450	96.19
450.221	93.19
450.442	84.19
450.662	81.19
450.883	84.19
451.104	105.19
451.324	90.19
451.545	88.19
451.766	87.19
451.986	87.19
452.207	86.19
452.428	77.19
452.648	101.19
452.869	95.19
453.089	101.19
453.31	95.19
453.53	84.19
453.751	87.19
453.971	86.19
454.192	101.19
454.412	80.19
454.633	94.19
454.853	86.19
455.073	93.19
455.294	94.19
455.514	91.19
455.734	88.19
455.955	90.19
456.175	77.19
456.395	73.19
456.616	91.19
456.836	96.19
457.056	101.19
457.276	79.19
457.497	92.19
457.717	93.19
457.937	96.19
458.157	88.19
458.377	100.19
458.598	99.19
458.818	123.19
459.038	139.19
459.258	105.19
459.478	79.19
459.698	94.19
459.918	87.19
460.138	95.19
460.358	91.19
460.578	90.19
460.798	75.19
461.018	90.19
461.238	91.19
461.458	87.19
461.678	98.19
461.898	94.19
462.118	74.19
462.338	86.19
462.558	83.19
462.777	87.19
462.997	85.19
463.217	87.19
463.437	89.19
463.657	72.19
463.876	97.19
464.096	90.19
464.316	81.19
464.536	93.19
464.755	90.19
464.975	102.19
465.195	121.19
465.414	133.19
465.634	98.19
465.854	97.19
466.073	85.19
466.293	92.19
466.512	93.19
466.732	95.19
466.951	84.19
467.171	96.19
467.391	93.19
467.61	91.19
467.829	92.19
468.049	93.19
468.268	96.19
468.488	81.19
468.707	89.19
468.927	89.19
469.146	80.19
469.365	79.19
469.585	95.19
469.804	91.19
470.023	98.19
470.243	98.19
470.462	84.19
470.681	108.19
470.901	89.19
471.12	89.19
471.339	86.19
471.558	83.19
471.777	79.19
471.997	89.19
472.216	88.19
472.435	96.19
472.654	94.19
472.873	90.19
473.092	70.19
473.311	99.19
473.53	88.19
473.749	88.19
473.968	93.19
474.187	97.19
474.406	102.19
474.625	92.19
474.844	88.19
475.063	101.19
475.282	89.19
475.501	88.19
475.72	102.19
475.939	103.19
476.158	90.19
476.377	85.19
476.596	82.19
476.814	85.19
477.033	86.19
477.252	98.19
477.471	85.19
477.69	95.19
477.908	79.19
478.127	85.19
478.346	79.19
478.564	98.19
478.783	99.19
479.002	88.19
479.22	86.19
479.439	91.19
479.658	91.19
479.876	74.19
480.095	91.19
480.313	102.19
480.532	79.19
480.751	87.19
480.969	97.19
481.188	96.19
481.406	85.19
481.624	95.19
481.843	84.19
482.061	93.19
482.28	97.19
482.498	83.19
482.717	77.19
482.935	88.19
483.153	99.19
483.372	81.19
483.59	92.19
483.808	88.19
484.027	94.19
484.245	90.19
484.463	90.19
484.681	100.19
484.9	91.19
485.118	89.19
485.336	116.19
485.554	109.19
485.772	108.19
485.99	96.19
486.209	105.19
486.427	98.19
486.645	99.19
486.863	113.19
487.081	94.19
487.299	99.19
487.517	87.19
487.735	89.19
487.953	106.19
488.171	93.19
488.389	106.19
488.607	90.19
488.825	83.19
489.043	88.19
489.261	94.19
489.479	90.19
489.696	100.19
489.914	84.19
490.132	88.19
490.35	91.19
490.568	102.19
490.786	103.19
491.003	102.19
491.221	104.19
491.439	94.19
491.657	92.19
491.874	87.19
492.092	95.19
492.31	71.19
492.527	79.19
492.745	76.19
492.963	99.19
493.18	93.19
493.398	94.19
493.615	91.19
493.833	93.19
494.05	74.19
494.268	71.19
494.485	90.19
494.703	92.19
494.92	97.19
495.138	91.19
495.355	100.19
495.573	84.19
495.79	99.19
496.008	93.19
496.225	89.19
496.442	92.19
496.66	93.19
496.877	85.19
497.094	105.19
497.312	95.19
497.529	89.19
497.746	86.19
497.963	95.19
498.181	86.19
498.398	92.19
498.615	110.19
498.832	113.19
499.049	105.19
499.267	98.19
499.484	91.19
499.701	83.19
499.918	104.19
500.135	86.19
500.352	90.19
500.569	95.19
500.786	103.19
501.003	112.19
501.22	85.19
501.437	102.19
501.654	91.19
501.871	101.19
502.088	83.19
502.305	82.19
502.522	81.19
502.739	89.19
502.956	83.19
503.172	89.19
503.389	91.19
503.606	88.19
503.823	94.19
504.04	95.19
504.256	84.19
504.473	81.19
504.69	85.19
504.907	75.19
505.123	81.19
505.34	89.19
505.557	92.19
505.773	108.19
505.99	89.19
506.207	84.19
506.423	78.19
506.64	91.19
506.856	95.19
507.073	95.19
507.289	92.19
507.506	86.19
507.722	114.19
507.939	109.19
508.155	89.19
508.372	92.19
508.588	79.19
508.805	83.19
509.021	109.19
509.238	101.19
509.454	99.19
509.67	101.19
509.887	120.19
510.103	92.19
510.319	173.19
510.536	542.19
510.752	1581.19
510.968	462.19
511.184	127.19
511.401	84.19
511.617	95.19
511.833	101.19
512.049	95.19
512.265	95.19
512.481	83.19
512.698	92.19
512.914	90.19
513.13	82.19
513.346	94.19
513.562	81.19
513.778	91.19
513.994	118.19
514.21	102.19
514.426	112.19
514.642	121.19
514.858	113.19
515.074	142.19
515.29	307.19
515.506	915.19
515.721	364.19
515.937	116.19
516.153	114.19
516.369	95.19
