Data from Uncirc_2000_H10_HRD10591_00041.txt Node
Date: Wed Jan 03 10:48:25 EST 2024
User: Yrep
Spectrometer: HR+D1059
Trigger mode: 1
Integration Time (sec): 1.000000E-1
Scans to average: 1
Electric dark correction enabled: true
Nonlinearity correction enabled: false
Boxcar width: 0
XAxis mode: Wavelengths
Number of Pixels in Spectrum: 2048
>>>>>Begin Spectral Data<<<<<
223.165	-17.88
223.4	-17.88
223.635	-17.88
223.869	-29.88
224.104	-25.88
224.338	-8.88
224.573	2.12
224.808	-9.88
225.042	-8.88
225.277	-18.88
225.511	2.12
225.746	11.12
225.98	14.12
226.215	6.12
226.449	13.12
226.683	14.12
226.918	28.12
227.152	29.12
227.387	32.12
227.621	42.12
227.856	35.12
228.09	32.12
228.324	56.12
228.559	67.12
228.793	58.12
229.027	67.12
229.262	65.12
229.496	64.12
229.73	78.12
229.964	74.12
230.199	75.12
230.433	79.12
230.667	87.12
230.901	75.12
231.136	87.12
231.37	86.12
231.604	69.12
231.838	75.12
232.072	78.12
232.306	88.12
232.541	80.12
232.775	105.12
233.009	82.12
233.243	84.12
233.477	86.12
233.711	84.12
233.945	85.12
234.179	97.12
234.413	94.12
234.647	86.12
234.881	77.12
235.115	91.12
235.349	78.12
235.583	84.12
235.817	83.12
236.051	83.12
236.285	81.12
236.519	75.12
236.753	71.12
236.987	99.12
237.221	88.12
237.455	82.12
237.689	71.12
237.922	86.12
238.156	76.12
238.39	78.12
238.624	79.12
238.858	78.12
239.091	84.12
239.325	78.12
239.559	73.12
239.793	81.12
240.027	77.12
240.26	70.12
240.494	75.12
240.728	85.12
240.961	84.12
241.195	84.12
241.429	85.12
241.662	83.12
241.896	86.12
242.13	61.12
242.363	89.12
242.597	84.12
242.83	69.12
243.064	81.12
243.298	83.12
243.531	77.12
243.765	87.12
243.998	76.12
244.232	85.12
244.465	96.12
244.699	78.12
244.932	77.12
245.166	73.12
245.399	87.12
245.633	74.12
245.866	82.12
246.099	90.12
246.333	88.12
246.566	100.12
246.8	82.12
247.033	84.12
247.266	72.12
247.5	75.12
247.733	82.12
247.966	76.12
248.2	66.12
248.433	91.12
248.666	74.12
248.899	74.12
249.133	82.12
249.366	95.12
249.599	93.12
249.832	77.12
250.066	78.12
250.299	85.12
250.532	86.12
250.765	88.12
250.998	82.12
251.231	87.12
251.465	90.12
251.698	78.12
251.931	83.12
252.164	93.12
252.397	81.12
252.63	73.12
252.863	80.12
253.096	89.12
253.329	92.12
253.562	85.12
253.795	96.12
254.028	86.12
254.261	76.12
254.494	101.12
254.727	80.12
254.96	86.12
255.193	81.12
255.426	96.12
255.659	70.12
255.892	71.12
256.124	83.12
256.357	77.12
256.59	83.12
256.823	81.12
257.056	77.12
257.289	72.12
257.521	76.12
257.754	78.12
257.987	84.12
258.22	98.12
258.452	83.12
258.685	67.12
258.918	85.12
259.151	94.12
259.383	79.12
259.616	85.12
259.849	95.12
260.081	92.12
260.314	99.12
260.547	86.12
260.779	87.12
261.012	84.12
261.244	84.12
261.477	81.12
261.71	86.12
261.942	102.12
262.175	106.12
262.407	93.12
262.64	82.12
262.872	99.12
263.105	89.12
263.337	88.12
263.57	76.12
263.802	74.12
264.035	89.12
264.267	93.12
264.499	79.12
264.732	97.12
264.964	88.12
265.197	76.12
265.429	86.12
265.661	85.12
265.894	77.12
266.126	83.12
266.358	84.12
266.591	78.12
266.823	76.12
267.055	78.12
267.287	87.12
267.52	85.12
267.752	107.12
267.984	92.12
268.216	78.12
268.448	95.12
268.681	88.12
268.913	91.12
269.145	89.12
269.377	82.12
269.609	95.12
269.841	77.12
270.073	91.12
270.306	86.12
270.538	88.12
270.77	81.12
271.002	93.12
271.234	86.12
271.466	91.12
271.698	75.12
271.93	87.12
272.162	87.12
272.394	87.12
272.626	82.12
272.858	98.12
273.09	105.12
273.322	91.12
273.553	93.12
273.785	91.12
274.017	96.12
274.249	92.12
274.481	95.12
274.713	91.12
274.945	90.12
275.176	82.12
275.408	82.12
275.64	84.12
275.872	89.12
276.104	100.12
276.335	90.12
276.567	84.12
276.799	87.12
277.031	92.12
277.262	86.12
277.494	86.12
277.726	85.12
277.957	78.12
278.189	78.12
278.421	93.12
278.652	95.12
278.884	88.12
279.115	95.12
279.347	83.12
279.579	82.12
279.81	89.12
280.042	96.12
280.273	91.12
280.505	100.12
280.736	91.12
280.968	96.12
281.199	76.12
281.431	102.12
281.662	88.12
281.894	98.12
282.125	86.12
282.356	107.12
282.588	133.12
282.819	122.12
283.051	91.12
283.282	82.12
283.513	93.12
283.745	87.12
283.976	98.12
284.207	82.12
284.439	95.12
284.67	93.12
284.901	93.12
285.132	100.12
285.364	92.12
285.595	75.12
285.826	87.12
286.057	98.12
286.288	86.12
286.52	101.12
286.751	96.12
286.982	78.12
287.213	87.12
287.444	99.12
287.675	97.12
287.906	85.12
288.138	84.12
288.369	103.12
288.6	93.12
288.831	91.12
289.062	106.12
289.293	95.12
289.524	92.12
289.755	96.12
289.986	93.12
290.217	93.12
290.448	84.12
290.679	85.12
290.91	79.12
291.141	102.12
291.371	91.12
291.602	88.12
291.833	85.12
292.064	83.12
292.295	92.12
292.526	84.12
292.757	92.12
292.987	91.12
293.218	88.12
293.449	99.12
293.68	81.12
293.91	92.12
294.141	99.12
294.372	92.12
294.603	100.12
294.833	86.12
295.064	86.12
295.295	94.12
295.525	107.12
295.756	101.12
295.987	113.12
296.217	140.12
296.448	130.12
296.679	95.12
296.909	93.12
297.14	83.12
297.37	90.12
297.601	82.12
297.831	86.12
298.062	83.12
298.292	94.12
298.523	81.12
298.753	94.12
298.984	86.12
299.214	101.12
299.445	97.12
299.675	109.12
299.905	87.12
300.136	107.12
300.366	86.12
300.597	86.12
300.827	111.12
301.057	98.12
301.288	98.12
301.518	94.12
301.748	92.12
301.979	82.12
302.209	86.12
302.439	104.12
302.669	107.12
302.9	93.12
303.13	99.12
303.36	87.12
303.59	101.12
303.82	106.12
304.051	100.12
304.281	103.12
304.511	99.12
304.741	80.12
304.971	84.12
305.201	93.12
305.431	93.12
305.661	86.12
305.891	92.12
306.121	83.12
306.352	100.12
306.582	93.12
306.812	88.12
307.042	94.12
307.272	94.12
307.502	98.12
307.731	103.12
307.961	92.12
308.191	86.12
308.421	95.12
308.651	93.12
308.881	98.12
309.111	98.12
309.341	88.12
309.571	110.12
309.8	101.12
310.03	86.12
310.26	102.12
310.49	100.12
310.72	96.12
310.949	112.12
311.179	85.12
311.409	86.12
311.639	86.12
311.868	102.12
312.098	103.12
312.328	106.12
312.557	111.12
312.787	102.12
313.017	104.12
313.246	95.12
313.476	87.12
313.706	92.12
313.935	104.12
314.165	95.12
314.394	96.12
314.624	115.12
314.853	104.12
315.083	95.12
315.312	92.12
315.542	98.12
315.771	97.12
316.001	85.12
316.23	93.12
316.46	95.12
316.689	89.12
316.919	88.12
317.148	84.12
317.377	94.12
317.607	77.12
317.836	96.12
318.065	92.12
318.295	109.12
318.524	86.12
318.753	111.12
318.983	96.12
319.212	100.12
319.441	100.12
319.67	111.12
319.9	103.12
320.129	94.12
320.358	91.12
320.587	102.12
320.816	91.12
321.046	95.12
321.275	101.12
321.504	101.12
321.733	96.12
321.962	103.12
322.191	101.12
322.42	114.12
322.649	108.12
322.878	111.12
323.108	112.12
323.337	119.12
323.566	127.12
323.795	147.12
324.024	207.12
324.253	383.12
324.482	774.12
324.71	1597.12
324.939	2146.12
325.168	786.12
325.397	237.12
325.626	158.12
325.855	112.12
326.084	114.12
326.313	139.12
326.542	141.12
326.77	234.12
326.999	450.12
327.228	899.12
327.457	1632.12
327.686	1271.12
327.914	362.12
328.143	182.12
328.372	132.12
328.6	130.12
328.829	128.12
329.058	112.12
329.287	131.12
329.515	107.12
329.744	96.12
329.972	87.12
330.201	100.12
330.43	103.12
330.658	117.12
330.887	127.12
331.115	114.12
331.344	99.12
331.572	101.12
331.801	100.12
332.03	96.12
332.258	102.12
332.486	100.12
332.715	93.12
332.943	98.12
333.172	104.12
333.4	94.12
333.629	107.12
333.857	126.12
334.085	107.12
334.314	89.12
334.542	98.12
334.771	98.12
334.999	95.12
335.227	101.12
335.455	103.12
335.684	96.12
335.912	106.12
336.14	84.12
336.369	93.12
336.597	95.12
336.825	102.12
337.053	86.12
337.281	88.12
337.51	74.12
337.738	93.12
337.966	85.12
338.194	87.12
338.422	102.12
338.65	95.12
338.878	100.12
339.106	91.12
339.334	91.12
339.562	93.12
339.79	89.12
340.018	90.12
340.246	79.12
340.474	103.12
340.702	100.12
340.93	96.12
341.158	86.12
341.386	111.12
341.614	102.12
341.842	90.12
342.07	84.12
342.298	92.12
342.526	91.12
342.754	94.12
342.981	96.12
343.209	88.12
343.437	104.12
343.665	93.12
343.893	92.12
344.12	103.12
344.348	92.12
344.576	90.12
344.804	88.12
345.031	89.12
345.259	93.12
345.487	97.12
345.714	100.12
345.942	79.12
346.17	93.12
346.397	87.12
346.625	84.12
346.853	94.12
347.08	89.12
347.308	95.12
347.535	88.12
347.763	95.12
347.99	102.12
348.218	99.12
348.445	96.12
348.673	101.12
348.9	95.12
349.128	95.12
349.355	79.12
349.583	90.12
349.81	103.12
350.037	90.12
350.265	101.12
350.492	92.12
350.72	116.12
350.947	97.12
351.174	116.12
351.402	113.12
351.629	104.12
351.856	112.12
352.083	92.12
352.311	96.12
352.538	113.12
352.765	108.12
352.992	111.12
353.22	116.12
353.447	107.12
353.674	102.12
353.901	96.12
354.128	98.12
354.355	111.12
354.583	84.12
354.81	93.12
355.037	94.12
355.264	85.12
355.491	112.12
355.718	93.12
355.945	107.12
356.172	93.12
356.399	97.12
356.626	109.12
356.853	98.12
357.08	95.12
357.307	90.12
357.534	92.12
357.761	91.12
357.988	107.12
358.215	101.12
358.441	88.12
358.668	101.12
358.895	96.12
359.122	89.12
359.349	78.12
359.576	94.12
359.802	106.12
360.029	118.12
360.256	113.12
360.483	104.12
360.709	93.12
360.936	96.12
361.163	87.12
361.39	83.12
361.616	92.12
361.843	80.12
362.07	95.12
362.296	90.12
362.523	100.12
362.749	92.12
362.976	100.12
363.203	90.12
363.429	100.12
363.656	94.12
363.882	83.12
364.109	94.12
364.335	102.12
364.562	95.12
364.788	88.12
365.015	93.12
365.241	92.12
365.468	105.12
365.694	97.12
365.92	89.12
366.147	96.12
366.373	100.12
366.599	93.12
366.826	96.12
367.052	91.12
367.278	94.12
367.505	83.12
367.731	101.12
367.957	102.12
368.184	107.12
368.41	83.12
368.636	105.12
368.862	105.12
369.089	113.12
369.315	98.12
369.541	87.12
369.767	83.12
369.993	97.12
370.219	102.12
370.445	94.12
370.672	87.12
370.898	77.12
371.124	98.12
371.35	88.12
371.576	85.12
371.802	89.12
372.028	86.12
372.254	86.12
372.48	85.12
372.706	116.12
372.932	91.12
373.158	88.12
373.384	91.12
373.61	95.12
373.835	80.12
374.061	84.12
374.287	94.12
374.513	89.12
374.739	85.12
374.965	100.12
375.191	87.12
375.416	87.12
375.642	80.12
375.868	88.12
376.094	96.12
376.319	90.12
376.545	86.12
376.771	103.12
376.997	93.12
377.222	92.12
377.448	96.12
377.674	99.12
377.899	96.12
378.125	93.12
378.35	86.12
378.576	77.12
378.802	108.12
379.027	100.12
379.253	98.12
379.478	91.12
379.704	95.12
379.929	102.12
380.155	104.12
380.38	108.12
380.606	92.12
380.831	92.12
381.057	87.12
381.282	72.12
381.507	92.12
381.733	107.12
381.958	85.12
382.184	91.12
382.409	91.12
382.634	100.12
382.86	111.12
383.085	88.12
383.31	103.12
383.535	102.12
383.761	94.12
383.986	110.12
384.211	100.12
384.436	102.12
384.662	108.12
384.887	94.12
385.112	94.12
385.337	93.12
385.562	97.12
385.787	84.12
386.013	100.12
386.238	107.12
386.463	103.12
386.688	109.12
386.913	82.12
387.138	96.12
387.363	114.12
387.588	107.12
387.813	98.12
388.038	106.12
388.263	120.12
388.488	107.12
388.713	98.12
388.938	102.12
389.163	100.12
389.387	98.12
389.612	95.12
389.837	102.12
390.062	105.12
390.287	97.12
390.512	102.12
390.736	83.12
390.961	92.12
391.186	88.12
391.411	96.12
391.636	91.12
391.86	96.12
392.085	92.12
392.31	92.12
392.534	91.12
392.759	77.12
392.984	94.12
393.208	87.12
393.433	89.12
393.658	90.12
393.882	86.12
394.107	82.12
394.331	91.12
394.556	81.12
394.78	90.12
395.005	96.12
395.229	90.12
395.454	90.12
395.678	83.12
395.903	91.12
396.127	83.12
396.352	93.12
396.576	90.12
396.801	105.12
397.025	84.12
397.249	87.12
397.474	95.12
397.698	94.12
397.922	70.12
398.147	80.12
398.371	84.12
398.595	87.12
398.82	85.12
399.044	88.12
399.268	96.12
399.492	87.12
399.717	92.12
399.941	85.12
400.165	80.12
400.389	93.12
400.613	94.12
400.837	92.12
401.062	84.12
401.286	84.12
401.51	87.12
401.734	83.12
401.958	99.12
402.182	113.12
402.406	142.12
402.63	114.12
402.854	107.12
403.078	104.12
403.302	83.12
403.526	87.12
403.75	93.12
403.974	91.12
404.198	90.12
404.422	91.12
404.645	87.12
404.869	86.12
405.093	90.12
405.317	101.12
405.541	110.12
405.765	95.12
405.988	118.12
406.212	174.12
406.436	192.12
406.66	131.12
406.883	93.12
407.107	82.12
407.331	79.12
407.555	100.12
407.778	99.12
408.002	83.12
408.226	86.12
408.449	80.12
408.673	85.12
408.896	96.12
409.12	99.12
409.344	91.12
409.567	83.12
409.791	96.12
410.014	97.12
410.238	103.12
410.461	102.12
410.685	85.12
410.908	95.12
411.132	98.12
411.355	81.12
411.578	86.12
411.802	100.12
412.025	86.12
412.249	96.12
412.472	91.12
412.695	89.12
412.919	90.12
413.142	89.12
413.365	93.12
413.589	96.12
413.812	92.12
414.035	106.12
414.258	93.12
414.482	96.12
414.705	99.12
414.928	88.12
415.151	95.12
415.374	93.12
415.597	86.12
415.821	87.12
416.044	89.12
416.267	94.12
416.49	78.12
416.713	106.12
416.936	101.12
417.159	96.12
417.382	89.12
417.605	94.12
417.828	93.12
418.051	81.12
418.274	76.12
418.497	91.12
418.72	86.12
418.943	100.12
419.166	94.12
419.389	85.12
419.611	89.12
419.834	84.12
420.057	99.12
420.28	95.12
420.503	92.12
420.726	95.12
420.948	82.12
421.171	82.12
421.394	90.12
421.617	94.12
421.839	94.12
422.062	100.12
422.285	94.12
422.507	98.12
422.73	104.12
422.953	107.12
423.175	102.12
423.398	84.12
423.621	109.12
423.843	95.12
424.066	82.12
424.288	82.12
424.511	99.12
424.733	92.12
424.956	110.12
425.178	97.12
425.401	94.12
425.623	99.12
425.846	84.12
426.068	86.12
426.291	100.12
426.513	78.12
426.735	83.12
426.958	82.12
427.18	108.12
427.402	153.12
427.625	148.12
427.847	122.12
428.069	110.12
428.292	82.12
428.514	91.12
428.736	96.12
428.958	97.12
429.181	72.12
429.403	87.12
429.625	95.12
429.847	99.12
430.069	96.12
430.292	103.12
430.514	74.12
430.736	88.12
430.958	92.12
431.18	90.12
431.402	95.12
431.624	85.12
431.846	69.12
432.068	76.12
432.29	82.12
432.512	85.12
432.734	88.12
432.956	94.12
433.178	104.12
433.4	108.12
433.622	85.12
433.844	89.12
434.066	90.12
434.287	81.12
434.509	94.12
434.731	84.12
434.953	85.12
435.175	100.12
435.397	92.12
435.618	100.12
435.84	103.12
436.062	118.12
436.284	117.12
436.505	91.12
436.727	98.12
436.949	94.12
437.17	106.12
437.392	87.12
437.614	91.12
437.835	91.12
438.057	107.12
438.278	99.12
438.5	107.12
438.721	113.12
438.943	96.12
439.165	80.12
439.386	90.12
439.608	99.12
439.829	95.12
440.05	126.12
440.272	131.12
440.493	110.12
440.715	98.12
440.936	93.12
441.158	91.12
441.379	90.12
441.6	80.12
441.822	85.12
442.043	82.12
442.264	101.12
442.486	101.12
442.707	76.12
442.928	101.12
443.149	122.12
443.371	123.12
443.592	109.12
443.813	109.12
444.034	110.12
444.255	94.12
444.476	84.12
444.698	97.12
444.919	86.12
445.14	128.12
445.361	103.12
445.582	97.12
445.803	117.12
446.024	133.12
446.245	145.12
446.466	118.12
446.687	80.12
446.908	84.12
447.129	106.12
447.35	93.12
447.571	91.12
447.792	92.12
448.013	102.12
448.234	107.12
448.455	113.12
448.675	112.12
448.896	104.12
449.117	90.12
449.338	106.12
449.559	108.12
449.779	113.12
450	90.12
450.221	99.12
450.442	92.12
450.662	92.12
450.883	105.12
451.104	102.12
451.324	86.12
451.545	91.12
451.766	94.12
451.986	78.12
452.207	86.12
452.428	104.12
452.648	103.12
452.869	111.12
453.089	107.12
453.31	109.12
453.53	93.12
453.751	96.12
453.971	108.12
454.192	111.12
454.412	92.12
454.633	100.12
454.853	76.12
455.073	84.12
455.294	91.12
455.514	91.12
455.734	86.12
455.955	84.12
456.175	74.12
456.395	84.12
456.616	83.12
456.836	104.12
457.056	92.12
457.276	107.12
457.497	88.12
457.717	83.12
457.937	88.12
458.157	92.12
458.377	92.12
458.598	91.12
458.818	116.12
459.038	142.12
459.258	108.12
459.478	80.12
459.698	100.12
459.918	86.12
460.138	94.12
460.358	88.12
460.578	100.12
460.798	91.12
461.018	78.12
461.238	79.12
461.458	98.12
461.678	79.12
461.898	94.12
462.118	100.12
462.338	92.12
462.558	83.12
462.777	111.12
462.997	93.12
463.217	99.12
463.437	97.12
463.657	95.12
463.876	89.12
464.096	86.12
464.316	99.12
464.536	93.12
464.755	95.12
464.975	103.12
465.195	147.12
465.414	129.12
465.634	98.12
465.854	90.12
466.073	86.12
466.293	80.12
466.512	101.12
466.732	103.12
466.951	91.12
467.171	106.12
467.391	108.12
467.61	94.12
467.829	90.12
468.049	89.12
468.268	73.12
468.488	88.12
468.707	67.12
468.927	87.12
469.146	88.12
469.365	87.12
469.585	93.12
469.804	98.12
470.023	88.12
470.243	91.12
470.462	109.12
470.681	108.12
470.901	86.12
471.12	94.12
471.339	100.12
471.558	93.12
471.777	89.12
471.997	91.12
472.216	93.12
472.435	94.12
472.654	79.12
472.873	99.12
473.092	94.12
473.311	93.12
473.53	95.12
473.749	93.12
473.968	101.12
474.187	97.12
474.406	88.12
474.625	87.12
474.844	85.12
475.063	83.12
475.282	97.12
475.501	90.12
475.72	93.12
475.939	101.12
476.158	96.12
476.377	91.12
476.596	87.12
476.814	96.12
477.033	95.12
477.252	89.12
477.471	89.12
477.69	87.12
477.908	98.12
478.127	82.12
478.346	95.12
478.564	89.12
478.783	96.12
479.002	96.12
479.22	94.12
479.439	104.12
479.658	96.12
479.876	94.12
480.095	100.12
480.313	92.12
480.532	108.12
480.751	83.12
480.969	92.12
481.188	104.12
481.406	99.12
481.624	103.12
481.843	95.12
482.061	80.12
482.28	99.12
482.498	95.12
482.717	92.12
482.935	90.12
483.153	93.12
483.372	96.12
483.59	106.12
483.808	83.12
484.027	90.12
484.245	94.12
484.463	95.12
484.681	88.12
484.9	87.12
485.118	90.12
485.336	107.12
485.554	100.12
485.772	94.12
485.99	92.12
486.209	111.12
486.427	102.12
486.645	107.12
486.863	117.12
487.081	92.12
487.299	97.12
487.517	95.12
487.735	84.12
487.953	102.12
488.171	95.12
488.389	96.12
488.607	96.12
488.825	107.12
489.043	106.12
489.261	100.12
489.479	76.12
489.696	95.12
489.914	86.12
490.132	92.12
490.35	89.12
490.568	88.12
490.786	91.12
491.003	93.12
491.221	104.12
491.439	92.12
491.657	91.12
491.874	96.12
492.092	93.12
492.31	89.12
492.527	78.12
492.745	93.12
492.963	93.12
493.18	99.12
493.398	102.12
493.615	101.12
493.833	82.12
494.05	91.12
494.268	104.12
494.485	103.12
494.703	95.12
494.92	89.12
495.138	91.12
495.355	101.12
495.573	105.12
495.79	104.12
496.008	109.12
496.225	92.12
496.442	88.12
496.66	99.12
496.877	89.12
497.094	82.12
497.312	87.12
497.529	84.12
497.746	94.12
497.963	89.12
498.181	92.12
498.398	95.12
498.615	115.12
498.832	105.12
499.049	105.12
499.267	108.12
499.484	100.12
499.701	107.12
499.918	87.12
500.135	89.12
500.352	85.12
500.569	91.12
500.786	79.12
501.003	86.12
501.22	102.12
501.437	88.12
501.654	86.12
501.871	109.12
502.088	93.12
502.305	99.12
502.522	86.12
502.739	86.12
502.956	102.12
503.172	96.12
503.389	107.12
503.606	99.12
503.823	97.12
504.04	97.12
504.256	94.12
504.473	92.12
504.69	96.12
504.907	106.12
505.123	103.12
505.34	89.12
505.557	107.12
505.773	109.12
505.99	87.12
506.207	89.12
506.423	96.12
506.64	108.12
506.856	103.12
507.073	102.12
507.289	104.12
507.506	96.12
507.722	105.12
507.939	112.12
508.155	85.12
508.372	98.12
508.588	99.12
508.805	100.12
509.021	104.12
509.238	111.12
509.454	95.12
509.67	116.12
509.887	112.12
510.103	134.12
510.319	190.12
510.536	702.12
510.752	2156.12
510.968	618.12
511.184	139.12
511.401	108.12
511.617	106.12
511.833	90.12
512.049	99.12
512.265	90.12
512.481	102.12
512.698	90.12
512.914	93.12
513.13	100.12
513.346	98.12
513.562	91.12
513.778	107.12
513.994	104.12
514.21	103.12
514.426	112.12
514.642	126.12
514.858	123.12
515.074	150.12
