Data from Uncirc_2000_H10_HRD10591_00048.txt Node
Date: Wed Jan 03 10:48:26 EST 2024
User: Yrep
Spectrometer: HR+D1059
Trigger mode: 1
Integration Time (sec): 1.000000E-1
Scans to average: 1
Electric dark correction enabled: true
Nonlinearity correction enabled: false
Boxcar width: 0
XAxis mode: Wavelengths
Number of Pixels in Spectrum: 2048
>>>>>Begin Spectral Data<<<<<
223.165	-8.88
223.4	-8.88
223.635	-8.88
223.869	-16.88
224.104	-10.88
224.338	-20.88
224.573	-19.88
224.808	-21.88
225.042	-8.88
225.277	-5.88
225.511	12.12
225.746	-1.88
225.98	3.12
226.215	14.12
226.449	17.12
226.683	8.12
226.918	25.12
227.152	36.12
227.387	43.12
227.621	49.12
227.856	44.12
228.09	49.12
228.324	53.12
228.559	56.12
228.793	67.12
229.027	50.12
229.262	60.12
229.496	85.12
229.73	84.12
229.964	73.12
230.199	76.12
230.433	66.12
230.667	82.12
230.901	78.12
231.136	74.12
231.37	86.12
231.604	75.12
231.838	83.12
232.072	86.12
232.306	87.12
232.541	73.12
232.775	74.12
233.009	74.12
233.243	89.12
233.477	76.12
233.711	82.12
233.945	85.12
234.179	70.12
234.413	64.12
234.647	74.12
234.881	90.12
235.115	80.12
235.349	69.12
235.583	86.12
235.817	67.12
236.051	69.12
236.285	64.12
236.519	77.12
236.753	75.12
236.987	78.12
237.221	90.12
237.455	91.12
237.689	78.12
237.922	80.12
238.156	81.12
238.39	68.12
238.624	68.12
238.858	78.12
239.091	80.12
239.325	90.12
239.559	83.12
239.793	81.12
240.027	82.12
240.26	84.12
240.494	77.12
240.728	76.12
240.961	88.12
241.195	83.12
241.429	79.12
241.662	68.12
241.896	70.12
242.13	87.12
242.363	84.12
242.597	100.12
242.83	85.12
243.064	77.12
243.298	75.12
243.531	79.12
243.765	89.12
243.998	80.12
244.232	79.12
244.465	87.12
244.699	87.12
244.932	78.12
245.166	79.12
245.399	94.12
245.633	89.12
245.866	74.12
246.099	71.12
246.333	82.12
246.566	94.12
246.8	57.12
247.033	82.12
247.266	77.12
247.5	86.12
247.733	93.12
247.966	73.12
248.2	84.12
248.433	78.12
248.666	67.12
248.899	77.12
249.133	76.12
249.366	85.12
249.599	99.12
249.832	93.12
250.066	93.12
250.299	76.12
250.532	89.12
250.765	80.12
250.998	78.12
251.231	86.12
251.465	80.12
251.698	85.12
251.931	87.12
252.164	75.12
252.397	69.12
252.63	82.12
252.863	77.12
253.096	80.12
253.329	88.12
253.562	86.12
253.795	77.12
254.028	74.12
254.261	72.12
254.494	80.12
254.727	85.12
254.96	83.12
255.193	87.12
255.426	83.12
255.659	87.12
255.892	97.12
256.124	83.12
256.357	78.12
256.59	74.12
256.823	88.12
257.056	90.12
257.289	76.12
257.521	92.12
257.754	87.12
257.987	79.12
258.22	86.12
258.452	83.12
258.685	88.12
258.918	88.12
259.151	79.12
259.383	83.12
259.616	88.12
259.849	73.12
260.081	74.12
260.314	76.12
260.547	67.12
260.779	84.12
261.012	90.12
261.244	83.12
261.477	87.12
261.71	107.12
261.942	118.12
262.175	98.12
262.407	96.12
262.64	97.12
262.872	76.12
263.105	70.12
263.337	89.12
263.57	86.12
263.802	90.12
264.035	99.12
264.267	73.12
264.499	76.12
264.732	87.12
264.964	93.12
265.197	70.12
265.429	75.12
265.661	81.12
265.894	82.12
266.126	78.12
266.358	84.12
266.591	85.12
266.823	81.12
267.055	77.12
267.287	83.12
267.52	77.12
267.752	87.12
267.984	61.12
268.216	93.12
268.448	86.12
268.681	65.12
268.913	91.12
269.145	88.12
269.377	72.12
269.609	92.12
269.841	91.12
270.073	84.12
270.306	73.12
270.538	97.12
270.77	67.12
271.002	83.12
271.234	83.12
271.466	89.12
271.698	83.12
271.93	99.12
272.162	80.12
272.394	98.12
272.626	75.12
272.858	79.12
273.09	99.12
273.322	70.12
273.553	72.12
273.785	75.12
274.017	86.12
274.249	78.12
274.481	69.12
274.713	83.12
274.945	86.12
275.176	85.12
275.408	91.12
275.64	74.12
275.872	69.12
276.104	85.12
276.335	95.12
276.567	97.12
276.799	102.12
277.031	73.12
277.262	91.12
277.494	71.12
277.726	84.12
277.957	75.12
278.189	86.12
278.421	99.12
278.652	81.12
278.884	88.12
279.115	87.12
279.347	87.12
279.579	89.12
279.81	88.12
280.042	79.12
280.273	80.12
280.505	81.12
280.736	95.12
280.968	85.12
281.199	93.12
281.431	80.12
281.662	96.12
281.894	90.12
282.125	106.12
282.356	117.12
282.588	129.12
282.819	107.12
283.051	103.12
283.282	70.12
283.513	95.12
283.745	88.12
283.976	83.12
284.207	78.12
284.439	76.12
284.67	86.12
284.901	82.12
285.132	93.12
285.364	89.12
285.595	77.12
285.826	96.12
286.057	93.12
286.288	82.12
286.52	75.12
286.751	70.12
286.982	88.12
287.213	83.12
287.444	86.12
287.675	91.12
287.906	81.12
288.138	72.12
288.369	83.12
288.6	89.12
288.831	72.12
289.062	91.12
289.293	88.12
289.524	75.12
289.755	78.12
289.986	90.12
290.217	86.12
290.448	82.12
290.679	79.12
290.91	85.12
291.141	74.12
291.371	91.12
291.602	87.12
291.833	85.12
292.064	80.12
292.295	85.12
292.526	73.12
292.757	92.12
292.987	100.12
293.218	88.12
293.449	88.12
293.68	81.12
293.91	93.12
294.141	80.12
294.372	94.12
294.603	86.12
294.833	85.12
295.064	85.12
295.295	94.12
295.525	88.12
295.756	91.12
295.987	110.12
296.217	128.12
296.448	120.12
296.679	97.12
296.909	83.12
297.14	88.12
297.37	69.12
297.601	74.12
297.831	78.12
298.062	86.12
298.292	79.12
298.523	82.12
298.753	90.12
298.984	91.12
299.214	89.12
299.445	83.12
299.675	99.12
299.905	99.12
300.136	95.12
300.366	85.12
300.597	87.12
300.827	93.12
301.057	80.12
301.288	102.12
301.518	107.12
301.748	98.12
301.979	88.12
302.209	94.12
302.439	95.12
302.669	90.12
302.9	101.12
303.13	78.12
303.36	93.12
303.59	108.12
303.82	90.12
304.051	91.12
304.281	87.12
304.511	80.12
304.741	89.12
304.971	95.12
305.201	70.12
305.431	100.12
305.661	85.12
305.891	72.12
306.121	82.12
306.352	99.12
306.582	111.12
306.812	92.12
307.042	97.12
307.272	78.12
307.502	93.12
307.731	86.12
307.961	92.12
308.191	90.12
308.421	97.12
308.651	82.12
308.881	91.12
309.111	96.12
309.341	107.12
309.571	96.12
309.8	99.12
310.03	101.12
310.26	105.12
310.49	98.12
310.72	87.12
310.949	88.12
311.179	94.12
311.409	94.12
311.639	86.12
311.868	91.12
312.098	84.12
312.328	95.12
312.557	98.12
312.787	104.12
313.017	98.12
313.246	97.12
313.476	83.12
313.706	87.12
313.935	94.12
314.165	95.12
314.394	107.12
314.624	91.12
314.853	96.12
315.083	85.12
315.312	79.12
315.542	85.12
315.771	98.12
316.001	91.12
316.23	98.12
316.46	82.12
316.689	99.12
316.919	92.12
317.148	86.12
317.377	89.12
317.607	96.12
317.836	96.12
318.065	90.12
318.295	88.12
318.524	78.12
318.753	85.12
318.983	101.12
319.212	97.12
319.441	95.12
319.67	101.12
319.9	99.12
320.129	98.12
320.358	90.12
320.587	92.12
320.816	92.12
321.046	98.12
321.275	93.12
321.504	99.12
321.733	96.12
321.962	94.12
322.191	91.12
322.42	112.12
322.649	104.12
322.878	101.12
323.108	96.12
323.337	113.12
323.566	139.12
323.795	146.12
324.024	185.12
324.253	377.12
324.482	782.12
324.71	1581.12
324.939	2000.12
325.168	741.12
325.397	218.12
325.626	147.12
325.855	124.12
326.084	114.12
326.313	120.12
326.542	139.12
326.77	217.12
326.999	440.12
327.228	869.12
327.457	1611.12
327.686	1224.12
327.914	342.12
328.143	179.12
328.372	133.12
328.6	113.12
328.829	112.12
329.058	104.12
329.287	110.12
329.515	101.12
329.744	100.12
329.972	88.12
330.201	100.12
330.43	92.12
330.658	108.12
330.887	111.12
331.115	100.12
331.344	90.12
331.572	100.12
331.801	107.12
332.03	109.12
332.258	90.12
332.486	110.12
332.715	94.12
332.943	104.12
333.172	99.12
333.4	97.12
333.629	101.12
333.857	95.12
334.085	95.12
334.314	94.12
334.542	91.12
334.771	90.12
334.999	93.12
335.227	91.12
335.455	93.12
335.684	103.12
335.912	96.12
336.14	100.12
336.369	95.12
336.597	101.12
336.825	83.12
337.053	92.12
337.281	86.12
337.51	120.12
337.738	77.12
337.966	93.12
338.194	103.12
338.422	104.12
338.65	85.12
338.878	80.12
339.106	83.12
339.334	88.12
339.562	98.12
339.79	83.12
340.018	84.12
340.246	101.12
340.474	91.12
340.702	82.12
340.93	72.12
341.158	84.12
341.386	99.12
341.614	87.12
341.842	91.12
342.07	87.12
342.298	87.12
342.526	90.12
342.754	89.12
342.981	90.12
343.209	90.12
343.437	97.12
343.665	94.12
343.893	88.12
344.12	87.12
344.348	87.12
344.576	92.12
344.804	77.12
345.031	92.12
345.259	97.12
345.487	86.12
345.714	90.12
345.942	84.12
346.17	91.12
346.397	82.12
346.625	87.12
346.853	90.12
347.08	76.12
347.308	83.12
347.535	94.12
347.763	102.12
347.99	105.12
348.218	105.12
348.445	104.12
348.673	92.12
348.9	92.12
349.128	90.12
349.355	96.12
349.583	91.12
349.81	86.12
350.037	107.12
350.265	94.12
350.492	94.12
350.72	90.12
350.947	78.12
351.174	105.12
351.402	100.12
351.629	101.12
351.856	100.12
352.083	87.12
352.311	104.12
352.538	113.12
352.765	98.12
352.992	106.12
353.22	111.12
353.447	117.12
353.674	92.12
353.901	84.12
354.128	101.12
354.355	96.12
354.583	96.12
354.81	100.12
355.037	98.12
355.264	87.12
355.491	98.12
355.718	100.12
355.945	101.12
356.172	84.12
356.399	93.12
356.626	75.12
356.853	76.12
357.08	78.12
357.307	90.12
357.534	83.12
357.761	98.12
357.988	88.12
358.215	94.12
358.441	76.12
358.668	90.12
358.895	97.12
359.122	94.12
359.349	94.12
359.576	93.12
359.802	105.12
360.029	118.12
360.256	110.12
360.483	88.12
360.709	91.12
360.936	78.12
361.163	96.12
361.39	79.12
361.616	107.12
361.843	91.12
362.07	82.12
362.296	85.12
362.523	83.12
362.749	82.12
362.976	81.12
363.203	92.12
363.429	88.12
363.656	101.12
363.882	87.12
364.109	92.12
364.335	94.12
364.562	88.12
364.788	98.12
365.015	81.12
365.241	98.12
365.468	98.12
365.694	97.12
365.92	93.12
366.147	91.12
366.373	93.12
366.599	84.12
366.826	88.12
367.052	73.12
367.278	93.12
367.505	90.12
367.731	92.12
367.957	93.12
368.184	88.12
368.41	76.12
368.636	90.12
368.862	111.12
369.089	100.12
369.315	89.12
369.541	85.12
369.767	90.12
369.993	95.12
370.219	87.12
370.445	97.12
370.672	89.12
370.898	96.12
371.124	82.12
371.35	101.12
371.576	86.12
371.802	81.12
372.028	94.12
372.254	78.12
372.48	85.12
372.706	85.12
372.932	89.12
373.158	94.12
373.384	99.12
373.61	97.12
373.835	105.12
374.061	92.12
374.287	94.12
374.513	92.12
374.739	97.12
374.965	99.12
375.191	89.12
375.416	90.12
375.642	94.12
375.868	98.12
376.094	73.12
376.319	81.12
376.545	94.12
376.771	74.12
376.997	94.12
377.222	101.12
377.448	100.12
377.674	77.12
377.899	94.12
378.125	101.12
378.35	79.12
378.576	84.12
378.802	84.12
379.027	81.12
379.253	96.12
379.478	89.12
379.704	96.12
379.929	86.12
380.155	85.12
380.38	74.12
380.606	92.12
380.831	83.12
381.057	104.12
381.282	93.12
381.507	103.12
381.733	86.12
381.958	94.12
382.184	88.12
382.409	90.12
382.634	109.12
382.86	102.12
383.085	97.12
383.31	92.12
383.535	101.12
383.761	99.12
383.986	87.12
384.211	100.12
384.436	94.12
384.662	105.12
384.887	100.12
385.112	112.12
385.337	103.12
385.562	86.12
385.787	101.12
386.013	115.12
386.238	107.12
386.463	95.12
386.688	98.12
386.913	89.12
387.138	100.12
387.363	93.12
387.588	99.12
387.813	101.12
388.038	102.12
388.263	116.12
388.488	112.12
388.713	94.12
388.938	92.12
389.163	88.12
389.387	110.12
389.612	118.12
389.837	99.12
390.062	96.12
390.287	91.12
390.512	85.12
390.736	93.12
390.961	103.12
391.186	98.12
391.411	92.12
391.636	86.12
391.86	93.12
392.085	100.12
392.31	79.12
392.534	82.12
392.759	102.12
392.984	87.12
393.208	81.12
393.433	100.12
393.658	91.12
393.882	92.12
394.107	67.12
394.331	91.12
394.556	76.12
394.78	94.12
395.005	90.12
395.229	100.12
395.454	94.12
395.678	93.12
395.903	73.12
396.127	84.12
396.352	96.12
396.576	89.12
396.801	80.12
397.025	90.12
397.249	92.12
397.474	86.12
397.698	76.12
397.922	94.12
398.147	82.12
398.371	77.12
398.595	94.12
398.82	78.12
399.044	93.12
399.268	93.12
399.492	91.12
399.717	83.12
399.941	93.12
400.165	95.12
400.389	87.12
400.613	84.12
400.837	88.12
401.062	77.12
401.286	97.12
401.51	101.12
401.734	102.12
401.958	103.12
402.182	116.12
402.406	134.12
402.63	108.12
402.854	102.12
403.078	85.12
403.302	92.12
403.526	85.12
403.75	76.12
403.974	92.12
404.198	95.12
404.422	83.12
404.645	87.12
404.869	67.12
405.093	88.12
405.317	105.12
405.541	104.12
405.765	92.12
405.988	112.12
406.212	173.12
406.436	204.12
406.66	137.12
406.883	94.12
407.107	86.12
407.331	86.12
407.555	90.12
407.778	87.12
408.002	92.12
408.226	74.12
408.449	93.12
408.673	97.12
408.896	105.12
409.12	84.12
409.344	81.12
409.567	87.12
409.791	104.12
410.014	96.12
410.238	88.12
410.461	93.12
410.685	92.12
410.908	97.12
411.132	94.12
411.355	96.12
411.578	87.12
411.802	80.12
412.025	90.12
412.249	84.12
412.472	88.12
412.695	87.12
412.919	92.12
413.142	100.12
413.365	89.12
413.589	80.12
413.812	95.12
414.035	99.12
414.258	80.12
414.482	93.12
414.705	87.12
414.928	86.12
415.151	88.12
415.374	89.12
415.597	88.12
415.821	83.12
416.044	77.12
416.267	83.12
416.49	87.12
416.713	86.12
416.936	81.12
417.159	103.12
417.382	81.12
417.605	74.12
417.828	105.12
418.051	74.12
418.274	98.12
418.497	88.12
418.72	95.12
418.943	88.12
419.166	109.12
419.389	96.12
419.611	87.12
419.834	106.12
420.057	113.12
420.28	89.12
420.503	92.12
420.726	97.12
420.948	94.12
421.171	100.12
421.394	84.12
421.617	87.12
421.839	90.12
422.062	81.12
422.285	92.12
422.507	109.12
422.73	93.12
422.953	82.12
423.175	84.12
423.398	90.12
423.621	85.12
423.843	90.12
424.066	68.12
424.288	85.12
424.511	91.12
424.733	97.12
424.956	103.12
425.178	100.12
425.401	97.12
425.623	93.12
425.846	91.12
426.068	94.12
426.291	84.12
426.513	91.12
426.735	91.12
426.958	81.12
427.18	106.12
427.402	125.12
427.625	142.12
427.847	116.12
428.069	104.12
428.292	91.12
428.514	91.12
428.736	87.12
428.958	97.12
429.181	102.12
429.403	76.12
429.625	90.12
429.847	90.12
430.069	105.12
430.292	92.12
430.514	80.12
430.736	79.12
430.958	83.12
431.18	67.12
431.402	88.12
431.624	89.12
431.846	84.12
432.068	75.12
432.29	77.12
432.512	84.12
432.734	90.12
432.956	85.12
433.178	113.12
433.4	84.12
433.622	84.12
433.844	79.12
434.066	93.12
434.287	87.12
434.509	78.12
434.731	89.12
434.953	80.12
435.175	88.12
435.397	80.12
435.618	90.12
435.84	101.12
436.062	113.12
436.284	109.12
436.505	93.12
436.727	103.12
436.949	93.12
437.17	86.12
437.392	83.12
437.614	86.12
437.835	109.12
438.057	119.12
438.278	101.12
438.5	85.12
438.721	101.12
438.943	100.12
439.165	94.12
439.386	104.12
439.608	104.12
439.829	95.12
440.05	116.12
440.272	132.12
440.493	96.12
440.715	85.12
440.936	99.12
441.158	97.12
441.379	84.12
441.6	83.12
441.822	88.12
442.043	113.12
442.264	94.12
442.486	91.12
442.707	87.12
442.928	84.12
443.149	116.12
443.371	124.12
443.592	93.12
443.813	100.12
444.034	116.12
444.255	82.12
444.476	80.12
444.698	99.12
444.919	88.12
445.14	128.12
445.361	130.12
445.582	114.12
445.803	133.12
446.024	120.12
446.245	123.12
446.466	113.12
446.687	91.12
446.908	88.12
447.129	89.12
447.35	91.12
447.571	93.12
447.792	90.12
448.013	104.12
448.234	105.12
448.455	74.12
448.675	100.12
448.896	116.12
449.117	116.12
449.338	99.12
449.559	125.12
449.779	122.12
450	93.12
450.221	71.12
450.442	75.12
450.662	89.12
450.883	83.12
451.104	100.12
451.324	84.12
451.545	84.12
451.766	83.12
451.986	86.12
452.207	76.12
452.428	86.12
452.648	86.12
452.869	102.12
453.089	97.12
453.31	110.12
453.53	92.12
453.751	89.12
453.971	89.12
454.192	114.12
454.412	90.12
454.633	78.12
454.853	77.12
455.073	97.12
455.294	94.12
455.514	105.12
455.734	89.12
455.955	91.12
456.175	86.12
456.395	86.12
456.616	84.12
456.836	85.12
457.056	88.12
457.276	89.12
457.497	86.12
457.717	86.12
457.937	84.12
458.157	84.12
458.377	90.12
458.598	89.12
458.818	137.12
459.038	150.12
459.258	97.12
459.478	80.12
459.698	92.12
459.918	91.12
460.138	83.12
460.358	92.12
460.578	95.12
460.798	80.12
461.018	99.12
461.238	95.12
461.458	93.12
461.678	89.12
461.898	99.12
462.118	85.12
462.338	87.12
462.558	96.12
462.777	82.12
462.997	98.12
463.217	86.12
463.437	75.12
463.657	82.12
463.876	83.12
464.096	78.12
464.316	97.12
464.536	94.12
464.755	107.12
464.975	104.12
465.195	142.12
465.414	151.12
465.634	84.12
465.854	93.12
466.073	78.12
466.293	93.12
466.512	87.12
466.732	95.12
466.951	87.12
467.171	87.12
467.391	100.12
467.61	109.12
467.829	90.12
468.049	88.12
468.268	98.12
468.488	79.12
468.707	93.12
468.927	90.12
469.146	85.12
469.365	78.12
469.585	85.12
469.804	89.12
470.023	90.12
470.243	101.12
470.462	93.12
470.681	117.12
470.901	89.12
471.12	88.12
471.339	71.12
471.558	108.12
471.777	91.12
471.997	80.12
472.216	90.12
472.435	87.12
472.654	90.12
472.873	86.12
473.092	79.12
473.311	82.12
473.53	100.12
473.749	86.12
473.968	108.12
474.187	90.12
474.406	96.12
474.625	76.12
474.844	80.12
475.063	85.12
475.282	99.12
475.501	77.12
475.72	74.12
475.939	91.12
476.158	94.12
476.377	91.12
476.596	97.12
476.814	94.12
477.033	106.12
477.252	94.12
477.471	86.12
477.69	84.12
477.908	87.12
478.127	86.12
478.346	96.12
478.564	97.12
478.783	100.12
479.002	96.12
479.22	95.12
479.439	98.12
479.658	89.12
479.876	92.12
480.095	91.12
480.313	100.12
480.532	89.12
480.751	103.12
480.969	92.12
481.188	97.12
481.406	88.12
481.624	92.12
481.843	69.12
482.061	92.12
482.28	100.12
482.498	92.12
482.717	83.12
482.935	75.12
483.153	80.12
483.372	97.12
483.59	100.12
483.808	84.12
484.027	85.12
484.245	91.12
484.463	85.12
484.681	97.12
484.9	86.12
485.118	94.12
485.336	96.12
485.554	107.12
485.772	107.12
485.99	105.12
486.209	109.12
486.427	104.12
486.645	96.12
486.863	115.12
487.081	90.12
487.299	104.12
487.517	85.12
487.735	96.12
487.953	89.12
488.171	89.12
488.389	90.12
488.607	94.12
488.825	87.12
489.043	76.12
489.261	71.12
489.479	97.12
489.696	83.12
489.914	92.12
490.132	91.12
490.35	106.12
490.568	90.12
490.786	92.12
491.003	97.12
491.221	90.12
491.439	91.12
491.657	89.12
491.874	93.12
492.092	88.12
492.31	106.12
492.527	90.12
492.745	108.12
492.963	105.12
493.18	109.12
493.398	93.12
493.615	98.12
493.833	107.12
494.05	96.12
494.268	77.12
494.485	90.12
494.703	87.12
494.92	91.12
495.138	83.12
495.355	100.12
495.573	98.12
495.79	84.12
496.008	89.12
496.225	98.12
496.442	87.12
496.66	114.12
496.877	100.12
497.094	91.12
497.312	110.12
497.529	92.12
497.746	74.12
497.963	78.12
498.181	90.12
498.398	89.12
498.615	101.12
498.832	107.12
499.049	92.12
499.267	109.12
499.484	89.12
499.701	85.12
499.918	90.12
500.135	96.12
500.352	88.12
500.569	78.12
500.786	88.12
501.003	98.12
501.22	94.12
501.437	86.12
501.654	86.12
501.871	105.12
502.088	103.12
502.305	86.12
502.522	90.12
502.739	96.12
502.956	82.12
503.172	86.12
503.389	102.12
503.606	94.12
503.823	86.12
504.04	90.12
504.256	93.12
504.473	86.12
504.69	84.12
504.907	94.12
505.123	89.12
505.34	101.12
505.557	84.12
505.773	100.12
505.99	82.12
506.207	90.12
506.423	89.12
506.64	81.12
506.856	99.12
507.073	83.12
507.289	88.12
507.506	99.12
507.722	105.12
507.939	112.12
508.155	104.12
508.372	91.12
508.588	91.12
508.805	97.12
509.021	98.12
509.238	102.12
509.454	78.12
509.67	110.12
509.887	104.12
510.103	131.12
510.319	210.12
510.536	696.12
510.752	2176.12
510.968	617.12
511.184	124.12
511.401	109.12
511.617	103.12
511.833	80.12
512.049	100.12
512.265	99.12
512.481	89.12
512.698	98.12
512.914	86.12
513.13	89.12
513.346	98.12
513.562	102.12
513.778	109.12
513.994	89.12
514.21	101.12
514.426	104.12
514.642	117.12
514.858	119.12
515.074	161.12
515.29	388.12
515.506	1246.12
515.721	478.12
515.937	135.12
516.153	112.12
