Data from Uncirc_2000_H10_HRD10591_00083.txt Node
Date: Wed Jan 03 10:48:33 EST 2024
User: Yrep
Spectrometer: HR+D1059
Trigger mode: 1
Integration Time (sec): 1.000000E-1
Scans to average: 1
Electric dark correction enabled: true
Nonlinearity correction enabled: false
Boxcar width: 0
XAxis mode: Wavelengths
Number of Pixels in Spectrum: 2048
>>>>>Begin Spectral Data<<<<<
223.165	-25.88
223.4	-25.88
223.635	-25.88
223.869	-12.88
224.104	-18.88
224.338	-9.88
224.573	-22.88
224.808	-8.88
225.042	-13.88
225.277	2.12
225.511	-8.88
225.746	4.12
225.98	10.12
226.215	9.12
226.449	20.12
226.683	29.12
226.918	23.12
227.152	24.12
227.387	39.12
227.621	30.12
227.856	50.12
228.09	51.12
228.324	46.12
228.559	44.12
228.793	57.12
229.027	66.12
229.262	50.12
229.496	71.12
229.73	77.12
229.964	64.12
230.199	69.12
230.433	59.12
230.667	87.12
230.901	96.12
231.136	85.12
231.37	70.12
231.604	79.12
231.838	85.12
232.072	82.12
232.306	81.12
232.541	91.12
232.775	77.12
233.009	68.12
233.243	84.12
233.477	82.12
233.711	81.12
233.945	74.12
234.179	79.12
234.413	78.12
234.647	82.12
234.881	71.12
235.115	73.12
235.349	87.12
235.583	73.12
235.817	80.12
236.051	73.12
236.285	76.12
236.519	79.12
236.753	89.12
236.987	74.12
237.221	90.12
237.455	73.12
237.689	80.12
237.922	65.12
238.156	85.12
238.39	75.12
238.624	64.12
238.858	75.12
239.091	77.12
239.325	77.12
239.559	68.12
239.793	87.12
240.027	83.12
240.26	87.12
240.494	59.12
240.728	71.12
240.961	69.12
241.195	76.12
241.429	53.12
241.662	93.12
241.896	69.12
242.13	82.12
242.363	75.12
242.597	80.12
242.83	75.12
243.064	75.12
243.298	80.12
243.531	72.12
243.765	79.12
243.998	85.12
244.232	88.12
244.465	89.12
244.699	69.12
244.932	87.12
245.166	73.12
245.399	78.12
245.633	81.12
245.866	79.12
246.099	73.12
246.333	67.12
246.566	70.12
246.8	78.12
247.033	81.12
247.266	80.12
247.5	74.12
247.733	78.12
247.966	82.12
248.2	77.12
248.433	98.12
248.666	73.12
248.899	84.12
249.133	91.12
249.366	99.12
249.599	93.12
249.832	81.12
250.066	73.12
250.299	74.12
250.532	74.12
250.765	75.12
250.998	66.12
251.231	84.12
251.465	84.12
251.698	81.12
251.931	77.12
252.164	84.12
252.397	91.12
252.63	70.12
252.863	75.12
253.096	76.12
253.329	69.12
253.562	96.12
253.795	84.12
254.028	78.12
254.261	71.12
254.494	71.12
254.727	83.12
254.96	86.12
255.193	89.12
255.426	73.12
255.659	79.12
255.892	82.12
256.124	80.12
256.357	94.12
256.59	83.12
256.823	88.12
257.056	89.12
257.289	69.12
257.521	86.12
257.754	84.12
257.987	75.12
258.22	74.12
258.452	77.12
258.685	82.12
258.918	86.12
259.151	86.12
259.383	74.12
259.616	71.12
259.849	85.12
260.081	68.12
260.314	87.12
260.547	82.12
260.779	84.12
261.012	83.12
261.244	88.12
261.477	84.12
261.71	89.12
261.942	97.12
262.175	102.12
262.407	89.12
262.64	80.12
262.872	76.12
263.105	70.12
263.337	90.12
263.57	84.12
263.802	70.12
264.035	67.12
264.267	81.12
264.499	88.12
264.732	84.12
264.964	91.12
265.197	83.12
265.429	84.12
265.661	66.12
265.894	80.12
266.126	96.12
266.358	93.12
266.591	93.12
266.823	86.12
267.055	74.12
267.287	92.12
267.52	80.12
267.752	75.12
267.984	104.12
268.216	83.12
268.448	81.12
268.681	89.12
268.913	77.12
269.145	87.12
269.377	66.12
269.609	93.12
269.841	85.12
270.073	92.12
270.306	76.12
270.538	74.12
270.77	82.12
271.002	86.12
271.234	77.12
271.466	76.12
271.698	77.12
271.93	94.12
272.162	89.12
272.394	88.12
272.626	91.12
272.858	87.12
273.09	81.12
273.322	79.12
273.553	82.12
273.785	80.12
274.017	75.12
274.249	84.12
274.481	74.12
274.713	98.12
274.945	84.12
275.176	92.12
275.408	90.12
275.64	80.12
275.872	71.12
276.104	89.12
276.335	78.12
276.567	84.12
276.799	105.12
277.031	105.12
277.262	91.12
277.494	84.12
277.726	81.12
277.957	82.12
278.189	100.12
278.421	76.12
278.652	84.12
278.884	79.12
279.115	92.12
279.347	80.12
279.579	86.12
279.81	91.12
280.042	87.12
280.273	65.12
280.505	71.12
280.736	87.12
280.968	83.12
281.199	74.12
281.431	86.12
281.662	82.12
281.894	84.12
282.125	90.12
282.356	115.12
282.588	126.12
282.819	110.12
283.051	79.12
283.282	89.12
283.513	81.12
283.745	72.12
283.976	86.12
284.207	77.12
284.439	80.12
284.67	85.12
284.901	82.12
285.132	84.12
285.364	78.12
285.595	93.12
285.826	88.12
286.057	92.12
286.288	77.12
286.52	86.12
286.751	86.12
286.982	75.12
287.213	79.12
287.444	80.12
287.675	80.12
287.906	92.12
288.138	83.12
288.369	85.12
288.6	93.12
288.831	91.12
289.062	89.12
289.293	92.12
289.524	85.12
289.755	81.12
289.986	84.12
290.217	97.12
290.448	76.12
290.679	83.12
290.91	79.12
291.141	82.12
291.371	85.12
291.602	93.12
291.833	84.12
292.064	87.12
292.295	80.12
292.526	94.12
292.757	69.12
292.987	91.12
293.218	89.12
293.449	97.12
293.68	87.12
293.91	83.12
294.141	85.12
294.372	69.12
294.603	83.12
294.833	74.12
295.064	90.12
295.295	102.12
295.525	100.12
295.756	108.12
295.987	113.12
296.217	119.12
296.448	110.12
296.679	89.12
296.909	90.12
297.14	86.12
297.37	93.12
297.601	78.12
297.831	81.12
298.062	88.12
298.292	96.12
298.523	96.12
298.753	70.12
298.984	86.12
299.214	92.12
299.445	86.12
299.675	95.12
299.905	93.12
300.136	77.12
300.366	77.12
300.597	87.12
300.827	94.12
301.057	105.12
301.288	109.12
301.518	98.12
301.748	81.12
301.979	94.12
302.209	80.12
302.439	87.12
302.669	77.12
302.9	80.12
303.13	83.12
303.36	93.12
303.59	80.12
303.82	108.12
304.051	90.12
304.281	88.12
304.511	85.12
304.741	87.12
304.971	107.12
305.201	91.12
305.431	90.12
305.661	84.12
305.891	103.12
306.121	89.12
306.352	101.12
306.582	97.12
306.812	97.12
307.042	84.12
307.272	85.12
307.502	93.12
307.731	95.12
307.961	93.12
308.191	88.12
308.421	92.12
308.651	85.12
308.881	87.12
309.111	98.12
309.341	85.12
309.571	98.12
309.8	85.12
310.03	104.12
310.26	99.12
310.49	83.12
310.72	75.12
310.949	108.12
311.179	93.12
311.409	101.12
311.639	91.12
311.868	105.12
312.098	88.12
312.328	105.12
312.557	101.12
312.787	83.12
313.017	108.12
313.246	90.12
313.476	86.12
313.706	83.12
313.935	92.12
314.165	107.12
314.394	82.12
314.624	95.12
314.853	95.12
315.083	99.12
315.312	80.12
315.542	88.12
315.771	81.12
316.001	90.12
316.23	88.12
316.46	89.12
316.689	81.12
316.919	77.12
317.148	91.12
317.377	92.12
317.607	84.12
317.836	84.12
318.065	91.12
318.295	85.12
318.524	93.12
318.753	84.12
318.983	97.12
319.212	97.12
319.441	101.12
319.67	118.12
319.9	93.12
320.129	100.12
320.358	110.12
320.587	95.12
320.816	112.12
321.046	93.12
321.275	101.12
321.504	99.12
321.733	100.12
321.962	87.12
322.191	100.12
322.42	115.12
322.649	107.12
322.878	90.12
323.108	121.12
323.337	116.12
323.566	129.12
323.795	154.12
324.024	216.12
324.253	389.12
324.482	817.12
324.71	1633.12
324.939	2118.12
325.168	752.12
325.397	240.12
325.626	152.12
325.855	120.12
326.084	119.12
326.313	127.12
326.542	176.12
326.77	217.12
326.999	464.12
327.228	924.12
327.457	1607.12
327.686	1276.12
327.914	356.12
328.143	188.12
328.372	133.12
328.6	106.12
328.829	117.12
329.058	109.12
329.287	116.12
329.515	104.12
329.744	90.12
329.972	107.12
330.201	79.12
330.43	100.12
330.658	108.12
330.887	110.12
331.115	119.12
331.344	98.12
331.572	89.12
331.801	94.12
332.03	94.12
332.258	87.12
332.486	92.12
332.715	89.12
332.943	92.12
333.172	91.12
333.4	100.12
333.629	118.12
333.857	117.12
334.085	112.12
334.314	99.12
334.542	96.12
334.771	104.12
334.999	97.12
335.227	85.12
335.455	78.12
335.684	94.12
335.912	100.12
336.14	107.12
336.369	91.12
336.597	98.12
336.825	101.12
337.053	101.12
337.281	100.12
337.51	81.12
337.738	98.12
337.966	92.12
338.194	84.12
338.422	96.12
338.65	95.12
338.878	94.12
339.106	87.12
339.334	94.12
339.562	90.12
339.79	92.12
340.018	88.12
340.246	89.12
340.474	89.12
340.702	74.12
340.93	95.12
341.158	93.12
341.386	94.12
341.614	105.12
341.842	80.12
342.07	95.12
342.298	91.12
342.526	82.12
342.754	72.12
342.981	78.12
343.209	84.12
343.437	82.12
343.665	97.12
343.893	91.12
344.12	93.12
344.348	86.12
344.576	94.12
344.804	86.12
345.031	92.12
345.259	99.12
345.487	99.12
345.714	85.12
345.942	92.12
346.17	89.12
346.397	94.12
346.625	105.12
346.853	90.12
347.08	80.12
347.308	100.12
347.535	99.12
347.763	94.12
347.99	106.12
348.218	98.12
348.445	89.12
348.673	105.12
348.9	98.12
349.128	99.12
349.355	92.12
349.583	91.12
349.81	101.12
350.037	93.12
350.265	103.12
350.492	80.12
350.72	98.12
350.947	98.12
351.174	94.12
351.402	99.12
351.629	98.12
351.856	98.12
352.083	106.12
352.311	105.12
352.538	94.12
352.765	123.12
352.992	107.12
353.22	112.12
353.447	105.12
353.674	86.12
353.901	84.12
354.128	96.12
354.355	96.12
354.583	106.12
354.81	94.12
355.037	100.12
355.264	94.12
355.491	81.12
355.718	100.12
355.945	111.12
356.172	89.12
356.399	112.12
356.626	86.12
356.853	88.12
357.08	99.12
357.307	93.12
357.534	99.12
357.761	97.12
357.988	102.12
358.215	97.12
358.441	84.12
358.668	84.12
358.895	88.12
359.122	84.12
359.349	84.12
359.576	88.12
359.802	89.12
360.029	99.12
360.256	112.12
360.483	98.12
360.709	82.12
360.936	85.12
361.163	88.12
361.39	100.12
361.616	95.12
361.843	94.12
362.07	104.12
362.296	72.12
362.523	87.12
362.749	93.12
362.976	92.12
363.203	82.12
363.429	98.12
363.656	94.12
363.882	83.12
364.109	86.12
364.335	88.12
364.562	74.12
364.788	83.12
365.015	93.12
365.241	85.12
365.468	102.12
365.694	103.12
365.92	99.12
366.147	88.12
366.373	78.12
366.599	96.12
366.826	82.12
367.052	85.12
367.278	89.12
367.505	94.12
367.731	85.12
367.957	93.12
368.184	78.12
368.41	93.12
368.636	102.12
368.862	108.12
369.089	98.12
369.315	90.12
369.541	87.12
369.767	91.12
369.993	89.12
370.219	75.12
370.445	86.12
370.672	89.12
370.898	97.12
371.124	98.12
371.35	98.12
371.576	87.12
371.802	92.12
372.028	85.12
372.254	88.12
372.48	93.12
372.706	99.12
372.932	88.12
373.158	86.12
373.384	95.12
373.61	93.12
373.835	89.12
374.061	80.12
374.287	94.12
374.513	98.12
374.739	104.12
374.965	68.12
375.191	90.12
375.416	94.12
375.642	88.12
375.868	84.12
376.094	70.12
376.319	85.12
376.545	91.12
376.771	85.12
376.997	85.12
377.222	102.12
377.448	90.12
377.674	92.12
377.899	85.12
378.125	82.12
378.35	85.12
378.576	104.12
378.802	87.12
379.027	108.12
379.253	94.12
379.478	102.12
379.704	91.12
379.929	79.12
380.155	87.12
380.38	96.12
380.606	95.12
380.831	92.12
381.057	104.12
381.282	89.12
381.507	98.12
381.733	94.12
381.958	94.12
382.184	97.12
382.409	95.12
382.634	114.12
382.86	89.12
383.085	94.12
383.31	93.12
383.535	101.12
383.761	92.12
383.986	99.12
384.211	91.12
384.436	94.12
384.662	105.12
384.887	93.12
385.112	96.12
385.337	111.12
385.562	106.12
385.787	90.12
386.013	101.12
386.238	102.12
386.463	104.12
386.688	101.12
386.913	94.12
387.138	108.12
387.363	95.12
387.588	97.12
387.813	105.12
388.038	99.12
388.263	104.12
388.488	114.12
388.713	98.12
388.938	100.12
389.163	84.12
389.387	102.12
389.612	93.12
389.837	96.12
390.062	102.12
390.287	87.12
390.512	99.12
390.736	86.12
390.961	93.12
391.186	82.12
391.411	105.12
391.636	103.12
391.86	93.12
392.085	92.12
392.31	69.12
392.534	82.12
392.759	90.12
392.984	86.12
393.208	83.12
393.433	85.12
393.658	90.12
393.882	96.12
394.107	91.12
394.331	83.12
394.556	76.12
394.78	81.12
395.005	70.12
395.229	99.12
395.454	84.12
395.678	94.12
395.903	80.12
396.127	85.12
396.352	85.12
396.576	84.12
396.801	92.12
397.025	89.12
397.249	88.12
397.474	84.12
397.698	90.12
397.922	87.12
398.147	96.12
398.371	85.12
398.595	91.12
398.82	87.12
399.044	88.12
399.268	99.12
399.492	82.12
399.717	77.12
399.941	89.12
400.165	105.12
400.389	96.12
400.613	87.12
400.837	71.12
401.062	99.12
401.286	92.12
401.51	91.12
401.734	101.12
401.958	106.12
402.182	108.12
402.406	135.12
402.63	104.12
402.854	88.12
403.078	90.12
403.302	75.12
403.526	84.12
403.75	92.12
403.974	86.12
404.198	86.12
404.422	89.12
404.645	76.12
404.869	73.12
405.093	92.12
405.317	96.12
405.541	90.12
405.765	95.12
405.988	115.12
406.212	167.12
406.436	213.12
406.66	137.12
406.883	107.12
407.107	84.12
407.331	100.12
407.555	92.12
407.778	93.12
408.002	79.12
408.226	84.12
408.449	89.12
408.673	98.12
408.896	88.12
409.12	91.12
409.344	87.12
409.567	72.12
409.791	84.12
410.014	97.12
410.238	88.12
410.461	93.12
410.685	86.12
410.908	84.12
411.132	93.12
411.355	90.12
411.578	88.12
411.802	97.12
412.025	82.12
412.249	95.12
412.472	94.12
412.695	97.12
412.919	87.12
413.142	96.12
413.365	84.12
413.589	92.12
413.812	98.12
414.035	86.12
414.258	93.12
414.482	83.12
414.705	74.12
414.928	69.12
415.151	85.12
415.374	92.12
415.597	89.12
415.821	101.12
416.044	80.12
416.267	100.12
416.49	78.12
416.713	86.12
416.936	87.12
417.159	89.12
417.382	94.12
417.605	76.12
417.828	104.12
418.051	102.12
418.274	97.12
418.497	93.12
418.72	91.12
418.943	75.12
419.166	93.12
419.389	89.12
419.611	100.12
419.834	93.12
420.057	79.12
420.28	85.12
420.503	97.12
420.726	84.12
420.948	87.12
421.171	97.12
421.394	88.12
421.617	91.12
421.839	92.12
422.062	85.12
422.285	103.12
422.507	93.12
422.73	102.12
422.953	88.12
423.175	96.12
423.398	103.12
423.621	96.12
423.843	90.12
424.066	86.12
424.288	80.12
424.511	94.12
424.733	88.12
424.956	93.12
425.178	106.12
425.401	80.12
425.623	91.12
425.846	88.12
426.068	91.12
426.291	82.12
426.513	100.12
426.735	93.12
426.958	80.12
427.18	106.12
427.402	136.12
427.625	155.12
427.847	132.12
428.069	103.12
428.292	99.12
428.514	76.12
428.736	75.12
428.958	85.12
429.181	68.12
429.403	99.12
429.625	91.12
429.847	97.12
430.069	88.12
430.292	107.12
430.514	85.12
430.736	83.12
430.958	86.12
431.18	78.12
431.402	80.12
431.624	74.12
431.846	82.12
432.068	72.12
432.29	98.12
432.512	94.12
432.734	91.12
432.956	99.12
433.178	107.12
433.4	88.12
433.622	96.12
433.844	90.12
434.066	98.12
434.287	83.12
434.509	99.12
434.731	91.12
434.953	89.12
435.175	100.12
435.397	93.12
435.618	101.12
435.84	103.12
436.062	115.12
436.284	90.12
436.505	98.12
436.727	96.12
436.949	93.12
437.17	98.12
437.392	75.12
437.614	82.12
437.835	92.12
438.057	99.12
438.278	89.12
438.5	106.12
438.721	108.12
438.943	97.12
439.165	102.12
439.386	75.12
439.608	92.12
439.829	90.12
440.05	122.12
440.272	120.12
440.493	85.12
440.715	90.12
440.936	97.12
441.158	102.12
441.379	103.12
441.6	82.12
441.822	81.12
442.043	89.12
442.264	86.12
442.486	95.12
442.707	91.12
442.928	94.12
443.149	119.12
443.371	118.12
443.592	98.12
443.813	116.12
444.034	105.12
444.255	89.12
444.476	88.12
444.698	86.12
444.919	98.12
445.14	134.12
445.361	115.12
445.582	106.12
445.803	124.12
446.024	128.12
446.245	117.12
446.466	100.12
446.687	87.12
446.908	91.12
447.129	81.12
447.35	100.12
447.571	81.12
447.792	83.12
448.013	111.12
448.234	104.12
448.455	95.12
448.675	118.12
448.896	94.12
449.117	104.12
449.338	102.12
449.559	124.12
449.779	117.12
450	88.12
450.221	90.12
450.442	93.12
450.662	83.12
450.883	92.12
451.104	103.12
451.324	93.12
451.545	94.12
451.766	77.12
451.986	99.12
452.207	88.12
452.428	80.12
452.648	97.12
452.869	105.12
453.089	100.12
453.31	102.12
453.53	90.12
453.751	91.12
453.971	102.12
454.192	102.12
454.412	99.12
454.633	92.12
454.853	82.12
455.073	90.12
455.294	80.12
455.514	105.12
455.734	85.12
455.955	84.12
456.175	87.12
456.395	84.12
456.616	88.12
456.836	98.12
457.056	85.12
457.276	92.12
457.497	90.12
457.717	88.12
457.937	82.12
458.157	95.12
458.377	97.12
458.598	116.12
458.818	145.12
459.038	140.12
459.258	90.12
459.478	89.12
459.698	87.12
459.918	82.12
460.138	97.12
460.358	94.12
460.578	86.12
460.798	78.12
461.018	98.12
461.238	83.12
461.458	75.12
461.678	92.12
461.898	83.12
462.118	82.12
462.338	100.12
462.558	74.12
462.777	76.12
462.997	86.12
463.217	73.12
463.437	78.12
463.657	87.12
463.876	89.12
464.096	85.12
464.316	87.12
464.536	76.12
464.755	102.12
464.975	94.12
465.195	144.12
465.414	134.12
465.634	98.12
465.854	78.12
466.073	80.12
466.293	93.12
466.512	90.12
466.732	88.12
466.951	68.12
467.171	97.12
467.391	93.12
467.61	91.12
467.829	92.12
468.049	92.12
468.268	82.12
468.488	86.12
468.707	73.12
468.927	74.12
469.146	95.12
469.365	80.12
469.585	82.12
469.804	82.12
470.023	95.12
470.243	87.12
470.462	101.12
470.681	110.12
470.901	100.12
471.12	76.12
471.339	90.12
471.558	92.12
471.777	89.12
471.997	99.12
472.216	74.12
472.435	80.12
472.654	81.12
472.873	90.12
473.092	104.12
473.311	91.12
473.53	93.12
473.749	85.12
473.968	93.12
474.187	97.12
474.406	101.12
474.625	88.12
474.844	87.12
475.063	84.12
475.282	95.12
475.501	78.12
475.72	90.12
475.939	77.12
476.158	60.12
476.377	93.12
476.596	66.12
476.814	96.12
477.033	82.12
477.252	83.12
477.471	93.12
477.69	80.12
477.908	76.12
478.127	83.12
478.346	84.12
478.564	92.12
478.783	86.12
479.002	103.12
479.22	86.12
479.439	103.12
479.658	104.12
479.876	91.12
480.095	90.12
480.313	92.12
480.532	80.12
480.751	82.12
480.969	88.12
481.188	93.12
481.406	94.12
481.624	88.12
481.843	70.12
482.061	88.12
482.28	78.12
482.498	77.12
482.717	94.12
482.935	88.12
483.153	95.12
483.372	93.12
483.59	90.12
483.808	89.12
484.027	106.12
484.245	100.12
484.463	86.12
484.681	99.12
484.9	89.12
485.118	110.12
485.336	83.12
485.554	90.12
485.772	110.12
485.99	104.12
486.209	109.12
486.427	111.12
486.645	117.12
486.863	94.12
487.081	96.12
487.299	85.12
487.517	102.12
487.735	93.12
487.953	96.12
488.171	107.12
488.389	88.12
488.607	96.12
488.825	98.12
489.043	93.12
489.261	88.12
489.479	83.12
489.696	87.12
489.914	90.12
490.132	84.12
490.35	104.12
490.568	89.12
490.786	99.12
491.003	99.12
491.221	76.12
491.439	83.12
491.657	94.12
491.874	84.12
492.092	96.12
492.31	82.12
492.527	85.12
492.745	98.12
492.963	99.12
493.18	84.12
493.398	82.12
493.615	109.12
493.833	85.12
494.05	88.12
494.268	104.12
494.485	87.12
494.703	93.12
494.92	70.12
495.138	80.12
495.355	98.12
495.573	84.12
495.79	91.12
496.008	99.12
496.225	102.12
496.442	79.12
496.66	80.12
496.877	88.12
497.094	94.12
497.312	82.12
497.529	91.12
497.746	94.12
497.963	88.12
498.181	85.12
498.398	92.12
498.615	107.12
498.832	112.12
499.049	94.12
499.267	87.12
499.484	90.12
499.701	89.12
499.918	99.12
500.135	88.12
500.352	82.12
500.569	79.12
500.786	99.12
501.003	99.12
501.22	90.12
501.437	99.12
501.654	94.12
501.871	96.12
502.088	95.12
502.305	94.12
502.522	97.12
502.739	94.12
502.956	91.12
503.172	97.12
503.389	89.12
503.606	93.12
503.823	95.12
504.04	90.12
504.256	88.12
504.473	82.12
504.69	90.12
504.907	81.12
505.123	91.12
505.34	85.12
505.557	89.12
505.773	93.12
505.99	77.12
506.207	90.12
506.423	98.12
506.64	89.12
506.856	105.12
507.073	98.12
507.289	100.12
507.506	105.12
507.722	109.12
507.939	104.12
508.155	84.12
508.372	93.12
508.588	81.12
508.805	89.12
509.021	91.12
509.238	95.12
509.454	97.12
509.67	95.12
509.887	112.12
510.103	132.12
510.319	187.12
510.536	712.12
510.752	2212.12
510.968	629.12
511.184	141.12
511.401	101.12
511.617	98.12
511.833	86.12
512.049	78.12
512.265	99.12
512.481	92.12
512.698	80.12
512.914	91.12
513.13	89.12
513.346	102.12
513.562	114.12
513.778	97.12
513.994	96.12
514.21	97.12
514.426	107.12
514.642	132.12
514.858	130.12
515.074	161.12
515.29	407.12
515.506	1260.12
515.721	478.12
515.937	148.12
516.153	106.12
516.369	97.12
516.585	80.12
