Data from Uncirc_2000_H10_HRD10591_00088.txt Node
Date: Wed Jan 03 10:48:34 EST 2024
User: Yrep
Spectrometer: HR+D1059
Trigger mode: 1
Integration Time (sec): 1.000000E-1
Scans to average: 1
Electric dark correction enabled: true
Nonlinearity correction enabled: false
Boxcar width: 0
XAxis mode: Wavelengths
Number of Pixels in Spectrum: 2048
>>>>>Begin Spectral Data<<<<<
223.165	4
223.4	4
223.635	4
223.869	-16
224.104	-33
224.338	-13
224.573	-10
224.808	-15
225.042	-2
225.277	-4
225.511	-5
225.746	2
225.98	3
226.215	11
226.449	9
226.683	19
226.918	14
227.152	36
227.387	35
227.621	38
227.856	45
228.09	33
228.324	50
228.559	65
228.793	59
229.027	64
229.262	66
229.496	74
229.73	78
229.964	86
230.199	75
230.433	72
230.667	83
230.901	87
231.136	70
231.37	67
231.604	68
231.838	82
232.072	74
232.306	79
232.541	76
232.775	77
233.009	79
233.243	84
233.477	92
233.711	90
233.945	82
234.179	93
234.413	86
234.647	81
234.881	77
235.115	80
235.349	90
235.583	82
235.817	79
236.051	76
236.285	77
236.519	82
236.753	88
236.987	77
237.221	90
237.455	81
237.689	82
237.922	83
238.156	68
238.39	69
238.624	78
238.858	69
239.091	73
239.325	86
239.559	80
239.793	81
240.027	68
240.26	79
240.494	93
240.728	93
240.961	98
241.195	75
241.429	68
241.662	76
241.896	94
242.13	74
242.363	74
242.597	72
242.83	82
243.064	77
243.298	72
243.531	75
243.765	80
243.998	85
244.232	73
244.465	90
244.699	72
244.932	72
245.166	76
245.399	69
245.633	62
245.866	70
246.099	83
246.333	83
246.566	88
246.8	77
247.033	72
247.266	78
247.5	86
247.733	91
247.966	70
248.2	78
248.433	80
248.666	85
248.899	77
249.133	92
249.366	97
249.599	82
249.832	66
250.066	88
250.299	78
250.532	82
250.765	77
250.998	85
251.231	75
251.465	81
251.698	84
251.931	72
252.164	76
252.397	70
252.63	84
252.863	82
253.096	81
253.329	81
253.562	75
253.795	66
254.028	77
254.261	84
254.494	76
254.727	91
254.96	89
255.193	84
255.426	88
255.659	78
255.892	92
256.124	94
256.357	99
256.59	91
256.823	67
257.056	66
257.289	69
257.521	78
257.754	76
257.987	85
258.22	86
258.452	84
258.685	84
258.918	81
259.151	76
259.383	82
259.616	72
259.849	89
260.081	80
260.314	76
260.547	77
260.779	82
261.012	83
261.244	80
261.477	85
261.71	78
261.942	107
262.175	104
262.407	98
262.64	84
262.872	93
263.105	83
263.337	82
263.57	75
263.802	80
264.035	93
264.267	86
264.499	85
264.732	83
264.964	72
265.197	76
265.429	87
265.661	102
265.894	72
266.126	80
266.358	93
266.591	90
266.823	92
267.055	80
267.287	80
267.52	88
267.752	91
267.984	86
268.216	81
268.448	95
268.681	73
268.913	106
269.145	79
269.377	82
269.609	67
269.841	82
270.073	77
270.306	86
270.538	97
270.77	81
271.002	82
271.234	85
271.466	84
271.698	87
271.93	92
272.162	69
272.394	78
272.626	80
272.858	103
273.09	95
273.322	91
273.553	96
273.785	83
274.017	68
274.249	85
274.481	84
274.713	84
274.945	81
275.176	91
275.408	83
275.64	85
275.872	84
276.104	87
276.335	100
276.567	90
276.799	93
277.031	95
277.262	74
277.494	100
277.726	78
277.957	83
278.189	80
278.421	74
278.652	86
278.884	91
279.115	82
279.347	80
279.579	61
279.81	70
280.042	92
280.273	83
280.505	79
280.736	82
280.968	88
281.199	86
281.431	83
281.662	78
281.894	95
282.125	101
282.356	122
282.588	114
282.819	109
283.051	88
283.282	83
283.513	80
283.745	83
283.976	92
284.207	97
284.439	85
284.67	89
284.901	97
285.132	83
285.364	91
285.595	82
285.826	96
286.057	79
286.288	94
286.52	73
286.751	82
286.982	86
287.213	94
287.444	80
287.675	93
287.906	88
288.138	101
288.369	92
288.6	84
288.831	90
289.062	101
289.293	80
289.524	102
289.755	89
289.986	78
290.217	93
290.448	81
290.679	92
290.91	80
291.141	92
291.371	100
291.602	91
291.833	84
292.064	85
292.295	89
292.526	79
292.757	88
292.987	99
293.218	98
293.449	88
293.68	75
293.91	78
294.141	81
294.372	86
294.603	85
294.833	97
295.064	92
295.295	92
295.525	85
295.756	99
295.987	121
296.217	133
296.448	128
296.679	75
296.909	86
297.14	84
297.37	99
297.601	89
297.831	74
298.062	84
298.292	83
298.523	88
298.753	97
298.984	91
299.214	86
299.445	93
299.675	107
299.905	86
300.136	88
300.366	83
300.597	78
300.827	78
301.057	107
301.288	101
301.518	80
301.748	84
301.979	90
302.209	83
302.439	91
302.669	87
302.9	92
303.13	89
303.36	89
303.59	92
303.82	91
304.051	90
304.281	87
304.511	104
304.741	85
304.971	93
305.201	91
305.431	92
305.661	101
305.891	88
306.121	92
306.352	100
306.582	97
306.812	84
307.042	95
307.272	97
307.502	82
307.731	84
307.961	97
308.191	84
308.421	81
308.651	77
308.881	97
309.111	102
309.341	94
309.571	87
309.8	103
310.03	96
310.26	93
310.49	76
310.72	99
310.949	99
311.179	96
311.409	74
311.639	86
311.868	90
312.098	92
312.328	86
312.557	99
312.787	106
313.017	86
313.246	99
313.476	94
313.706	103
313.935	80
314.165	94
314.394	101
314.624	85
314.853	95
315.083	94
315.312	88
315.542	93
315.771	81
316.001	88
316.23	91
316.46	76
316.689	95
316.919	90
317.148	106
317.377	98
317.607	82
317.836	82
318.065	101
318.295	96
318.524	95
318.753	91
318.983	94
319.212	96
319.441	109
319.67	109
319.9	94
320.129	80
320.358	93
320.587	93
320.816	103
321.046	100
321.275	98
321.504	98
321.733	89
321.962	92
322.191	98
322.42	113
322.649	105
322.878	105
323.108	109
323.337	132
323.566	122
323.795	138
324.024	213
324.253	391
324.482	782
324.71	1682
324.939	2165
325.168	774
325.397	252
325.626	162
325.855	116
326.084	119
326.313	128
326.542	153
326.77	228
326.999	456
327.228	923
327.457	1672
327.686	1296
327.914	361
328.143	198
328.372	126
328.6	126
328.829	97
329.058	109
329.287	104
329.515	112
329.744	112
329.972	98
330.201	85
330.43	93
330.658	110
330.887	140
331.115	120
331.344	103
331.572	101
331.801	98
332.03	82
332.258	82
332.486	97
332.715	91
332.943	90
333.172	87
333.4	92
333.629	110
333.857	102
334.085	98
334.314	89
334.542	91
334.771	90
334.999	101
335.227	96
335.455	88
335.684	102
335.912	84
336.14	79
336.369	95
336.597	94
336.825	92
337.053	61
337.281	69
337.51	90
337.738	101
337.966	98
338.194	100
338.422	103
338.65	93
338.878	97
339.106	88
339.334	85
339.562	85
339.79	94
340.018	91
340.246	90
340.474	85
340.702	104
340.93	91
341.158	88
341.386	82
341.614	100
341.842	75
342.07	76
342.298	89
342.526	89
342.754	86
342.981	98
343.209	89
343.437	107
343.665	97
343.893	76
344.12	89
344.348	80
344.576	88
344.804	76
345.031	101
345.259	87
345.487	87
345.714	94
345.942	83
346.17	108
346.397	96
346.625	93
346.853	81
347.08	98
347.308	100
347.535	94
347.763	104
347.99	98
348.218	94
348.445	103
348.673	108
348.9	113
349.128	95
349.355	98
349.583	89
349.81	93
350.037	97
350.265	104
350.492	101
350.72	88
350.947	103
351.174	118
351.402	110
351.629	100
351.856	113
352.083	121
352.311	101
352.538	92
352.765	93
352.992	115
353.22	113
353.447	100
353.674	91
353.901	94
354.128	106
354.355	94
354.583	98
354.81	96
355.037	103
355.264	93
355.491	99
355.718	86
355.945	93
356.172	100
356.399	99
356.626	91
356.853	85
357.08	89
357.307	85
357.534	90
357.761	88
357.988	100
358.215	101
358.441	93
358.668	85
358.895	92
359.122	83
359.349	84
359.576	88
359.802	98
360.029	111
360.256	113
360.483	92
360.709	86
360.936	102
361.163	90
361.39	99
361.616	97
361.843	103
362.07	100
362.296	104
362.523	83
362.749	90
362.976	101
363.203	86
363.429	72
363.656	98
363.882	87
364.109	95
364.335	94
364.562	76
364.788	69
365.015	98
365.241	103
365.468	90
365.694	106
365.92	93
366.147	99
366.373	85
366.599	100
366.826	90
367.052	80
367.278	100
367.505	91
367.731	105
367.957	84
368.184	93
368.41	98
368.636	105
368.862	105
369.089	103
369.315	89
369.541	106
369.767	86
369.993	85
370.219	89
370.445	83
370.672	91
370.898	82
371.124	99
371.35	83
371.576	88
371.802	90
372.028	96
372.254	89
372.48	88
372.706	89
372.932	88
373.158	84
373.384	93
373.61	92
373.835	82
374.061	87
374.287	85
374.513	84
374.739	83
374.965	89
375.191	81
375.416	79
375.642	96
375.868	84
376.094	83
376.319	87
376.545	82
376.771	86
376.997	79
377.222	93
377.448	88
377.674	78
377.899	92
378.125	75
378.35	90
378.576	87
378.802	89
379.027	83
379.253	86
379.478	86
379.704	97
379.929	99
380.155	79
380.38	97
380.606	87
380.831	93
381.057	92
381.282	98
381.507	78
381.733	104
381.958	90
382.184	101
382.409	105
382.634	92
382.86	93
383.085	86
383.31	88
383.535	99
383.761	90
383.986	94
384.211	100
384.436	87
384.662	98
384.887	89
385.112	92
385.337	101
385.562	86
385.787	100
386.013	106
386.238	105
386.463	120
386.688	110
386.913	79
387.138	108
387.363	100
387.588	99
387.813	98
388.038	97
388.263	106
388.488	101
388.713	94
388.938	90
389.163	92
389.387	101
389.612	84
389.837	98
390.062	88
390.287	81
390.512	91
390.736	101
390.961	102
391.186	82
391.411	86
391.636	78
391.86	92
392.085	87
392.31	69
392.534	82
392.759	85
392.984	89
393.208	80
393.433	87
393.658	85
393.882	82
394.107	90
394.331	85
394.556	91
394.78	88
395.005	89
395.229	91
395.454	90
395.678	95
395.903	88
396.127	80
396.352	78
396.576	73
396.801	92
397.025	101
397.249	88
397.474	91
397.698	106
397.922	99
398.147	96
398.371	94
398.595	94
398.82	86
399.044	94
399.268	84
399.492	73
399.717	90
399.941	100
400.165	95
400.389	98
400.613	81
400.837	83
401.062	85
401.286	90
401.51	75
401.734	76
401.958	100
402.182	128
402.406	157
402.63	105
402.854	73
403.078	91
403.302	97
403.526	93
403.75	88
403.974	92
404.198	96
404.422	87
404.645	92
404.869	88
405.093	85
405.317	87
405.541	101
405.765	96
405.988	101
406.212	159
406.436	203
406.66	137
406.883	93
407.107	73
407.331	82
407.555	100
407.778	86
408.002	92
408.226	101
408.449	90
408.673	93
408.896	97
409.12	113
409.344	85
409.567	99
409.791	92
410.014	88
410.238	90
410.461	98
410.685	94
410.908	99
411.132	100
411.355	78
411.578	91
411.802	95
412.025	88
412.249	81
412.472	84
412.695	90
412.919	81
413.142	87
413.365	88
413.589	101
413.812	90
414.035	92
414.258	91
414.482	100
414.705	83
414.928	92
415.151	85
415.374	93
415.597	103
415.821	94
416.044	85
416.267	88
416.49	90
416.713	104
416.936	91
417.159	82
417.382	90
417.605	100
417.828	84
418.051	89
418.274	80
418.497	90
418.72	84
418.943	92
419.166	87
419.389	87
419.611	99
419.834	83
420.057	90
420.28	92
420.503	91
420.726	86
420.948	80
421.171	82
421.394	104
421.617	84
421.839	94
422.062	85
422.285	90
422.507	94
422.73	101
422.953	91
423.175	79
423.398	68
423.621	88
423.843	82
424.066	93
424.288	95
424.511	86
424.733	87
424.956	95
425.178	103
425.401	80
425.623	108
425.846	98
426.068	93
426.291	83
426.513	76
426.735	93
426.958	98
427.18	90
427.402	112
427.625	147
427.847	121
428.069	99
428.292	83
428.514	101
428.736	90
428.958	82
429.181	74
429.403	77
429.625	90
429.847	89
430.069	104
430.292	98
430.514	81
430.736	85
430.958	85
431.18	87
431.402	75
431.624	102
431.846	105
432.068	79
432.29	97
432.512	80
432.734	100
432.956	83
433.178	92
433.4	103
433.622	95
433.844	76
434.066	89
434.287	96
434.509	102
434.731	87
434.953	91
435.175	85
435.397	97
435.618	96
435.84	99
436.062	109
436.284	105
436.505	104
436.727	82
436.949	89
437.17	84
437.392	89
437.614	93
437.835	89
438.057	93
438.278	97
438.5	126
438.721	121
438.943	89
439.165	97
439.386	93
439.608	97
439.829	109
440.05	109
440.272	112
440.493	100
440.715	85
440.936	90
441.158	73
441.379	78
441.6	97
441.822	86
442.043	95
442.264	90
442.486	94
442.707	82
442.928	104
443.149	123
443.371	116
443.592	106
443.813	105
444.034	97
444.255	80
444.476	92
444.698	101
444.919	92
445.14	130
445.361	107
445.582	108
445.803	125
446.024	119
446.245	116
446.466	104
446.687	82
446.908	84
447.129	82
447.35	99
447.571	104
447.792	87
448.013	102
448.234	92
448.455	101
448.675	123
448.896	101
449.117	93
449.338	93
449.559	110
449.779	128
450	82
450.221	86
450.442	96
450.662	104
450.883	84
451.104	98
451.324	78
451.545	92
451.766	87
451.986	88
452.207	83
452.428	98
452.648	102
452.869	97
453.089	98
453.31	118
453.53	89
453.751	72
453.971	97
454.192	92
454.412	80
454.633	83
454.853	87
455.073	82
455.294	77
455.514	103
455.734	88
455.955	84
456.175	80
456.395	93
456.616	75
456.836	78
457.056	86
457.276	87
457.497	91
457.717	88
457.937	97
458.157	85
458.377	92
458.598	106
458.818	134
459.038	134
459.258	109
459.478	90
459.698	97
459.918	86
460.138	75
460.358	73
460.578	80
460.798	85
461.018	85
461.238	83
461.458	94
461.678	89
461.898	87
462.118	76
462.338	77
462.558	96
462.777	80
462.997	94
463.217	92
463.437	88
463.657	81
463.876	93
464.096	81
464.316	89
464.536	96
464.755	82
464.975	115
465.195	138
465.414	132
465.634	91
465.854	98
466.073	76
466.293	86
466.512	85
466.732	78
466.951	88
467.171	90
467.391	92
467.61	109
467.829	98
468.049	74
468.268	85
468.488	76
468.707	87
468.927	75
469.146	88
469.365	81
469.585	88
469.804	88
470.023	93
470.243	89
470.462	87
470.681	109
470.901	99
471.12	81
471.339	88
471.558	88
471.777	76
471.997	88
472.216	88
472.435	85
472.654	106
472.873	98
473.092	85
473.311	92
473.53	90
473.749	87
473.968	74
474.187	91
474.406	84
474.625	88
474.844	86
475.063	92
475.282	85
475.501	97
475.72	87
475.939	97
476.158	88
476.377	80
476.596	87
476.814	92
477.033	89
477.252	81
477.471	91
477.69	94
477.908	86
478.127	95
478.346	78
478.564	84
478.783	89
479.002	81
479.22	100
479.439	89
479.658	108
479.876	97
480.095	88
480.313	91
480.532	85
480.751	87
480.969	94
481.188	88
481.406	97
481.624	108
481.843	81
482.061	85
482.28	89
482.498	92
482.717	98
482.935	79
483.153	94
483.372	93
483.59	105
483.808	82
484.027	99
484.245	88
484.463	91
484.681	91
484.9	97
485.118	98
485.336	98
485.554	83
485.772	108
485.99	99
486.209	104
486.427	101
486.645	100
486.863	105
487.081	102
487.299	93
487.517	67
487.735	88
487.953	81
488.171	92
488.389	93
488.607	107
488.825	95
489.043	77
489.261	93
489.479	95
489.696	102
489.914	103
490.132	85
490.35	83
490.568	93
490.786	102
491.003	83
491.221	92
491.439	82
491.657	104
491.874	100
492.092	93
492.31	84
492.527	96
492.745	84
492.963	99
493.18	93
493.398	88
493.615	103
493.833	92
494.05	97
494.268	97
494.485	94
494.703	106
494.92	82
495.138	76
495.355	94
495.573	84
495.79	84
496.008	101
496.225	89
496.442	75
496.66	97
496.877	84
497.094	76
497.312	93
497.529	92
497.746	88
497.963	84
498.181	89
498.398	81
498.615	101
498.832	99
499.049	90
499.267	94
499.484	85
499.701	85
499.918	94
500.135	69
500.352	83
500.569	88
500.786	83
501.003	81
501.22	90
501.437	89
501.654	92
501.871	100
502.088	79
502.305	87
502.522	82
502.739	96
502.956	99
503.172	85
503.389	103
503.606	96
503.823	96
504.04	91
504.256	92
504.473	90
504.69	88
504.907	100
505.123	92
505.34	92
505.557	83
505.773	77
505.99	100
506.207	87
506.423	80
506.64	90
506.856	100
507.073	89
507.289	91
507.506	91
507.722	114
507.939	118
508.155	91
508.372	84
508.588	101
508.805	97
509.021	99
509.238	94
509.454	93
509.67	94
509.887	107
510.103	118
510.319	206
510.536	731
510.752	2273
510.968	635
511.184	156
511.401	117
511.617	100
511.833	100
512.049	97
512.265	76
512.481	78
512.698	90
512.914	88
513.13	87
513.346	94
513.562	85
513.778	97
513.994	94
514.21	103
514.426	122
514.642	126
514.858	113
515.074	147
515.29	410
515.506	1288
515.721	498
515.937	143
516.153	91
516.369	103
516.585	95
516.801	98
517.016	101
517.232	94
517.448	78
517.664	90
517.879	82
518.095	97
518.311	91
518.527	96
518.742	89
518.958	96
519.173	90
519.389	103
519.605	89
519.82	97
520.036	100
520.251	118
520.467	111
520.682	114
520.898	111
521.113	108
521.329	133
521.544	194
521.76	518
521.975	2145
522.19	1308
522.406	294
522.621	114
522.836	86
523.052	109
523.267	112
523.482	97
523.698	94
523.913	116
524.128	108
524.343	105
524.559	105
524.774	80
524.989	92
525.204	104
525.419	78
525.634	96
525.849	68
526.064	97
526.28	84
526.495	91
526.71	87
526.925	86
527.14	93
527.355	94
527.57	97
527.785	84
527.999	85
528.214	91
528.429	95
528.644	83
528.859	92
529.074	105
529.289	115
529.503	172
529.718	93
529.933	81
530.148	93
530.363	100
530.577	86
530.792	93
531.007	92
531.221	94
531.436	85
531.651	107
531.865	89
532.08	92
532.295	73
532.509	98
532.724	85
532.938	99
533.153	88
533.367	94
533.582	93
533.796	67
534.011	96
534.225	84
534.44	102
534.654	92
534.868	89
535.083	85
535.297	107
535.511	101
535.726	99
535.94	98
536.154	93
536.369	96
536.583	87
536.797	95
537.011	91
537.225	80
537.44	91
537.654	83
537.868	100
538.082	97
538.296	78
538.51	92
538.724	98
538.938	84
539.153	106
539.367	93
539.581	98
539.795	90
540.009	96
540.222	108
540.436	88
540.65	90
540.864	96
541.078	113
541.292	88
541.506	84
541.72	94
541.934	74
542.147	97
542.361	89
542.575	90
542.789	92
543.002	87
543.216	94
543.43	103
543.644	99
543.857	101
544.071	108
544.285	97
544.498	100
544.712	96
544.925	92
545.139	81
545.352	97
545.566	76
545.779	76
545.993	102
546.206	88
546.42	76
546.633	89
546.847	93
547.06	84
547.274	82
547.487	98
547.7	81
547.914	88
548.127	100
548.34	90
548.554	84
548.767	92
548.98	76
549.193	81
549.407	82
549.62	79
549.833	85
550.046	87
550.259	94
550.473	98
550.686	81
550.899	82
551.112	89
551.325	87
551.538	83
551.751	88
551.964	90
552.177	102
552.39	82
552.603	100
552.816	81
553.029	86
553.242	103
553.455	83
553.667	102
553.88	101
554.093	91
554.306	88
554.519	90
554.732	96
554.944	96
555.157	97
555.37	95
555.583	82
555.795	96
556.008	97
556.221	88
556.433	91
556.646	98
556.859	86
557.071	93
557.284	90
557.496	90
557.709	98
557.921	95
558.134	85
558.346	81
558.559	86
558.771	110
558.984	102
559.196	93
559.409	93
559.621	92
559.833	83
560.046	92
560.258	98
560.47	84
560.683	82
560.895	86
561.107	94
561.32	93
561.532	84
561.744	93
561.956	95
562.168	89
562.381	81
562.593	88
562.805	95
563.017	99
563.229	88
563.441	98
563.653	93
563.865	78
564.077	74
564.289	89
564.501	92
564.713	120
564.925	90
565.137	105
565.349	101
565.561	81
565.773	77
565.985	86
566.197	92
566.408	94
566.62	88
566.832	103
567.044	82
567.255	86
567.467	89
567.679	85
567.891	87
568.102	92
568.314	80
568.526	85
568.737	85
568.949	89
569.161	83
569.372	86
569.584	82
569.795	93
570.007	123
570.218	246
570.43	138
570.641	110
570.853	81
571.064	96
571.276	101
571.487	93
571.698	80
571.91	84
572.121	84
572.333	85
572.544	111
572.755	85
572.966	94
573.178	89
573.389	93
573.6	96
573.811	98
574.023	87
574.234	99
574.445	79
574.656	90
574.867	80
575.078	80
575.289	84
575.501	90
575.712	80
575.923	79
576.134	83
576.345	83
576.556	105
576.767	82
576.978	84
577.188	101
577.399	99
577.61	99
577.821	94
578.032	98
578.243	268
578.454	753
578.665	222
578.875	105
579.086	84
579.297	100
579.508	93
579.718	99
579.929	90
580.14	82
580.35	81
580.561	87
580.772	85
580.982	86
581.193	87
581.403	75
581.614	85
581.825	87
582.035	89
582.246	93
582.456	82
582.667	87
582.877	94
583.087	86
583.298	79
583.508	83
583.719	95
583.929	89
584.139	103
584.35	87
584.56	82
584.77	90
584.981	90
585.191	95
