Data from Uncirc_2000_H10_HRD10591_00029.txt Node
Date: Wed Jan 03 10:48:23 EST 2024
User: Yrep
Spectrometer: HR+D1059
Trigger mode: 1
Integration Time (sec): 1.000000E-1
Scans to average: 1
Electric dark correction enabled: true
Nonlinearity correction enabled: false
Boxcar width: 0
XAxis mode: Wavelengths
Number of Pixels in Spectrum: 2048
>>>>>Begin Spectral Data<<<<<
223.165	-14.75
223.4	-14.75
223.635	-14.75
223.869	-19.75
224.104	-14.75
224.338	-12.75
224.573	-21.75
224.808	-9.75
225.042	1.25
225.277	-6.75
225.511	14.25
225.746	-6.75
225.98	-9.75
226.215	6.25
226.449	21.25
226.683	9.25
226.918	34.25
227.152	30.25
227.387	31.25
227.621	40.25
227.856	37.25
228.09	36.25
228.324	46.25
228.559	46.25
228.793	69.25
229.027	64.25
229.262	73.25
229.496	65.25
229.73	83.25
229.964	76.25
230.199	83.25
230.433	71.25
230.667	81.25
230.901	74.25
231.136	75.25
231.37	71.25
231.604	74.25
231.838	85.25
232.072	95.25
232.306	92.25
232.541	73.25
232.775	96.25
233.009	84.25
233.243	84.25
233.477	76.25
233.711	67.25
233.945	73.25
234.179	76.25
234.413	88.25
234.647	82.25
234.881	88.25
235.115	109.25
235.349	82.25
235.583	82.25
235.817	76.25
236.051	81.25
236.285	79.25
236.519	82.25
236.753	92.25
236.987	71.25
237.221	64.25
237.455	77.25
237.689	73.25
237.922	68.25
238.156	72.25
238.39	76.25
238.624	71.25
238.858	72.25
239.091	68.25
239.325	65.25
239.559	73.25
239.793	73.25
240.027	60.25
240.26	69.25
240.494	92.25
240.728	80.25
240.961	69.25
241.195	86.25
241.429	78.25
241.662	89.25
241.896	74.25
242.13	68.25
242.363	77.25
242.597	78.25
242.83	64.25
243.064	68.25
243.298	68.25
243.531	70.25
243.765	77.25
243.998	74.25
244.232	89.25
244.465	77.25
244.699	69.25
244.932	61.25
245.166	77.25
245.399	84.25
245.633	83.25
245.866	77.25
246.099	78.25
246.333	81.25
246.566	80.25
246.8	85.25
247.033	83.25
247.266	76.25
247.5	65.25
247.733	79.25
247.966	68.25
248.2	76.25
248.433	85.25
248.666	74.25
248.899	61.25
249.133	96.25
249.366	81.25
249.599	86.25
249.832	73.25
250.066	82.25
250.299	87.25
250.532	85.25
250.765	82.25
250.998	81.25
251.231	80.25
251.465	74.25
251.698	79.25
251.931	70.25
252.164	71.25
252.397	84.25
252.63	75.25
252.863	89.25
253.096	77.25
253.329	76.25
253.562	74.25
253.795	81.25
254.028	94.25
254.261	77.25
254.494	71.25
254.727	83.25
254.96	93.25
255.193	77.25
255.426	86.25
255.659	85.25
255.892	69.25
256.124	89.25
256.357	83.25
256.59	80.25
256.823	76.25
257.056	85.25
257.289	86.25
257.521	86.25
257.754	84.25
257.987	79.25
258.22	85.25
258.452	82.25
258.685	86.25
258.918	96.25
259.151	89.25
259.383	86.25
259.616	86.25
259.849	89.25
260.081	86.25
260.314	75.25
260.547	81.25
260.779	82.25
261.012	83.25
261.244	89.25
261.477	82.25
261.71	83.25
261.942	106.25
262.175	101.25
262.407	86.25
262.64	81.25
262.872	76.25
263.105	89.25
263.337	76.25
263.57	83.25
263.802	82.25
264.035	83.25
264.267	75.25
264.499	80.25
264.732	83.25
264.964	91.25
265.197	67.25
265.429	85.25
265.661	99.25
265.894	75.25
266.126	101.25
266.358	78.25
266.591	83.25
266.823	79.25
267.055	76.25
267.287	89.25
267.52	86.25
267.752	88.25
267.984	83.25
268.216	88.25
268.448	88.25
268.681	76.25
268.913	84.25
269.145	70.25
269.377	103.25
269.609	83.25
269.841	90.25
270.073	84.25
270.306	91.25
270.538	84.25
270.77	92.25
271.002	80.25
271.234	94.25
271.466	80.25
271.698	90.25
271.93	87.25
272.162	86.25
272.394	97.25
272.626	88.25
272.858	80.25
273.09	85.25
273.322	74.25
273.553	77.25
273.785	77.25
274.017	89.25
274.249	83.25
274.481	93.25
274.713	73.25
274.945	77.25
275.176	90.25
275.408	90.25
275.64	81.25
275.872	89.25
276.104	65.25
276.335	91.25
276.567	77.25
276.799	109.25
277.031	87.25
277.262	97.25
277.494	88.25
277.726	82.25
277.957	90.25
278.189	99.25
278.421	85.25
278.652	97.25
278.884	97.25
279.115	86.25
279.347	85.25
279.579	82.25
279.81	90.25
280.042	84.25
280.273	83.25
280.505	93.25
280.736	78.25
280.968	67.25
281.199	86.25
281.431	80.25
281.662	82.25
281.894	93.25
282.125	100.25
282.356	93.25
282.588	138.25
282.819	108.25
283.051	90.25
283.282	102.25
283.513	83.25
283.745	93.25
283.976	59.25
284.207	71.25
284.439	91.25
284.67	82.25
284.901	68.25
285.132	103.25
285.364	83.25
285.595	79.25
285.826	88.25
286.057	89.25
286.288	90.25
286.52	89.25
286.751	83.25
286.982	82.25
287.213	73.25
287.444	91.25
287.675	83.25
287.906	95.25
288.138	83.25
288.369	82.25
288.6	79.25
288.831	94.25
289.062	72.25
289.293	83.25
289.524	93.25
289.755	76.25
289.986	83.25
290.217	88.25
290.448	92.25
290.679	87.25
290.91	98.25
291.141	88.25
291.371	82.25
291.602	86.25
291.833	92.25
292.064	87.25
292.295	83.25
292.526	78.25
292.757	78.25
292.987	85.25
293.218	92.25
293.449	81.25
293.68	84.25
293.91	81.25
294.141	94.25
294.372	86.25
294.603	101.25
294.833	94.25
295.064	93.25
295.295	74.25
295.525	95.25
295.756	93.25
295.987	102.25
296.217	129.25
296.448	112.25
296.679	90.25
296.909	89.25
297.14	88.25
297.37	77.25
297.601	88.25
297.831	87.25
298.062	90.25
298.292	83.25
298.523	84.25
298.753	83.25
298.984	81.25
299.214	86.25
299.445	77.25
299.675	99.25
299.905	99.25
300.136	90.25
300.366	94.25
300.597	92.25
300.827	97.25
301.057	114.25
301.288	104.25
301.518	104.25
301.748	85.25
301.979	98.25
302.209	104.25
302.439	86.25
302.669	78.25
302.9	102.25
303.13	93.25
303.36	91.25
303.59	84.25
303.82	115.25
304.051	87.25
304.281	84.25
304.511	76.25
304.741	98.25
304.971	92.25
305.201	76.25
305.431	84.25
305.661	98.25
305.891	79.25
306.121	94.25
306.352	94.25
306.582	105.25
306.812	88.25
307.042	78.25
307.272	107.25
307.502	90.25
307.731	93.25
307.961	83.25
308.191	93.25
308.421	96.25
308.651	87.25
308.881	91.25
309.111	91.25
309.341	90.25
309.571	98.25
309.8	104.25
310.03	83.25
310.26	90.25
310.49	91.25
310.72	88.25
310.949	102.25
311.179	87.25
311.409	105.25
311.639	91.25
311.868	93.25
312.098	86.25
312.328	84.25
312.557	96.25
312.787	113.25
313.017	98.25
313.246	99.25
313.476	89.25
313.706	78.25
313.935	91.25
314.165	100.25
314.394	101.25
314.624	87.25
314.853	93.25
315.083	91.25
315.312	97.25
315.542	90.25
315.771	88.25
316.001	93.25
316.23	91.25
316.46	84.25
316.689	92.25
316.919	81.25
317.148	84.25
317.377	80.25
317.607	90.25
317.836	93.25
318.065	102.25
318.295	92.25
318.524	84.25
318.753	75.25
318.983	96.25
319.212	104.25
319.441	110.25
319.67	94.25
319.9	88.25
320.129	83.25
320.358	87.25
320.587	94.25
320.816	88.25
321.046	115.25
321.275	89.25
321.504	101.25
321.733	102.25
321.962	102.25
322.191	108.25
322.42	99.25
322.649	100.25
322.878	113.25
323.108	100.25
323.337	112.25
323.566	131.25
323.795	130.25
324.024	185.25
324.253	331.25
324.482	696.25
324.71	1369.25
324.939	1826.25
325.168	688.25
325.397	220.25
325.626	137.25
325.855	122.25
326.084	117.25
326.313	117.25
326.542	136.25
326.77	210.25
326.999	408.25
327.228	803.25
327.457	1436.25
327.686	1118.25
327.914	313.25
328.143	168.25
328.372	137.25
328.6	113.25
328.829	111.25
329.058	117.25
329.287	106.25
329.515	99.25
329.744	105.25
329.972	109.25
330.201	89.25
330.43	88.25
330.658	111.25
330.887	115.25
331.115	110.25
331.344	92.25
331.572	96.25
331.801	92.25
332.03	101.25
332.258	89.25
332.486	86.25
332.715	97.25
332.943	91.25
333.172	103.25
333.4	103.25
333.629	87.25
333.857	99.25
334.085	99.25
334.314	88.25
334.542	92.25
334.771	92.25
334.999	104.25
335.227	94.25
335.455	89.25
335.684	96.25
335.912	82.25
336.14	90.25
336.369	103.25
336.597	92.25
336.825	93.25
337.053	104.25
337.281	88.25
337.51	86.25
337.738	83.25
337.966	76.25
338.194	93.25
338.422	94.25
338.65	83.25
338.878	76.25
339.106	93.25
339.334	84.25
339.562	81.25
339.79	96.25
340.018	89.25
340.246	95.25
340.474	84.25
340.702	90.25
340.93	87.25
341.158	90.25
341.386	108.25
341.614	85.25
341.842	88.25
342.07	92.25
342.298	97.25
342.526	104.25
342.754	81.25
342.981	92.25
343.209	81.25
343.437	96.25
343.665	81.25
343.893	95.25
344.12	103.25
344.348	101.25
344.576	98.25
344.804	79.25
345.031	92.25
345.259	110.25
345.487	101.25
345.714	90.25
345.942	93.25
346.17	93.25
346.397	89.25
346.625	90.25
346.853	103.25
347.08	81.25
347.308	78.25
347.535	80.25
347.763	97.25
347.99	92.25
348.218	87.25
348.445	100.25
348.673	107.25
348.9	109.25
349.128	101.25
349.355	99.25
349.583	91.25
349.81	94.25
350.037	94.25
350.265	97.25
350.492	88.25
350.72	87.25
350.947	108.25
351.174	101.25
351.402	86.25
351.629	102.25
351.856	99.25
352.083	98.25
352.311	97.25
352.538	110.25
352.765	95.25
352.992	121.25
353.22	115.25
353.447	96.25
353.674	98.25
353.901	100.25
354.128	101.25
354.355	109.25
354.583	84.25
354.81	101.25
355.037	102.25
355.264	104.25
355.491	96.25
355.718	91.25
355.945	94.25
356.172	93.25
356.399	109.25
356.626	96.25
356.853	89.25
357.08	97.25
357.307	92.25
357.534	91.25
357.761	94.25
357.988	96.25
358.215	83.25
358.441	92.25
358.668	92.25
358.895	94.25
359.122	80.25
359.349	82.25
359.576	90.25
359.802	94.25
360.029	110.25
360.256	98.25
360.483	93.25
360.709	91.25
360.936	86.25
361.163	88.25
361.39	69.25
361.616	92.25
361.843	91.25
362.07	99.25
362.296	94.25
362.523	101.25
362.749	93.25
362.976	86.25
363.203	92.25
363.429	81.25
363.656	86.25
363.882	85.25
364.109	92.25
364.335	102.25
364.562	88.25
364.788	86.25
365.015	92.25
365.241	93.25
365.468	98.25
365.694	96.25
365.92	93.25
366.147	96.25
366.373	103.25
366.599	84.25
366.826	78.25
367.052	88.25
367.278	89.25
367.505	88.25
367.731	98.25
367.957	104.25
368.184	94.25
368.41	98.25
368.636	115.25
368.862	98.25
369.089	112.25
369.315	89.25
369.541	98.25
369.767	80.25
369.993	96.25
370.219	103.25
370.445	87.25
370.672	87.25
370.898	77.25
371.124	80.25
371.35	86.25
371.576	99.25
371.802	90.25
372.028	98.25
372.254	78.25
372.48	80.25
372.706	99.25
372.932	94.25
373.158	77.25
373.384	85.25
373.61	89.25
373.835	85.25
374.061	97.25
374.287	96.25
374.513	77.25
374.739	92.25
374.965	92.25
375.191	82.25
375.416	104.25
375.642	91.25
375.868	105.25
376.094	100.25
376.319	94.25
376.545	83.25
376.771	92.25
376.997	88.25
377.222	94.25
377.448	90.25
377.674	75.25
377.899	85.25
378.125	93.25
378.35	94.25
378.576	83.25
378.802	92.25
379.027	98.25
379.253	87.25
379.478	87.25
379.704	81.25
379.929	98.25
380.155	102.25
380.38	87.25
380.606	89.25
380.831	100.25
381.057	92.25
381.282	86.25
381.507	89.25
381.733	94.25
381.958	87.25
382.184	96.25
382.409	94.25
382.634	102.25
382.86	104.25
383.085	91.25
383.31	102.25
383.535	110.25
383.761	98.25
383.986	97.25
384.211	93.25
384.436	93.25
384.662	113.25
384.887	103.25
385.112	101.25
385.337	99.25
385.562	86.25
385.787	101.25
386.013	107.25
386.238	112.25
386.463	107.25
386.688	96.25
386.913	102.25
387.138	113.25
387.363	102.25
387.588	98.25
387.813	98.25
388.038	90.25
388.263	112.25
388.488	88.25
388.713	81.25
388.938	91.25
389.163	100.25
389.387	87.25
389.612	86.25
389.837	80.25
390.062	70.25
390.287	98.25
390.512	94.25
390.736	99.25
390.961	100.25
391.186	92.25
391.411	100.25
391.636	102.25
391.86	102.25
392.085	74.25
392.31	73.25
392.534	94.25
392.759	86.25
392.984	80.25
393.208	90.25
393.433	101.25
393.658	103.25
393.882	93.25
394.107	82.25
394.331	91.25
394.556	79.25
394.78	100.25
395.005	93.25
395.229	75.25
395.454	89.25
395.678	78.25
395.903	100.25
396.127	91.25
396.352	82.25
396.576	94.25
396.801	77.25
397.025	90.25
397.249	86.25
397.474	93.25
397.698	81.25
397.922	85.25
398.147	89.25
398.371	75.25
398.595	82.25
398.82	93.25
399.044	76.25
399.268	89.25
399.492	92.25
399.717	74.25
399.941	89.25
400.165	99.25
400.389	86.25
400.613	68.25
400.837	94.25
401.062	86.25
401.286	105.25
401.51	70.25
401.734	87.25
401.958	92.25
402.182	114.25
402.406	120.25
402.63	106.25
402.854	94.25
403.078	93.25
403.302	97.25
403.526	85.25
403.75	94.25
403.974	85.25
404.198	104.25
404.422	92.25
404.645	93.25
404.869	90.25
405.093	98.25
405.317	91.25
405.541	106.25
405.765	99.25
405.988	109.25
406.212	151.25
406.436	171.25
406.66	119.25
406.883	98.25
407.107	101.25
407.331	81.25
407.555	100.25
407.778	92.25
408.002	73.25
408.226	86.25
408.449	96.25
408.673	89.25
408.896	103.25
409.12	99.25
409.344	87.25
409.567	81.25
409.791	91.25
410.014	98.25
410.238	102.25
410.461	89.25
410.685	105.25
410.908	96.25
411.132	106.25
411.355	108.25
411.578	88.25
411.802	90.25
412.025	92.25
412.249	82.25
412.472	75.25
412.695	88.25
412.919	79.25
413.142	82.25
413.365	85.25
413.589	95.25
413.812	94.25
414.035	93.25
414.258	93.25
414.482	100.25
414.705	84.25
414.928	96.25
415.151	93.25
415.374	81.25
415.597	73.25
415.821	89.25
416.044	82.25
416.267	82.25
416.49	80.25
416.713	93.25
416.936	85.25
417.159	92.25
417.382	104.25
417.605	98.25
417.828	95.25
418.051	88.25
418.274	84.25
418.497	94.25
418.72	91.25
418.943	90.25
419.166	87.25
419.389	81.25
419.611	81.25
419.834	94.25
420.057	82.25
420.28	88.25
420.503	89.25
420.726	96.25
420.948	88.25
421.171	92.25
421.394	88.25
421.617	91.25
421.839	85.25
422.062	72.25
422.285	100.25
422.507	94.25
422.73	102.25
422.953	84.25
423.175	83.25
423.398	90.25
423.621	73.25
423.843	93.25
424.066	87.25
424.288	91.25
424.511	86.25
424.733	92.25
424.956	98.25
425.178	101.25
425.401	94.25
425.623	94.25
425.846	84.25
426.068	102.25
426.291	97.25
426.513	96.25
426.735	99.25
426.958	83.25
427.18	99.25
427.402	133.25
427.625	123.25
427.847	115.25
428.069	104.25
428.292	93.25
428.514	89.25
428.736	71.25
428.958	89.25
429.181	81.25
429.403	78.25
429.625	68.25
429.847	80.25
430.069	86.25
430.292	101.25
430.514	87.25
430.736	78.25
430.958	91.25
431.18	88.25
431.402	95.25
431.624	94.25
431.846	91.25
432.068	89.25
432.29	74.25
432.512	81.25
432.734	83.25
432.956	91.25
433.178	103.25
433.4	99.25
433.622	93.25
433.844	92.25
434.066	96.25
434.287	91.25
434.509	86.25
434.731	86.25
434.953	93.25
435.175	77.25
435.397	83.25
435.618	88.25
435.84	92.25
436.062	95.25
436.284	114.25
436.505	91.25
436.727	103.25
436.949	87.25
437.17	92.25
437.392	83.25
437.614	101.25
437.835	115.25
438.057	104.25
438.278	87.25
438.5	100.25
438.721	101.25
438.943	81.25
439.165	83.25
439.386	94.25
439.608	101.25
439.829	98.25
440.05	99.25
440.272	126.25
440.493	101.25
440.715	89.25
440.936	101.25
441.158	99.25
441.379	74.25
441.6	93.25
441.822	81.25
442.043	85.25
442.264	103.25
442.486	97.25
442.707	74.25
442.928	98.25
443.149	118.25
443.371	122.25
443.592	99.25
443.813	98.25
444.034	106.25
444.255	88.25
444.476	96.25
444.698	86.25
444.919	86.25
445.14	127.25
445.361	115.25
445.582	116.25
445.803	115.25
446.024	124.25
446.245	120.25
446.466	121.25
446.687	98.25
446.908	87.25
447.129	80.25
447.35	94.25
447.571	89.25
447.792	99.25
448.013	101.25
448.234	91.25
448.455	95.25
448.675	104.25
448.896	106.25
449.117	90.25
449.338	111.25
449.559	113.25
449.779	117.25
450	89.25
450.221	89.25
450.442	103.25
450.662	78.25
450.883	98.25
451.104	98.25
451.324	81.25
451.545	92.25
451.766	89.25
451.986	102.25
452.207	73.25
452.428	94.25
452.648	97.25
452.869	105.25
453.089	120.25
453.31	106.25
453.53	95.25
453.751	100.25
453.971	95.25
454.192	104.25
454.412	92.25
454.633	75.25
454.853	88.25
455.073	81.25
455.294	76.25
455.514	98.25
455.734	89.25
455.955	69.25
456.175	84.25
456.395	86.25
456.616	92.25
456.836	87.25
457.056	94.25
457.276	89.25
457.497	78.25
457.717	84.25
457.937	81.25
458.157	90.25
458.377	84.25
458.598	82.25
458.818	124.25
459.038	136.25
459.258	113.25
459.478	80.25
459.698	89.25
459.918	84.25
460.138	95.25
460.358	90.25
460.578	81.25
460.798	79.25
461.018	103.25
461.238	88.25
461.458	73.25
461.678	77.25
461.898	72.25
462.118	80.25
462.338	73.25
462.558	76.25
462.777	86.25
462.997	76.25
463.217	78.25
463.437	85.25
463.657	86.25
463.876	83.25
464.096	77.25
464.316	86.25
464.536	93.25
464.755	94.25
464.975	92.25
465.195	140.25
465.414	137.25
465.634	90.25
465.854	95.25
466.073	71.25
466.293	83.25
466.512	81.25
466.732	100.25
466.951	106.25
467.171	94.25
467.391	105.25
467.61	103.25
467.829	99.25
468.049	103.25
468.268	84.25
468.488	78.25
468.707	69.25
468.927	99.25
469.146	87.25
469.365	84.25
469.585	90.25
469.804	87.25
470.023	92.25
470.243	87.25
470.462	93.25
470.681	87.25
470.901	100.25
471.12	84.25
471.339	81.25
471.558	87.25
471.777	80.25
471.997	88.25
472.216	81.25
472.435	96.25
472.654	94.25
472.873	93.25
473.092	89.25
473.311	78.25
473.53	72.25
473.749	87.25
473.968	82.25
474.187	91.25
474.406	97.25
474.625	98.25
474.844	90.25
475.063	93.25
475.282	91.25
475.501	93.25
475.72	89.25
475.939	87.25
476.158	99.25
476.377	92.25
476.596	83.25
476.814	88.25
477.033	89.25
477.252	96.25
477.471	88.25
477.69	77.25
477.908	79.25
478.127	78.25
478.346	93.25
478.564	91.25
478.783	74.25
479.002	92.25
479.22	93.25
479.439	101.25
479.658	96.25
479.876	99.25
480.095	85.25
480.313	87.25
480.532	88.25
480.751	87.25
480.969	80.25
481.188	96.25
481.406	93.25
481.624	99.25
481.843	100.25
482.061	76.25
482.28	92.25
482.498	90.25
482.717	90.25
482.935	88.25
483.153	84.25
483.372	80.25
483.59	90.25
483.808	79.25
484.027	84.25
484.245	108.25
484.463	99.25
484.681	93.25
484.9	98.25
485.118	96.25
485.336	82.25
485.554	85.25
485.772	103.25
485.99	97.25
486.209	98.25
486.427	101.25
486.645	102.25
486.863	97.25
487.081	97.25
487.299	87.25
487.517	98.25
487.735	96.25
487.953	97.25
488.171	98.25
488.389	102.25
488.607	99.25
488.825	62.25
489.043	87.25
489.261	86.25
489.479	91.25
489.696	89.25
489.914	92.25
490.132	89.25
490.35	83.25
490.568	102.25
490.786	82.25
491.003	90.25
491.221	85.25
491.439	92.25
491.657	94.25
491.874	90.25
492.092	77.25
492.31	94.25
492.527	94.25
492.745	92.25
492.963	88.25
493.18	84.25
493.398	82.25
493.615	91.25
493.833	103.25
494.05	93.25
494.268	91.25
494.485	89.25
494.703	86.25
494.92	99.25
495.138	90.25
495.355	96.25
495.573	91.25
495.79	84.25
496.008	88.25
496.225	81.25
496.442	84.25
496.66	92.25
496.877	73.25
497.094	109.25
497.312	88.25
497.529	84.25
497.746	85.25
497.963	93.25
498.181	82.25
498.398	99.25
498.615	100.25
498.832	91.25
499.049	88.25
499.267	94.25
499.484	93.25
499.701	97.25
499.918	85.25
500.135	73.25
500.352	94.25
500.569	93.25
500.786	96.25
501.003	87.25
501.22	93.25
501.437	82.25
501.654	75.25
501.871	105.25
502.088	86.25
502.305	86.25
502.522	71.25
502.739	85.25
502.956	93.25
503.172	94.25
503.389	84.25
503.606	88.25
503.823	89.25
504.04	89.25
504.256	88.25
504.473	90.25
504.69	91.25
504.907	92.25
505.123	106.25
505.34	82.25
505.557	76.25
505.773	87.25
505.99	83.25
506.207	87.25
506.423	88.25
506.64	89.25
506.856	90.25
507.073	89.25
507.289	93.25
507.506	90.25
507.722	107.25
507.939	101.25
508.155	105.25
508.372	92.25
508.588	99.25
508.805	99.25
509.021	107.25
509.238	91.25
509.454	100.25
509.67	107.25
509.887	96.25
510.103	114.25
510.319	195.25
510.536	656.25
510.752	1998.25
510.968	550.25
511.184	141.25
511.401	106.25
511.617	88.25
511.833	100.25
512.049	78.25
512.265	84.25
512.481	90.25
512.698	86.25
512.914	93.25
513.13	101.25
513.346	80.25
513.562	86.25
513.778	108.25
513.994	98.25
514.21	98.25
514.426	108.25
514.642	117.25
514.858	118.25
515.074	158.25
515.29	361.25
515.506	1132.25
515.721	429.25
515.937	138.25
516.153	100.25
516.369	97.25
516.585	65.25
