Data from Uncirc_2000_H10_HRD10591_00094.txt Node
Date: Wed Jan 03 10:48:36 EST 2024
User: Yrep
Spectrometer: HR+D1059
Trigger mode: 1
Integration Time (sec): 1.000000E-1
Scans to average: 1
Electric dark correction enabled: true
Nonlinearity correction enabled: false
Boxcar width: 0
XAxis mode: Wavelengths
Number of Pixels in Spectrum: 2048
>>>>>Begin Spectral Data<<<<<
223.165	-24.56
223.4	-24.56
223.635	-24.56
223.869	-15.56
224.104	-14.56
224.338	-25.56
224.573	-7.56
224.808	-11.56
225.042	-12.56
225.277	5.44
225.511	-7.56
225.746	3.44
225.98	5.44
226.215	8.44
226.449	20.44
226.683	24.44
226.918	19.44
227.152	32.44
227.387	36.44
227.621	18.44
227.856	38.44
228.09	49.44
228.324	50.44
228.559	55.44
228.793	77.44
229.027	66.44
229.262	68.44
229.496	66.44
229.73	83.44
229.964	79.44
230.199	78.44
230.433	77.44
230.667	74.44
230.901	67.44
231.136	76.44
231.37	78.44
231.604	87.44
231.838	92.44
232.072	87.44
232.306	80.44
232.541	82.44
232.775	82.44
233.009	76.44
233.243	87.44
233.477	87.44
233.711	70.44
233.945	82.44
234.179	88.44
234.413	80.44
234.647	81.44
234.881	77.44
235.115	66.44
235.349	75.44
235.583	82.44
235.817	78.44
236.051	85.44
236.285	80.44
236.519	87.44
236.753	76.44
236.987	78.44
237.221	71.44
237.455	79.44
237.689	79.44
237.922	77.44
238.156	93.44
238.39	82.44
238.624	80.44
238.858	64.44
239.091	59.44
239.325	54.44
239.559	74.44
239.793	92.44
240.027	82.44
240.26	77.44
240.494	79.44
240.728	68.44
240.961	76.44
241.195	60.44
241.429	65.44
241.662	84.44
241.896	73.44
242.13	80.44
242.363	85.44
242.597	79.44
242.83	76.44
243.064	71.44
243.298	74.44
243.531	69.44
243.765	82.44
243.998	96.44
244.232	84.44
244.465	90.44
244.699	80.44
244.932	80.44
245.166	85.44
245.399	67.44
245.633	82.44
245.866	72.44
246.099	88.44
246.333	73.44
246.566	86.44
246.8	66.44
247.033	84.44
247.266	66.44
247.5	69.44
247.733	80.44
247.966	86.44
248.2	84.44
248.433	82.44
248.666	72.44
248.899	71.44
249.133	89.44
249.366	91.44
249.599	100.44
249.832	85.44
250.066	79.44
250.299	77.44
250.532	92.44
250.765	75.44
250.998	86.44
251.231	79.44
251.465	84.44
251.698	82.44
251.931	76.44
252.164	75.44
252.397	90.44
252.63	71.44
252.863	94.44
253.096	84.44
253.329	89.44
253.562	84.44
253.795	76.44
254.028	84.44
254.261	85.44
254.494	79.44
254.727	87.44
254.96	86.44
255.193	90.44
255.426	74.44
255.659	81.44
255.892	86.44
256.124	76.44
256.357	67.44
256.59	80.44
256.823	92.44
257.056	78.44
257.289	76.44
257.521	73.44
257.754	83.44
257.987	84.44
258.22	80.44
258.452	67.44
258.685	75.44
258.918	88.44
259.151	83.44
259.383	75.44
259.616	83.44
259.849	73.44
260.081	85.44
260.314	92.44
260.547	84.44
260.779	75.44
261.012	79.44
261.244	80.44
261.477	86.44
261.71	86.44
261.942	109.44
262.175	105.44
262.407	98.44
262.64	80.44
262.872	96.44
263.105	84.44
263.337	89.44
263.57	75.44
263.802	89.44
264.035	75.44
264.267	79.44
264.499	77.44
264.732	94.44
264.964	98.44
265.197	86.44
265.429	82.44
265.661	91.44
265.894	80.44
266.126	72.44
266.358	77.44
266.591	77.44
266.823	79.44
267.055	75.44
267.287	74.44
267.52	87.44
267.752	85.44
267.984	76.44
268.216	76.44
268.448	86.44
268.681	88.44
268.913	86.44
269.145	85.44
269.377	80.44
269.609	92.44
269.841	85.44
270.073	70.44
270.306	61.44
270.538	86.44
270.77	83.44
271.002	83.44
271.234	91.44
271.466	77.44
271.698	68.44
271.93	92.44
272.162	82.44
272.394	80.44
272.626	81.44
272.858	88.44
273.09	86.44
273.322	93.44
273.553	96.44
273.785	85.44
274.017	95.44
274.249	90.44
274.481	77.44
274.713	81.44
274.945	98.44
275.176	84.44
275.408	86.44
275.64	74.44
275.872	94.44
276.104	88.44
276.335	91.44
276.567	95.44
276.799	105.44
277.031	89.44
277.262	88.44
277.494	83.44
277.726	84.44
277.957	77.44
278.189	92.44
278.421	77.44
278.652	74.44
278.884	83.44
279.115	74.44
279.347	82.44
279.579	99.44
279.81	85.44
280.042	85.44
280.273	75.44
280.505	86.44
280.736	85.44
280.968	86.44
281.199	76.44
281.431	97.44
281.662	94.44
281.894	90.44
282.125	93.44
282.356	101.44
282.588	123.44
282.819	101.44
283.051	84.44
283.282	78.44
283.513	92.44
283.745	107.44
283.976	86.44
284.207	78.44
284.439	85.44
284.67	89.44
284.901	86.44
285.132	87.44
285.364	85.44
285.595	84.44
285.826	77.44
286.057	88.44
286.288	92.44
286.52	94.44
286.751	92.44
286.982	94.44
287.213	81.44
287.444	97.44
287.675	84.44
287.906	85.44
288.138	98.44
288.369	94.44
288.6	92.44
288.831	93.44
289.062	77.44
289.293	73.44
289.524	82.44
289.755	82.44
289.986	89.44
290.217	87.44
290.448	86.44
290.679	83.44
290.91	89.44
291.141	80.44
291.371	90.44
291.602	80.44
291.833	88.44
292.064	97.44
292.295	84.44
292.526	81.44
292.757	108.44
292.987	84.44
293.218	80.44
293.449	87.44
293.68	87.44
293.91	86.44
294.141	85.44
294.372	89.44
294.603	91.44
294.833	94.44
295.064	86.44
295.295	89.44
295.525	88.44
295.756	106.44
295.987	108.44
296.217	130.44
296.448	126.44
296.679	89.44
296.909	86.44
297.14	87.44
297.37	86.44
297.601	96.44
297.831	92.44
298.062	84.44
298.292	93.44
298.523	97.44
298.753	96.44
298.984	90.44
299.214	77.44
299.445	77.44
299.675	86.44
299.905	91.44
300.136	96.44
300.366	98.44
300.597	88.44
300.827	81.44
301.057	107.44
301.288	96.44
301.518	101.44
301.748	94.44
301.979	100.44
302.209	108.44
302.439	96.44
302.669	82.44
302.9	98.44
303.13	77.44
303.36	97.44
303.59	97.44
303.82	110.44
304.051	90.44
304.281	97.44
304.511	90.44
304.741	98.44
304.971	94.44
305.201	92.44
305.431	77.44
305.661	80.44
305.891	92.44
306.121	108.44
306.352	93.44
306.582	96.44
306.812	98.44
307.042	91.44
307.272	93.44
307.502	89.44
307.731	89.44
307.961	85.44
308.191	86.44
308.421	91.44
308.651	94.44
308.881	94.44
309.111	91.44
309.341	94.44
309.571	104.44
309.8	97.44
310.03	104.44
310.26	102.44
310.49	85.44
310.72	85.44
310.949	104.44
311.179	98.44
311.409	96.44
311.639	103.44
311.868	86.44
312.098	84.44
312.328	98.44
312.557	105.44
312.787	87.44
313.017	108.44
313.246	90.44
313.476	99.44
313.706	104.44
313.935	94.44
314.165	102.44
314.394	85.44
314.624	86.44
314.853	100.44
315.083	92.44
315.312	102.44
315.542	85.44
315.771	92.44
316.001	101.44
316.23	99.44
316.46	87.44
316.689	88.44
316.919	94.44
317.148	90.44
317.377	95.44
317.607	86.44
317.836	83.44
318.065	85.44
318.295	94.44
318.524	97.44
318.753	84.44
318.983	101.44
319.212	80.44
319.441	94.44
319.67	100.44
319.9	90.44
320.129	87.44
320.358	95.44
320.587	92.44
320.816	97.44
321.046	94.44
321.275	94.44
321.504	93.44
321.733	95.44
321.962	96.44
322.191	105.44
322.42	100.44
322.649	106.44
322.878	107.44
323.108	111.44
323.337	117.44
323.566	122.44
323.795	142.44
324.024	180.44
324.253	343.44
324.482	747.44
324.71	1467.44
324.939	1921.44
325.168	736.44
325.397	216.44
325.626	143.44
325.855	105.44
326.084	104.44
326.313	107.44
326.542	146.44
326.77	211.44
326.999	412.44
327.228	824.44
327.457	1501.44
327.686	1191.44
327.914	330.44
328.143	165.44
328.372	144.44
328.6	107.44
328.829	103.44
329.058	115.44
329.287	129.44
329.515	101.44
329.744	98.44
329.972	84.44
330.201	108.44
330.43	92.44
330.658	108.44
330.887	125.44
331.115	112.44
331.344	88.44
331.572	101.44
331.801	106.44
332.03	117.44
332.258	88.44
332.486	101.44
332.715	93.44
332.943	83.44
333.172	77.44
333.4	107.44
333.629	90.44
333.857	106.44
334.085	99.44
334.314	86.44
334.542	110.44
334.771	88.44
334.999	99.44
335.227	97.44
335.455	99.44
335.684	96.44
335.912	96.44
336.14	91.44
336.369	91.44
336.597	92.44
336.825	103.44
337.053	104.44
337.281	95.44
337.51	94.44
337.738	88.44
337.966	108.44
338.194	95.44
338.422	88.44
338.65	100.44
338.878	92.44
339.106	82.44
339.334	89.44
339.562	94.44
339.79	87.44
340.018	96.44
340.246	88.44
340.474	88.44
340.702	104.44
340.93	109.44
341.158	91.44
341.386	111.44
341.614	82.44
341.842	105.44
342.07	80.44
342.298	99.44
342.526	92.44
342.754	82.44
342.981	103.44
343.209	91.44
343.437	121.44
343.665	91.44
343.893	77.44
344.12	89.44
344.348	100.44
344.576	88.44
344.804	101.44
345.031	117.44
345.259	100.44
345.487	95.44
345.714	86.44
345.942	88.44
346.17	93.44
346.397	103.44
346.625	92.44
346.853	91.44
347.08	88.44
347.308	83.44
347.535	86.44
347.763	91.44
347.99	78.44
348.218	105.44
348.445	87.44
348.673	100.44
348.9	103.44
349.128	109.44
349.355	92.44
349.583	103.44
349.81	81.44
350.037	91.44
350.265	100.44
350.492	98.44
350.72	95.44
350.947	101.44
351.174	97.44
351.402	91.44
351.629	103.44
351.856	96.44
352.083	78.44
352.311	105.44
352.538	99.44
352.765	94.44
352.992	112.44
353.22	114.44
353.447	88.44
353.674	98.44
353.901	104.44
354.128	84.44
354.355	90.44
354.583	97.44
354.81	114.44
355.037	91.44
355.264	86.44
355.491	93.44
355.718	89.44
355.945	98.44
356.172	92.44
356.399	88.44
356.626	98.44
356.853	100.44
357.08	108.44
357.307	111.44
357.534	109.44
357.761	101.44
357.988	99.44
358.215	98.44
358.441	94.44
358.668	91.44
358.895	88.44
359.122	91.44
359.349	88.44
359.576	94.44
359.802	88.44
360.029	104.44
360.256	112.44
360.483	85.44
360.709	97.44
360.936	92.44
361.163	85.44
361.39	89.44
361.616	79.44
361.843	93.44
362.07	98.44
362.296	100.44
362.523	74.44
362.749	92.44
362.976	66.44
363.203	90.44
363.429	94.44
363.656	79.44
363.882	85.44
364.109	97.44
364.335	96.44
364.562	83.44
364.788	87.44
365.015	97.44
365.241	81.44
365.468	94.44
365.694	96.44
365.92	88.44
366.147	95.44
366.373	89.44
366.599	89.44
366.826	91.44
367.052	91.44
367.278	91.44
367.505	90.44
367.731	111.44
367.957	84.44
368.184	101.44
368.41	105.44
368.636	127.44
368.862	106.44
369.089	121.44
369.315	84.44
369.541	92.44
369.767	88.44
369.993	96.44
370.219	87.44
370.445	89.44
370.672	89.44
370.898	98.44
371.124	90.44
371.35	75.44
371.576	89.44
371.802	94.44
372.028	104.44
372.254	91.44
372.48	95.44
372.706	87.44
372.932	85.44
373.158	88.44
373.384	102.44
373.61	92.44
373.835	77.44
374.061	80.44
374.287	85.44
374.513	93.44
374.739	78.44
374.965	79.44
375.191	83.44
375.416	97.44
375.642	98.44
375.868	102.44
376.094	94.44
376.319	91.44
376.545	99.44
376.771	91.44
376.997	91.44
377.222	93.44
377.448	96.44
377.674	91.44
377.899	89.44
378.125	93.44
378.35	92.44
378.576	101.44
378.802	90.44
379.027	87.44
379.253	101.44
379.478	89.44
379.704	92.44
379.929	98.44
380.155	92.44
380.38	89.44
380.606	93.44
380.831	83.44
381.057	100.44
381.282	103.44
381.507	91.44
381.733	95.44
381.958	98.44
382.184	96.44
382.409	108.44
382.634	94.44
382.86	102.44
383.085	96.44
383.31	93.44
383.535	102.44
383.761	100.44
383.986	105.44
384.211	94.44
384.436	102.44
384.662	94.44
384.887	93.44
385.112	106.44
385.337	107.44
385.562	96.44
385.787	97.44
386.013	109.44
386.238	104.44
386.463	109.44
386.688	112.44
386.913	106.44
387.138	99.44
387.363	92.44
387.588	75.44
387.813	96.44
388.038	98.44
388.263	114.44
388.488	95.44
388.713	88.44
388.938	88.44
389.163	93.44
389.387	85.44
389.612	90.44
389.837	94.44
390.062	102.44
390.287	94.44
390.512	85.44
390.736	76.44
390.961	102.44
391.186	98.44
391.411	98.44
391.636	88.44
391.86	96.44
392.085	92.44
392.31	96.44
392.534	91.44
392.759	87.44
392.984	87.44
393.208	83.44
393.433	87.44
393.658	83.44
393.882	75.44
394.107	97.44
394.331	92.44
394.556	81.44
394.78	84.44
395.005	94.44
395.229	85.44
395.454	97.44
395.678	87.44
395.903	84.44
396.127	92.44
396.352	83.44
396.576	81.44
396.801	69.44
397.025	81.44
397.249	87.44
397.474	90.44
397.698	108.44
397.922	97.44
398.147	86.44
398.371	79.44
398.595	87.44
398.82	87.44
399.044	101.44
399.268	84.44
399.492	92.44
399.717	85.44
399.941	91.44
400.165	92.44
400.389	84.44
400.613	99.44
400.837	85.44
401.062	87.44
401.286	80.44
401.51	90.44
401.734	85.44
401.958	93.44
402.182	98.44
402.406	124.44
402.63	110.44
402.854	93.44
403.078	73.44
403.302	98.44
403.526	84.44
403.75	98.44
403.974	83.44
404.198	95.44
404.422	80.44
404.645	77.44
404.869	84.44
405.093	107.44
405.317	94.44
405.541	84.44
405.765	91.44
405.988	111.44
406.212	158.44
406.436	171.44
406.66	137.44
406.883	101.44
407.107	89.44
407.331	77.44
407.555	88.44
407.778	84.44
408.002	82.44
408.226	81.44
408.449	86.44
408.673	84.44
408.896	94.44
409.12	109.44
409.344	100.44
409.567	94.44
409.791	96.44
410.014	98.44
410.238	104.44
410.461	103.44
410.685	78.44
410.908	91.44
411.132	100.44
411.355	94.44
411.578	92.44
411.802	91.44
412.025	94.44
412.249	91.44
412.472	89.44
412.695	94.44
412.919	97.44
413.142	89.44
413.365	92.44
413.589	90.44
413.812	99.44
414.035	93.44
414.258	92.44
414.482	101.44
414.705	83.44
414.928	88.44
415.151	89.44
415.374	100.44
415.597	97.44
415.821	85.44
416.044	67.44
416.267	96.44
416.49	74.44
416.713	84.44
416.936	84.44
417.159	105.44
417.382	93.44
417.605	88.44
417.828	96.44
418.051	87.44
418.274	98.44
418.497	84.44
418.72	85.44
418.943	92.44
419.166	72.44
419.389	102.44
419.611	92.44
419.834	93.44
420.057	75.44
420.28	79.44
420.503	81.44
420.726	82.44
420.948	75.44
421.171	112.44
421.394	99.44
421.617	79.44
421.839	89.44
422.062	89.44
422.285	92.44
422.507	89.44
422.73	82.44
422.953	83.44
423.175	93.44
423.398	73.44
423.621	88.44
423.843	85.44
424.066	74.44
424.288	74.44
424.511	89.44
424.733	97.44
424.956	116.44
425.178	100.44
425.401	83.44
425.623	90.44
425.846	85.44
426.068	86.44
426.291	94.44
426.513	90.44
426.735	67.44
426.958	88.44
427.18	89.44
427.402	115.44
427.625	150.44
427.847	114.44
428.069	102.44
428.292	76.44
428.514	97.44
428.736	86.44
428.958	83.44
429.181	87.44
429.403	93.44
429.625	73.44
429.847	99.44
430.069	114.44
430.292	77.44
430.514	72.44
430.736	84.44
430.958	76.44
431.18	78.44
431.402	78.44
431.624	68.44
431.846	87.44
432.068	76.44
432.29	91.44
432.512	98.44
432.734	79.44
432.956	95.44
433.178	91.44
433.4	89.44
433.622	83.44
433.844	76.44
434.066	86.44
434.287	88.44
434.509	90.44
434.731	78.44
434.953	90.44
435.175	87.44
435.397	94.44
435.618	81.44
435.84	109.44
436.062	100.44
436.284	105.44
436.505	90.44
436.727	84.44
436.949	91.44
437.17	85.44
437.392	84.44
437.614	89.44
437.835	98.44
438.057	104.44
438.278	118.44
438.5	115.44
438.721	116.44
438.943	100.44
439.165	83.44
439.386	101.44
439.608	91.44
439.829	108.44
440.05	111.44
440.272	128.44
440.493	93.44
440.715	84.44
440.936	86.44
441.158	83.44
441.379	86.44
441.6	94.44
441.822	99.44
442.043	94.44
442.264	97.44
442.486	105.44
442.707	92.44
442.928	103.44
443.149	108.44
443.371	121.44
443.592	103.44
443.813	97.44
444.034	94.44
444.255	93.44
444.476	94.44
444.698	84.44
444.919	84.44
445.14	128.44
445.361	117.44
445.582	113.44
445.803	121.44
446.024	114.44
446.245	126.44
446.466	109.44
446.687	90.44
446.908	99.44
447.129	77.44
447.35	91.44
447.571	82.44
447.792	84.44
448.013	102.44
448.234	107.44
448.455	92.44
448.675	106.44
448.896	124.44
449.117	92.44
449.338	101.44
449.559	107.44
449.779	100.44
450	88.44
450.221	93.44
450.442	91.44
450.662	93.44
450.883	90.44
451.104	109.44
451.324	96.44
451.545	90.44
451.766	84.44
451.986	93.44
452.207	72.44
452.428	82.44
452.648	83.44
452.869	98.44
453.089	118.44
453.31	101.44
453.53	91.44
453.751	82.44
453.971	110.44
454.192	102.44
454.412	88.44
454.633	69.44
454.853	87.44
455.073	82.44
455.294	91.44
455.514	87.44
455.734	90.44
455.955	87.44
456.175	77.44
456.395	92.44
456.616	59.44
456.836	71.44
457.056	88.44
457.276	98.44
457.497	93.44
457.717	85.44
457.937	88.44
458.157	90.44
458.377	98.44
458.598	113.44
458.818	140.44
459.038	143.44
459.258	88.44
459.478	82.44
459.698	83.44
459.918	86.44
460.138	85.44
460.358	92.44
460.578	88.44
460.798	84.44
461.018	88.44
461.238	91.44
461.458	85.44
461.678	80.44
461.898	80.44
462.118	88.44
462.338	73.44
462.558	89.44
462.777	91.44
462.997	86.44
463.217	94.44
463.437	84.44
463.657	86.44
463.876	94.44
464.096	86.44
464.316	97.44
464.536	93.44
464.755	94.44
464.975	93.44
465.195	149.44
465.414	137.44
465.634	99.44
465.854	92.44
466.073	86.44
466.293	90.44
466.512	80.44
466.732	84.44
466.951	82.44
467.171	104.44
467.391	97.44
467.61	115.44
467.829	86.44
468.049	93.44
468.268	85.44
468.488	101.44
468.707	84.44
468.927	92.44
469.146	96.44
469.365	79.44
469.585	91.44
469.804	98.44
470.023	92.44
470.243	79.44
470.462	101.44
470.681	101.44
470.901	90.44
471.12	88.44
471.339	85.44
471.558	77.44
471.777	89.44
471.997	88.44
472.216	82.44
472.435	87.44
472.654	78.44
472.873	88.44
473.092	99.44
473.311	93.44
473.53	95.44
473.749	94.44
473.968	95.44
474.187	90.44
474.406	92.44
474.625	90.44
474.844	92.44
475.063	89.44
475.282	80.44
475.501	83.44
475.72	80.44
475.939	88.44
476.158	102.44
476.377	83.44
476.596	88.44
476.814	93.44
477.033	88.44
477.252	97.44
477.471	88.44
477.69	97.44
477.908	86.44
478.127	97.44
478.346	91.44
478.564	91.44
478.783	79.44
479.002	91.44
479.22	85.44
479.439	82.44
479.658	112.44
479.876	93.44
480.095	97.44
480.313	93.44
480.532	80.44
480.751	88.44
480.969	87.44
481.188	93.44
481.406	90.44
481.624	109.44
481.843	84.44
482.061	84.44
482.28	94.44
482.498	89.44
482.717	105.44
482.935	91.44
483.153	83.44
483.372	81.44
483.59	93.44
483.808	88.44
484.027	84.44
484.245	100.44
484.463	89.44
484.681	96.44
484.9	84.44
485.118	102.44
485.336	90.44
485.554	93.44
485.772	92.44
485.99	96.44
486.209	94.44
486.427	98.44
486.645	118.44
486.863	90.44
487.081	96.44
487.299	94.44
487.517	89.44
487.735	80.44
487.953	89.44
488.171	95.44
488.389	89.44
488.607	94.44
488.825	91.44
489.043	89.44
489.261	84.44
489.479	85.44
489.696	87.44
489.914	90.44
490.132	86.44
490.35	90.44
490.568	92.44
490.786	91.44
491.003	93.44
491.221	91.44
491.439	107.44
491.657	96.44
491.874	93.44
492.092	93.44
492.31	80.44
492.527	94.44
492.745	94.44
492.963	89.44
493.18	89.44
493.398	101.44
493.615	110.44
493.833	91.44
494.05	86.44
494.268	93.44
494.485	85.44
494.703	82.44
494.92	75.44
495.138	92.44
495.355	83.44
495.573	98.44
495.79	90.44
496.008	90.44
496.225	92.44
496.442	81.44
496.66	98.44
496.877	110.44
497.094	92.44
497.312	98.44
497.529	84.44
497.746	85.44
497.963	80.44
498.181	92.44
498.398	86.44
498.615	97.44
498.832	112.44
499.049	91.44
499.267	101.44
499.484	105.44
499.701	99.44
499.918	97.44
500.135	90.44
500.352	94.44
500.569	95.44
500.786	90.44
501.003	100.44
501.22	83.44
501.437	102.44
501.654	73.44
501.871	89.44
502.088	96.44
502.305	87.44
502.522	88.44
502.739	85.44
502.956	86.44
503.172	88.44
503.389	93.44
503.606	101.44
503.823	92.44
504.04	88.44
504.256	100.44
504.473	100.44
504.69	86.44
504.907	82.44
505.123	87.44
505.34	89.44
505.557	102.44
505.773	103.44
505.99	84.44
506.207	93.44
506.423	94.44
506.64	105.44
506.856	94.44
507.073	78.44
507.289	84.44
507.506	92.44
507.722	113.44
507.939	110.44
508.155	97.44
508.372	102.44
508.588	94.44
508.805	100.44
509.021	93.44
509.238	106.44
509.454	97.44
509.67	98.44
509.887	122.44
510.103	116.44
510.319	200.44
510.536	666.44
510.752	2052.44
510.968	580.44
511.184	145.44
511.401	101.44
511.617	99.44
511.833	76.44
512.049	96.44
512.265	87.44
512.481	84.44
512.698	95.44
512.914	116.44
513.13	99.44
513.346	98.44
513.562	90.44
513.778	88.44
513.994	109.44
514.21	102.44
514.426	118.44
514.642	106.44
514.858	109.44
515.074	140.44
515.29	367.44
515.506	1161.44
515.721	437.44
515.937	130.44
516.153	111.44
516.369	94.44
