Data from Uncirc_2000_H10_HRD10591_00033.txt Node
Date: Wed Jan 03 10:48:23 EST 2024
User: Yrep
Spectrometer: HR+D1059
Trigger mode: 1
Integration Time (sec): 1.000000E-1
Scans to average: 1
Electric dark correction enabled: true
Nonlinearity correction enabled: false
Boxcar width: 0
XAxis mode: Wavelengths
Number of Pixels in Spectrum: 2048
>>>>>Begin Spectral Data<<<<<
223.165	-16
223.4	-16
223.635	-16
223.869	-23
224.104	-28
224.338	-22
224.573	-21
224.808	-5
225.042	-5
225.277	-1
225.511	-5
225.746	-11
225.98	8
226.215	14
226.449	20
226.683	31
226.918	30
227.152	34
227.387	20
227.621	17
227.856	26
228.09	46
228.324	53
228.559	41
228.793	47
229.027	67
229.262	66
229.496	60
229.73	68
229.964	74
230.199	66
230.433	71
230.667	86
230.901	85
231.136	68
231.37	76
231.604	75
231.838	75
232.072	73
232.306	83
232.541	77
232.775	84
233.009	77
233.243	71
233.477	82
233.711	88
233.945	72
234.179	67
234.413	92
234.647	82
234.881	85
235.115	70
235.349	78
235.583	85
235.817	83
236.051	73
236.285	79
236.519	72
236.753	83
236.987	82
237.221	82
237.455	92
237.689	58
237.922	74
238.156	68
238.39	85
238.624	65
238.858	84
239.091	75
239.325	82
239.559	80
239.793	73
240.027	94
240.26	68
240.494	81
240.728	72
240.961	72
241.195	75
241.429	75
241.662	75
241.896	82
242.13	88
242.363	87
242.597	84
242.83	73
243.064	84
243.298	66
243.531	82
243.765	74
243.998	77
244.232	81
244.465	66
244.699	91
244.932	62
245.166	83
245.399	73
245.633	80
245.866	84
246.099	74
246.333	79
246.566	75
246.8	74
247.033	67
247.266	70
247.5	70
247.733	82
247.966	77
248.2	66
248.433	76
248.666	79
248.899	78
249.133	76
249.366	83
249.599	86
249.832	86
250.066	81
250.299	82
250.532	86
250.765	85
250.998	69
251.231	79
251.465	73
251.698	82
251.931	69
252.164	67
252.397	59
252.63	68
252.863	75
253.096	75
253.329	69
253.562	81
253.795	64
254.028	86
254.261	72
254.494	79
254.727	71
254.96	84
255.193	86
255.426	69
255.659	86
255.892	84
256.124	76
256.357	84
256.59	79
256.823	85
257.056	85
257.289	67
257.521	71
257.754	93
257.987	87
258.22	70
258.452	81
258.685	81
258.918	79
259.151	76
259.383	89
259.616	90
259.849	79
260.081	88
260.314	72
260.547	71
260.779	99
261.012	72
261.244	89
261.477	91
261.71	73
261.942	101
262.175	104
262.407	73
262.64	84
262.872	94
263.105	92
263.337	75
263.57	94
263.802	85
264.035	75
264.267	89
264.499	83
264.732	87
264.964	76
265.197	90
265.429	73
265.661	85
265.894	80
266.126	89
266.358	76
266.591	84
266.823	88
267.055	82
267.287	89
267.52	86
267.752	70
267.984	81
268.216	76
268.448	71
268.681	70
268.913	80
269.145	92
269.377	79
269.609	75
269.841	80
270.073	95
270.306	75
270.538	80
270.77	91
271.002	80
271.234	92
271.466	85
271.698	81
271.93	66
272.162	71
272.394	74
272.626	94
272.858	74
273.09	75
273.322	69
273.553	81
273.785	90
274.017	87
274.249	83
274.481	82
274.713	84
274.945	83
275.176	80
275.408	82
275.64	78
275.872	88
276.104	99
276.335	96
276.567	91
276.799	100
277.031	91
277.262	94
277.494	81
277.726	84
277.957	87
278.189	78
278.421	91
278.652	87
278.884	81
279.115	85
279.347	74
279.579	75
279.81	82
280.042	88
280.273	92
280.505	84
280.736	93
280.968	84
281.199	72
281.431	93
281.662	88
281.894	96
282.125	102
282.356	113
282.588	129
282.819	97
283.051	82
283.282	67
283.513	75
283.745	91
283.976	91
284.207	90
284.439	82
284.67	87
284.901	83
285.132	74
285.364	86
285.595	91
285.826	84
286.057	95
286.288	83
286.52	80
286.751	87
286.982	80
287.213	95
287.444	88
287.675	74
287.906	78
288.138	103
288.369	91
288.6	82
288.831	99
289.062	93
289.293	91
289.524	78
289.755	84
289.986	76
290.217	68
290.448	88
290.679	85
290.91	78
291.141	78
291.371	89
291.602	89
291.833	92
292.064	89
292.295	94
292.526	77
292.757	95
292.987	75
293.218	90
293.449	92
293.68	87
293.91	92
294.141	89
294.372	99
294.603	87
294.833	79
295.064	81
295.295	82
295.525	85
295.756	90
295.987	115
296.217	123
296.448	98
296.679	76
296.909	77
297.14	88
297.37	103
297.601	95
297.831	90
298.062	87
298.292	93
298.523	87
298.753	97
298.984	76
299.214	83
299.445	89
299.675	90
299.905	101
300.136	90
300.366	90
300.597	94
300.827	90
301.057	84
301.288	105
301.518	91
301.748	81
301.979	88
302.209	89
302.439	88
302.669	81
302.9	90
303.13	87
303.36	96
303.59	105
303.82	111
304.051	82
304.281	82
304.511	91
304.741	90
304.971	90
305.201	85
305.431	82
305.661	92
305.891	88
306.121	84
306.352	86
306.582	93
306.812	100
307.042	95
307.272	84
307.502	101
307.731	85
307.961	83
308.191	93
308.421	84
308.651	92
308.881	80
309.111	84
309.341	95
309.571	84
309.8	99
310.03	97
310.26	87
310.49	89
310.72	96
310.949	90
311.179	98
311.409	94
311.639	88
311.868	108
312.098	105
312.328	91
312.557	97
312.787	91
313.017	96
313.246	88
313.476	90
313.706	96
313.935	98
314.165	97
314.394	95
314.624	90
314.853	88
315.083	88
315.312	96
315.542	92
315.771	89
316.001	77
316.23	83
316.46	78
316.689	92
316.919	89
317.148	95
317.377	107
317.607	99
317.836	83
318.065	82
318.295	85
318.524	94
318.753	77
318.983	103
319.212	91
319.441	108
319.67	98
319.9	90
320.129	88
320.358	107
320.587	89
320.816	95
321.046	97
321.275	91
321.504	82
321.733	105
321.962	96
322.191	103
322.42	98
322.649	97
322.878	99
323.108	93
323.337	117
323.566	135
323.795	142
324.024	194
324.253	338
324.482	700
324.71	1491
324.939	1960
325.168	728
325.397	240
325.626	142
325.855	111
326.084	111
326.313	128
326.542	155
326.77	216
326.999	417
327.228	817
327.457	1512
327.686	1174
327.914	329
328.143	158
328.372	128
328.6	111
328.829	111
329.058	111
329.287	116
329.515	106
329.744	100
329.972	95
330.201	87
330.43	112
330.658	114
330.887	123
331.115	105
331.344	102
331.572	103
331.801	93
332.03	89
332.258	93
332.486	86
332.715	99
332.943	78
333.172	93
333.4	96
333.629	107
333.857	106
334.085	97
334.314	91
334.542	90
334.771	95
334.999	99
335.227	96
335.455	95
335.684	99
335.912	94
336.14	98
336.369	95
336.597	105
336.825	91
337.053	98
337.281	92
337.51	90
337.738	81
337.966	87
338.194	82
338.422	107
338.65	84
338.878	82
339.106	89
339.334	98
339.562	81
339.79	89
340.018	89
340.246	87
340.474	78
340.702	80
340.93	76
341.158	81
341.386	86
341.614	99
341.842	89
342.07	97
342.298	108
342.526	95
342.754	91
342.981	95
343.209	80
343.437	91
343.665	101
343.893	91
344.12	97
344.348	96
344.576	92
344.804	94
345.031	92
345.259	88
345.487	103
345.714	89
345.942	99
346.17	93
346.397	81
346.625	82
346.853	89
347.08	82
347.308	101
347.535	90
347.763	101
347.99	89
348.218	86
348.445	96
348.673	96
348.9	94
349.128	92
349.355	99
349.583	79
349.81	97
350.037	87
350.265	72
350.492	94
350.72	102
350.947	105
351.174	90
351.402	101
351.629	110
351.856	94
352.083	96
352.311	95
352.538	105
352.765	104
352.992	116
353.22	116
353.447	92
353.674	88
353.901	92
354.128	100
354.355	83
354.583	99
354.81	89
355.037	88
355.264	110
355.491	88
355.718	92
355.945	93
356.172	84
356.399	85
356.626	87
356.853	95
357.08	99
357.307	93
357.534	88
357.761	105
357.988	98
358.215	82
358.441	75
358.668	88
358.895	88
359.122	88
359.349	92
359.576	83
359.802	101
360.029	120
360.256	112
360.483	85
360.709	95
360.936	98
361.163	90
361.39	97
361.616	82
361.843	84
362.07	81
362.296	101
362.523	84
362.749	90
362.976	91
363.203	83
363.429	93
363.656	97
363.882	85
364.109	98
364.335	89
364.562	107
364.788	92
365.015	93
365.241	99
365.468	103
365.694	105
365.92	84
366.147	84
366.373	97
366.599	82
366.826	85
367.052	94
367.278	86
367.505	89
367.731	70
367.957	86
368.184	69
368.41	105
368.636	111
368.862	127
369.089	100
369.315	87
369.541	86
369.767	85
369.993	87
370.219	84
370.445	84
370.672	86
370.898	87
371.124	91
371.35	86
371.576	97
371.802	84
372.028	88
372.254	76
372.48	92
372.706	84
372.932	96
373.158	89
373.384	70
373.61	84
373.835	88
374.061	100
374.287	88
374.513	76
374.739	73
374.965	82
375.191	91
375.416	96
375.642	83
375.868	75
376.094	90
376.319	82
376.545	91
376.771	84
376.997	91
377.222	88
377.448	88
377.674	89
377.899	75
378.125	76
378.35	92
378.576	96
378.802	88
379.027	89
379.253	92
379.478	78
379.704	83
379.929	92
380.155	89
380.38	91
380.606	92
380.831	105
381.057	92
381.282	94
381.507	87
381.733	95
381.958	92
382.184	105
382.409	102
382.634	97
382.86	86
383.085	97
383.31	84
383.535	91
383.761	88
383.986	102
384.211	84
384.436	100
384.662	98
384.887	89
385.112	98
385.337	110
385.562	90
385.787	107
386.013	98
386.238	117
386.463	106
386.688	99
386.913	83
387.138	106
387.363	102
387.588	91
387.813	94
388.038	109
388.263	118
388.488	95
388.713	92
388.938	112
389.163	96
389.387	97
389.612	90
389.837	95
390.062	90
390.287	80
390.512	96
390.736	94
390.961	81
391.186	87
391.411	87
391.636	105
391.86	72
392.085	84
392.31	65
392.534	90
392.759	80
392.984	85
393.208	98
393.433	98
393.658	80
393.882	83
394.107	80
394.331	91
394.556	87
394.78	92
395.005	105
395.229	86
395.454	94
395.678	98
395.903	83
396.127	89
396.352	86
396.576	85
396.801	87
397.025	86
397.249	80
397.474	91
397.698	86
397.922	73
398.147	90
398.371	88
398.595	90
398.82	80
399.044	85
399.268	76
399.492	85
399.717	73
399.941	98
400.165	85
400.389	90
400.613	85
400.837	85
401.062	113
401.286	90
401.51	76
401.734	83
401.958	99
402.182	118
402.406	136
402.63	114
402.854	83
403.078	77
403.302	102
403.526	96
403.75	66
403.974	86
404.198	83
404.422	87
404.645	81
404.869	88
405.093	85
405.317	83
405.541	93
405.765	89
405.988	104
406.212	154
406.436	213
406.66	126
406.883	100
407.107	78
407.331	95
407.555	104
407.778	88
408.002	83
408.226	81
408.449	84
408.673	82
408.896	80
409.12	96
409.344	84
409.567	84
409.791	98
410.014	101
410.238	96
410.461	83
410.685	95
410.908	92
411.132	102
411.355	95
411.578	87
411.802	92
412.025	85
412.249	91
412.472	83
412.695	87
412.919	71
413.142	76
413.365	86
413.589	98
413.812	92
414.035	87
414.258	72
414.482	86
414.705	71
414.928	82
415.151	101
415.374	95
415.597	83
415.821	76
416.044	98
416.267	78
416.49	71
416.713	86
416.936	87
417.159	76
417.382	91
417.605	83
417.828	102
418.051	87
418.274	83
418.497	93
418.72	99
418.943	84
419.166	83
419.389	83
419.611	99
419.834	79
420.057	84
420.28	84
420.503	82
420.726	82
420.948	86
421.171	95
421.394	104
421.617	73
421.839	91
422.062	90
422.285	91
422.507	98
422.73	106
422.953	92
423.175	94
423.398	83
423.621	91
423.843	83
424.066	87
424.288	92
424.511	83
424.733	93
424.956	96
425.178	104
425.401	84
425.623	91
425.846	83
426.068	78
426.291	84
426.513	87
426.735	83
426.958	83
427.18	97
427.402	113
427.625	163
427.847	114
428.069	96
428.292	84
428.514	89
428.736	77
428.958	87
429.181	87
429.403	92
429.625	83
429.847	92
430.069	95
430.292	90
430.514	80
430.736	82
430.958	81
431.18	102
431.402	87
431.624	77
431.846	87
432.068	84
432.29	89
432.512	85
432.734	82
432.956	90
433.178	108
433.4	92
433.622	87
433.844	90
434.066	88
434.287	104
434.509	105
434.731	93
434.953	89
435.175	92
435.397	98
435.618	80
435.84	85
436.062	83
436.284	96
436.505	90
436.727	107
436.949	84
437.17	82
437.392	89
437.614	80
437.835	104
438.057	106
438.278	96
438.5	88
438.721	104
438.943	95
439.165	80
439.386	101
439.608	86
439.829	88
440.05	113
440.272	105
440.493	89
440.715	75
440.936	87
441.158	82
441.379	84
441.6	87
441.822	85
442.043	74
442.264	102
442.486	88
442.707	84
442.928	111
443.149	116
443.371	113
443.592	86
443.813	106
444.034	100
444.255	95
444.476	78
444.698	86
444.919	88
445.14	126
445.361	113
445.582	82
445.803	123
446.024	131
446.245	111
446.466	106
446.687	75
446.908	81
447.129	94
447.35	88
447.571	88
447.792	90
448.013	95
448.234	106
448.455	88
448.675	103
448.896	101
449.117	94
449.338	104
449.559	112
449.779	112
450	88
450.221	96
450.442	89
450.662	88
450.883	91
451.104	97
451.324	98
451.545	86
451.766	72
451.986	72
452.207	95
452.428	95
452.648	98
452.869	104
453.089	99
453.31	105
453.53	89
453.751	88
453.971	93
454.192	94
454.412	96
454.633	87
454.853	84
455.073	77
455.294	91
455.514	87
455.734	76
455.955	90
456.175	81
456.395	82
456.616	85
456.836	80
457.056	94
457.276	84
457.497	91
457.717	85
457.937	86
458.157	92
458.377	79
458.598	104
458.818	130
459.038	142
459.258	106
459.478	86
459.698	85
459.918	97
460.138	82
460.358	75
460.578	90
460.798	102
461.018	80
461.238	80
461.458	83
461.678	90
461.898	89
462.118	74
462.338	80
462.558	83
462.777	84
462.997	83
463.217	92
463.437	82
463.657	90
463.876	82
464.096	88
464.316	87
464.536	95
464.755	85
464.975	89
465.195	130
465.414	139
465.634	84
465.854	90
466.073	108
466.293	84
466.512	87
466.732	96
466.951	83
467.171	104
467.391	100
467.61	97
467.829	108
468.049	110
468.268	102
468.488	102
468.707	78
468.927	87
469.146	95
469.365	94
469.585	87
469.804	86
470.023	93
470.243	104
470.462	83
470.681	92
470.901	77
471.12	88
471.339	90
471.558	100
471.777	73
471.997	96
472.216	81
472.435	86
472.654	90
472.873	72
473.092	91
473.311	82
473.53	76
473.749	75
473.968	82
474.187	102
474.406	92
474.625	86
474.844	87
475.063	89
475.282	104
475.501	99
475.72	100
475.939	94
476.158	84
476.377	89
476.596	89
476.814	82
477.033	88
477.252	79
477.471	81
477.69	83
477.908	83
478.127	83
478.346	78
478.564	77
478.783	105
479.002	90
479.22	79
479.439	90
479.658	100
479.876	90
480.095	80
480.313	91
480.532	81
480.751	95
480.969	86
481.188	95
481.406	104
481.624	95
481.843	79
482.061	90
482.28	67
482.498	94
482.717	88
482.935	87
483.153	82
483.372	91
483.59	74
483.808	88
484.027	86
484.245	111
484.463	102
484.681	99
484.9	83
485.118	108
485.336	73
485.554	89
485.772	67
485.99	96
486.209	99
486.427	98
486.645	96
486.863	108
487.081	93
487.299	96
487.517	97
487.735	75
487.953	89
488.171	113
488.389	91
488.607	97
488.825	103
489.043	98
489.261	91
489.479	91
489.696	85
489.914	88
490.132	91
490.35	77
490.568	88
490.786	84
491.003	89
491.221	85
491.439	97
491.657	91
491.874	82
492.092	85
492.31	86
492.527	94
492.745	95
492.963	84
493.18	85
493.398	83
493.615	108
493.833	92
494.05	92
494.268	92
494.485	87
494.703	82
494.92	84
495.138	80
495.355	84
495.573	95
495.79	85
496.008	89
496.225	95
496.442	87
496.66	106
496.877	77
497.094	86
497.312	83
497.529	81
497.746	86
497.963	86
498.181	89
498.398	87
498.615	97
498.832	96
499.049	90
499.267	91
499.484	74
499.701	81
499.918	101
500.135	78
500.352	88
500.569	98
500.786	87
501.003	93
501.22	91
501.437	95
501.654	93
501.871	105
502.088	99
502.305	80
502.522	81
502.739	80
502.956	99
503.172	91
503.389	88
503.606	113
503.823	97
504.04	86
504.256	105
504.473	77
504.69	90
504.907	83
505.123	91
505.34	88
505.557	104
505.773	92
505.99	80
506.207	93
506.423	95
506.64	83
506.856	90
507.073	93
507.289	100
507.506	103
507.722	113
507.939	98
508.155	98
508.372	87
508.588	94
508.805	77
509.021	86
509.238	74
509.454	107
509.67	102
509.887	106
510.103	102
510.319	188
510.536	691
510.752	2182
510.968	608
511.184	148
511.401	110
511.617	103
511.833	83
512.049	87
512.265	91
512.481	92
512.698	99
512.914	70
513.13	87
513.346	91
513.562	97
513.778	75
513.994	88
514.21	85
514.426	110
514.642	130
514.858	107
515.074	140
515.29	408
515.506	1242
515.721	466
515.937	155
516.153	115
516.369	105
516.585	91
516.801	97
517.016	107
517.232	97
517.448	84
517.664	81
517.879	92
518.095	98
518.311	99
518.527	98
518.742	83
518.958	87
519.173	91
519.389	89
519.605	83
519.82	98
520.036	102
520.251	104
520.467	109
520.682	104
520.898	107
521.113	104
521.329	132
521.544	184
521.76	489
521.975	2074
522.19	1261
522.406	280
522.621	107
522.836	95
523.052	106
523.267	94
523.482	96
523.698	102
523.913	106
524.128	105
524.343	103
524.559	88
524.774	86
524.989	94
525.204	110
525.419	99
525.634	105
525.849	85
526.064	84
526.28	86
526.495	88
526.71	93
526.925	89
527.14	101
527.355	88
527.57	88
527.785	88
527.999	85
528.214	91
528.429	99
528.644	78
528.859	83
529.074	87
529.289	110
529.503	147
529.718	97
529.933	72
530.148	87
530.363	94
530.577	86
530.792	103
531.007	87
531.221	89
531.436	85
531.651	90
531.865	65
532.08	87
532.295	80
532.509	91
532.724	77
532.938	76
533.153	91
533.367	102
533.582	96
533.796	98
534.011	92
534.225	85
534.44	107
534.654	73
534.868	95
535.083	103
535.297	103
535.511	98
535.726	102
535.94	90
536.154	86
536.369	81
536.583	86
536.797	88
537.011	82
537.225	79
537.44	99
537.654	90
537.868	105
538.082	67
538.296	99
538.51	92
538.724	89
538.938	93
539.153	98
539.367	96
539.581	84
539.795	96
540.009	78
540.222	86
540.436	88
540.65	87
540.864	104
541.078	101
541.292	69
541.506	84
541.72	93
541.934	85
542.147	76
542.361	78
542.575	78
542.789	83
543.002	81
543.216	95
543.43	100
543.644	100
543.857	81
544.071	86
544.285	86
544.498	96
544.712	87
544.925	85
545.139	91
545.352	100
545.566	91
545.779	71
545.993	91
546.206	82
546.42	92
546.633	90
546.847	94
547.06	82
547.274	86
547.487	99
547.7	80
547.914	82
548.127	79
548.34	78
548.554	85
548.767	86
548.98	80
549.193	90
549.407	82
549.62	78
549.833	70
550.046	92
550.259	93
550.473	90
550.686	87
550.899	88
551.112	87
551.325	91
551.538	81
551.751	91
551.964	83
552.177	85
552.39	85
552.603	87
552.816	81
553.029	83
553.242	89
553.455	88
553.667	100
553.88	92
554.093	83
554.306	83
554.519	84
554.732	83
554.944	70
555.157	78
555.37	92
555.583	96
555.795	110
556.008	90
556.221	89
556.433	96
556.646	91
556.859	91
557.071	90
557.284	87
557.496	87
557.709	91
557.921	80
558.134	86
558.346	96
558.559	97
558.771	100
558.984	82
559.196	88
559.409	89
559.621	90
559.833	76
560.046	82
560.258	81
560.47	65
560.683	75
560.895	79
561.107	89
561.32	84
561.532	91
561.744	90
561.956	78
562.168	91
562.381	100
562.593	93
562.805	79
563.017	84
563.229	90
563.441	80
563.653	94
563.865	92
564.077	95
564.289	81
564.501	89
564.713	82
564.925	84
565.137	104
565.349	92
565.561	92
565.773	97
565.985	91
566.197	81
566.408	81
566.62	83
566.832	90
567.044	92
567.255	90
567.467	90
567.679	87
567.891	80
568.102	89
568.314	88
568.526	88
568.737	90
568.949	79
569.161	76
569.372	73
569.584	90
569.795	75
570.007	131
570.218	243
570.43	129
570.641	88
570.853	75
571.064	76
571.276	72
571.487	75
571.698	92
571.91	77
572.121	101
572.333	73
572.544	84
572.755	98
572.966	92
573.178	86
573.389	91
573.6	82
573.811	89
574.023	89
574.234	89
574.445	92
574.656	82
574.867	75
575.078	95
575.289	89
575.501	75
575.712	83
575.923	86
576.134	75
576.345	86
576.556	97
576.767	78
576.978	93
577.188	84
577.399	99
577.61	77
577.821	102
578.032	110
578.243	269
578.454	758
578.665	209
578.875	106
579.086	96
579.297	89
579.508	81
579.718	92
579.929	95
580.14	68
580.35	82
580.561	91
580.772	95
580.982	95
581.193	80
581.403	83
581.614	83
581.825	85
582.035	87
582.246	95
582.456	87
582.667	91
582.877	92
583.087	95
583.298	76
583.508	81
583.719	91
583.929	86
584.139	88
584.35	78
584.56	85
584.77	88
584.981	90
585.191	81
585.401	75
585.611	80
585.821	78
586.032	92
