Data from Uncirc_2000_H10_HRD10591_00093.txt Node
Date: Wed Jan 03 10:48:35 EST 2024
User: Yrep
Spectrometer: HR+D1059
Trigger mode: 1
Integration Time (sec): 1.000000E-1
Scans to average: 1
Electric dark correction enabled: true
Nonlinearity correction enabled: false
Boxcar width: 0
XAxis mode: Wavelengths
Number of Pixels in Spectrum: 2048
>>>>>Begin Spectral Data<<<<<
223.165	-13.56
223.4	-13.56
223.635	-13.56
223.869	-18.56
224.104	-31.56
224.338	-14.56
224.573	-7.56
224.808	-24.56
225.042	9.44
225.277	-6.56
225.511	-9.56
225.746	12.44
225.98	10.44
226.215	4.44
226.449	11.44
226.683	25.44
226.918	13.44
227.152	39.44
227.387	20.44
227.621	28.44
227.856	66.44
228.09	43.44
228.324	46.44
228.559	57.44
228.793	53.44
229.027	59.44
229.262	69.44
229.496	73.44
229.73	74.44
229.964	75.44
230.199	67.44
230.433	76.44
230.667	75.44
230.901	64.44
231.136	67.44
231.37	73.44
231.604	85.44
231.838	71.44
232.072	86.44
232.306	67.44
232.541	81.44
232.775	83.44
233.009	82.44
233.243	69.44
233.477	71.44
233.711	83.44
233.945	79.44
234.179	93.44
234.413	83.44
234.647	72.44
234.881	81.44
235.115	84.44
235.349	74.44
235.583	89.44
235.817	70.44
236.051	74.44
236.285	75.44
236.519	71.44
236.753	81.44
236.987	94.44
237.221	85.44
237.455	77.44
237.689	65.44
237.922	67.44
238.156	77.44
238.39	82.44
238.624	76.44
238.858	76.44
239.091	74.44
239.325	71.44
239.559	77.44
239.793	67.44
240.027	65.44
240.26	81.44
240.494	78.44
240.728	79.44
240.961	76.44
241.195	77.44
241.429	68.44
241.662	79.44
241.896	79.44
242.13	62.44
242.363	75.44
242.597	76.44
242.83	97.44
243.064	79.44
243.298	74.44
243.531	72.44
243.765	71.44
243.998	82.44
244.232	81.44
244.465	74.44
244.699	85.44
244.932	80.44
245.166	68.44
245.399	76.44
245.633	81.44
245.866	64.44
246.099	72.44
246.333	74.44
246.566	67.44
246.8	67.44
247.033	71.44
247.266	86.44
247.5	83.44
247.733	79.44
247.966	70.44
248.2	80.44
248.433	67.44
248.666	75.44
248.899	78.44
249.133	84.44
249.366	89.44
249.599	76.44
249.832	91.44
250.066	89.44
250.299	82.44
250.532	88.44
250.765	84.44
250.998	74.44
251.231	68.44
251.465	83.44
251.698	86.44
251.931	84.44
252.164	81.44
252.397	75.44
252.63	61.44
252.863	74.44
253.096	83.44
253.329	83.44
253.562	69.44
253.795	97.44
254.028	76.44
254.261	88.44
254.494	72.44
254.727	90.44
254.96	75.44
255.193	87.44
255.426	83.44
255.659	84.44
255.892	84.44
256.124	82.44
256.357	83.44
256.59	85.44
256.823	81.44
257.056	85.44
257.289	76.44
257.521	77.44
257.754	75.44
257.987	76.44
258.22	91.44
258.452	86.44
258.685	79.44
258.918	83.44
259.151	64.44
259.383	79.44
259.616	81.44
259.849	76.44
260.081	86.44
260.314	81.44
260.547	83.44
260.779	85.44
261.012	93.44
261.244	83.44
261.477	92.44
261.71	95.44
261.942	92.44
262.175	108.44
262.407	86.44
262.64	94.44
262.872	85.44
263.105	89.44
263.337	86.44
263.57	84.44
263.802	87.44
264.035	91.44
264.267	73.44
264.499	98.44
264.732	79.44
264.964	81.44
265.197	97.44
265.429	82.44
265.661	88.44
265.894	92.44
266.126	80.44
266.358	101.44
266.591	82.44
266.823	73.44
267.055	86.44
267.287	93.44
267.52	76.44
267.752	88.44
267.984	73.44
268.216	90.44
268.448	96.44
268.681	81.44
268.913	81.44
269.145	75.44
269.377	93.44
269.609	90.44
269.841	82.44
270.073	78.44
270.306	79.44
270.538	84.44
270.77	88.44
271.002	76.44
271.234	89.44
271.466	95.44
271.698	93.44
271.93	90.44
272.162	80.44
272.394	91.44
272.626	84.44
272.858	90.44
273.09	90.44
273.322	68.44
273.553	79.44
273.785	82.44
274.017	92.44
274.249	86.44
274.481	75.44
274.713	87.44
274.945	97.44
275.176	79.44
275.408	74.44
275.64	77.44
275.872	89.44
276.104	79.44
276.335	83.44
276.567	79.44
276.799	93.44
277.031	94.44
277.262	83.44
277.494	81.44
277.726	95.44
277.957	90.44
278.189	89.44
278.421	75.44
278.652	73.44
278.884	83.44
279.115	95.44
279.347	91.44
279.579	88.44
279.81	80.44
280.042	92.44
280.273	88.44
280.505	83.44
280.736	91.44
280.968	95.44
281.199	78.44
281.431	83.44
281.662	86.44
281.894	93.44
282.125	93.44
282.356	130.44
282.588	129.44
282.819	118.44
283.051	99.44
283.282	86.44
283.513	96.44
283.745	84.44
283.976	80.44
284.207	95.44
284.439	89.44
284.67	93.44
284.901	93.44
285.132	80.44
285.364	73.44
285.595	83.44
285.826	83.44
286.057	103.44
286.288	85.44
286.52	88.44
286.751	84.44
286.982	99.44
287.213	82.44
287.444	88.44
287.675	91.44
287.906	86.44
288.138	91.44
288.369	103.44
288.6	97.44
288.831	80.44
289.062	97.44
289.293	93.44
289.524	92.44
289.755	95.44
289.986	89.44
290.217	74.44
290.448	93.44
290.679	87.44
290.91	94.44
291.141	97.44
291.371	85.44
291.602	104.44
291.833	86.44
292.064	83.44
292.295	92.44
292.526	90.44
292.757	87.44
292.987	84.44
293.218	94.44
293.449	87.44
293.68	76.44
293.91	81.44
294.141	81.44
294.372	97.44
294.603	91.44
294.833	69.44
295.064	97.44
295.295	101.44
295.525	89.44
295.756	106.44
295.987	98.44
296.217	131.44
296.448	121.44
296.679	110.44
296.909	85.44
297.14	90.44
297.37	95.44
297.601	88.44
297.831	96.44
298.062	84.44
298.292	79.44
298.523	95.44
298.753	91.44
298.984	90.44
299.214	88.44
299.445	85.44
299.675	87.44
299.905	95.44
300.136	76.44
300.366	103.44
300.597	78.44
300.827	81.44
301.057	95.44
301.288	101.44
301.518	96.44
301.748	96.44
301.979	93.44
302.209	99.44
302.439	72.44
302.669	97.44
302.9	76.44
303.13	85.44
303.36	96.44
303.59	103.44
303.82	92.44
304.051	100.44
304.281	85.44
304.511	90.44
304.741	99.44
304.971	96.44
305.201	92.44
305.431	93.44
305.661	76.44
305.891	86.44
306.121	93.44
306.352	100.44
306.582	99.44
306.812	87.44
307.042	89.44
307.272	101.44
307.502	95.44
307.731	99.44
307.961	79.44
308.191	91.44
308.421	93.44
308.651	93.44
308.881	85.44
309.111	85.44
309.341	100.44
309.571	92.44
309.8	111.44
310.03	100.44
310.26	92.44
310.49	98.44
310.72	91.44
310.949	88.44
311.179	85.44
311.409	94.44
311.639	105.44
311.868	100.44
312.098	106.44
312.328	97.44
312.557	98.44
312.787	109.44
313.017	84.44
313.246	100.44
313.476	76.44
313.706	87.44
313.935	110.44
314.165	106.44
314.394	97.44
314.624	112.44
314.853	79.44
315.083	97.44
315.312	99.44
315.542	93.44
315.771	97.44
316.001	95.44
316.23	76.44
316.46	89.44
316.689	81.44
316.919	98.44
317.148	93.44
317.377	99.44
317.607	97.44
317.836	84.44
318.065	87.44
318.295	91.44
318.524	110.44
318.753	85.44
318.983	91.44
319.212	94.44
319.441	107.44
319.67	102.44
319.9	96.44
320.129	93.44
320.358	93.44
320.587	112.44
320.816	99.44
321.046	91.44
321.275	98.44
321.504	95.44
321.733	87.44
321.962	90.44
322.191	99.44
322.42	102.44
322.649	106.44
322.878	113.44
323.108	108.44
323.337	113.44
323.566	122.44
323.795	137.44
324.024	198.44
324.253	359.44
324.482	781.44
324.71	1555.44
324.939	2061.44
325.168	747.44
325.397	235.44
325.626	140.44
325.855	109.44
326.084	111.44
326.313	116.44
326.542	153.44
326.77	237.44
326.999	428.44
327.228	914.44
327.457	1629.44
327.686	1283.44
327.914	360.44
328.143	161.44
328.372	128.44
328.6	125.44
328.829	111.44
329.058	116.44
329.287	122.44
329.515	98.44
329.744	107.44
329.972	100.44
330.201	104.44
330.43	108.44
330.658	117.44
330.887	113.44
331.115	121.44
331.344	106.44
331.572	104.44
331.801	107.44
332.03	98.44
332.258	78.44
332.486	88.44
332.715	80.44
332.943	100.44
333.172	92.44
333.4	99.44
333.629	95.44
333.857	115.44
334.085	98.44
334.314	83.44
334.542	92.44
334.771	92.44
334.999	95.44
335.227	72.44
335.455	96.44
335.684	98.44
335.912	93.44
336.14	98.44
336.369	94.44
336.597	102.44
336.825	91.44
337.053	87.44
337.281	76.44
337.51	87.44
337.738	93.44
337.966	93.44
338.194	108.44
338.422	95.44
338.65	79.44
338.878	118.44
339.106	94.44
339.334	87.44
339.562	95.44
339.79	97.44
340.018	92.44
340.246	91.44
340.474	95.44
340.702	83.44
340.93	97.44
341.158	73.44
341.386	105.44
341.614	98.44
341.842	86.44
342.07	95.44
342.298	90.44
342.526	84.44
342.754	96.44
342.981	95.44
343.209	97.44
343.437	99.44
343.665	96.44
343.893	100.44
344.12	96.44
344.348	95.44
344.576	82.44
344.804	75.44
345.031	99.44
345.259	85.44
345.487	93.44
345.714	97.44
345.942	79.44
346.17	87.44
346.397	81.44
346.625	94.44
346.853	103.44
347.08	103.44
347.308	108.44
347.535	94.44
347.763	107.44
347.99	94.44
348.218	87.44
348.445	92.44
348.673	96.44
348.9	83.44
349.128	80.44
349.355	90.44
349.583	96.44
349.81	91.44
350.037	96.44
350.265	85.44
350.492	98.44
350.72	91.44
350.947	97.44
351.174	106.44
351.402	112.44
351.629	110.44
351.856	91.44
352.083	90.44
352.311	100.44
352.538	105.44
352.765	109.44
352.992	102.44
353.22	99.44
353.447	103.44
353.674	93.44
353.901	110.44
354.128	93.44
354.355	81.44
354.583	88.44
354.81	94.44
355.037	97.44
355.264	99.44
355.491	100.44
355.718	81.44
355.945	87.44
356.172	102.44
356.399	99.44
356.626	95.44
356.853	85.44
357.08	95.44
357.307	85.44
357.534	96.44
357.761	98.44
357.988	96.44
358.215	99.44
358.441	84.44
358.668	67.44
358.895	90.44
359.122	91.44
359.349	87.44
359.576	92.44
359.802	104.44
360.029	96.44
360.256	104.44
360.483	92.44
360.709	93.44
360.936	91.44
361.163	79.44
361.39	93.44
361.616	87.44
361.843	88.44
362.07	96.44
362.296	99.44
362.523	93.44
362.749	83.44
362.976	83.44
363.203	95.44
363.429	99.44
363.656	93.44
363.882	97.44
364.109	75.44
364.335	89.44
364.562	83.44
364.788	82.44
365.015	92.44
365.241	102.44
365.468	102.44
365.694	102.44
365.92	87.44
366.147	81.44
366.373	80.44
366.599	93.44
366.826	96.44
367.052	84.44
367.278	89.44
367.505	100.44
367.731	83.44
367.957	107.44
368.184	86.44
368.41	99.44
368.636	105.44
368.862	119.44
369.089	98.44
369.315	98.44
369.541	90.44
369.767	79.44
369.993	90.44
370.219	98.44
370.445	90.44
370.672	81.44
370.898	81.44
371.124	92.44
371.35	89.44
371.576	97.44
371.802	82.44
372.028	79.44
372.254	76.44
372.48	83.44
372.706	95.44
372.932	96.44
373.158	81.44
373.384	77.44
373.61	85.44
373.835	88.44
374.061	85.44
374.287	94.44
374.513	100.44
374.739	97.44
374.965	106.44
375.191	75.44
375.416	91.44
375.642	88.44
375.868	89.44
376.094	85.44
376.319	85.44
376.545	89.44
376.771	87.44
376.997	71.44
377.222	77.44
377.448	100.44
377.674	79.44
377.899	91.44
378.125	85.44
378.35	93.44
378.576	86.44
378.802	79.44
379.027	92.44
379.253	94.44
379.478	92.44
379.704	91.44
379.929	106.44
380.155	75.44
380.38	87.44
380.606	95.44
380.831	86.44
381.057	89.44
381.282	94.44
381.507	98.44
381.733	93.44
381.958	99.44
382.184	90.44
382.409	98.44
382.634	95.44
382.86	103.44
383.085	96.44
383.31	105.44
383.535	97.44
383.761	102.44
383.986	101.44
384.211	100.44
384.436	99.44
384.662	98.44
384.887	90.44
385.112	102.44
385.337	95.44
385.562	92.44
385.787	94.44
386.013	98.44
386.238	109.44
386.463	111.44
386.688	104.44
386.913	95.44
387.138	98.44
387.363	105.44
387.588	95.44
387.813	83.44
388.038	85.44
388.263	103.44
388.488	100.44
388.713	88.44
388.938	91.44
389.163	82.44
389.387	90.44
389.612	89.44
389.837	85.44
390.062	104.44
390.287	98.44
390.512	89.44
390.736	91.44
390.961	102.44
391.186	97.44
391.411	123.44
391.636	103.44
391.86	83.44
392.085	80.44
392.31	76.44
392.534	93.44
392.759	80.44
392.984	83.44
393.208	87.44
393.433	97.44
393.658	88.44
393.882	77.44
394.107	86.44
394.331	72.44
394.556	93.44
394.78	91.44
395.005	91.44
395.229	89.44
395.454	91.44
395.678	73.44
395.903	61.44
396.127	93.44
396.352	92.44
396.576	98.44
396.801	85.44
397.025	90.44
397.249	77.44
397.474	78.44
397.698	81.44
397.922	73.44
398.147	79.44
398.371	83.44
398.595	87.44
398.82	68.44
399.044	86.44
399.268	78.44
399.492	79.44
399.717	87.44
399.941	75.44
400.165	101.44
400.389	103.44
400.613	90.44
400.837	83.44
401.062	95.44
401.286	98.44
401.51	74.44
401.734	73.44
401.958	96.44
402.182	125.44
402.406	135.44
402.63	105.44
402.854	79.44
403.078	75.44
403.302	68.44
403.526	90.44
403.75	87.44
403.974	84.44
404.198	97.44
404.422	89.44
404.645	85.44
404.869	88.44
405.093	102.44
405.317	85.44
405.541	91.44
405.765	100.44
405.988	114.44
406.212	161.44
406.436	215.44
406.66	122.44
406.883	93.44
407.107	85.44
407.331	80.44
407.555	98.44
407.778	100.44
408.002	97.44
408.226	86.44
408.449	89.44
408.673	86.44
408.896	93.44
409.12	91.44
409.344	82.44
409.567	98.44
409.791	73.44
410.014	91.44
410.238	101.44
410.461	99.44
410.685	83.44
410.908	96.44
411.132	97.44
411.355	106.44
411.578	96.44
411.802	96.44
412.025	80.44
412.249	84.44
412.472	89.44
412.695	87.44
412.919	78.44
413.142	81.44
413.365	99.44
413.589	82.44
413.812	95.44
414.035	91.44
414.258	89.44
414.482	91.44
414.705	87.44
414.928	87.44
415.151	100.44
415.374	83.44
415.597	76.44
415.821	89.44
416.044	80.44
416.267	90.44
416.49	70.44
416.713	91.44
416.936	81.44
417.159	91.44
417.382	101.44
417.605	94.44
417.828	89.44
418.051	92.44
418.274	91.44
418.497	82.44
418.72	90.44
418.943	86.44
419.166	87.44
419.389	87.44
419.611	85.44
419.834	88.44
420.057	86.44
420.28	92.44
420.503	93.44
420.726	97.44
420.948	90.44
421.171	93.44
421.394	86.44
421.617	96.44
421.839	95.44
422.062	93.44
422.285	86.44
422.507	95.44
422.73	100.44
422.953	85.44
423.175	89.44
423.398	86.44
423.621	86.44
423.843	94.44
424.066	88.44
424.288	101.44
424.511	89.44
424.733	84.44
424.956	93.44
425.178	84.44
425.401	100.44
425.623	89.44
425.846	87.44
426.068	83.44
426.291	87.44
426.513	89.44
426.735	88.44
426.958	97.44
427.18	87.44
427.402	129.44
427.625	139.44
427.847	98.44
428.069	95.44
428.292	99.44
428.514	87.44
428.736	73.44
428.958	81.44
429.181	90.44
429.403	91.44
429.625	86.44
429.847	89.44
430.069	99.44
430.292	95.44
430.514	96.44
430.736	73.44
430.958	90.44
431.18	85.44
431.402	100.44
431.624	97.44
431.846	89.44
432.068	85.44
432.29	66.44
432.512	69.44
432.734	74.44
432.956	92.44
433.178	96.44
433.4	93.44
433.622	88.44
433.844	82.44
434.066	84.44
434.287	86.44
434.509	92.44
434.731	80.44
434.953	87.44
435.175	82.44
435.397	89.44
435.618	89.44
435.84	98.44
436.062	115.44
436.284	116.44
436.505	97.44
436.727	88.44
436.949	100.44
437.17	88.44
437.392	89.44
437.614	86.44
437.835	102.44
438.057	108.44
438.278	85.44
438.5	107.44
438.721	115.44
438.943	89.44
439.165	83.44
439.386	79.44
439.608	98.44
439.829	85.44
440.05	109.44
440.272	113.44
440.493	102.44
440.715	76.44
440.936	71.44
441.158	77.44
441.379	85.44
441.6	78.44
441.822	93.44
442.043	95.44
442.264	99.44
442.486	91.44
442.707	88.44
442.928	103.44
443.149	118.44
443.371	127.44
443.592	88.44
443.813	108.44
444.034	97.44
444.255	93.44
444.476	87.44
444.698	88.44
444.919	89.44
445.14	135.44
445.361	108.44
445.582	105.44
445.803	123.44
446.024	111.44
446.245	93.44
446.466	100.44
446.687	95.44
446.908	88.44
447.129	91.44
447.35	92.44
447.571	87.44
447.792	90.44
448.013	93.44
448.234	102.44
448.455	88.44
448.675	108.44
448.896	99.44
449.117	97.44
449.338	96.44
449.559	114.44
449.779	115.44
450	100.44
450.221	76.44
450.442	84.44
450.662	94.44
450.883	97.44
451.104	103.44
451.324	88.44
451.545	90.44
451.766	92.44
451.986	89.44
452.207	89.44
452.428	92.44
452.648	83.44
452.869	111.44
453.089	106.44
453.31	109.44
453.53	97.44
453.751	89.44
453.971	88.44
454.192	106.44
454.412	86.44
454.633	87.44
454.853	83.44
455.073	86.44
455.294	89.44
455.514	97.44
455.734	87.44
455.955	86.44
456.175	86.44
456.395	87.44
456.616	76.44
456.836	67.44
457.056	70.44
457.276	93.44
457.497	90.44
457.717	80.44
457.937	87.44
458.157	88.44
458.377	87.44
458.598	108.44
458.818	114.44
459.038	147.44
459.258	102.44
459.478	93.44
459.698	65.44
459.918	76.44
460.138	82.44
460.358	80.44
460.578	93.44
460.798	83.44
461.018	75.44
461.238	90.44
461.458	80.44
461.678	92.44
461.898	85.44
462.118	80.44
462.338	75.44
462.558	81.44
462.777	87.44
462.997	85.44
463.217	80.44
463.437	77.44
463.657	89.44
463.876	78.44
464.096	91.44
464.316	82.44
464.536	82.44
464.755	82.44
464.975	103.44
465.195	151.44
465.414	141.44
465.634	105.44
465.854	76.44
466.073	84.44
466.293	91.44
466.512	88.44
466.732	77.44
466.951	94.44
467.171	91.44
467.391	95.44
467.61	93.44
467.829	90.44
468.049	91.44
468.268	71.44
468.488	79.44
468.707	77.44
468.927	84.44
469.146	79.44
469.365	83.44
469.585	77.44
469.804	84.44
470.023	85.44
470.243	101.44
470.462	100.44
470.681	97.44
470.901	83.44
471.12	87.44
471.339	73.44
471.558	88.44
471.777	83.44
471.997	84.44
472.216	75.44
472.435	89.44
472.654	79.44
472.873	73.44
473.092	69.44
473.311	87.44
473.53	71.44
473.749	86.44
473.968	87.44
474.187	102.44
474.406	97.44
474.625	86.44
474.844	91.44
475.063	80.44
475.282	78.44
475.501	79.44
475.72	72.44
475.939	87.44
476.158	79.44
476.377	79.44
476.596	85.44
476.814	92.44
477.033	79.44
477.252	82.44
477.471	85.44
477.69	79.44
477.908	85.44
478.127	90.44
478.346	89.44
478.564	80.44
478.783	94.44
479.002	84.44
479.22	74.44
479.439	98.44
479.658	83.44
479.876	76.44
480.095	76.44
480.313	93.44
480.532	94.44
480.751	87.44
480.969	85.44
481.188	81.44
481.406	96.44
481.624	88.44
481.843	93.44
482.061	69.44
482.28	82.44
482.498	82.44
482.717	76.44
482.935	91.44
483.153	90.44
483.372	97.44
483.59	84.44
483.808	84.44
484.027	100.44
484.245	79.44
484.463	98.44
484.681	103.44
484.9	89.44
485.118	98.44
485.336	95.44
485.554	93.44
485.772	94.44
485.99	97.44
486.209	97.44
486.427	104.44
486.645	104.44
486.863	105.44
487.081	95.44
487.299	95.44
487.517	106.44
487.735	99.44
487.953	94.44
488.171	95.44
488.389	104.44
488.607	108.44
488.825	94.44
489.043	84.44
489.261	84.44
489.479	79.44
489.696	78.44
489.914	97.44
490.132	80.44
490.35	82.44
490.568	83.44
490.786	80.44
491.003	91.44
491.221	81.44
491.439	90.44
491.657	101.44
491.874	97.44
492.092	77.44
492.31	91.44
492.527	97.44
492.745	84.44
492.963	85.44
493.18	84.44
493.398	94.44
493.615	100.44
493.833	97.44
494.05	94.44
494.268	92.44
494.485	81.44
494.703	96.44
494.92	91.44
495.138	87.44
495.355	98.44
495.573	91.44
495.79	98.44
496.008	93.44
496.225	89.44
496.442	97.44
496.66	85.44
496.877	92.44
497.094	82.44
497.312	81.44
497.529	77.44
497.746	68.44
497.963	88.44
498.181	101.44
498.398	89.44
498.615	91.44
498.832	101.44
499.049	93.44
499.267	87.44
499.484	90.44
499.701	82.44
499.918	100.44
500.135	99.44
500.352	79.44
500.569	103.44
500.786	95.44
501.003	79.44
501.22	74.44
501.437	106.44
501.654	89.44
501.871	95.44
502.088	87.44
502.305	92.44
502.522	96.44
502.739	92.44
502.956	92.44
503.172	96.44
503.389	88.44
503.606	95.44
503.823	99.44
504.04	106.44
504.256	98.44
504.473	85.44
504.69	92.44
504.907	90.44
505.123	86.44
505.34	93.44
505.557	82.44
505.773	96.44
505.99	73.44
506.207	105.44
506.423	86.44
506.64	91.44
506.856	93.44
507.073	92.44
507.289	90.44
507.506	93.44
507.722	91.44
507.939	122.44
508.155	87.44
508.372	96.44
508.588	79.44
508.805	88.44
509.021	96.44
509.238	88.44
509.454	98.44
509.67	101.44
509.887	105.44
510.103	122.44
510.319	201.44
510.536	693.44
510.752	2195.44
510.968	616.44
511.184	153.44
511.401	100.44
511.617	96.44
511.833	92.44
512.049	88.44
512.265	97.44
512.481	90.44
512.698	91.44
512.914	84.44
513.13	97.44
513.346	76.44
513.562	88.44
513.778	96.44
513.994	99.44
514.21	105.44
514.426	100.44
514.642	122.44
514.858	111.44
515.074	143.44
515.29	383.44
515.506	1271.44
515.721	483.44
515.937	143.44
516.153	99.44
516.369	83.44
516.585	102.44
516.801	98.44
