Data from Uncirc_2000_H10_HRD10591_00051.txt Node
Date: Wed Jan 03 10:48:27 EST 2024
User: Yrep
Spectrometer: HR+D1059
Trigger mode: 1
Integration Time (sec): 1.000000E-1
Scans to average: 1
Electric dark correction enabled: true
Nonlinearity correction enabled: false
Boxcar width: 0
XAxis mode: Wavelengths
Number of Pixels in Spectrum: 2048
>>>>>Begin Spectral Data<<<<<
223.165	-19.56
223.4	-19.56
223.635	-19.56
223.869	-14.56
224.104	-42.56
224.338	-10.56
224.573	-15.56
224.808	-9.56
225.042	-3.56
225.277	-8.56
225.511	9.44
225.746	22.44
225.98	9.44
226.215	14.44
226.449	10.44
226.683	10.44
226.918	28.44
227.152	19.44
227.387	34.44
227.621	27.44
227.856	35.44
228.09	46.44
228.324	53.44
228.559	68.44
228.793	60.44
229.027	73.44
229.262	66.44
229.496	62.44
229.73	81.44
229.964	68.44
230.199	77.44
230.433	83.44
230.667	86.44
230.901	72.44
231.136	76.44
231.37	82.44
231.604	81.44
231.838	87.44
232.072	91.44
232.306	81.44
232.541	99.44
232.775	87.44
233.009	72.44
233.243	72.44
233.477	77.44
233.711	95.44
233.945	91.44
234.179	89.44
234.413	81.44
234.647	77.44
234.881	87.44
235.115	85.44
235.349	74.44
235.583	75.44
235.817	91.44
236.051	75.44
236.285	88.44
236.519	90.44
236.753	79.44
236.987	80.44
237.221	74.44
237.455	80.44
237.689	75.44
237.922	85.44
238.156	82.44
238.39	91.44
238.624	89.44
238.858	68.44
239.091	63.44
239.325	78.44
239.559	70.44
239.793	88.44
240.027	69.44
240.26	84.44
240.494	86.44
240.728	87.44
240.961	93.44
241.195	78.44
241.429	62.44
241.662	75.44
241.896	68.44
242.13	78.44
242.363	81.44
242.597	84.44
242.83	75.44
243.064	84.44
243.298	84.44
243.531	81.44
243.765	83.44
243.998	92.44
244.232	82.44
244.465	91.44
244.699	84.44
244.932	83.44
245.166	80.44
245.399	83.44
245.633	81.44
245.866	76.44
246.099	84.44
246.333	73.44
246.566	60.44
246.8	83.44
247.033	74.44
247.266	77.44
247.5	76.44
247.733	70.44
247.966	93.44
248.2	84.44
248.433	77.44
248.666	84.44
248.899	83.44
249.133	83.44
249.366	112.44
249.599	89.44
249.832	84.44
250.066	87.44
250.299	95.44
250.532	88.44
250.765	82.44
250.998	95.44
251.231	86.44
251.465	77.44
251.698	90.44
251.931	82.44
252.164	91.44
252.397	76.44
252.63	79.44
252.863	77.44
253.096	81.44
253.329	93.44
253.562	90.44
253.795	85.44
254.028	92.44
254.261	80.44
254.494	85.44
254.727	77.44
254.96	82.44
255.193	87.44
255.426	75.44
255.659	82.44
255.892	77.44
256.124	82.44
256.357	90.44
256.59	95.44
256.823	77.44
257.056	73.44
257.289	70.44
257.521	76.44
257.754	98.44
257.987	81.44
258.22	87.44
258.452	74.44
258.685	89.44
258.918	80.44
259.151	83.44
259.383	78.44
259.616	84.44
259.849	86.44
260.081	78.44
260.314	85.44
260.547	91.44
260.779	91.44
261.012	88.44
261.244	72.44
261.477	86.44
261.71	110.44
261.942	96.44
262.175	101.44
262.407	82.44
262.64	84.44
262.872	89.44
263.105	94.44
263.337	87.44
263.57	76.44
263.802	78.44
264.035	80.44
264.267	90.44
264.499	108.44
264.732	84.44
264.964	92.44
265.197	98.44
265.429	81.44
265.661	90.44
265.894	80.44
266.126	79.44
266.358	80.44
266.591	83.44
266.823	82.44
267.055	84.44
267.287	70.44
267.52	75.44
267.752	81.44
267.984	96.44
268.216	82.44
268.448	77.44
268.681	68.44
268.913	98.44
269.145	92.44
269.377	94.44
269.609	91.44
269.841	86.44
270.073	78.44
270.306	76.44
270.538	82.44
270.77	96.44
271.002	81.44
271.234	79.44
271.466	93.44
271.698	84.44
271.93	91.44
272.162	111.44
272.394	88.44
272.626	77.44
272.858	78.44
273.09	91.44
273.322	92.44
273.553	94.44
273.785	79.44
274.017	83.44
274.249	79.44
274.481	93.44
274.713	88.44
274.945	91.44
275.176	77.44
275.408	85.44
275.64	86.44
275.872	91.44
276.104	90.44
276.335	80.44
276.567	92.44
276.799	96.44
277.031	95.44
277.262	91.44
277.494	78.44
277.726	86.44
277.957	96.44
278.189	95.44
278.421	93.44
278.652	99.44
278.884	86.44
279.115	79.44
279.347	82.44
279.579	94.44
279.81	81.44
280.042	80.44
280.273	89.44
280.505	76.44
280.736	68.44
280.968	84.44
281.199	84.44
281.431	88.44
281.662	91.44
281.894	96.44
282.125	96.44
282.356	101.44
282.588	117.44
282.819	112.44
283.051	96.44
283.282	79.44
283.513	91.44
283.745	87.44
283.976	83.44
284.207	104.44
284.439	88.44
284.67	76.44
284.901	90.44
285.132	78.44
285.364	77.44
285.595	81.44
285.826	99.44
286.057	82.44
286.288	104.44
286.52	79.44
286.751	84.44
286.982	110.44
287.213	92.44
287.444	96.44
287.675	86.44
287.906	97.44
288.138	92.44
288.369	91.44
288.6	104.44
288.831	84.44
289.062	88.44
289.293	85.44
289.524	91.44
289.755	92.44
289.986	93.44
290.217	77.44
290.448	93.44
290.679	89.44
290.91	92.44
291.141	85.44
291.371	82.44
291.602	88.44
291.833	90.44
292.064	96.44
292.295	91.44
292.526	110.44
292.757	101.44
292.987	87.44
293.218	89.44
293.449	92.44
293.68	79.44
293.91	88.44
294.141	81.44
294.372	88.44
294.603	100.44
294.833	85.44
295.064	87.44
295.295	91.44
295.525	92.44
295.756	119.44
295.987	103.44
296.217	126.44
296.448	108.44
296.679	80.44
296.909	86.44
297.14	86.44
297.37	92.44
297.601	91.44
297.831	95.44
298.062	91.44
298.292	94.44
298.523	86.44
298.753	99.44
298.984	103.44
299.214	101.44
299.445	89.44
299.675	89.44
299.905	96.44
300.136	94.44
300.366	82.44
300.597	95.44
300.827	90.44
301.057	91.44
301.288	111.44
301.518	105.44
301.748	85.44
301.979	108.44
302.209	101.44
302.439	92.44
302.669	75.44
302.9	94.44
303.13	98.44
303.36	96.44
303.59	93.44
303.82	100.44
304.051	100.44
304.281	89.44
304.511	98.44
304.741	95.44
304.971	99.44
305.201	94.44
305.431	88.44
305.661	79.44
305.891	91.44
306.121	88.44
306.352	111.44
306.582	89.44
306.812	94.44
307.042	99.44
307.272	86.44
307.502	93.44
307.731	80.44
307.961	62.44
308.191	79.44
308.421	97.44
308.651	105.44
308.881	96.44
309.111	88.44
309.341	91.44
309.571	91.44
309.8	89.44
310.03	100.44
310.26	95.44
310.49	99.44
310.72	92.44
310.949	107.44
311.179	87.44
311.409	98.44
311.639	92.44
311.868	95.44
312.098	97.44
312.328	95.44
312.557	99.44
312.787	94.44
313.017	100.44
313.246	87.44
313.476	91.44
313.706	89.44
313.935	96.44
314.165	92.44
314.394	101.44
314.624	102.44
314.853	90.44
315.083	86.44
315.312	101.44
315.542	114.44
315.771	102.44
316.001	91.44
316.23	83.44
316.46	91.44
316.689	103.44
316.919	96.44
317.148	89.44
317.377	98.44
317.607	95.44
317.836	102.44
318.065	92.44
318.295	73.44
318.524	94.44
318.753	93.44
318.983	100.44
319.212	108.44
319.441	105.44
319.67	102.44
319.9	98.44
320.129	94.44
320.358	97.44
320.587	100.44
320.816	87.44
321.046	95.44
321.275	99.44
321.504	102.44
321.733	111.44
321.962	93.44
322.191	115.44
322.42	104.44
322.649	117.44
322.878	114.44
323.108	125.44
323.337	117.44
323.566	119.44
323.795	149.44
324.024	195.44
324.253	332.44
324.482	731.44
324.71	1451.44
324.939	1878.44
325.168	701.44
325.397	224.44
325.626	150.44
325.855	134.44
326.084	123.44
326.313	132.44
326.542	146.44
326.77	226.44
326.999	418.44
327.228	835.44
327.457	1458.44
327.686	1161.44
327.914	341.44
328.143	168.44
328.372	120.44
328.6	124.44
328.829	111.44
329.058	120.44
329.287	114.44
329.515	107.44
329.744	89.44
329.972	108.44
330.201	92.44
330.43	110.44
330.658	99.44
330.887	119.44
331.115	117.44
331.344	93.44
331.572	102.44
331.801	73.44
332.03	88.44
332.258	84.44
332.486	104.44
332.715	107.44
332.943	91.44
333.172	94.44
333.4	96.44
333.629	104.44
333.857	97.44
334.085	90.44
334.314	101.44
334.542	98.44
334.771	100.44
334.999	94.44
335.227	90.44
335.455	90.44
335.684	110.44
335.912	104.44
336.14	106.44
336.369	111.44
336.597	102.44
336.825	98.44
337.053	108.44
337.281	111.44
337.51	103.44
337.738	93.44
337.966	102.44
338.194	96.44
338.422	88.44
338.65	93.44
338.878	96.44
339.106	95.44
339.334	106.44
339.562	101.44
339.79	89.44
340.018	94.44
340.246	83.44
340.474	86.44
340.702	85.44
340.93	97.44
341.158	96.44
341.386	98.44
341.614	84.44
341.842	100.44
342.07	90.44
342.298	96.44
342.526	99.44
342.754	84.44
342.981	85.44
343.209	83.44
343.437	93.44
343.665	98.44
343.893	93.44
344.12	90.44
344.348	98.44
344.576	86.44
344.804	95.44
345.031	99.44
345.259	114.44
345.487	89.44
345.714	91.44
345.942	87.44
346.17	88.44
346.397	101.44
346.625	95.44
346.853	89.44
347.08	107.44
347.308	98.44
347.535	88.44
347.763	97.44
347.99	99.44
348.218	95.44
348.445	100.44
348.673	97.44
348.9	98.44
349.128	110.44
349.355	100.44
349.583	91.44
349.81	89.44
350.037	92.44
350.265	92.44
350.492	101.44
350.72	94.44
350.947	101.44
351.174	105.44
351.402	105.44
351.629	107.44
351.856	103.44
352.083	103.44
352.311	107.44
352.538	93.44
352.765	104.44
352.992	102.44
353.22	108.44
353.447	104.44
353.674	105.44
353.901	99.44
354.128	86.44
354.355	116.44
354.583	97.44
354.81	106.44
355.037	92.44
355.264	89.44
355.491	106.44
355.718	82.44
355.945	86.44
356.172	92.44
356.399	99.44
356.626	106.44
356.853	95.44
357.08	99.44
357.307	87.44
357.534	95.44
357.761	92.44
357.988	90.44
358.215	94.44
358.441	93.44
358.668	95.44
358.895	89.44
359.122	95.44
359.349	90.44
359.576	80.44
359.802	83.44
360.029	121.44
360.256	116.44
360.483	92.44
360.709	100.44
360.936	97.44
361.163	91.44
361.39	97.44
361.616	83.44
361.843	89.44
362.07	95.44
362.296	97.44
362.523	93.44
362.749	90.44
362.976	85.44
363.203	97.44
363.429	100.44
363.656	92.44
363.882	97.44
364.109	84.44
364.335	103.44
364.562	80.44
364.788	78.44
365.015	83.44
365.241	90.44
365.468	96.44
365.694	100.44
365.92	107.44
366.147	98.44
366.373	90.44
366.599	95.44
366.826	92.44
367.052	81.44
367.278	88.44
367.505	85.44
367.731	96.44
367.957	91.44
368.184	102.44
368.41	99.44
368.636	107.44
368.862	109.44
369.089	102.44
369.315	103.44
369.541	92.44
369.767	98.44
369.993	110.44
370.219	99.44
370.445	86.44
370.672	92.44
370.898	102.44
371.124	86.44
371.35	86.44
371.576	86.44
371.802	90.44
372.028	88.44
372.254	75.44
372.48	103.44
372.706	80.44
372.932	88.44
373.158	77.44
373.384	85.44
373.61	89.44
373.835	88.44
374.061	82.44
374.287	87.44
374.513	86.44
374.739	78.44
374.965	89.44
375.191	88.44
375.416	101.44
375.642	93.44
375.868	87.44
376.094	93.44
376.319	74.44
376.545	89.44
376.771	92.44
376.997	91.44
377.222	91.44
377.448	90.44
377.674	105.44
377.899	98.44
378.125	108.44
378.35	108.44
378.576	83.44
378.802	93.44
379.027	84.44
379.253	94.44
379.478	94.44
379.704	88.44
379.929	103.44
380.155	100.44
380.38	78.44
380.606	89.44
380.831	100.44
381.057	102.44
381.282	90.44
381.507	103.44
381.733	100.44
381.958	84.44
382.184	103.44
382.409	93.44
382.634	111.44
382.86	97.44
383.085	106.44
383.31	100.44
383.535	95.44
383.761	102.44
383.986	105.44
384.211	115.44
384.436	105.44
384.662	95.44
384.887	96.44
385.112	99.44
385.337	109.44
385.562	117.44
385.787	110.44
386.013	119.44
386.238	117.44
386.463	107.44
386.688	113.44
386.913	90.44
387.138	108.44
387.363	88.44
387.588	93.44
387.813	96.44
388.038	112.44
388.263	96.44
388.488	100.44
388.713	88.44
388.938	104.44
389.163	94.44
389.387	96.44
389.612	91.44
389.837	91.44
390.062	97.44
390.287	92.44
390.512	96.44
390.736	85.44
390.961	87.44
391.186	95.44
391.411	91.44
391.636	92.44
391.86	86.44
392.085	89.44
392.31	94.44
392.534	90.44
392.759	82.44
392.984	89.44
393.208	78.44
393.433	86.44
393.658	96.44
393.882	93.44
394.107	80.44
394.331	74.44
394.556	100.44
394.78	93.44
395.005	74.44
395.229	89.44
395.454	95.44
395.678	92.44
395.903	93.44
396.127	84.44
396.352	89.44
396.576	85.44
396.801	77.44
397.025	92.44
397.249	87.44
397.474	76.44
397.698	92.44
397.922	90.44
398.147	85.44
398.371	78.44
398.595	99.44
398.82	87.44
399.044	94.44
399.268	97.44
399.492	92.44
399.717	88.44
399.941	105.44
400.165	95.44
400.389	84.44
400.613	79.44
400.837	83.44
401.062	90.44
401.286	91.44
401.51	95.44
401.734	89.44
401.958	92.44
402.182	121.44
402.406	128.44
402.63	106.44
402.854	91.44
403.078	86.44
403.302	105.44
403.526	84.44
403.75	103.44
403.974	86.44
404.198	82.44
404.422	87.44
404.645	91.44
404.869	80.44
405.093	92.44
405.317	92.44
405.541	90.44
405.765	86.44
405.988	106.44
406.212	164.44
406.436	188.44
406.66	128.44
406.883	101.44
407.107	105.44
407.331	99.44
407.555	107.44
407.778	86.44
408.002	93.44
408.226	84.44
408.449	87.44
408.673	92.44
408.896	90.44
409.12	102.44
409.344	89.44
409.567	87.44
409.791	92.44
410.014	96.44
410.238	106.44
410.461	82.44
410.685	105.44
410.908	94.44
411.132	103.44
411.355	90.44
411.578	94.44
411.802	88.44
412.025	96.44
412.249	91.44
412.472	88.44
412.695	76.44
412.919	87.44
413.142	99.44
413.365	101.44
413.589	90.44
413.812	86.44
414.035	89.44
414.258	84.44
414.482	98.44
414.705	95.44
414.928	94.44
415.151	95.44
415.374	93.44
415.597	92.44
415.821	71.44
416.044	90.44
416.267	90.44
416.49	99.44
416.713	90.44
416.936	86.44
417.159	96.44
417.382	104.44
417.605	87.44
417.828	93.44
418.051	91.44
418.274	92.44
418.497	94.44
418.72	78.44
418.943	89.44
419.166	97.44
419.389	85.44
419.611	100.44
419.834	80.44
420.057	96.44
420.28	85.44
420.503	79.44
420.726	97.44
420.948	85.44
421.171	100.44
421.394	104.44
421.617	102.44
421.839	88.44
422.062	103.44
422.285	99.44
422.507	101.44
422.73	103.44
422.953	88.44
423.175	84.44
423.398	107.44
423.621	90.44
423.843	93.44
424.066	102.44
424.288	70.44
424.511	96.44
424.733	96.44
424.956	105.44
425.178	99.44
425.401	84.44
425.623	92.44
425.846	101.44
426.068	90.44
426.291	89.44
426.513	90.44
426.735	85.44
426.958	93.44
427.18	95.44
427.402	129.44
427.625	138.44
427.847	115.44
428.069	91.44
428.292	82.44
428.514	104.44
428.736	91.44
428.958	84.44
429.181	87.44
429.403	93.44
429.625	80.44
429.847	84.44
430.069	92.44
430.292	98.44
430.514	96.44
430.736	86.44
430.958	93.44
431.18	86.44
431.402	82.44
431.624	101.44
431.846	98.44
432.068	73.44
432.29	76.44
432.512	94.44
432.734	94.44
432.956	100.44
433.178	102.44
433.4	96.44
433.622	80.44
433.844	91.44
434.066	102.44
434.287	103.44
434.509	88.44
434.731	70.44
434.953	79.44
435.175	87.44
435.397	98.44
435.618	85.44
435.84	93.44
436.062	108.44
436.284	117.44
436.505	92.44
436.727	109.44
436.949	91.44
437.17	84.44
437.392	89.44
437.614	85.44
437.835	95.44
438.057	103.44
438.278	95.44
438.5	96.44
438.721	107.44
438.943	104.44
439.165	93.44
439.386	85.44
439.608	71.44
439.829	90.44
440.05	104.44
440.272	127.44
440.493	96.44
440.715	99.44
440.936	92.44
441.158	96.44
441.379	95.44
441.6	95.44
441.822	86.44
442.043	97.44
442.264	92.44
442.486	100.44
442.707	99.44
442.928	92.44
443.149	106.44
443.371	130.44
443.592	107.44
443.813	99.44
444.034	114.44
444.255	88.44
444.476	83.44
444.698	90.44
444.919	96.44
445.14	130.44
445.361	136.44
445.582	110.44
445.803	138.44
446.024	121.44
446.245	134.44
446.466	108.44
446.687	94.44
446.908	90.44
447.129	84.44
447.35	87.44
447.571	94.44
447.792	96.44
448.013	99.44
448.234	107.44
448.455	87.44
448.675	114.44
448.896	114.44
449.117	86.44
449.338	99.44
449.559	133.44
449.779	132.44
450	102.44
450.221	75.44
450.442	90.44
450.662	105.44
450.883	110.44
451.104	96.44
451.324	82.44
451.545	74.44
451.766	75.44
451.986	95.44
452.207	85.44
452.428	96.44
452.648	91.44
452.869	109.44
453.089	112.44
453.31	101.44
453.53	96.44
453.751	81.44
453.971	85.44
454.192	109.44
454.412	101.44
454.633	91.44
454.853	98.44
455.073	88.44
455.294	94.44
455.514	107.44
455.734	95.44
455.955	84.44
456.175	92.44
456.395	87.44
456.616	85.44
456.836	90.44
457.056	90.44
457.276	87.44
457.497	84.44
457.717	87.44
457.937	81.44
458.157	95.44
458.377	91.44
458.598	90.44
458.818	137.44
459.038	139.44
459.258	109.44
459.478	87.44
459.698	81.44
459.918	81.44
460.138	85.44
460.358	84.44
460.578	99.44
460.798	79.44
461.018	93.44
461.238	105.44
461.458	92.44
461.678	87.44
461.898	90.44
462.118	84.44
462.338	86.44
462.558	85.44
462.777	96.44
462.997	92.44
463.217	92.44
463.437	75.44
463.657	87.44
463.876	81.44
464.096	113.44
464.316	81.44
464.536	90.44
464.755	90.44
464.975	95.44
465.195	156.44
465.414	130.44
465.634	94.44
465.854	84.44
466.073	82.44
466.293	88.44
466.512	82.44
466.732	86.44
466.951	90.44
467.171	96.44
467.391	88.44
467.61	101.44
467.829	92.44
468.049	89.44
468.268	91.44
468.488	85.44
468.707	82.44
468.927	104.44
469.146	85.44
469.365	95.44
469.585	98.44
469.804	96.44
470.023	87.44
470.243	106.44
470.462	96.44
470.681	95.44
470.901	81.44
471.12	96.44
471.339	94.44
471.558	80.44
471.777	102.44
471.997	101.44
472.216	89.44
472.435	76.44
472.654	100.44
472.873	99.44
473.092	94.44
473.311	87.44
473.53	80.44
473.749	87.44
473.968	88.44
474.187	98.44
474.406	90.44
474.625	89.44
474.844	83.44
475.063	88.44
475.282	91.44
475.501	95.44
475.72	79.44
475.939	78.44
476.158	100.44
476.377	84.44
476.596	92.44
476.814	96.44
477.033	87.44
477.252	94.44
477.471	79.44
477.69	81.44
477.908	77.44
478.127	96.44
478.346	89.44
478.564	96.44
478.783	96.44
479.002	87.44
479.22	96.44
479.439	86.44
479.658	90.44
479.876	99.44
480.095	96.44
480.313	102.44
480.532	100.44
480.751	83.44
480.969	88.44
481.188	100.44
481.406	91.44
481.624	89.44
481.843	93.44
482.061	94.44
482.28	88.44
482.498	90.44
482.717	83.44
482.935	81.44
483.153	84.44
483.372	74.44
483.59	104.44
483.808	105.44
484.027	94.44
484.245	98.44
484.463	90.44
484.681	110.44
484.9	104.44
485.118	96.44
485.336	96.44
485.554	82.44
485.772	86.44
485.99	112.44
486.209	92.44
486.427	108.44
486.645	113.44
486.863	101.44
487.081	95.44
487.299	99.44
487.517	101.44
487.735	93.44
487.953	112.44
488.171	89.44
488.389	104.44
488.607	93.44
488.825	96.44
489.043	106.44
489.261	95.44
489.479	91.44
489.696	91.44
489.914	94.44
490.132	93.44
490.35	90.44
490.568	95.44
490.786	90.44
491.003	86.44
491.221	99.44
491.439	94.44
491.657	82.44
491.874	99.44
492.092	95.44
492.31	87.44
492.527	97.44
492.745	93.44
492.963	82.44
493.18	93.44
493.398	95.44
493.615	91.44
493.833	102.44
494.05	90.44
494.268	91.44
494.485	88.44
494.703	92.44
494.92	102.44
495.138	95.44
495.355	92.44
495.573	106.44
495.79	106.44
496.008	98.44
496.225	106.44
496.442	102.44
496.66	93.44
496.877	99.44
497.094	102.44
497.312	89.44
497.529	101.44
497.746	89.44
497.963	98.44
498.181	91.44
498.398	92.44
498.615	109.44
498.832	116.44
499.049	89.44
499.267	99.44
499.484	94.44
499.701	86.44
499.918	91.44
500.135	102.44
500.352	92.44
500.569	79.44
500.786	96.44
501.003	84.44
501.22	94.44
501.437	94.44
501.654	95.44
501.871	104.44
502.088	103.44
502.305	88.44
502.522	95.44
502.739	86.44
502.956	105.44
503.172	97.44
503.389	109.44
503.606	111.44
503.823	105.44
504.04	91.44
504.256	91.44
504.473	94.44
504.69	83.44
504.907	95.44
505.123	102.44
505.34	84.44
505.557	100.44
505.773	94.44
505.99	97.44
506.207	100.44
506.423	89.44
506.64	94.44
506.856	99.44
507.073	88.44
507.289	100.44
507.506	101.44
507.722	113.44
507.939	96.44
508.155	105.44
508.372	96.44
508.588	89.44
508.805	107.44
509.021	105.44
509.238	99.44
509.454	92.44
509.67	88.44
509.887	100.44
510.103	116.44
510.319	172.44
510.536	661.44
510.752	2056.44
510.968	583.44
511.184	162.44
511.401	114.44
511.617	105.44
511.833	99.44
512.049	92.44
512.265	95.44
512.481	93.44
512.698	91.44
512.914	99.44
513.13	104.44
513.346	94.44
513.562	99.44
513.778	100.44
513.994	95.44
514.21	114.44
514.426	126.44
514.642	102.44
514.858	107.44
515.074	152.44
515.29	381.44
515.506	1159.44
