Data from Uncirc_2000_H10_HRD10591_00015.txt Node
Date: Wed Jan 03 10:48:20 EST 2024
User: Yrep
Spectrometer: HR+D1059
Trigger mode: 1
Integration Time (sec): 1.000000E-1
Scans to average: 1
Electric dark correction enabled: true
Nonlinearity correction enabled: false
Boxcar width: 0
XAxis mode: Wavelengths
Number of Pixels in Spectrum: 2048
>>>>>Begin Spectral Data<<<<<
223.165	-28.12
223.4	-28.12
223.635	-28.12
223.869	-3.12
224.104	-19.12
224.338	-19.12
224.573	-11.12
224.808	-9.12
225.042	-13.12
225.277	-11.12
225.511	7.88
225.746	-0.12
225.98	12.88
226.215	8.88
226.449	10.88
226.683	15.88
226.918	37.88
227.152	19.88
227.387	31.88
227.621	31.88
227.856	41.88
228.09	47.88
228.324	48.88
228.559	54.88
228.793	65.88
229.027	68.88
229.262	58.88
229.496	69.88
229.73	83.88
229.964	85.88
230.199	73.88
230.433	68.88
230.667	61.88
230.901	79.88
231.136	77.88
231.37	72.88
231.604	83.88
231.838	81.88
232.072	73.88
232.306	94.88
232.541	81.88
232.775	82.88
233.009	78.88
233.243	75.88
233.477	62.88
233.711	92.88
233.945	82.88
234.179	81.88
234.413	72.88
234.647	75.88
234.881	74.88
235.115	62.88
235.349	69.88
235.583	78.88
235.817	88.88
236.051	81.88
236.285	70.88
236.519	78.88
236.753	84.88
236.987	66.88
237.221	77.88
237.455	83.88
237.689	82.88
237.922	69.88
238.156	65.88
238.39	74.88
238.624	61.88
238.858	69.88
239.091	78.88
239.325	79.88
239.559	72.88
239.793	62.88
240.027	81.88
240.26	74.88
240.494	77.88
240.728	78.88
240.961	79.88
241.195	76.88
241.429	72.88
241.662	83.88
241.896	68.88
242.13	78.88
242.363	86.88
242.597	66.88
242.83	78.88
243.064	75.88
243.298	80.88
243.531	79.88
243.765	67.88
243.998	76.88
244.232	82.88
244.465	86.88
244.699	89.88
244.932	72.88
245.166	74.88
245.399	66.88
245.633	73.88
245.866	78.88
246.099	83.88
246.333	72.88
246.566	82.88
246.8	82.88
247.033	71.88
247.266	80.88
247.5	65.88
247.733	74.88
247.966	96.88
248.2	80.88
248.433	80.88
248.666	70.88
248.899	70.88
249.133	85.88
249.366	88.88
249.599	86.88
249.832	75.88
250.066	91.88
250.299	97.88
250.532	74.88
250.765	74.88
250.998	78.88
251.231	75.88
251.465	74.88
251.698	83.88
251.931	88.88
252.164	75.88
252.397	88.88
252.63	80.88
252.863	84.88
253.096	70.88
253.329	71.88
253.562	69.88
253.795	84.88
254.028	86.88
254.261	83.88
254.494	74.88
254.727	84.88
254.96	82.88
255.193	81.88
255.426	81.88
255.659	94.88
255.892	72.88
256.124	67.88
256.357	69.88
256.59	97.88
256.823	78.88
257.056	83.88
257.289	85.88
257.521	79.88
257.754	73.88
257.987	93.88
258.22	79.88
258.452	84.88
258.685	86.88
258.918	77.88
259.151	82.88
259.383	77.88
259.616	79.88
259.849	78.88
260.081	77.88
260.314	81.88
260.547	66.88
260.779	88.88
261.012	80.88
261.244	83.88
261.477	91.88
261.71	85.88
261.942	95.88
262.175	92.88
262.407	91.88
262.64	65.88
262.872	78.88
263.105	84.88
263.337	80.88
263.57	82.88
263.802	86.88
264.035	84.88
264.267	75.88
264.499	84.88
264.732	71.88
264.964	84.88
265.197	64.88
265.429	85.88
265.661	77.88
265.894	85.88
266.126	73.88
266.358	78.88
266.591	82.88
266.823	74.88
267.055	88.88
267.287	97.88
267.52	82.88
267.752	80.88
267.984	74.88
268.216	93.88
268.448	85.88
268.681	81.88
268.913	66.88
269.145	94.88
269.377	87.88
269.609	76.88
269.841	80.88
270.073	80.88
270.306	77.88
270.538	82.88
270.77	81.88
271.002	71.88
271.234	86.88
271.466	82.88
271.698	92.88
271.93	67.88
272.162	80.88
272.394	81.88
272.626	95.88
272.858	95.88
273.09	74.88
273.322	62.88
273.553	82.88
273.785	72.88
274.017	72.88
274.249	77.88
274.481	81.88
274.713	84.88
274.945	98.88
275.176	91.88
275.408	78.88
275.64	78.88
275.872	93.88
276.104	71.88
276.335	86.88
276.567	87.88
276.799	85.88
277.031	93.88
277.262	93.88
277.494	85.88
277.726	71.88
277.957	83.88
278.189	81.88
278.421	79.88
278.652	78.88
278.884	78.88
279.115	89.88
279.347	65.88
279.579	84.88
279.81	91.88
280.042	88.88
280.273	70.88
280.505	82.88
280.736	82.88
280.968	101.88
281.199	79.88
281.431	90.88
281.662	65.88
281.894	69.88
282.125	94.88
282.356	104.88
282.588	119.88
282.819	98.88
283.051	98.88
283.282	73.88
283.513	86.88
283.745	79.88
283.976	74.88
284.207	91.88
284.439	69.88
284.67	78.88
284.901	80.88
285.132	81.88
285.364	79.88
285.595	86.88
285.826	69.88
286.057	86.88
286.288	95.88
286.52	89.88
286.751	83.88
286.982	84.88
287.213	82.88
287.444	88.88
287.675	90.88
287.906	90.88
288.138	85.88
288.369	90.88
288.6	90.88
288.831	75.88
289.062	90.88
289.293	81.88
289.524	62.88
289.755	86.88
289.986	89.88
290.217	78.88
290.448	91.88
290.679	90.88
290.91	86.88
291.141	75.88
291.371	89.88
291.602	77.88
291.833	90.88
292.064	95.88
292.295	90.88
292.526	83.88
292.757	84.88
292.987	90.88
293.218	95.88
293.449	90.88
293.68	93.88
293.91	83.88
294.141	92.88
294.372	95.88
294.603	79.88
294.833	91.88
295.064	79.88
295.295	90.88
295.525	89.88
295.756	94.88
295.987	86.88
296.217	122.88
296.448	120.88
296.679	83.88
296.909	94.88
297.14	82.88
297.37	77.88
297.601	80.88
297.831	94.88
298.062	88.88
298.292	77.88
298.523	74.88
298.753	81.88
298.984	90.88
299.214	86.88
299.445	84.88
299.675	88.88
299.905	101.88
300.136	74.88
300.366	85.88
300.597	87.88
300.827	85.88
301.057	93.88
301.288	98.88
301.518	87.88
301.748	87.88
301.979	90.88
302.209	79.88
302.439	83.88
302.669	88.88
302.9	91.88
303.13	75.88
303.36	87.88
303.59	90.88
303.82	100.88
304.051	91.88
304.281	95.88
304.511	88.88
304.741	93.88
304.971	84.88
305.201	83.88
305.431	89.88
305.661	85.88
305.891	95.88
306.121	88.88
306.352	98.88
306.582	95.88
306.812	101.88
307.042	75.88
307.272	81.88
307.502	90.88
307.731	88.88
307.961	88.88
308.191	76.88
308.421	83.88
308.651	84.88
308.881	87.88
309.111	79.88
309.341	88.88
309.571	83.88
309.8	81.88
310.03	97.88
310.26	96.88
310.49	103.88
310.72	89.88
310.949	110.88
311.179	85.88
311.409	88.88
311.639	73.88
311.868	83.88
312.098	100.88
312.328	105.88
312.557	90.88
312.787	89.88
313.017	93.88
313.246	95.88
313.476	89.88
313.706	97.88
313.935	99.88
314.165	98.88
314.394	109.88
314.624	107.88
314.853	81.88
315.083	85.88
315.312	81.88
315.542	66.88
315.771	91.88
316.001	88.88
316.23	98.88
316.46	86.88
316.689	95.88
316.919	95.88
317.148	93.88
317.377	90.88
317.607	79.88
317.836	92.88
318.065	90.88
318.295	102.88
318.524	74.88
318.753	101.88
318.983	105.88
319.212	102.88
319.441	96.88
319.67	91.88
319.9	89.88
320.129	85.88
320.358	89.88
320.587	102.88
320.816	108.88
321.046	102.88
321.275	84.88
321.504	90.88
321.733	88.88
321.962	89.88
322.191	76.88
322.42	109.88
322.649	111.88
322.878	103.88
323.108	106.88
323.337	103.88
323.566	122.88
323.795	144.88
324.024	171.88
324.253	360.88
324.482	751.88
324.71	1464.88
324.939	1874.88
325.168	713.88
325.397	228.88
325.626	132.88
325.855	111.88
326.084	126.88
326.313	130.88
326.542	135.88
326.77	197.88
326.999	398.88
327.228	845.88
327.457	1464.88
327.686	1197.88
327.914	336.88
328.143	165.88
328.372	128.88
328.6	116.88
328.829	105.88
329.058	109.88
329.287	109.88
329.515	100.88
329.744	101.88
329.972	92.88
330.201	105.88
330.43	108.88
330.658	110.88
330.887	125.88
331.115	106.88
331.344	105.88
331.572	97.88
331.801	113.88
332.03	101.88
332.258	93.88
332.486	89.88
332.715	102.88
332.943	104.88
333.172	97.88
333.4	89.88
333.629	97.88
333.857	95.88
334.085	89.88
334.314	86.88
334.542	85.88
334.771	97.88
334.999	101.88
335.227	91.88
335.455	78.88
335.684	90.88
335.912	91.88
336.14	93.88
336.369	99.88
336.597	105.88
336.825	97.88
337.053	82.88
337.281	90.88
337.51	91.88
337.738	94.88
337.966	93.88
338.194	103.88
338.422	98.88
338.65	93.88
338.878	97.88
339.106	87.88
339.334	73.88
339.562	87.88
339.79	96.88
340.018	87.88
340.246	104.88
340.474	92.88
340.702	91.88
340.93	89.88
341.158	90.88
341.386	82.88
341.614	96.88
341.842	118.88
342.07	84.88
342.298	88.88
342.526	88.88
342.754	94.88
342.981	85.88
343.209	75.88
343.437	93.88
343.665	94.88
343.893	82.88
344.12	71.88
344.348	91.88
344.576	92.88
344.804	99.88
345.031	93.88
345.259	97.88
345.487	95.88
345.714	93.88
345.942	84.88
346.17	77.88
346.397	87.88
346.625	81.88
346.853	94.88
347.08	89.88
347.308	98.88
347.535	88.88
347.763	81.88
347.99	101.88
348.218	95.88
348.445	104.88
348.673	95.88
348.9	91.88
349.128	81.88
349.355	88.88
349.583	81.88
349.81	93.88
350.037	91.88
350.265	95.88
350.492	106.88
350.72	95.88
350.947	89.88
351.174	93.88
351.402	96.88
351.629	109.88
351.856	89.88
352.083	98.88
352.311	90.88
352.538	98.88
352.765	104.88
352.992	111.88
353.22	96.88
353.447	94.88
353.674	102.88
353.901	98.88
354.128	107.88
354.355	93.88
354.583	85.88
354.81	97.88
355.037	101.88
355.264	83.88
355.491	94.88
355.718	87.88
355.945	77.88
356.172	86.88
356.399	88.88
356.626	91.88
356.853	84.88
357.08	103.88
357.307	86.88
357.534	88.88
357.761	88.88
357.988	89.88
358.215	98.88
358.441	98.88
358.668	78.88
358.895	84.88
359.122	82.88
359.349	98.88
359.576	85.88
359.802	81.88
360.029	112.88
360.256	105.88
360.483	96.88
360.709	83.88
360.936	91.88
361.163	96.88
361.39	102.88
361.616	87.88
361.843	102.88
362.07	83.88
362.296	92.88
362.523	94.88
362.749	88.88
362.976	94.88
363.203	86.88
363.429	94.88
363.656	82.88
363.882	92.88
364.109	79.88
364.335	97.88
364.562	93.88
364.788	91.88
365.015	98.88
365.241	87.88
365.468	114.88
365.694	92.88
365.92	84.88
366.147	88.88
366.373	87.88
366.599	79.88
366.826	96.88
367.052	82.88
367.278	91.88
367.505	84.88
367.731	94.88
367.957	82.88
368.184	99.88
368.41	94.88
368.636	104.88
368.862	114.88
369.089	90.88
369.315	85.88
369.541	87.88
369.767	90.88
369.993	83.88
370.219	94.88
370.445	78.88
370.672	85.88
370.898	68.88
371.124	82.88
371.35	84.88
371.576	87.88
371.802	87.88
372.028	104.88
372.254	93.88
372.48	84.88
372.706	78.88
372.932	81.88
373.158	75.88
373.384	92.88
373.61	104.88
373.835	76.88
374.061	93.88
374.287	99.88
374.513	88.88
374.739	90.88
374.965	84.88
375.191	92.88
375.416	82.88
375.642	92.88
375.868	99.88
376.094	89.88
376.319	80.88
376.545	81.88
376.771	95.88
376.997	87.88
377.222	86.88
377.448	106.88
377.674	89.88
377.899	74.88
378.125	90.88
378.35	85.88
378.576	97.88
378.802	83.88
379.027	97.88
379.253	78.88
379.478	88.88
379.704	94.88
379.929	98.88
380.155	87.88
380.38	85.88
380.606	89.88
380.831	90.88
381.057	104.88
381.282	93.88
381.507	95.88
381.733	103.88
381.958	102.88
382.184	89.88
382.409	93.88
382.634	99.88
382.86	91.88
383.085	91.88
383.31	108.88
383.535	99.88
383.761	91.88
383.986	88.88
384.211	91.88
384.436	93.88
384.662	110.88
384.887	95.88
385.112	93.88
385.337	102.88
385.562	91.88
385.787	106.88
386.013	106.88
386.238	116.88
386.463	104.88
386.688	112.88
386.913	98.88
387.138	100.88
387.363	105.88
387.588	91.88
387.813	104.88
388.038	101.88
388.263	111.88
388.488	102.88
388.713	88.88
388.938	98.88
389.163	97.88
389.387	106.88
389.612	90.88
389.837	94.88
390.062	85.88
390.287	92.88
390.512	90.88
390.736	83.88
390.961	86.88
391.186	90.88
391.411	93.88
391.636	106.88
391.86	92.88
392.085	96.88
392.31	84.88
392.534	83.88
392.759	92.88
392.984	90.88
393.208	91.88
393.433	94.88
393.658	111.88
393.882	69.88
394.107	80.88
394.331	79.88
394.556	87.88
394.78	92.88
395.005	105.88
395.229	83.88
395.454	91.88
395.678	83.88
395.903	90.88
396.127	81.88
396.352	96.88
396.576	86.88
396.801	90.88
397.025	92.88
397.249	91.88
397.474	88.88
397.698	84.88
397.922	88.88
398.147	90.88
398.371	82.88
398.595	81.88
398.82	83.88
399.044	84.88
399.268	87.88
399.492	93.88
399.717	90.88
399.941	87.88
400.165	95.88
400.389	86.88
400.613	86.88
400.837	90.88
401.062	88.88
401.286	82.88
401.51	88.88
401.734	88.88
401.958	81.88
402.182	120.88
402.406	146.88
402.63	100.88
402.854	89.88
403.078	67.88
403.302	79.88
403.526	103.88
403.75	81.88
403.974	87.88
404.198	70.88
404.422	75.88
404.645	94.88
404.869	82.88
405.093	83.88
405.317	88.88
405.541	86.88
405.765	97.88
405.988	109.88
406.212	125.88
406.436	193.88
406.66	135.88
406.883	115.88
407.107	90.88
407.331	85.88
407.555	88.88
407.778	94.88
408.002	86.88
408.226	91.88
408.449	95.88
408.673	83.88
408.896	94.88
409.12	88.88
409.344	81.88
409.567	90.88
409.791	98.88
410.014	103.88
410.238	92.88
410.461	96.88
410.685	83.88
410.908	82.88
411.132	105.88
411.355	101.88
411.578	75.88
411.802	87.88
412.025	89.88
412.249	84.88
412.472	82.88
412.695	85.88
412.919	83.88
413.142	83.88
413.365	97.88
413.589	94.88
413.812	88.88
414.035	93.88
414.258	79.88
414.482	95.88
414.705	64.88
414.928	98.88
415.151	96.88
415.374	99.88
415.597	80.88
415.821	82.88
416.044	88.88
416.267	84.88
416.49	96.88
416.713	79.88
416.936	99.88
417.159	91.88
417.382	79.88
417.605	87.88
417.828	95.88
418.051	80.88
418.274	79.88
418.497	85.88
418.72	88.88
418.943	89.88
419.166	77.88
419.389	98.88
419.611	77.88
419.834	89.88
420.057	89.88
420.28	89.88
420.503	82.88
420.726	71.88
420.948	87.88
421.171	87.88
421.394	99.88
421.617	83.88
421.839	82.88
422.062	95.88
422.285	77.88
422.507	100.88
422.73	102.88
422.953	74.88
423.175	91.88
423.398	83.88
423.621	89.88
423.843	86.88
424.066	87.88
424.288	104.88
424.511	103.88
424.733	83.88
424.956	102.88
425.178	99.88
425.401	81.88
425.623	95.88
425.846	95.88
426.068	87.88
426.291	97.88
426.513	98.88
426.735	99.88
426.958	88.88
427.18	113.88
427.402	116.88
427.625	120.88
427.847	121.88
428.069	101.88
428.292	94.88
428.514	89.88
428.736	88.88
428.958	75.88
429.181	80.88
429.403	72.88
429.625	83.88
429.847	97.88
430.069	84.88
430.292	88.88
430.514	89.88
430.736	98.88
430.958	77.88
431.18	80.88
431.402	96.88
431.624	73.88
431.846	82.88
432.068	89.88
432.29	94.88
432.512	93.88
432.734	83.88
432.956	95.88
433.178	91.88
433.4	95.88
433.622	100.88
433.844	96.88
434.066	102.88
434.287	80.88
434.509	95.88
434.731	86.88
434.953	79.88
435.175	88.88
435.397	77.88
435.618	83.88
435.84	103.88
436.062	122.88
436.284	119.88
436.505	103.88
436.727	97.88
436.949	75.88
437.17	84.88
437.392	83.88
437.614	104.88
437.835	94.88
438.057	111.88
438.278	106.88
438.5	86.88
438.721	110.88
438.943	96.88
439.165	76.88
439.386	78.88
439.608	90.88
439.829	103.88
440.05	106.88
440.272	116.88
440.493	99.88
440.715	82.88
440.936	66.88
441.158	85.88
441.379	85.88
441.6	99.88
441.822	84.88
442.043	93.88
442.264	98.88
442.486	104.88
442.707	90.88
442.928	100.88
443.149	119.88
443.371	109.88
443.592	98.88
443.813	106.88
444.034	104.88
444.255	92.88
444.476	85.88
444.698	95.88
444.919	76.88
445.14	118.88
445.361	113.88
445.582	114.88
445.803	123.88
446.024	132.88
446.245	117.88
446.466	108.88
446.687	109.88
446.908	95.88
447.129	98.88
447.35	91.88
447.571	89.88
447.792	93.88
448.013	96.88
448.234	94.88
448.455	88.88
448.675	100.88
448.896	113.88
449.117	91.88
449.338	106.88
449.559	115.88
449.779	126.88
450	100.88
450.221	77.88
450.442	80.88
450.662	83.88
450.883	103.88
451.104	102.88
451.324	87.88
451.545	98.88
451.766	71.88
451.986	69.88
452.207	70.88
452.428	79.88
452.648	96.88
452.869	109.88
453.089	107.88
453.31	107.88
453.53	79.88
453.751	83.88
453.971	87.88
454.192	121.88
454.412	76.88
454.633	84.88
454.853	84.88
455.073	98.88
455.294	77.88
455.514	96.88
455.734	88.88
455.955	82.88
456.175	81.88
456.395	87.88
456.616	89.88
456.836	88.88
457.056	69.88
457.276	83.88
457.497	77.88
457.717	88.88
457.937	89.88
458.157	89.88
458.377	95.88
458.598	102.88
458.818	121.88
459.038	131.88
459.258	112.88
459.478	95.88
459.698	88.88
459.918	91.88
460.138	82.88
460.358	97.88
460.578	92.88
460.798	87.88
461.018	93.88
461.238	72.88
461.458	89.88
461.678	97.88
461.898	102.88
462.118	86.88
462.338	89.88
462.558	82.88
462.777	102.88
462.997	88.88
463.217	87.88
463.437	102.88
463.657	79.88
463.876	90.88
464.096	78.88
464.316	98.88
464.536	92.88
464.755	97.88
464.975	98.88
465.195	136.88
465.414	139.88
465.634	86.88
465.854	88.88
466.073	85.88
466.293	81.88
466.512	87.88
466.732	73.88
466.951	90.88
467.171	88.88
467.391	98.88
467.61	91.88
467.829	87.88
468.049	80.88
468.268	73.88
468.488	91.88
468.707	78.88
468.927	91.88
469.146	81.88
469.365	90.88
469.585	74.88
469.804	85.88
470.023	88.88
470.243	100.88
470.462	96.88
470.681	100.88
470.901	94.88
471.12	92.88
471.339	88.88
471.558	87.88
471.777	90.88
471.997	87.88
472.216	89.88
472.435	89.88
472.654	90.88
472.873	96.88
473.092	68.88
473.311	74.88
473.53	83.88
473.749	72.88
473.968	85.88
474.187	90.88
474.406	89.88
474.625	100.88
474.844	105.88
475.063	93.88
475.282	80.88
475.501	90.88
475.72	92.88
475.939	75.88
476.158	94.88
476.377	82.88
476.596	82.88
476.814	97.88
477.033	80.88
477.252	78.88
477.471	83.88
477.69	83.88
477.908	92.88
478.127	94.88
478.346	86.88
478.564	96.88
478.783	89.88
479.002	77.88
479.22	99.88
479.439	100.88
479.658	92.88
479.876	102.88
480.095	84.88
480.313	89.88
480.532	96.88
480.751	78.88
480.969	96.88
481.188	99.88
481.406	86.88
481.624	87.88
481.843	90.88
482.061	87.88
482.28	84.88
482.498	80.88
482.717	77.88
482.935	100.88
483.153	94.88
483.372	91.88
483.59	83.88
483.808	82.88
484.027	90.88
484.245	90.88
484.463	94.88
484.681	86.88
484.9	96.88
485.118	82.88
485.336	91.88
485.554	95.88
485.772	79.88
485.99	91.88
486.209	90.88
486.427	105.88
486.645	88.88
486.863	95.88
487.081	92.88
487.299	92.88
487.517	88.88
487.735	88.88
487.953	90.88
488.171	90.88
488.389	102.88
488.607	105.88
488.825	81.88
489.043	91.88
489.261	96.88
489.479	90.88
489.696	91.88
489.914	92.88
490.132	87.88
490.35	82.88
490.568	80.88
490.786	95.88
491.003	81.88
491.221	82.88
491.439	91.88
491.657	105.88
491.874	99.88
492.092	90.88
492.31	92.88
492.527	93.88
492.745	95.88
492.963	74.88
493.18	86.88
493.398	94.88
493.615	105.88
493.833	91.88
494.05	71.88
494.268	94.88
494.485	88.88
494.703	89.88
494.92	80.88
495.138	81.88
495.355	88.88
495.573	77.88
495.79	97.88
496.008	85.88
496.225	86.88
496.442	85.88
496.66	77.88
496.877	85.88
497.094	105.88
497.312	87.88
497.529	96.88
497.746	81.88
497.963	74.88
498.181	94.88
498.398	86.88
498.615	97.88
498.832	107.88
499.049	92.88
499.267	91.88
499.484	94.88
499.701	90.88
499.918	94.88
500.135	100.88
500.352	89.88
500.569	99.88
500.786	87.88
501.003	93.88
501.22	91.88
501.437	100.88
501.654	90.88
501.871	94.88
502.088	101.88
502.305	98.88
502.522	93.88
502.739	85.88
502.956	71.88
503.172	86.88
503.389	96.88
503.606	93.88
503.823	87.88
504.04	96.88
504.256	88.88
504.473	91.88
504.69	86.88
504.907	109.88
505.123	81.88
505.34	85.88
505.557	88.88
505.773	99.88
505.99	84.88
506.207	82.88
506.423	95.88
506.64	98.88
506.856	82.88
507.073	94.88
507.289	73.88
507.506	73.88
507.722	95.88
507.939	99.88
508.155	97.88
508.372	89.88
508.588	79.88
508.805	97.88
509.021	94.88
509.238	83.88
509.454	80.88
509.67	97.88
509.887	90.88
510.103	132.88
510.319	206.88
510.536	663.88
510.752	2027.88
510.968	557.88
511.184	141.88
511.401	107.88
511.617	94.88
511.833	83.88
512.049	91.88
512.265	94.88
512.481	77.88
512.698	97.88
512.914	100.88
513.13	82.88
513.346	85.88
513.562	95.88
513.778	81.88
513.994	103.88
514.21	91.88
514.426	109.88
514.642	121.88
514.858	106.88
515.074	153.88
515.29	375.88
515.506	1174.88
515.721	433.88
515.937	139.88
516.153	98.88
516.369	93.88
516.585	88.88
516.801	93.88
517.016	87.88
