Data from Uncirc_2000_H10_HRD10591_00053.txt Node
Date: Wed Jan 03 10:48:27 EST 2024
User: Yrep
Spectrometer: HR+D1059
Trigger mode: 1
Integration Time (sec): 1.000000E-1
Scans to average: 1
Electric dark correction enabled: true
Nonlinearity correction enabled: false
Boxcar width: 0
XAxis mode: Wavelengths
Number of Pixels in Spectrum: 2048
>>>>>Begin Spectral Data<<<<<
223.165	-23.31
223.4	-23.31
223.635	-23.31
223.869	-16.31
224.104	-11.31
224.338	-5.31
224.573	-10.31
224.808	-16.31
225.042	-15.31
225.277	-12.31
225.511	3.69
225.746	9.69
225.98	8.69
226.215	4.69
226.449	18.69
226.683	15.69
226.918	23.69
227.152	25.69
227.387	53.69
227.621	48.69
227.856	46.69
228.09	45.69
228.324	52.69
228.559	57.69
228.793	168.69
229.027	410.69
229.262	500.69
229.496	592.69
229.73	755.69
229.964	732.69
230.199	514.69
230.433	471.69
230.667	453.69
230.901	431.69
231.136	420.69
231.37	425.69
231.604	435.69
231.838	446.69
232.072	433.69
232.306	437.69
232.541	445.69
232.775	460.69
233.009	452.69
233.243	458.69
233.477	467.69
233.711	459.69
233.945	478.69
234.179	479.69
234.413	473.69
234.647	498.69
234.881	522.69
235.115	514.69
235.349	540.69
235.583	538.69
235.817	568.69
236.051	614.69
236.285	593.69
236.519	583.69
236.753	672.69
236.987	878.69
237.221	1333.69
237.455	1427.69
237.689	855.69
237.922	701.69
238.156	661.69
238.39	645.69
238.624	625.69
238.858	648.69
239.091	616.69
239.325	637.69
239.559	643.69
239.793	683.69
240.027	731.69
240.26	852.69
240.494	917.69
240.728	894.69
240.961	857.69
241.195	787.69
241.429	750.69
241.662	748.69
241.896	722.69
242.13	734.69
242.363	735.69
242.597	765.69
242.83	785.69
243.064	785.69
243.298	798.69
243.531	789.69
243.765	803.69
243.998	822.69
244.232	788.69
244.465	837.69
244.699	859.69
244.932	875.69
245.166	835.69
245.399	887.69
245.633	871.69
245.866	879.69
246.099	894.69
246.333	925.69
246.566	921.69
246.8	934.69
247.033	949.69
247.266	996.69
247.5	1074.69
247.733	1098.69
247.966	1114.69
248.2	1102.69
248.433	1084.69
248.666	1155.69
248.899	1301.69
249.133	1349.69
249.366	1359.69
249.599	1227.69
249.832	1150.69
250.066	1162.69
250.299	1201.69
250.532	1284.69
250.765	1414.69
250.998	1599.69
251.231	1597.69
251.465	1452.69
251.698	1389.69
251.931	1330.69
252.164	1308.69
252.397	1362.69
252.63	1390.69
252.863	1488.69
253.096	1637.69
253.329	1647.69
253.562	1560.69
253.795	1499.69
254.028	1494.69
254.261	1546.69
254.494	1674.69
254.727	2017.69
254.96	2097.69
255.193	1829.69
255.426	1668.69
255.659	1546.69
255.892	1473.69
256.124	1486.69
256.357	1440.69
256.59	1434.69
256.823	1390.69
257.056	1425.69
257.289	1448.69
257.521	1499.69
257.754	1463.69
257.987	1469.69
258.22	1468.69
258.452	1493.69
258.685	1504.69
258.918	1531.69
259.151	1555.69
259.383	1631.69
259.616	1643.69
259.849	1741.69
260.081	1861.69
260.314	2013.69
260.547	1962.69
260.779	1810.69
261.012	1722.69
261.244	1659.69
261.477	1636.69
261.71	1654.69
261.942	1652.69
262.175	1694.69
262.407	1641.69
262.64	1553.69
262.872	1585.69
263.105	1615.69
263.337	1582.69
263.57	1617.69
263.802	1629.69
264.035	1620.69
264.267	1614.69
264.499	1607.69
264.732	1665.69
264.964	1630.69
265.197	1644.69
265.429	1644.69
265.661	1662.69
265.894	1672.69
266.126	1659.69
266.358	1677.69
266.591	1732.69
266.823	1823.69
267.055	1829.69
267.287	1830.69
267.52	1773.69
267.752	1799.69
267.984	1819.69
268.216	1820.69
268.448	1849.69
268.681	1923.69
268.913	2049.69
269.145	2225.69
269.377	2325.69
269.609	2211.69
269.841	2203.69
270.073	2314.69
270.306	2584.69
270.538	2703.69
270.77	2550.69
271.002	2419.69
271.234	2398.69
271.466	2472.69
271.698	2661.69
271.93	2649.69
272.162	2670.69
272.394	2595.69
272.626	2433.69
272.858	2251.69
273.09	2205.69
273.322	2188.69
273.553	2168.69
273.785	2170.69
274.017	2169.69
274.249	2178.69
274.481	2223.69
274.713	2228.69
274.945	2221.69
275.176	2225.69
275.408	2201.69
275.64	2209.69
275.872	2183.69
276.104	2217.69
276.335	2295.69
276.567	2317.69
276.799	2450.69
277.031	2686.69
277.262	2735.69
277.494	2617.69
277.726	2497.69
277.957	2403.69
278.189	2363.69
278.421	2319.69
278.652	2288.69
278.884	2323.69
279.115	2306.69
279.347	2306.69
279.579	2310.69
279.81	2274.69
280.042	2285.69
280.273	2319.69
280.505	2341.69
280.736	2357.69
280.968	2334.69
281.199	2372.69
281.431	2399.69
281.662	2406.69
281.894	2380.69
282.125	2408.69
282.356	2570.69
282.588	2762.69
282.819	2610.69
283.051	2429.69
283.282	2467.69
283.513	2501.69
283.745	2520.69
283.976	2600.69
284.207	2580.69
284.439	2590.69
284.67	2543.69
284.901	2577.69
285.132	2586.69
285.364	2555.69
285.595	2557.69
285.826	2558.69
286.057	2597.69
286.288	2593.69
286.52	2614.69
286.751	2601.69
286.982	2652.69
287.213	2627.69
287.444	2663.69
287.675	2770.69
287.906	2820.69
288.138	2843.69
288.369	2786.69
288.6	2825.69
288.831	2824.69
289.062	2761.69
289.293	2778.69
289.524	2732.69
289.755	2723.69
289.986	2716.69
290.217	2743.69
290.448	2739.69
290.679	2758.69
290.91	2743.69
291.141	2763.69
291.371	2740.69
291.602	2774.69
291.833	2769.69
292.064	2787.69
292.295	2817.69
292.526	2753.69
292.757	2757.69
292.987	2749.69
293.218	2767.69
293.449	2824.69
293.68	2833.69
293.91	2796.69
294.141	2765.69
294.372	2771.69
294.603	2846.69
294.833	2787.69
295.064	2857.69
295.295	2805.69
295.525	2802.69
295.756	2877.69
295.987	2945.69
296.217	3108.69
296.448	3086.69
296.679	2915.69
296.909	2891.69
297.14	2935.69
297.37	2996.69
297.601	3025.69
297.831	3017.69
298.062	2976.69
298.292	2985.69
298.523	3036.69
298.753	3029.69
298.984	3028.69
299.214	3094.69
299.445	2980.69
299.675	3064.69
299.905	3102.69
300.136	3058.69
300.366	3168.69
300.597	3089.69
300.827	3184.69
301.057	3329.69
301.288	3284.69
301.518	3253.69
301.748	3281.69
301.979	3395.69
302.209	3273.69
302.439	3313.69
302.669	3320.69
302.9	3234.69
303.13	3238.69
303.36	3313.69
303.59	3335.69
303.82	3347.69
304.051	3359.69
304.281	3291.69
304.511	3213.69
304.741	3210.69
304.971	3237.69
305.201	3213.69
305.431	3265.69
305.661	3213.69
305.891	3190.69
306.121	3253.69
306.352	3314.69
306.582	3239.69
306.812	3156.69
307.042	3219.69
307.272	3220.69
307.502	3222.69
307.731	3269.69
307.961	3173.69
308.191	3244.69
308.421	3228.69
308.651	3256.69
308.881	3218.69
309.111	3254.69
309.341	3338.69
309.571	3435.69
309.8	3468.69
310.03	3428.69
310.26	3474.69
310.49	3499.69
310.72	3598.69
310.949	3692.69
311.179	3653.69
311.409	3561.69
311.639	3563.69
311.868	3566.69
312.098	3583.69
312.328	3650.69
312.557	3802.69
312.787	3859.69
313.017	3764.69
313.246	3665.69
313.476	3691.69
313.706	3760.69
313.935	3795.69
314.165	3823.69
314.394	3907.69
314.624	3859.69
314.853	3768.69
315.083	3694.69
315.312	3644.69
315.542	3665.69
315.771	3616.69
316.001	3611.69
316.23	3640.69
316.46	3642.69
316.689	3665.69
316.919	3631.69
317.148	3695.69
317.377	3735.69
317.607	3708.69
317.836	3618.69
318.065	3652.69
318.295	3599.69
318.524	3640.69
318.753	3597.69
318.983	3548.69
319.212	3630.69
319.441	3635.69
319.67	3749.69
319.9	3619.69
320.129	3696.69
320.358	3676.69
320.587	3717.69
320.816	3775.69
321.046	3726.69
321.275	3729.69
321.504	3725.69
321.733	3802.69
321.962	3871.69
322.191	3924.69
322.42	3978.69
322.649	4047.69
322.878	4081.69
323.108	4202.69
323.337	4408.69
323.566	4563.69
323.795	4844.69
324.024	5359.69
324.253	6877.69
324.482	10281.69
324.71	14738.69
324.939	15615.69
325.168	11708.69
325.397	6306.69
325.626	5089.69
325.855	4762.69
326.084	4663.69
326.313	4661.69
326.542	4860.69
326.77	5337.69
326.999	6625.69
327.228	9777.69
327.457	13705.69
327.686	12852.69
327.914	6928.69
328.143	5541.69
328.372	5225.69
328.6	5035.69
328.829	5017.69
329.058	5175.69
329.287	5115.69
329.515	4752.69
329.744	4593.69
329.972	4596.69
330.201	4738.69
330.43	4963.69
330.658	5196.69
330.887	5449.69
331.115	5145.69
331.344	4843.69
331.572	4737.69
331.801	4859.69
332.03	4863.69
332.258	4837.69
332.486	4900.69
332.715	4942.69
332.943	5079.69
333.172	5271.69
333.4	5377.69
333.629	5436.69
333.857	5512.69
334.085	5484.69
334.314	5305.69
334.542	5276.69
334.771	5262.69
334.999	5210.69
335.227	5168.69
335.455	5070.69
335.684	4879.69
335.912	4953.69
336.14	4889.69
336.369	4837.69
336.597	4813.69
336.825	4844.69
337.053	4805.69
337.281	4770.69
337.51	4676.69
337.738	4640.69
337.966	4641.69
338.194	4616.69
338.422	4517.69
338.65	4473.69
338.878	4505.69
339.106	4469.69
339.334	4444.69
339.562	4441.69
339.79	4405.69
340.018	4344.69
340.246	4363.69
340.474	4378.69
340.702	4388.69
340.93	4311.69
341.158	4396.69
341.386	4367.69
341.614	4360.69
341.842	4253.69
342.07	4241.69
342.298	4188.69
342.526	4195.69
342.754	4220.69
342.981	4302.69
343.209	4328.69
343.437	4670.69
343.665	4866.69
343.893	5088.69
344.12	5166.69
344.348	4887.69
344.576	4761.69
344.804	4680.69
345.031	4520.69
345.259	4575.69
345.487	4379.69
345.714	4272.69
345.942	4174.69
346.17	4196.69
346.397	4127.69
346.625	4124.69
346.853	4100.69
347.08	4135.69
347.308	4138.69
347.535	4230.69
347.763	4289.69
347.99	4174.69
348.218	4262.69
348.445	4240.69
348.673	4176.69
348.9	4123.69
349.128	4089.69
349.355	4012.69
349.583	4072.69
349.81	4154.69
350.037	4015.69
350.265	3971.69
350.492	4001.69
350.72	4070.69
350.947	4113.69
351.174	4103.69
351.402	4164.69
351.629	4114.69
351.856	4121.69
352.083	4197.69
352.311	4245.69
352.538	4169.69
352.765	4126.69
352.992	4091.69
353.22	4065.69
353.447	4066.69
353.674	3951.69
353.901	3969.69
354.128	3916.69
354.355	3950.69
354.583	3981.69
354.81	3934.69
355.037	3976.69
355.264	3916.69
355.491	3895.69
355.718	3933.69
355.945	3888.69
356.172	3900.69
356.399	4007.69
356.626	3944.69
356.853	3963.69
357.08	3881.69
357.307	3903.69
357.534	3903.69
357.761	3865.69
357.988	3949.69
358.215	3880.69
358.441	3938.69
358.668	3966.69
358.895	4056.69
359.122	4051.69
359.349	4098.69
359.576	4163.69
359.802	4361.69
360.029	4467.69
360.256	4406.69
360.483	4298.69
360.709	4195.69
360.936	4126.69
361.163	4172.69
361.39	4158.69
361.616	4137.69
361.843	4101.69
362.07	4106.69
362.296	4061.69
362.523	4115.69
362.749	4145.69
362.976	4094.69
363.203	4042.69
363.429	3978.69
363.656	4020.69
363.882	3995.69
364.109	4012.69
364.335	4017.69
364.562	3938.69
364.788	3979.69
365.015	3981.69
365.241	3993.69
365.468	4005.69
365.694	4082.69
365.92	4063.69
366.147	3977.69
366.373	4019.69
366.599	3958.69
366.826	4013.69
367.052	3933.69
367.278	3985.69
367.505	3969.69
367.731	3995.69
367.957	4017.69
368.184	4120.69
368.41	4135.69
368.636	4187.69
368.862	4187.69
369.089	4118.69
369.315	4087.69
369.541	4047.69
369.767	4136.69
369.993	4101.69
370.219	4127.69
370.445	4134.69
370.672	4159.69
370.898	4156.69
371.124	4213.69
371.35	4285.69
371.576	4265.69
371.802	4192.69
372.028	4239.69
372.254	4227.69
372.48	4265.69
372.706	4418.69
372.932	4395.69
373.158	4393.69
373.384	4364.69
373.61	4329.69
373.835	4335.69
374.061	4304.69
374.287	4346.69
374.513	4478.69
374.739	4560.69
374.965	4663.69
375.191	4683.69
375.416	4626.69
375.642	4536.69
375.868	4481.69
376.094	4354.69
376.319	4380.69
376.545	4329.69
376.771	4323.69
376.997	4354.69
377.222	4333.69
377.448	4319.69
377.674	4263.69
377.899	4233.69
378.125	4219.69
378.35	4265.69
378.576	4244.69
378.802	4244.69
379.027	4283.69
379.253	4291.69
379.478	4194.69
379.704	4283.69
379.929	4258.69
380.155	4274.69
380.38	4271.69
380.606	4344.69
380.831	4306.69
381.057	4278.69
381.282	4275.69
381.507	4381.69
381.733	4313.69
381.958	4404.69
382.184	4487.69
382.409	4451.69
382.634	4454.69
382.86	4483.69
383.085	4593.69
383.31	4666.69
383.535	4794.69
383.761	4773.69
383.986	4817.69
384.211	4876.69
384.436	4929.69
384.662	5099.69
384.887	5146.69
385.112	5134.69
385.337	5145.69
385.562	5199.69
385.787	5223.69
386.013	5237.69
386.238	5319.69
386.463	5242.69
386.688	5221.69
386.913	5111.69
387.138	5076.69
387.363	5110.69
387.588	5107.69
387.813	5102.69
388.038	5113.69
388.263	5148.69
388.488	5187.69
388.713	5173.69
388.938	5070.69
389.163	5072.69
389.387	5109.69
389.612	5046.69
389.837	5065.69
390.062	5034.69
390.287	5107.69
390.512	5087.69
390.736	5123.69
390.961	5284.69
391.186	5352.69
391.411	5449.69
391.636	5602.69
391.86	5715.69
392.085	5749.69
392.31	5690.69
392.534	5548.69
392.759	5462.69
392.984	5333.69
393.208	5293.69
393.433	5435.69
393.658	5302.69
393.882	5307.69
394.107	5355.69
394.331	5429.69
394.556	5408.69
394.78	5459.69
395.005	5543.69
395.229	5633.69
395.454	5672.69
395.678	5878.69
395.903	5750.69
396.127	5858.69
396.352	5627.69
396.576	5481.69
396.801	5476.69
397.025	5493.69
397.249	5582.69
397.474	5783.69
397.698	5752.69
397.922	5950.69
398.147	6048.69
398.371	6157.69
398.595	6237.69
398.82	6586.69
399.044	7185.69
399.268	7969.69
399.492	9116.69
399.717	9642.69
399.941	9385.69
400.165	8673.69
400.389	7992.69
400.613	7275.69
400.837	6834.69
401.062	6665.69
401.286	6575.69
401.51	6449.69
401.734	6440.69
401.958	6586.69
402.182	6764.69
402.406	6818.69
402.63	6889.69
402.854	6953.69
403.078	7069.69
403.302	7144.69
403.526	7278.69
403.75	7386.69
403.974	7427.69
404.198	7339.69
404.422	7497.69
404.645	7418.69
404.869	7305.69
405.093	7359.69
405.317	7441.69
405.541	7518.69
405.765	7209.69
405.988	7133.69
406.212	7439.69
406.436	7539.69
406.66	7614.69
406.883	7635.69
407.107	8267.69
407.331	8853.69
407.555	9288.69
407.778	8920.69
408.002	8184.69
408.226	7785.69
408.449	7726.69
408.673	7599.69
408.896	7793.69
409.12	7965.69
409.344	7390.69
409.567	7102.69
409.791	7092.69
410.014	7040.69
410.238	7003.69
410.461	6996.69
410.685	6976.69
410.908	7066.69
411.132	7255.69
411.355	7268.69
411.578	6960.69
411.802	6680.69
412.025	6652.69
412.249	6761.69
412.472	6729.69
412.695	6621.69
412.919	6379.69
413.142	6463.69
413.365	6353.69
413.589	6446.69
413.812	6410.69
414.035	6277.69
414.258	6404.69
414.482	6361.69
414.705	6467.69
414.928	6414.69
415.151	6395.69
415.374	6350.69
415.597	6341.69
415.821	6192.69
416.044	6286.69
416.267	6340.69
416.49	6170.69
416.713	6175.69
416.936	6274.69
417.159	6252.69
417.382	6329.69
417.605	6389.69
417.828	6424.69
418.051	6596.69
418.274	6515.69
418.497	6315.69
418.72	6486.69
418.943	6475.69
419.166	6884.69
419.389	7228.69
419.611	7121.69
419.834	6882.69
420.057	6724.69
420.28	6522.69
420.503	6437.69
420.726	6467.69
420.948	6522.69
421.171	6982.69
421.394	6950.69
421.617	6494.69
421.839	6520.69
422.062	6577.69
422.285	6712.69
422.507	7410.69
422.73	7861.69
422.953	7299.69
423.175	6971.69
423.398	7003.69
423.621	6994.69
423.843	7243.69
424.066	7212.69
424.288	7103.69
424.511	7343.69
424.733	7745.69
424.956	8146.69
425.178	7649.69
425.401	7833.69
425.623	7765.69
425.846	6765.69
426.068	6668.69
426.291	6411.69
426.513	6484.69
426.735	6587.69
426.958	7082.69
427.18	7868.69
427.402	8906.69
427.625	8698.69
427.847	7340.69
428.069	6621.69
428.292	6256.69
428.514	6051.69
428.736	5901.69
428.958	5982.69
429.181	5798.69
429.403	5757.69
429.625	5945.69
429.847	6249.69
430.069	6762.69
430.292	6318.69
430.514	5875.69
430.736	5787.69
430.958	5755.69
431.18	5633.69
431.402	5661.69
431.624	5605.69
431.846	5735.69
432.068	5738.69
432.29	5863.69
432.512	5667.69
432.734	5767.69
432.956	5701.69
433.178	5787.69
433.4	5801.69
433.622	5692.69
433.844	5714.69
434.066	5733.69
434.287	5898.69
434.509	6136.69
434.731	6293.69
434.953	6430.69
435.175	6650.69
435.397	6661.69
435.618	6503.69
435.84	6869.69
436.062	7656.69
436.284	7619.69
436.505	6577.69
436.727	6187.69
436.949	5964.69
437.17	5851.69
437.392	5758.69
437.614	5859.69
437.835	6215.69
438.057	7163.69
438.278	7816.69
438.5	7693.69
438.721	8544.69
438.943	7447.69
439.165	6393.69
439.386	6168.69
439.608	6203.69
439.829	6218.69
440.05	6636.69
440.272	6838.69
440.493	6370.69
440.715	6129.69
440.936	6033.69
441.158	6141.69
441.379	6268.69
441.6	6590.69
441.822	6725.69
442.043	7175.69
442.264	7993.69
442.486	7707.69
442.707	6856.69
442.928	6737.69
443.149	6844.69
443.371	7086.69
443.592	7567.69
443.813	8589.69
444.034	8526.69
444.255	7482.69
444.476	7359.69
444.698	7479.69
444.919	7636.69
445.14	7318.69
445.361	7197.69
445.582	7339.69
445.803	7851.69
446.024	8405.69
446.245	8047.69
446.466	7231.69
446.687	6375.69
446.908	6051.69
447.129	5818.69
447.35	5617.69
447.571	5620.69
447.792	5594.69
448.013	5595.69
448.234	5790.69
448.455	6410.69
448.675	7655.69
448.896	8109.69
449.117	6673.69
449.338	6874.69
449.559	8037.69
449.779	8265.69
450	6461.69
450.221	5769.69
450.442	5443.69
450.662	5396.69
450.883	5447.69
451.104	5546.69
451.324	5467.69
451.545	5317.69
451.766	5188.69
451.986	5091.69
452.207	4959.69
452.428	4964.69
452.648	5115.69
452.869	5078.69
453.089	5073.69
453.31	5149.69
453.53	5048.69
453.751	4931.69
453.971	5041.69
454.192	5109.69
454.412	4921.69
454.633	4918.69
454.853	4840.69
455.073	4889.69
455.294	5309.69
455.514	5761.69
455.734	5243.69
455.955	4805.69
456.175	4675.69
456.395	4627.69
456.616	4580.69
456.836	4599.69
457.056	4611.69
457.276	4586.69
457.497	4741.69
457.717	4728.69
457.937	4805.69
458.157	4847.69
458.377	4965.69
458.598	5245.69
458.818	5897.69
459.038	6643.69
459.258	6461.69
459.478	5819.69
459.698	5769.69
459.918	5905.69
460.138	5979.69
460.358	6281.69
460.578	6251.69
460.798	6373.69
461.018	6335.69
461.238	6182.69
461.458	6162.69
461.678	6162.69
461.898	6398.69
462.118	6421.69
462.338	6725.69
462.558	6835.69
462.777	7144.69
462.997	7775.69
463.217	8107.69
463.437	7921.69
463.657	7312.69
463.876	7157.69
464.096	7191.69
464.316	7133.69
464.536	7100.69
464.755	6956.69
464.975	6834.69
465.195	6931.69
465.414	6850.69
465.634	6173.69
465.854	5846.69
466.073	5604.69
466.293	5419.69
466.512	5339.69
466.732	5189.69
466.951	5244.69
467.171	5177.69
467.391	5301.69
467.61	5290.69
467.829	5227.69
468.049	5115.69
468.268	4974.69
468.488	4933.69
468.707	4925.69
468.927	4974.69
469.146	4942.69
469.365	5109.69
469.585	5050.69
469.804	5283.69
470.023	5385.69
470.243	5349.69
470.462	5454.69
470.681	5606.69
470.901	5458.69
471.12	5353.69
471.339	5256.69
471.558	5252.69
471.777	5172.69
471.997	5060.69
472.216	4974.69
472.435	4987.69
472.654	4934.69
472.873	4865.69
473.092	4858.69
473.311	4938.69
473.53	4962.69
473.749	5115.69
473.968	5581.69
474.187	6510.69
474.406	6093.69
474.625	5257.69
474.844	5048.69
475.063	5014.69
475.282	4980.69
475.501	5007.69
475.72	5092.69
475.939	5042.69
476.158	5113.69
476.377	5142.69
476.596	5144.69
476.814	5300.69
477.033	5349.69
477.252	5449.69
477.471	5587.69
477.69	5678.69
477.908	5771.69
478.127	5890.69
478.346	5884.69
478.564	6037.69
478.783	6158.69
479.002	6269.69
479.22	6291.69
479.439	6370.69
479.658	6561.69
479.876	6559.69
480.095	6788.69
480.313	7129.69
480.532	7086.69
480.751	6903.69
480.969	6774.69
481.188	6593.69
481.406	6322.69
481.624	6169.69
481.843	6065.69
482.061	5921.69
482.28	5858.69
482.498	5875.69
482.717	5831.69
482.935	5868.69
483.153	5729.69
483.372	5807.69
483.59	5748.69
483.808	5791.69
484.027	5706.69
484.245	5888.69
484.463	5936.69
484.681	6028.69
484.9	6044.69
485.118	6055.69
485.336	6061.69
485.554	6146.69
485.772	6190.69
485.99	6135.69
486.209	6283.69
486.427	6242.69
486.645	6294.69
486.863	6354.69
487.081	6355.69
487.299	6272.69
487.517	6220.69
487.735	6264.69
487.953	6124.69
