Data from Uncirc_2000_H10_HRD10591_00064.txt Node
Date: Wed Jan 03 10:48:30 EST 2024
User: Yrep
Spectrometer: HR+D1059
Trigger mode: 1
Integration Time (sec): 1.000000E-1
Scans to average: 1
Electric dark correction enabled: true
Nonlinearity correction enabled: false
Boxcar width: 0
XAxis mode: Wavelengths
Number of Pixels in Spectrum: 2048
>>>>>Begin Spectral Data<<<<<
223.165	-22.56
223.4	-22.56
223.635	-22.56
223.869	-14.56
224.104	-11.56
224.338	-14.56
224.573	-15.56
224.808	-10.56
225.042	-9.56
225.277	-15.56
225.511	11.44
225.746	8.44
225.98	13.44
226.215	-2.56
226.449	5.44
226.683	20.44
226.918	27.44
227.152	30.44
227.387	37.44
227.621	38.44
227.856	55.44
228.09	50.44
228.324	53.44
228.559	55.44
228.793	60.44
229.027	60.44
229.262	78.44
229.496	72.44
229.73	83.44
229.964	75.44
230.199	73.44
230.433	71.44
230.667	66.44
230.901	72.44
231.136	71.44
231.37	80.44
231.604	92.44
231.838	79.44
232.072	71.44
232.306	82.44
232.541	87.44
232.775	90.44
233.009	77.44
233.243	75.44
233.477	84.44
233.711	91.44
233.945	78.44
234.179	70.44
234.413	69.44
234.647	51.44
234.881	79.44
235.115	91.44
235.349	76.44
235.583	80.44
235.817	67.44
236.051	71.44
236.285	79.44
236.519	84.44
236.753	76.44
236.987	85.44
237.221	88.44
237.455	84.44
237.689	72.44
237.922	97.44
238.156	70.44
238.39	69.44
238.624	70.44
238.858	69.44
239.091	75.44
239.325	82.44
239.559	76.44
239.793	77.44
240.027	71.44
240.26	71.44
240.494	75.44
240.728	61.44
240.961	85.44
241.195	76.44
241.429	78.44
241.662	78.44
241.896	74.44
242.13	74.44
242.363	85.44
242.597	85.44
242.83	85.44
243.064	67.44
243.298	75.44
243.531	79.44
243.765	88.44
243.998	70.44
244.232	70.44
244.465	74.44
244.699	86.44
244.932	67.44
245.166	73.44
245.399	79.44
245.633	89.44
245.866	72.44
246.099	75.44
246.333	65.44
246.566	79.44
246.8	67.44
247.033	85.44
247.266	74.44
247.5	71.44
247.733	77.44
247.966	87.44
248.2	78.44
248.433	92.44
248.666	77.44
248.899	77.44
249.133	57.44
249.366	103.44
249.599	108.44
249.832	73.44
250.066	68.44
250.299	84.44
250.532	86.44
250.765	76.44
250.998	72.44
251.231	84.44
251.465	84.44
251.698	89.44
251.931	71.44
252.164	75.44
252.397	85.44
252.63	67.44
252.863	88.44
253.096	85.44
253.329	80.44
253.562	82.44
253.795	85.44
254.028	82.44
254.261	86.44
254.494	83.44
254.727	82.44
254.96	76.44
255.193	84.44
255.426	93.44
255.659	90.44
255.892	74.44
256.124	69.44
256.357	87.44
256.59	79.44
256.823	68.44
257.056	78.44
257.289	91.44
257.521	90.44
257.754	81.44
257.987	85.44
258.22	96.44
258.452	81.44
258.685	79.44
258.918	61.44
259.151	75.44
259.383	87.44
259.616	78.44
259.849	93.44
260.081	92.44
260.314	81.44
260.547	88.44
260.779	87.44
261.012	84.44
261.244	90.44
261.477	81.44
261.71	83.44
261.942	101.44
262.175	93.44
262.407	87.44
262.64	69.44
262.872	83.44
263.105	88.44
263.337	90.44
263.57	82.44
263.802	80.44
264.035	82.44
264.267	91.44
264.499	85.44
264.732	84.44
264.964	86.44
265.197	85.44
265.429	80.44
265.661	81.44
265.894	71.44
266.126	87.44
266.358	86.44
266.591	81.44
266.823	82.44
267.055	76.44
267.287	67.44
267.52	76.44
267.752	97.44
267.984	89.44
268.216	84.44
268.448	89.44
268.681	73.44
268.913	61.44
269.145	85.44
269.377	90.44
269.609	80.44
269.841	81.44
270.073	78.44
270.306	85.44
270.538	88.44
270.77	80.44
271.002	76.44
271.234	76.44
271.466	82.44
271.698	67.44
271.93	82.44
272.162	71.44
272.394	77.44
272.626	80.44
272.858	84.44
273.09	67.44
273.322	87.44
273.553	82.44
273.785	93.44
274.017	89.44
274.249	91.44
274.481	85.44
274.713	84.44
274.945	79.44
275.176	81.44
275.408	89.44
275.64	95.44
275.872	79.44
276.104	86.44
276.335	87.44
276.567	84.44
276.799	90.44
277.031	101.44
277.262	89.44
277.494	84.44
277.726	95.44
277.957	79.44
278.189	70.44
278.421	80.44
278.652	77.44
278.884	79.44
279.115	92.44
279.347	83.44
279.579	88.44
279.81	71.44
280.042	84.44
280.273	65.44
280.505	89.44
280.736	85.44
280.968	92.44
281.199	78.44
281.431	83.44
281.662	73.44
281.894	76.44
282.125	99.44
282.356	127.44
282.588	124.44
282.819	115.44
283.051	75.44
283.282	84.44
283.513	83.44
283.745	93.44
283.976	91.44
284.207	86.44
284.439	81.44
284.67	95.44
284.901	79.44
285.132	84.44
285.364	81.44
285.595	76.44
285.826	75.44
286.057	90.44
286.288	76.44
286.52	84.44
286.751	73.44
286.982	83.44
287.213	59.44
287.444	70.44
287.675	90.44
287.906	82.44
288.138	75.44
288.369	108.44
288.6	75.44
288.831	87.44
289.062	82.44
289.293	85.44
289.524	81.44
289.755	80.44
289.986	91.44
290.217	87.44
290.448	89.44
290.679	84.44
290.91	92.44
291.141	95.44
291.371	87.44
291.602	73.44
291.833	88.44
292.064	82.44
292.295	92.44
292.526	86.44
292.757	92.44
292.987	99.44
293.218	83.44
293.449	93.44
293.68	72.44
293.91	83.44
294.141	94.44
294.372	92.44
294.603	97.44
294.833	90.44
295.064	96.44
295.295	104.44
295.525	95.44
295.756	108.44
295.987	116.44
296.217	139.44
296.448	117.44
296.679	96.44
296.909	94.44
297.14	106.44
297.37	79.44
297.601	82.44
297.831	85.44
298.062	98.44
298.292	86.44
298.523	91.44
298.753	84.44
298.984	88.44
299.214	87.44
299.445	97.44
299.675	90.44
299.905	81.44
300.136	85.44
300.366	72.44
300.597	85.44
300.827	83.44
301.057	81.44
301.288	107.44
301.518	85.44
301.748	85.44
301.979	87.44
302.209	97.44
302.439	83.44
302.669	83.44
302.9	89.44
303.13	84.44
303.36	84.44
303.59	108.44
303.82	99.44
304.051	90.44
304.281	85.44
304.511	94.44
304.741	100.44
304.971	88.44
305.201	93.44
305.431	90.44
305.661	74.44
305.891	80.44
306.121	112.44
306.352	97.44
306.582	112.44
306.812	79.44
307.042	76.44
307.272	83.44
307.502	87.44
307.731	87.44
307.961	86.44
308.191	75.44
308.421	87.44
308.651	98.44
308.881	83.44
309.111	85.44
309.341	91.44
309.571	92.44
309.8	82.44
310.03	99.44
310.26	98.44
310.49	85.44
310.72	89.44
310.949	98.44
311.179	94.44
311.409	92.44
311.639	97.44
311.868	96.44
312.098	92.44
312.328	96.44
312.557	97.44
312.787	95.44
313.017	85.44
313.246	92.44
313.476	99.44
313.706	99.44
313.935	92.44
314.165	98.44
314.394	108.44
314.624	100.44
314.853	92.44
315.083	89.44
315.312	80.44
315.542	88.44
315.771	104.44
316.001	87.44
316.23	84.44
316.46	80.44
316.689	92.44
316.919	84.44
317.148	93.44
317.377	101.44
317.607	95.44
317.836	89.44
318.065	88.44
318.295	88.44
318.524	87.44
318.753	96.44
318.983	94.44
319.212	96.44
319.441	110.44
319.67	107.44
319.9	91.44
320.129	80.44
320.358	89.44
320.587	98.44
320.816	90.44
321.046	91.44
321.275	88.44
321.504	81.44
321.733	79.44
321.962	87.44
322.191	99.44
322.42	96.44
322.649	99.44
322.878	116.44
323.108	120.44
323.337	112.44
323.566	133.44
323.795	143.44
324.024	206.44
324.253	369.44
324.482	758.44
324.71	1574.44
324.939	2075.44
325.168	756.44
325.397	243.44
325.626	146.44
325.855	120.44
326.084	102.44
326.313	124.44
326.542	139.44
326.77	230.44
326.999	440.44
327.228	895.44
327.457	1637.44
327.686	1265.44
327.914	353.44
328.143	185.44
328.372	124.44
328.6	109.44
328.829	94.44
329.058	117.44
329.287	137.44
329.515	114.44
329.744	93.44
329.972	77.44
330.201	103.44
330.43	99.44
330.658	120.44
330.887	117.44
331.115	114.44
331.344	96.44
331.572	101.44
331.801	105.44
332.03	95.44
332.258	85.44
332.486	106.44
332.715	89.44
332.943	103.44
333.172	94.44
333.4	93.44
333.629	107.44
333.857	109.44
334.085	95.44
334.314	97.44
334.542	101.44
334.771	101.44
334.999	92.44
335.227	88.44
335.455	87.44
335.684	104.44
335.912	109.44
336.14	99.44
336.369	106.44
336.597	96.44
336.825	95.44
337.053	96.44
337.281	87.44
337.51	97.44
337.738	88.44
337.966	98.44
338.194	99.44
338.422	95.44
338.65	98.44
338.878	93.44
339.106	75.44
339.334	81.44
339.562	88.44
339.79	85.44
340.018	101.44
340.246	93.44
340.474	99.44
340.702	79.44
340.93	94.44
341.158	93.44
341.386	99.44
341.614	88.44
341.842	83.44
342.07	91.44
342.298	101.44
342.526	97.44
342.754	90.44
342.981	87.44
343.209	89.44
343.437	93.44
343.665	83.44
343.893	95.44
344.12	108.44
344.348	82.44
344.576	88.44
344.804	91.44
345.031	103.44
345.259	99.44
345.487	79.44
345.714	77.44
345.942	89.44
346.17	94.44
346.397	105.44
346.625	90.44
346.853	93.44
347.08	95.44
347.308	103.44
347.535	103.44
347.763	104.44
347.99	94.44
348.218	95.44
348.445	103.44
348.673	73.44
348.9	94.44
349.128	96.44
349.355	76.44
349.583	88.44
349.81	90.44
350.037	98.44
350.265	95.44
350.492	89.44
350.72	88.44
350.947	90.44
351.174	99.44
351.402	100.44
351.629	88.44
351.856	99.44
352.083	104.44
352.311	86.44
352.538	103.44
352.765	95.44
352.992	103.44
353.22	111.44
353.447	99.44
353.674	91.44
353.901	82.44
354.128	88.44
354.355	95.44
354.583	85.44
354.81	94.44
355.037	99.44
355.264	82.44
355.491	104.44
355.718	81.44
355.945	98.44
356.172	94.44
356.399	93.44
356.626	101.44
356.853	79.44
357.08	91.44
357.307	92.44
357.534	95.44
357.761	88.44
357.988	100.44
358.215	88.44
358.441	84.44
358.668	83.44
358.895	83.44
359.122	103.44
359.349	90.44
359.576	79.44
359.802	87.44
360.029	93.44
360.256	100.44
360.483	103.44
360.709	90.44
360.936	100.44
361.163	95.44
361.39	87.44
361.616	108.44
361.843	99.44
362.07	91.44
362.296	81.44
362.523	88.44
362.749	75.44
362.976	93.44
363.203	87.44
363.429	90.44
363.656	81.44
363.882	83.44
364.109	90.44
364.335	92.44
364.562	99.44
364.788	85.44
365.015	84.44
365.241	96.44
365.468	102.44
365.694	87.44
365.92	85.44
366.147	99.44
366.373	87.44
366.599	93.44
366.826	91.44
367.052	84.44
367.278	98.44
367.505	89.44
367.731	95.44
367.957	93.44
368.184	86.44
368.41	98.44
368.636	119.44
368.862	113.44
369.089	92.44
369.315	76.44
369.541	92.44
369.767	85.44
369.993	91.44
370.219	94.44
370.445	99.44
370.672	77.44
370.898	89.44
371.124	76.44
371.35	87.44
371.576	95.44
371.802	98.44
372.028	94.44
372.254	89.44
372.48	87.44
372.706	81.44
372.932	84.44
373.158	85.44
373.384	86.44
373.61	94.44
373.835	83.44
374.061	97.44
374.287	90.44
374.513	95.44
374.739	91.44
374.965	90.44
375.191	103.44
375.416	93.44
375.642	84.44
375.868	90.44
376.094	77.44
376.319	83.44
376.545	95.44
376.771	99.44
376.997	77.44
377.222	86.44
377.448	93.44
377.674	98.44
377.899	90.44
378.125	89.44
378.35	92.44
378.576	80.44
378.802	84.44
379.027	89.44
379.253	86.44
379.478	89.44
379.704	109.44
379.929	90.44
380.155	97.44
380.38	80.44
380.606	85.44
380.831	89.44
381.057	95.44
381.282	89.44
381.507	105.44
381.733	96.44
381.958	103.44
382.184	87.44
382.409	98.44
382.634	104.44
382.86	88.44
383.085	94.44
383.31	101.44
383.535	104.44
383.761	88.44
383.986	100.44
384.211	91.44
384.436	103.44
384.662	82.44
384.887	97.44
385.112	95.44
385.337	100.44
385.562	95.44
385.787	100.44
386.013	102.44
386.238	93.44
386.463	93.44
386.688	97.44
386.913	99.44
387.138	112.44
387.363	109.44
387.588	98.44
387.813	112.44
388.038	93.44
388.263	110.44
388.488	104.44
388.713	93.44
388.938	101.44
389.163	93.44
389.387	100.44
389.612	87.44
389.837	99.44
390.062	86.44
390.287	75.44
390.512	89.44
390.736	87.44
390.961	86.44
391.186	84.44
391.411	96.44
391.636	88.44
391.86	92.44
392.085	78.44
392.31	75.44
392.534	82.44
392.759	88.44
392.984	84.44
393.208	85.44
393.433	73.44
393.658	81.44
393.882	83.44
394.107	86.44
394.331	85.44
394.556	91.44
394.78	98.44
395.005	79.44
395.229	81.44
395.454	81.44
395.678	80.44
395.903	84.44
396.127	99.44
396.352	87.44
396.576	94.44
396.801	94.44
397.025	80.44
397.249	83.44
397.474	89.44
397.698	69.44
397.922	81.44
398.147	90.44
398.371	84.44
398.595	84.44
398.82	87.44
399.044	80.44
399.268	88.44
399.492	86.44
399.717	102.44
399.941	87.44
400.165	90.44
400.389	95.44
400.613	83.44
400.837	80.44
401.062	88.44
401.286	89.44
401.51	96.44
401.734	87.44
401.958	101.44
402.182	111.44
402.406	136.44
402.63	114.44
402.854	76.44
403.078	80.44
403.302	82.44
403.526	82.44
403.75	90.44
403.974	77.44
404.198	89.44
404.422	85.44
404.645	93.44
404.869	99.44
405.093	91.44
405.317	102.44
405.541	85.44
405.765	88.44
405.988	108.44
406.212	152.44
406.436	204.44
406.66	145.44
406.883	95.44
407.107	87.44
407.331	73.44
407.555	91.44
407.778	86.44
408.002	95.44
408.226	96.44
408.449	76.44
408.673	83.44
408.896	104.44
409.12	89.44
409.344	88.44
409.567	106.44
409.791	91.44
410.014	83.44
410.238	87.44
410.461	103.44
410.685	83.44
410.908	91.44
411.132	113.44
411.355	104.44
411.578	91.44
411.802	71.44
412.025	79.44
412.249	95.44
412.472	85.44
412.695	90.44
412.919	91.44
413.142	95.44
413.365	93.44
413.589	86.44
413.812	92.44
414.035	90.44
414.258	83.44
414.482	107.44
414.705	95.44
414.928	92.44
415.151	76.44
415.374	84.44
415.597	89.44
415.821	75.44
416.044	89.44
416.267	76.44
416.49	88.44
416.713	90.44
416.936	86.44
417.159	85.44
417.382	72.44
417.605	76.44
417.828	93.44
418.051	83.44
418.274	90.44
418.497	85.44
418.72	72.44
418.943	84.44
419.166	89.44
419.389	82.44
419.611	102.44
419.834	93.44
420.057	88.44
420.28	80.44
420.503	82.44
420.726	91.44
420.948	94.44
421.171	75.44
421.394	99.44
421.617	84.44
421.839	83.44
422.062	88.44
422.285	87.44
422.507	91.44
422.73	86.44
422.953	83.44
423.175	85.44
423.398	93.44
423.621	82.44
423.843	92.44
424.066	88.44
424.288	89.44
424.511	85.44
424.733	80.44
424.956	99.44
425.178	98.44
425.401	95.44
425.623	100.44
425.846	80.44
426.068	97.44
426.291	91.44
426.513	95.44
426.735	89.44
426.958	78.44
427.18	94.44
427.402	109.44
427.625	153.44
427.847	115.44
428.069	98.44
428.292	94.44
428.514	84.44
428.736	85.44
428.958	79.44
429.181	89.44
429.403	90.44
429.625	91.44
429.847	94.44
430.069	104.44
430.292	106.44
430.514	96.44
430.736	97.44
430.958	109.44
431.18	89.44
431.402	85.44
431.624	78.44
431.846	81.44
432.068	93.44
432.29	92.44
432.512	86.44
432.734	95.44
432.956	95.44
433.178	89.44
433.4	89.44
433.622	92.44
433.844	94.44
434.066	91.44
434.287	87.44
434.509	84.44
434.731	98.44
434.953	90.44
435.175	106.44
435.397	77.44
435.618	93.44
435.84	89.44
436.062	125.44
436.284	110.44
436.505	91.44
436.727	109.44
436.949	101.44
437.17	84.44
437.392	90.44
437.614	88.44
437.835	92.44
438.057	109.44
438.278	104.44
438.5	101.44
438.721	113.44
438.943	83.44
439.165	91.44
439.386	73.44
439.608	90.44
439.829	97.44
440.05	117.44
440.272	130.44
440.493	101.44
440.715	72.44
440.936	84.44
441.158	81.44
441.379	93.44
441.6	81.44
441.822	100.44
442.043	101.44
442.264	100.44
442.486	98.44
442.707	94.44
442.928	94.44
443.149	107.44
443.371	116.44
443.592	109.44
443.813	122.44
444.034	93.44
444.255	93.44
444.476	79.44
444.698	87.44
444.919	82.44
445.14	128.44
445.361	135.44
445.582	105.44
445.803	117.44
446.024	121.44
446.245	133.44
446.466	103.44
446.687	93.44
446.908	80.44
447.129	96.44
447.35	86.44
447.571	86.44
447.792	96.44
448.013	97.44
448.234	110.44
448.455	98.44
448.675	91.44
448.896	103.44
449.117	89.44
449.338	100.44
449.559	116.44
449.779	120.44
450	93.44
450.221	88.44
450.442	77.44
450.662	90.44
450.883	99.44
451.104	104.44
451.324	97.44
451.545	87.44
451.766	82.44
451.986	89.44
452.207	86.44
452.428	92.44
452.648	86.44
452.869	104.44
453.089	109.44
453.31	112.44
453.53	81.44
453.751	93.44
453.971	97.44
454.192	94.44
454.412	76.44
454.633	86.44
454.853	94.44
455.073	79.44
455.294	97.44
455.514	94.44
455.734	82.44
455.955	77.44
456.175	72.44
456.395	77.44
456.616	91.44
456.836	81.44
457.056	86.44
457.276	91.44
457.497	78.44
457.717	97.44
457.937	90.44
458.157	91.44
458.377	81.44
458.598	85.44
458.818	123.44
459.038	133.44
459.258	93.44
459.478	87.44
459.698	93.44
459.918	91.44
460.138	83.44
460.358	86.44
460.578	92.44
460.798	92.44
461.018	81.44
461.238	88.44
461.458	85.44
461.678	87.44
461.898	73.44
462.118	91.44
462.338	87.44
462.558	87.44
462.777	83.44
462.997	81.44
463.217	78.44
463.437	76.44
463.657	75.44
463.876	90.44
464.096	96.44
464.316	82.44
464.536	88.44
464.755	86.44
464.975	93.44
465.195	144.44
465.414	144.44
465.634	102.44
465.854	103.44
466.073	86.44
466.293	76.44
466.512	85.44
466.732	96.44
466.951	80.44
467.171	96.44
467.391	93.44
467.61	79.44
467.829	85.44
468.049	81.44
468.268	86.44
468.488	70.44
468.707	89.44
468.927	81.44
469.146	76.44
469.365	95.44
469.585	90.44
469.804	93.44
470.023	92.44
470.243	86.44
470.462	88.44
470.681	114.44
470.901	79.44
471.12	73.44
471.339	96.44
471.558	77.44
471.777	82.44
471.997	84.44
472.216	87.44
472.435	96.44
472.654	96.44
472.873	81.44
473.092	70.44
473.311	75.44
473.53	75.44
473.749	81.44
473.968	100.44
474.187	107.44
474.406	106.44
474.625	91.44
474.844	80.44
475.063	82.44
475.282	75.44
475.501	84.44
475.72	105.44
475.939	79.44
476.158	73.44
476.377	87.44
476.596	79.44
476.814	96.44
477.033	93.44
477.252	91.44
477.471	84.44
477.69	88.44
477.908	88.44
478.127	89.44
478.346	78.44
478.564	100.44
478.783	86.44
479.002	89.44
479.22	77.44
479.439	98.44
479.658	104.44
479.876	97.44
480.095	87.44
480.313	102.44
480.532	92.44
480.751	97.44
480.969	89.44
481.188	102.44
481.406	82.44
481.624	80.44
481.843	92.44
482.061	76.44
482.28	88.44
482.498	84.44
482.717	78.44
482.935	89.44
483.153	87.44
483.372	94.44
483.59	103.44
483.808	83.44
484.027	104.44
484.245	106.44
484.463	86.44
484.681	88.44
484.9	94.44
485.118	86.44
485.336	91.44
485.554	95.44
485.772	92.44
485.99	111.44
486.209	99.44
486.427	112.44
486.645	91.44
486.863	101.44
487.081	90.44
487.299	83.44
487.517	92.44
487.735	90.44
487.953	100.44
488.171	104.44
488.389	97.44
488.607	106.44
488.825	84.44
489.043	77.44
489.261	93.44
489.479	85.44
489.696	93.44
489.914	88.44
490.132	96.44
490.35	84.44
490.568	80.44
490.786	79.44
491.003	86.44
491.221	87.44
491.439	99.44
491.657	86.44
491.874	99.44
492.092	79.44
492.31	91.44
492.527	89.44
492.745	78.44
492.963	95.44
493.18	99.44
493.398	101.44
493.615	104.44
493.833	96.44
494.05	103.44
494.268	80.44
494.485	93.44
494.703	79.44
494.92	81.44
495.138	92.44
495.355	104.44
495.573	96.44
495.79	91.44
496.008	93.44
496.225	92.44
496.442	95.44
496.66	99.44
496.877	81.44
497.094	99.44
497.312	77.44
497.529	87.44
497.746	84.44
497.963	77.44
498.181	80.44
498.398	101.44
498.615	109.44
498.832	98.44
499.049	93.44
499.267	91.44
499.484	84.44
499.701	71.44
499.918	93.44
500.135	75.44
500.352	95.44
500.569	88.44
500.786	89.44
501.003	90.44
501.22	71.44
501.437	91.44
501.654	93.44
501.871	102.44
502.088	90.44
502.305	84.44
502.522	99.44
502.739	91.44
502.956	92.44
503.172	93.44
503.389	98.44
503.606	67.44
503.823	93.44
504.04	89.44
504.256	97.44
504.473	89.44
504.69	90.44
504.907	83.44
505.123	87.44
505.34	89.44
505.557	85.44
505.773	87.44
505.99	83.44
506.207	89.44
506.423	85.44
506.64	80.44
506.856	80.44
507.073	96.44
507.289	80.44
507.506	97.44
507.722	103.44
507.939	96.44
508.155	98.44
508.372	97.44
508.588	86.44
508.805	86.44
509.021	93.44
509.238	106.44
509.454	86.44
509.67	97.44
509.887	101.44
510.103	124.44
510.319	216.44
510.536	718.44
510.752	2213.44
510.968	614.44
511.184	143.44
511.401	101.44
511.617	104.44
511.833	87.44
512.049	86.44
512.265	106.44
512.481	84.44
512.698	71.44
512.914	72.44
513.13	87.44
513.346	92.44
513.562	90.44
513.778	84.44
513.994	107.44
514.21	93.44
514.426	112.44
514.642	119.44
514.858	113.44
515.074	150.44
515.29	391.44
515.506	1277.44
515.721	470.44
515.937	154.44
516.153	104.44
516.369	95.44
516.585	92.44
516.801	86.44
