Data from Uncirc_2000_H10_HRD10591_00061.txt Node
Date: Wed Jan 03 10:48:29 EST 2024
User: Yrep
Spectrometer: HR+D1059
Trigger mode: 1
Integration Time (sec): 1.000000E-1
Scans to average: 1
Electric dark correction enabled: true
Nonlinearity correction enabled: false
Boxcar width: 0
XAxis mode: Wavelengths
Number of Pixels in Spectrum: 2048
>>>>>Begin Spectral Data<<<<<
223.165	-14.88
223.4	-14.88
223.635	-14.88
223.869	-15.88
224.104	-16.88
224.338	-19.88
224.573	-18.88
224.808	-18.88
225.042	-17.88
225.277	-6.88
225.511	11.12
225.746	-8.88
225.98	6.12
226.215	18.12
226.449	15.12
226.683	39.12
226.918	23.12
227.152	26.12
227.387	49.12
227.621	30.12
227.856	46.12
228.09	56.12
228.324	52.12
228.559	59.12
228.793	67.12
229.027	59.12
229.262	68.12
229.496	75.12
229.73	84.12
229.964	77.12
230.199	83.12
230.433	70.12
230.667	79.12
230.901	75.12
231.136	88.12
231.37	76.12
231.604	76.12
231.838	90.12
232.072	79.12
232.306	76.12
232.541	85.12
232.775	90.12
233.009	83.12
233.243	80.12
233.477	85.12
233.711	82.12
233.945	82.12
234.179	71.12
234.413	82.12
234.647	105.12
234.881	72.12
235.115	70.12
235.349	80.12
235.583	82.12
235.817	93.12
236.051	70.12
236.285	74.12
236.519	85.12
236.753	64.12
236.987	75.12
237.221	98.12
237.455	76.12
237.689	79.12
237.922	84.12
238.156	81.12
238.39	87.12
238.624	68.12
238.858	81.12
239.091	66.12
239.325	83.12
239.559	68.12
239.793	78.12
240.027	87.12
240.26	87.12
240.494	79.12
240.728	83.12
240.961	84.12
241.195	78.12
241.429	78.12
241.662	83.12
241.896	71.12
242.13	71.12
242.363	76.12
242.597	82.12
242.83	66.12
243.064	69.12
243.298	76.12
243.531	81.12
243.765	70.12
243.998	76.12
244.232	91.12
244.465	86.12
244.699	80.12
244.932	74.12
245.166	84.12
245.399	71.12
245.633	68.12
245.866	79.12
246.099	86.12
246.333	78.12
246.566	78.12
246.8	87.12
247.033	88.12
247.266	96.12
247.5	67.12
247.733	83.12
247.966	80.12
248.2	82.12
248.433	87.12
248.666	78.12
248.899	96.12
249.133	75.12
249.366	92.12
249.599	86.12
249.832	90.12
250.066	82.12
250.299	77.12
250.532	90.12
250.765	76.12
250.998	86.12
251.231	77.12
251.465	72.12
251.698	76.12
251.931	71.12
252.164	82.12
252.397	83.12
252.63	91.12
252.863	84.12
253.096	100.12
253.329	83.12
253.562	87.12
253.795	85.12
254.028	88.12
254.261	84.12
254.494	84.12
254.727	97.12
254.96	72.12
255.193	76.12
255.426	85.12
255.659	81.12
255.892	77.12
256.124	83.12
256.357	71.12
256.59	90.12
256.823	95.12
257.056	97.12
257.289	70.12
257.521	68.12
257.754	90.12
257.987	89.12
258.22	81.12
258.452	85.12
258.685	86.12
258.918	80.12
259.151	92.12
259.383	72.12
259.616	94.12
259.849	83.12
260.081	76.12
260.314	64.12
260.547	87.12
260.779	83.12
261.012	94.12
261.244	78.12
261.477	99.12
261.71	86.12
261.942	109.12
262.175	110.12
262.407	79.12
262.64	83.12
262.872	88.12
263.105	74.12
263.337	79.12
263.57	90.12
263.802	82.12
264.035	69.12
264.267	74.12
264.499	88.12
264.732	70.12
264.964	74.12
265.197	103.12
265.429	101.12
265.661	94.12
265.894	86.12
266.126	80.12
266.358	76.12
266.591	83.12
266.823	89.12
267.055	76.12
267.287	90.12
267.52	75.12
267.752	77.12
267.984	87.12
268.216	87.12
268.448	80.12
268.681	74.12
268.913	90.12
269.145	80.12
269.377	94.12
269.609	76.12
269.841	82.12
270.073	79.12
270.306	78.12
270.538	79.12
270.77	97.12
271.002	81.12
271.234	75.12
271.466	82.12
271.698	78.12
271.93	84.12
272.162	70.12
272.394	84.12
272.626	88.12
272.858	72.12
273.09	86.12
273.322	94.12
273.553	86.12
273.785	92.12
274.017	73.12
274.249	87.12
274.481	88.12
274.713	88.12
274.945	95.12
275.176	75.12
275.408	94.12
275.64	80.12
275.872	92.12
276.104	92.12
276.335	93.12
276.567	89.12
276.799	102.12
277.031	87.12
277.262	88.12
277.494	80.12
277.726	88.12
277.957	87.12
278.189	94.12
278.421	85.12
278.652	78.12
278.884	80.12
279.115	82.12
279.347	90.12
279.579	91.12
279.81	82.12
280.042	84.12
280.273	85.12
280.505	94.12
280.736	99.12
280.968	81.12
281.199	88.12
281.431	103.12
281.662	89.12
281.894	87.12
282.125	97.12
282.356	114.12
282.588	136.12
282.819	107.12
283.051	104.12
283.282	100.12
283.513	79.12
283.745	81.12
283.976	82.12
284.207	92.12
284.439	81.12
284.67	88.12
284.901	88.12
285.132	101.12
285.364	84.12
285.595	81.12
285.826	80.12
286.057	89.12
286.288	83.12
286.52	103.12
286.751	91.12
286.982	108.12
287.213	95.12
287.444	85.12
287.675	84.12
287.906	91.12
288.138	83.12
288.369	97.12
288.6	80.12
288.831	88.12
289.062	83.12
289.293	89.12
289.524	87.12
289.755	90.12
289.986	79.12
290.217	81.12
290.448	87.12
290.679	85.12
290.91	93.12
291.141	77.12
291.371	76.12
291.602	68.12
291.833	91.12
292.064	91.12
292.295	95.12
292.526	75.12
292.757	88.12
292.987	92.12
293.218	81.12
293.449	79.12
293.68	94.12
293.91	93.12
294.141	85.12
294.372	80.12
294.603	82.12
294.833	87.12
295.064	86.12
295.295	83.12
295.525	77.12
295.756	101.12
295.987	117.12
296.217	133.12
296.448	130.12
296.679	96.12
296.909	97.12
297.14	79.12
297.37	104.12
297.601	86.12
297.831	77.12
298.062	80.12
298.292	90.12
298.523	81.12
298.753	88.12
298.984	86.12
299.214	106.12
299.445	88.12
299.675	82.12
299.905	94.12
300.136	88.12
300.366	90.12
300.597	92.12
300.827	90.12
301.057	80.12
301.288	96.12
301.518	70.12
301.748	78.12
301.979	96.12
302.209	96.12
302.439	84.12
302.669	93.12
302.9	81.12
303.13	95.12
303.36	104.12
303.59	92.12
303.82	102.12
304.051	91.12
304.281	82.12
304.511	104.12
304.741	95.12
304.971	86.12
305.201	90.12
305.431	86.12
305.661	90.12
305.891	99.12
306.121	87.12
306.352	104.12
306.582	100.12
306.812	97.12
307.042	78.12
307.272	95.12
307.502	94.12
307.731	93.12
307.961	84.12
308.191	96.12
308.421	94.12
308.651	100.12
308.881	86.12
309.111	107.12
309.341	100.12
309.571	91.12
309.8	111.12
310.03	94.12
310.26	82.12
310.49	87.12
310.72	95.12
310.949	106.12
311.179	86.12
311.409	84.12
311.639	105.12
311.868	102.12
312.098	95.12
312.328	89.12
312.557	96.12
312.787	110.12
313.017	93.12
313.246	84.12
313.476	102.12
313.706	87.12
313.935	93.12
314.165	92.12
314.394	100.12
314.624	103.12
314.853	80.12
315.083	89.12
315.312	96.12
315.542	99.12
315.771	89.12
316.001	95.12
316.23	100.12
316.46	94.12
316.689	99.12
316.919	93.12
317.148	98.12
317.377	89.12
317.607	84.12
317.836	85.12
318.065	84.12
318.295	84.12
318.524	107.12
318.753	104.12
318.983	93.12
319.212	99.12
319.441	110.12
319.67	111.12
319.9	87.12
320.129	92.12
320.358	91.12
320.587	93.12
320.816	96.12
321.046	99.12
321.275	102.12
321.504	108.12
321.733	92.12
321.962	109.12
322.191	105.12
322.42	106.12
322.649	102.12
322.878	109.12
323.108	115.12
323.337	127.12
323.566	132.12
323.795	151.12
324.024	194.12
324.253	349.12
324.482	774.12
324.71	1570.12
324.939	2004.12
325.168	761.12
325.397	229.12
325.626	139.12
325.855	134.12
326.084	127.12
326.313	144.12
326.542	150.12
326.77	204.12
326.999	428.12
327.228	883.12
327.457	1579.12
327.686	1250.12
327.914	336.12
328.143	168.12
328.372	136.12
328.6	127.12
328.829	104.12
329.058	117.12
329.287	137.12
329.515	99.12
329.744	96.12
329.972	102.12
330.201	100.12
330.43	116.12
330.658	108.12
330.887	122.12
331.115	119.12
331.344	94.12
331.572	93.12
331.801	98.12
332.03	102.12
332.258	100.12
332.486	101.12
332.715	88.12
332.943	91.12
333.172	94.12
333.4	89.12
333.629	102.12
333.857	106.12
334.085	104.12
334.314	102.12
334.542	98.12
334.771	110.12
334.999	106.12
335.227	99.12
335.455	102.12
335.684	89.12
335.912	80.12
336.14	100.12
336.369	91.12
336.597	84.12
336.825	113.12
337.053	91.12
337.281	95.12
337.51	93.12
337.738	81.12
337.966	75.12
338.194	107.12
338.422	88.12
338.65	95.12
338.878	101.12
339.106	93.12
339.334	89.12
339.562	98.12
339.79	72.12
340.018	94.12
340.246	102.12
340.474	84.12
340.702	95.12
340.93	96.12
341.158	96.12
341.386	106.12
341.614	90.12
341.842	90.12
342.07	89.12
342.298	101.12
342.526	94.12
342.754	80.12
342.981	97.12
343.209	90.12
343.437	91.12
343.665	99.12
343.893	92.12
344.12	81.12
344.348	90.12
344.576	86.12
344.804	84.12
345.031	99.12
345.259	100.12
345.487	93.12
345.714	88.12
345.942	91.12
346.17	81.12
346.397	98.12
346.625	93.12
346.853	89.12
347.08	99.12
347.308	90.12
347.535	103.12
347.763	97.12
347.99	103.12
348.218	100.12
348.445	102.12
348.673	103.12
348.9	98.12
349.128	84.12
349.355	93.12
349.583	90.12
349.81	95.12
350.037	112.12
350.265	116.12
350.492	102.12
350.72	102.12
350.947	93.12
351.174	101.12
351.402	110.12
351.629	113.12
351.856	106.12
352.083	103.12
352.311	102.12
352.538	86.12
352.765	111.12
352.992	113.12
353.22	110.12
353.447	110.12
353.674	100.12
353.901	107.12
354.128	103.12
354.355	97.12
354.583	106.12
354.81	106.12
355.037	102.12
355.264	98.12
355.491	98.12
355.718	100.12
355.945	86.12
356.172	103.12
356.399	103.12
356.626	86.12
356.853	103.12
357.08	106.12
357.307	70.12
357.534	92.12
357.761	95.12
357.988	91.12
358.215	92.12
358.441	105.12
358.668	88.12
358.895	96.12
359.122	96.12
359.349	91.12
359.576	88.12
359.802	105.12
360.029	93.12
360.256	109.12
360.483	87.12
360.709	86.12
360.936	91.12
361.163	88.12
361.39	83.12
361.616	92.12
361.843	90.12
362.07	99.12
362.296	83.12
362.523	111.12
362.749	93.12
362.976	96.12
363.203	88.12
363.429	84.12
363.656	85.12
363.882	74.12
364.109	96.12
364.335	77.12
364.562	92.12
364.788	93.12
365.015	76.12
365.241	86.12
365.468	106.12
365.694	107.12
365.92	91.12
366.147	104.12
366.373	88.12
366.599	92.12
366.826	93.12
367.052	91.12
367.278	74.12
367.505	94.12
367.731	93.12
367.957	91.12
368.184	91.12
368.41	82.12
368.636	105.12
368.862	114.12
369.089	102.12
369.315	91.12
369.541	91.12
369.767	95.12
369.993	88.12
370.219	90.12
370.445	85.12
370.672	80.12
370.898	94.12
371.124	81.12
371.35	72.12
371.576	82.12
371.802	96.12
372.028	74.12
372.254	87.12
372.48	83.12
372.706	90.12
372.932	89.12
373.158	92.12
373.384	74.12
373.61	87.12
373.835	84.12
374.061	87.12
374.287	94.12
374.513	91.12
374.739	102.12
374.965	94.12
375.191	92.12
375.416	101.12
375.642	78.12
375.868	85.12
376.094	86.12
376.319	85.12
376.545	75.12
376.771	106.12
376.997	97.12
377.222	97.12
377.448	101.12
377.674	101.12
377.899	81.12
378.125	95.12
378.35	104.12
378.576	86.12
378.802	75.12
379.027	82.12
379.253	81.12
379.478	84.12
379.704	106.12
379.929	89.12
380.155	91.12
380.38	101.12
380.606	83.12
380.831	90.12
381.057	107.12
381.282	82.12
381.507	86.12
381.733	104.12
381.958	92.12
382.184	79.12
382.409	94.12
382.634	108.12
382.86	106.12
383.085	87.12
383.31	86.12
383.535	96.12
383.761	102.12
383.986	100.12
384.211	102.12
384.436	95.12
384.662	92.12
384.887	103.12
385.112	102.12
385.337	108.12
385.562	99.12
385.787	112.12
386.013	95.12
386.238	106.12
386.463	98.12
386.688	119.12
386.913	112.12
387.138	102.12
387.363	107.12
387.588	99.12
387.813	99.12
388.038	108.12
388.263	111.12
388.488	108.12
388.713	94.12
388.938	102.12
389.163	96.12
389.387	97.12
389.612	103.12
389.837	101.12
390.062	94.12
390.287	100.12
390.512	88.12
390.736	102.12
390.961	94.12
391.186	104.12
391.411	81.12
391.636	97.12
391.86	87.12
392.085	93.12
392.31	113.12
392.534	82.12
392.759	92.12
392.984	87.12
393.208	93.12
393.433	90.12
393.658	93.12
393.882	71.12
394.107	76.12
394.331	80.12
394.556	80.12
394.78	75.12
395.005	103.12
395.229	95.12
395.454	87.12
395.678	92.12
395.903	88.12
396.127	92.12
396.352	86.12
396.576	81.12
396.801	92.12
397.025	90.12
397.249	97.12
397.474	78.12
397.698	79.12
397.922	77.12
398.147	82.12
398.371	94.12
398.595	71.12
398.82	74.12
399.044	100.12
399.268	87.12
399.492	97.12
399.717	93.12
399.941	90.12
400.165	88.12
400.389	88.12
400.613	80.12
400.837	92.12
401.062	88.12
401.286	75.12
401.51	94.12
401.734	86.12
401.958	91.12
402.182	123.12
402.406	157.12
402.63	122.12
402.854	96.12
403.078	103.12
403.302	90.12
403.526	86.12
403.75	100.12
403.974	89.12
404.198	80.12
404.422	107.12
404.645	91.12
404.869	80.12
405.093	83.12
405.317	95.12
405.541	90.12
405.765	96.12
405.988	117.12
406.212	165.12
406.436	206.12
406.66	132.12
406.883	97.12
407.107	91.12
407.331	90.12
407.555	88.12
407.778	93.12
408.002	93.12
408.226	92.12
408.449	92.12
408.673	91.12
408.896	99.12
409.12	85.12
409.344	79.12
409.567	98.12
409.791	88.12
410.014	84.12
410.238	93.12
410.461	99.12
410.685	96.12
410.908	96.12
411.132	82.12
411.355	90.12
411.578	99.12
411.802	88.12
412.025	81.12
412.249	87.12
412.472	83.12
412.695	83.12
412.919	88.12
413.142	91.12
413.365	98.12
413.589	101.12
413.812	99.12
414.035	106.12
414.258	92.12
414.482	84.12
414.705	100.12
414.928	105.12
415.151	88.12
415.374	111.12
415.597	104.12
415.821	83.12
416.044	87.12
416.267	91.12
416.49	83.12
416.713	99.12
416.936	77.12
417.159	92.12
417.382	99.12
417.605	86.12
417.828	76.12
418.051	85.12
418.274	98.12
418.497	95.12
418.72	99.12
418.943	100.12
419.166	93.12
419.389	94.12
419.611	83.12
419.834	90.12
420.057	85.12
420.28	90.12
420.503	82.12
420.726	85.12
420.948	94.12
421.171	106.12
421.394	102.12
421.617	100.12
421.839	72.12
422.062	110.12
422.285	96.12
422.507	93.12
422.73	101.12
422.953	93.12
423.175	91.12
423.398	102.12
423.621	88.12
423.843	80.12
424.066	96.12
424.288	87.12
424.511	102.12
424.733	96.12
424.956	106.12
425.178	95.12
425.401	88.12
425.623	94.12
425.846	92.12
426.068	87.12
426.291	95.12
426.513	88.12
426.735	99.12
426.958	94.12
427.18	109.12
427.402	135.12
427.625	149.12
427.847	118.12
428.069	107.12
428.292	92.12
428.514	101.12
428.736	84.12
428.958	71.12
429.181	98.12
429.403	102.12
429.625	86.12
429.847	84.12
430.069	100.12
430.292	91.12
430.514	80.12
430.736	85.12
430.958	103.12
431.18	87.12
431.402	94.12
431.624	92.12
431.846	91.12
432.068	80.12
432.29	78.12
432.512	90.12
432.734	91.12
432.956	84.12
433.178	91.12
433.4	91.12
433.622	89.12
433.844	123.12
434.066	101.12
434.287	84.12
434.509	89.12
434.731	96.12
434.953	82.12
435.175	104.12
435.397	94.12
435.618	100.12
435.84	98.12
436.062	105.12
436.284	101.12
436.505	100.12
436.727	95.12
436.949	114.12
437.17	92.12
437.392	80.12
437.614	95.12
437.835	106.12
438.057	110.12
438.278	117.12
438.5	104.12
438.721	118.12
438.943	105.12
439.165	100.12
439.386	79.12
439.608	95.12
439.829	92.12
440.05	109.12
440.272	128.12
440.493	109.12
440.715	96.12
440.936	92.12
441.158	99.12
441.379	82.12
441.6	82.12
441.822	94.12
442.043	105.12
442.264	101.12
442.486	112.12
442.707	100.12
442.928	102.12
443.149	123.12
443.371	110.12
443.592	95.12
443.813	100.12
444.034	105.12
444.255	92.12
444.476	85.12
444.698	88.12
444.919	94.12
445.14	121.12
445.361	115.12
445.582	117.12
445.803	121.12
446.024	123.12
446.245	116.12
446.466	107.12
446.687	86.12
446.908	73.12
447.129	97.12
447.35	79.12
447.571	96.12
447.792	89.12
448.013	110.12
448.234	106.12
448.455	102.12
448.675	100.12
448.896	95.12
449.117	99.12
449.338	92.12
449.559	111.12
449.779	133.12
450	107.12
450.221	87.12
450.442	91.12
450.662	101.12
450.883	93.12
451.104	94.12
451.324	105.12
451.545	81.12
451.766	90.12
451.986	100.12
452.207	86.12
452.428	91.12
452.648	115.12
452.869	103.12
453.089	118.12
453.31	117.12
453.53	98.12
453.751	92.12
453.971	101.12
454.192	96.12
454.412	82.12
454.633	86.12
454.853	94.12
455.073	86.12
455.294	86.12
455.514	91.12
455.734	78.12
455.955	91.12
456.175	78.12
456.395	92.12
456.616	84.12
456.836	83.12
457.056	84.12
457.276	84.12
457.497	89.12
457.717	94.12
457.937	97.12
458.157	76.12
458.377	86.12
458.598	107.12
458.818	127.12
459.038	150.12
459.258	113.12
459.478	96.12
459.698	98.12
459.918	86.12
460.138	81.12
460.358	89.12
460.578	93.12
460.798	102.12
461.018	92.12
461.238	95.12
461.458	90.12
461.678	93.12
461.898	80.12
462.118	88.12
462.338	81.12
462.558	94.12
462.777	88.12
462.997	100.12
463.217	85.12
463.437	86.12
463.657	84.12
463.876	88.12
464.096	88.12
464.316	83.12
464.536	94.12
464.755	101.12
464.975	100.12
465.195	156.12
465.414	150.12
465.634	88.12
465.854	99.12
466.073	100.12
466.293	94.12
466.512	91.12
466.732	84.12
466.951	100.12
467.171	94.12
467.391	88.12
467.61	113.12
467.829	100.12
468.049	95.12
468.268	85.12
468.488	94.12
468.707	97.12
468.927	77.12
469.146	80.12
469.365	91.12
469.585	97.12
469.804	95.12
470.023	93.12
470.243	97.12
470.462	101.12
470.681	96.12
470.901	86.12
471.12	87.12
471.339	84.12
471.558	95.12
471.777	94.12
471.997	90.12
472.216	94.12
472.435	88.12
472.654	79.12
472.873	88.12
473.092	83.12
473.311	79.12
473.53	86.12
473.749	96.12
473.968	90.12
474.187	95.12
474.406	79.12
474.625	93.12
474.844	94.12
475.063	89.12
475.282	85.12
475.501	91.12
475.72	84.12
475.939	87.12
476.158	87.12
476.377	79.12
476.596	85.12
476.814	94.12
477.033	84.12
477.252	90.12
477.471	79.12
477.69	85.12
477.908	91.12
478.127	83.12
478.346	98.12
478.564	90.12
478.783	100.12
479.002	94.12
479.22	84.12
479.439	98.12
479.658	105.12
479.876	102.12
480.095	79.12
480.313	94.12
480.532	89.12
480.751	92.12
480.969	82.12
481.188	100.12
481.406	103.12
481.624	74.12
481.843	85.12
482.061	79.12
482.28	79.12
482.498	91.12
482.717	95.12
482.935	81.12
483.153	92.12
483.372	86.12
483.59	72.12
483.808	95.12
484.027	88.12
484.245	101.12
484.463	91.12
484.681	82.12
484.9	94.12
485.118	81.12
485.336	98.12
485.554	104.12
485.772	103.12
485.99	102.12
486.209	94.12
486.427	105.12
486.645	104.12
486.863	124.12
487.081	109.12
487.299	94.12
487.517	99.12
487.735	93.12
487.953	92.12
488.171	94.12
488.389	95.12
488.607	100.12
488.825	103.12
489.043	88.12
489.261	91.12
489.479	94.12
489.696	90.12
489.914	83.12
490.132	94.12
490.35	80.12
490.568	99.12
490.786	95.12
491.003	91.12
491.221	89.12
491.439	97.12
491.657	82.12
491.874	88.12
492.092	88.12
492.31	110.12
492.527	80.12
492.745	92.12
492.963	94.12
493.18	86.12
493.398	92.12
493.615	98.12
493.833	106.12
494.05	99.12
494.268	89.12
494.485	102.12
494.703	87.12
494.92	96.12
495.138	104.12
495.355	94.12
495.573	106.12
495.79	93.12
496.008	92.12
496.225	90.12
496.442	91.12
496.66	100.12
496.877	101.12
497.094	95.12
497.312	79.12
497.529	89.12
497.746	91.12
497.963	95.12
498.181	82.12
498.398	79.12
498.615	102.12
498.832	107.12
499.049	86.12
499.267	91.12
499.484	87.12
499.701	89.12
499.918	88.12
500.135	87.12
500.352	82.12
500.569	87.12
500.786	87.12
501.003	97.12
501.22	92.12
501.437	96.12
501.654	96.12
501.871	116.12
502.088	90.12
502.305	94.12
502.522	97.12
502.739	94.12
502.956	94.12
503.172	96.12
503.389	85.12
503.606	90.12
503.823	107.12
504.04	94.12
504.256	96.12
504.473	93.12
504.69	107.12
504.907	95.12
505.123	77.12
505.34	98.12
505.557	100.12
505.773	105.12
505.99	89.12
506.207	96.12
506.423	80.12
506.64	101.12
506.856	103.12
507.073	102.12
507.289	103.12
507.506	97.12
507.722	100.12
507.939	104.12
508.155	99.12
508.372	96.12
508.588	99.12
508.805	102.12
509.021	85.12
509.238	103.12
509.454	96.12
509.67	98.12
509.887	108.12
510.103	110.12
510.319	187.12
510.536	691.12
510.752	2120.12
510.968	596.12
511.184	158.12
511.401	111.12
511.617	93.12
511.833	94.12
512.049	102.12
512.265	89.12
512.481	94.12
512.698	82.12
512.914	93.12
513.13	98.12
513.346	89.12
513.562	79.12
513.778	85.12
513.994	93.12
514.21	95.12
514.426	107.12
514.642	124.12
514.858	104.12
515.074	154.12
515.29	371.12
