Data from Uncirc_2000_H10_HRD10591_00073.txt Node
Date: Wed Jan 03 10:48:31 EST 2024
User: Yrep
Spectrometer: HR+D1059
Trigger mode: 1
Integration Time (sec): 1.000000E-1
Scans to average: 1
Electric dark correction enabled: true
Nonlinearity correction enabled: false
Boxcar width: 0
XAxis mode: Wavelengths
Number of Pixels in Spectrum: 2048
>>>>>Begin Spectral Data<<<<<
223.165	-18.81
223.4	-18.81
223.635	-18.81
223.869	-20.81
224.104	-21.81
224.338	-17.81
224.573	-14.81
224.808	-14.81
225.042	-2.81
225.277	0.19
225.511	3.19
225.746	-7.81
225.98	6.19
226.215	10.19
226.449	11.19
226.683	34.19
226.918	18.19
227.152	36.19
227.387	16.19
227.621	34.19
227.856	38.19
228.09	43.19
228.324	64.19
228.559	68.19
228.793	60.19
229.027	54.19
229.262	66.19
229.496	70.19
229.73	88.19
229.964	94.19
230.199	78.19
230.433	69.19
230.667	84.19
230.901	90.19
231.136	83.19
231.37	76.19
231.604	82.19
231.838	74.19
232.072	80.19
232.306	82.19
232.541	68.19
232.775	87.19
233.009	91.19
233.243	68.19
233.477	77.19
233.711	89.19
233.945	72.19
234.179	72.19
234.413	89.19
234.647	81.19
234.881	83.19
235.115	59.19
235.349	74.19
235.583	66.19
235.817	90.19
236.051	75.19
236.285	70.19
236.519	76.19
236.753	86.19
236.987	84.19
237.221	67.19
237.455	67.19
237.689	79.19
237.922	80.19
238.156	77.19
238.39	84.19
238.624	67.19
238.858	71.19
239.091	54.19
239.325	70.19
239.559	66.19
239.793	74.19
240.027	70.19
240.26	80.19
240.494	66.19
240.728	71.19
240.961	82.19
241.195	72.19
241.429	71.19
241.662	73.19
241.896	82.19
242.13	74.19
242.363	81.19
242.597	75.19
242.83	73.19
243.064	81.19
243.298	80.19
243.531	77.19
243.765	68.19
243.998	90.19
244.232	85.19
244.465	86.19
244.699	82.19
244.932	65.19
245.166	76.19
245.399	76.19
245.633	76.19
245.866	91.19
246.099	71.19
246.333	72.19
246.566	80.19
246.8	80.19
247.033	68.19
247.266	73.19
247.5	83.19
247.733	71.19
247.966	83.19
248.2	74.19
248.433	80.19
248.666	76.19
248.899	80.19
249.133	70.19
249.366	95.19
249.599	89.19
249.832	74.19
250.066	84.19
250.299	77.19
250.532	85.19
250.765	71.19
250.998	88.19
251.231	82.19
251.465	79.19
251.698	88.19
251.931	58.19
252.164	78.19
252.397	78.19
252.63	75.19
252.863	66.19
253.096	87.19
253.329	97.19
253.562	68.19
253.795	96.19
254.028	83.19
254.261	85.19
254.494	73.19
254.727	78.19
254.96	91.19
255.193	79.19
255.426	89.19
255.659	81.19
255.892	75.19
256.124	79.19
256.357	76.19
256.59	82.19
256.823	83.19
257.056	81.19
257.289	72.19
257.521	76.19
257.754	76.19
257.987	76.19
258.22	87.19
258.452	74.19
258.685	82.19
258.918	73.19
259.151	88.19
259.383	66.19
259.616	81.19
259.849	74.19
260.081	74.19
260.314	70.19
260.547	64.19
260.779	71.19
261.012	80.19
261.244	89.19
261.477	91.19
261.71	91.19
261.942	95.19
262.175	102.19
262.407	94.19
262.64	84.19
262.872	88.19
263.105	82.19
263.337	75.19
263.57	77.19
263.802	74.19
264.035	83.19
264.267	85.19
264.499	94.19
264.732	91.19
264.964	86.19
265.197	89.19
265.429	92.19
265.661	87.19
265.894	92.19
266.126	84.19
266.358	85.19
266.591	85.19
266.823	76.19
267.055	69.19
267.287	66.19
267.52	81.19
267.752	76.19
267.984	92.19
268.216	77.19
268.448	87.19
268.681	89.19
268.913	83.19
269.145	71.19
269.377	82.19
269.609	79.19
269.841	83.19
270.073	76.19
270.306	81.19
270.538	82.19
270.77	72.19
271.002	82.19
271.234	89.19
271.466	74.19
271.698	83.19
271.93	84.19
272.162	70.19
272.394	80.19
272.626	88.19
272.858	71.19
273.09	84.19
273.322	72.19
273.553	87.19
273.785	78.19
274.017	74.19
274.249	77.19
274.481	86.19
274.713	85.19
274.945	79.19
275.176	79.19
275.408	84.19
275.64	87.19
275.872	86.19
276.104	80.19
276.335	92.19
276.567	88.19
276.799	104.19
277.031	104.19
277.262	77.19
277.494	88.19
277.726	91.19
277.957	85.19
278.189	82.19
278.421	85.19
278.652	79.19
278.884	86.19
279.115	77.19
279.347	94.19
279.579	88.19
279.81	97.19
280.042	86.19
280.273	98.19
280.505	97.19
280.736	89.19
280.968	83.19
281.199	83.19
281.431	82.19
281.662	74.19
281.894	67.19
282.125	84.19
282.356	109.19
282.588	138.19
282.819	116.19
283.051	84.19
283.282	82.19
283.513	88.19
283.745	84.19
283.976	79.19
284.207	75.19
284.439	95.19
284.67	78.19
284.901	90.19
285.132	71.19
285.364	80.19
285.595	89.19
285.826	86.19
286.057	74.19
286.288	66.19
286.52	90.19
286.751	81.19
286.982	94.19
287.213	81.19
287.444	80.19
287.675	97.19
287.906	76.19
288.138	86.19
288.369	93.19
288.6	84.19
288.831	86.19
289.062	86.19
289.293	91.19
289.524	92.19
289.755	86.19
289.986	84.19
290.217	91.19
290.448	82.19
290.679	80.19
290.91	85.19
291.141	87.19
291.371	90.19
291.602	85.19
291.833	95.19
292.064	95.19
292.295	93.19
292.526	86.19
292.757	100.19
292.987	80.19
293.218	75.19
293.449	96.19
293.68	92.19
293.91	86.19
294.141	89.19
294.372	83.19
294.603	85.19
294.833	84.19
295.064	81.19
295.295	98.19
295.525	80.19
295.756	107.19
295.987	117.19
296.217	132.19
296.448	115.19
296.679	88.19
296.909	92.19
297.14	87.19
297.37	87.19
297.601	85.19
297.831	99.19
298.062	89.19
298.292	80.19
298.523	90.19
298.753	88.19
298.984	91.19
299.214	85.19
299.445	98.19
299.675	100.19
299.905	83.19
300.136	97.19
300.366	86.19
300.597	84.19
300.827	90.19
301.057	91.19
301.288	84.19
301.518	83.19
301.748	90.19
301.979	102.19
302.209	80.19
302.439	89.19
302.669	93.19
302.9	84.19
303.13	94.19
303.36	98.19
303.59	88.19
303.82	116.19
304.051	82.19
304.281	87.19
304.511	90.19
304.741	91.19
304.971	89.19
305.201	96.19
305.431	89.19
305.661	91.19
305.891	91.19
306.121	84.19
306.352	101.19
306.582	96.19
306.812	94.19
307.042	99.19
307.272	86.19
307.502	96.19
307.731	106.19
307.961	98.19
308.191	99.19
308.421	82.19
308.651	96.19
308.881	96.19
309.111	90.19
309.341	99.19
309.571	98.19
309.8	87.19
310.03	76.19
310.26	99.19
310.49	90.19
310.72	92.19
310.949	109.19
311.179	96.19
311.409	89.19
311.639	96.19
311.868	84.19
312.098	87.19
312.328	80.19
312.557	95.19
312.787	98.19
313.017	99.19
313.246	86.19
313.476	85.19
313.706	92.19
313.935	96.19
314.165	86.19
314.394	91.19
314.624	78.19
314.853	93.19
315.083	84.19
315.312	90.19
315.542	79.19
315.771	94.19
316.001	95.19
316.23	90.19
316.46	87.19
316.689	104.19
316.919	76.19
317.148	92.19
317.377	110.19
317.607	85.19
317.836	93.19
318.065	90.19
318.295	87.19
318.524	93.19
318.753	76.19
318.983	84.19
319.212	102.19
319.441	114.19
319.67	99.19
319.9	96.19
320.129	89.19
320.358	98.19
320.587	92.19
320.816	111.19
321.046	91.19
321.275	96.19
321.504	92.19
321.733	89.19
321.962	100.19
322.191	90.19
322.42	92.19
322.649	118.19
322.878	122.19
323.108	113.19
323.337	110.19
323.566	118.19
323.795	145.19
324.024	173.19
324.253	352.19
324.482	738.19
324.71	1500.19
324.939	1942.19
325.168	722.19
325.397	211.19
325.626	129.19
325.855	110.19
326.084	118.19
326.313	137.19
326.542	139.19
326.77	226.19
326.999	420.19
327.228	863.19
327.457	1526.19
327.686	1192.19
327.914	332.19
328.143	159.19
328.372	144.19
328.6	110.19
328.829	120.19
329.058	118.19
329.287	95.19
329.515	115.19
329.744	88.19
329.972	97.19
330.201	101.19
330.43	100.19
330.658	98.19
330.887	120.19
331.115	107.19
331.344	101.19
331.572	105.19
331.801	107.19
332.03	108.19
332.258	95.19
332.486	91.19
332.715	96.19
332.943	94.19
333.172	96.19
333.4	97.19
333.629	99.19
333.857	109.19
334.085	105.19
334.314	98.19
334.542	96.19
334.771	101.19
334.999	111.19
335.227	80.19
335.455	85.19
335.684	97.19
335.912	82.19
336.14	102.19
336.369	89.19
336.597	79.19
336.825	88.19
337.053	87.19
337.281	87.19
337.51	93.19
337.738	102.19
337.966	90.19
338.194	85.19
338.422	89.19
338.65	90.19
338.878	81.19
339.106	76.19
339.334	80.19
339.562	91.19
339.79	79.19
340.018	84.19
340.246	95.19
340.474	98.19
340.702	87.19
340.93	87.19
341.158	100.19
341.386	102.19
341.614	87.19
341.842	99.19
342.07	79.19
342.298	86.19
342.526	88.19
342.754	83.19
342.981	87.19
343.209	90.19
343.437	104.19
343.665	81.19
343.893	86.19
344.12	89.19
344.348	91.19
344.576	107.19
344.804	94.19
345.031	106.19
345.259	86.19
345.487	84.19
345.714	100.19
345.942	82.19
346.17	79.19
346.397	90.19
346.625	86.19
346.853	81.19
347.08	113.19
347.308	90.19
347.535	102.19
347.763	92.19
347.99	97.19
348.218	102.19
348.445	103.19
348.673	96.19
348.9	98.19
349.128	96.19
349.355	75.19
349.583	96.19
349.81	86.19
350.037	100.19
350.265	107.19
350.492	85.19
350.72	95.19
350.947	92.19
351.174	100.19
351.402	118.19
351.629	104.19
351.856	75.19
352.083	98.19
352.311	103.19
352.538	108.19
352.765	104.19
352.992	96.19
353.22	93.19
353.447	104.19
353.674	102.19
353.901	97.19
354.128	100.19
354.355	99.19
354.583	92.19
354.81	92.19
355.037	86.19
355.264	88.19
355.491	81.19
355.718	90.19
355.945	107.19
356.172	90.19
356.399	101.19
356.626	85.19
356.853	96.19
357.08	99.19
357.307	86.19
357.534	97.19
357.761	93.19
357.988	106.19
358.215	89.19
358.441	89.19
358.668	82.19
358.895	95.19
359.122	73.19
359.349	91.19
359.576	83.19
359.802	102.19
360.029	101.19
360.256	100.19
360.483	102.19
360.709	89.19
360.936	91.19
361.163	92.19
361.39	77.19
361.616	82.19
361.843	78.19
362.07	96.19
362.296	98.19
362.523	89.19
362.749	97.19
362.976	72.19
363.203	83.19
363.429	98.19
363.656	103.19
363.882	95.19
364.109	89.19
364.335	85.19
364.562	70.19
364.788	99.19
365.015	92.19
365.241	95.19
365.468	100.19
365.694	89.19
365.92	98.19
366.147	81.19
366.373	91.19
366.599	84.19
366.826	75.19
367.052	90.19
367.278	77.19
367.505	74.19
367.731	84.19
367.957	89.19
368.184	82.19
368.41	91.19
368.636	85.19
368.862	114.19
369.089	99.19
369.315	88.19
369.541	86.19
369.767	83.19
369.993	95.19
370.219	82.19
370.445	101.19
370.672	86.19
370.898	94.19
371.124	95.19
371.35	90.19
371.576	88.19
371.802	88.19
372.028	89.19
372.254	90.19
372.48	75.19
372.706	94.19
372.932	94.19
373.158	84.19
373.384	83.19
373.61	96.19
373.835	81.19
374.061	86.19
374.287	87.19
374.513	81.19
374.739	79.19
374.965	87.19
375.191	85.19
375.416	92.19
375.642	97.19
375.868	85.19
376.094	102.19
376.319	97.19
376.545	81.19
376.771	67.19
376.997	83.19
377.222	82.19
377.448	85.19
377.674	91.19
377.899	99.19
378.125	82.19
378.35	84.19
378.576	96.19
378.802	93.19
379.027	93.19
379.253	90.19
379.478	83.19
379.704	87.19
379.929	75.19
380.155	86.19
380.38	84.19
380.606	87.19
380.831	83.19
381.057	98.19
381.282	100.19
381.507	102.19
381.733	89.19
381.958	90.19
382.184	95.19
382.409	91.19
382.634	98.19
382.86	104.19
383.085	104.19
383.31	94.19
383.535	88.19
383.761	90.19
383.986	96.19
384.211	92.19
384.436	92.19
384.662	94.19
384.887	87.19
385.112	83.19
385.337	92.19
385.562	105.19
385.787	100.19
386.013	100.19
386.238	100.19
386.463	105.19
386.688	112.19
386.913	101.19
387.138	92.19
387.363	92.19
387.588	85.19
387.813	98.19
388.038	95.19
388.263	102.19
388.488	109.19
388.713	101.19
388.938	83.19
389.163	89.19
389.387	96.19
389.612	94.19
389.837	99.19
390.062	103.19
390.287	96.19
390.512	79.19
390.736	93.19
390.961	69.19
391.186	89.19
391.411	93.19
391.636	88.19
391.86	84.19
392.085	85.19
392.31	97.19
392.534	89.19
392.759	86.19
392.984	86.19
393.208	74.19
393.433	84.19
393.658	81.19
393.882	74.19
394.107	88.19
394.331	98.19
394.556	76.19
394.78	98.19
395.005	82.19
395.229	78.19
395.454	89.19
395.678	80.19
395.903	81.19
396.127	92.19
396.352	85.19
396.576	91.19
396.801	74.19
397.025	92.19
397.249	84.19
397.474	96.19
397.698	82.19
397.922	78.19
398.147	97.19
398.371	82.19
398.595	85.19
398.82	73.19
399.044	85.19
399.268	85.19
399.492	102.19
399.717	99.19
399.941	76.19
400.165	79.19
400.389	96.19
400.613	87.19
400.837	64.19
401.062	82.19
401.286	95.19
401.51	90.19
401.734	93.19
401.958	85.19
402.182	116.19
402.406	136.19
402.63	109.19
402.854	91.19
403.078	87.19
403.302	99.19
403.526	91.19
403.75	92.19
403.974	73.19
404.198	90.19
404.422	69.19
404.645	85.19
404.869	85.19
405.093	96.19
405.317	83.19
405.541	78.19
405.765	91.19
405.988	110.19
406.212	166.19
406.436	196.19
406.66	134.19
406.883	84.19
407.107	100.19
407.331	96.19
407.555	88.19
407.778	99.19
408.002	103.19
408.226	87.19
408.449	78.19
408.673	86.19
408.896	78.19
409.12	79.19
409.344	100.19
409.567	85.19
409.791	91.19
410.014	97.19
410.238	88.19
410.461	82.19
410.685	93.19
410.908	88.19
411.132	93.19
411.355	90.19
411.578	96.19
411.802	91.19
412.025	79.19
412.249	83.19
412.472	88.19
412.695	91.19
412.919	90.19
413.142	86.19
413.365	86.19
413.589	103.19
413.812	99.19
414.035	92.19
414.258	89.19
414.482	83.19
414.705	91.19
414.928	74.19
415.151	96.19
415.374	94.19
415.597	85.19
415.821	93.19
416.044	86.19
416.267	99.19
416.49	79.19
416.713	91.19
416.936	100.19
417.159	91.19
417.382	91.19
417.605	75.19
417.828	81.19
418.051	90.19
418.274	92.19
418.497	90.19
418.72	94.19
418.943	78.19
419.166	82.19
419.389	80.19
419.611	90.19
419.834	94.19
420.057	82.19
420.28	78.19
420.503	77.19
420.726	88.19
420.948	92.19
421.171	88.19
421.394	93.19
421.617	81.19
421.839	90.19
422.062	77.19
422.285	89.19
422.507	92.19
422.73	101.19
422.953	89.19
423.175	89.19
423.398	91.19
423.621	91.19
423.843	97.19
424.066	93.19
424.288	89.19
424.511	100.19
424.733	86.19
424.956	100.19
425.178	106.19
425.401	101.19
425.623	87.19
425.846	88.19
426.068	93.19
426.291	91.19
426.513	91.19
426.735	96.19
426.958	103.19
427.18	97.19
427.402	104.19
427.625	136.19
427.847	133.19
428.069	87.19
428.292	86.19
428.514	95.19
428.736	84.19
428.958	94.19
429.181	96.19
429.403	86.19
429.625	75.19
429.847	103.19
430.069	81.19
430.292	92.19
430.514	83.19
430.736	89.19
430.958	85.19
431.18	97.19
431.402	93.19
431.624	83.19
431.846	72.19
432.068	81.19
432.29	76.19
432.512	100.19
432.734	84.19
432.956	83.19
433.178	99.19
433.4	97.19
433.622	97.19
433.844	100.19
434.066	86.19
434.287	91.19
434.509	79.19
434.731	76.19
434.953	81.19
435.175	92.19
435.397	86.19
435.618	97.19
435.84	108.19
436.062	110.19
436.284	109.19
436.505	109.19
436.727	85.19
436.949	100.19
437.17	99.19
437.392	93.19
437.614	84.19
437.835	98.19
438.057	102.19
438.278	80.19
438.5	94.19
438.721	110.19
438.943	105.19
439.165	100.19
439.386	86.19
439.608	85.19
439.829	92.19
440.05	97.19
440.272	123.19
440.493	93.19
440.715	93.19
440.936	74.19
441.158	98.19
441.379	83.19
441.6	74.19
441.822	91.19
442.043	98.19
442.264	98.19
442.486	100.19
442.707	79.19
442.928	109.19
443.149	119.19
443.371	123.19
443.592	108.19
443.813	113.19
444.034	94.19
444.255	98.19
444.476	80.19
444.698	76.19
444.919	86.19
445.14	126.19
445.361	123.19
445.582	106.19
445.803	133.19
446.024	123.19
446.245	124.19
446.466	110.19
446.687	97.19
446.908	100.19
447.129	80.19
447.35	82.19
447.571	88.19
447.792	100.19
448.013	81.19
448.234	105.19
448.455	101.19
448.675	107.19
448.896	112.19
449.117	102.19
449.338	87.19
449.559	121.19
449.779	133.19
450	86.19
450.221	87.19
450.442	79.19
450.662	88.19
450.883	97.19
451.104	98.19
451.324	98.19
451.545	82.19
451.766	80.19
451.986	99.19
452.207	86.19
452.428	88.19
452.648	91.19
452.869	106.19
453.089	108.19
453.31	86.19
453.53	87.19
453.751	82.19
453.971	93.19
454.192	99.19
454.412	98.19
454.633	87.19
454.853	82.19
455.073	68.19
455.294	95.19
455.514	103.19
455.734	82.19
455.955	75.19
456.175	82.19
456.395	85.19
456.616	85.19
456.836	92.19
457.056	79.19
457.276	88.19
457.497	82.19
457.717	90.19
457.937	75.19
458.157	74.19
458.377	84.19
458.598	98.19
458.818	141.19
459.038	135.19
459.258	98.19
459.478	87.19
459.698	79.19
459.918	75.19
460.138	69.19
460.358	93.19
460.578	76.19
460.798	96.19
461.018	83.19
461.238	82.19
461.458	88.19
461.678	96.19
461.898	76.19
462.118	86.19
462.338	83.19
462.558	100.19
462.777	70.19
462.997	80.19
463.217	83.19
463.437	78.19
463.657	82.19
463.876	72.19
464.096	87.19
464.316	85.19
464.536	87.19
464.755	86.19
464.975	91.19
465.195	145.19
465.414	149.19
465.634	98.19
465.854	78.19
466.073	99.19
466.293	86.19
466.512	84.19
466.732	74.19
466.951	78.19
467.171	88.19
467.391	92.19
467.61	95.19
467.829	80.19
468.049	78.19
468.268	97.19
468.488	73.19
468.707	87.19
468.927	98.19
469.146	87.19
469.365	78.19
469.585	76.19
469.804	93.19
470.023	84.19
470.243	84.19
470.462	82.19
470.681	96.19
470.901	94.19
471.12	76.19
471.339	78.19
471.558	79.19
471.777	98.19
471.997	73.19
472.216	85.19
472.435	73.19
472.654	80.19
472.873	99.19
473.092	84.19
473.311	78.19
473.53	88.19
473.749	96.19
473.968	83.19
474.187	95.19
474.406	91.19
474.625	90.19
474.844	92.19
475.063	81.19
475.282	94.19
475.501	90.19
475.72	91.19
475.939	90.19
476.158	90.19
476.377	75.19
476.596	78.19
476.814	92.19
477.033	71.19
477.252	90.19
477.471	100.19
477.69	92.19
477.908	97.19
478.127	96.19
478.346	75.19
478.564	75.19
478.783	112.19
479.002	76.19
479.22	89.19
479.439	126.19
479.658	114.19
479.876	78.19
480.095	103.19
480.313	89.19
480.532	88.19
480.751	92.19
480.969	81.19
481.188	99.19
481.406	102.19
481.624	92.19
481.843	82.19
482.061	91.19
482.28	99.19
482.498	85.19
482.717	96.19
482.935	98.19
483.153	81.19
483.372	80.19
483.59	98.19
483.808	79.19
484.027	99.19
484.245	83.19
484.463	90.19
484.681	87.19
484.9	100.19
485.118	85.19
485.336	90.19
485.554	103.19
485.772	109.19
485.99	93.19
486.209	89.19
486.427	91.19
486.645	110.19
486.863	101.19
487.081	100.19
487.299	102.19
487.517	106.19
487.735	108.19
487.953	95.19
488.171	87.19
488.389	82.19
488.607	84.19
488.825	95.19
489.043	90.19
489.261	83.19
489.479	92.19
489.696	91.19
489.914	84.19
490.132	80.19
490.35	86.19
490.568	90.19
490.786	90.19
491.003	87.19
491.221	90.19
491.439	86.19
491.657	94.19
491.874	84.19
492.092	90.19
492.31	98.19
492.527	92.19
492.745	86.19
492.963	90.19
493.18	89.19
493.398	89.19
493.615	100.19
493.833	91.19
494.05	90.19
494.268	80.19
494.485	75.19
494.703	94.19
494.92	101.19
495.138	88.19
495.355	87.19
495.573	86.19
495.79	72.19
496.008	91.19
496.225	88.19
496.442	85.19
496.66	78.19
496.877	91.19
497.094	82.19
497.312	84.19
497.529	100.19
497.746	93.19
497.963	88.19
498.181	92.19
498.398	79.19
498.615	97.19
498.832	94.19
499.049	88.19
499.267	96.19
499.484	73.19
499.701	89.19
499.918	91.19
500.135	102.19
500.352	95.19
500.569	65.19
500.786	87.19
501.003	90.19
501.22	88.19
501.437	89.19
501.654	100.19
501.871	99.19
502.088	92.19
502.305	87.19
502.522	96.19
502.739	90.19
502.956	86.19
503.172	83.19
503.389	88.19
503.606	85.19
503.823	82.19
504.04	98.19
504.256	99.19
504.473	93.19
504.69	86.19
504.907	91.19
505.123	90.19
505.34	83.19
505.557	90.19
505.773	96.19
505.99	90.19
506.207	83.19
506.423	83.19
506.64	83.19
506.856	88.19
507.073	88.19
507.289	87.19
507.506	90.19
507.722	116.19
507.939	103.19
508.155	91.19
508.372	91.19
508.588	87.19
508.805	91.19
509.021	88.19
509.238	89.19
509.454	89.19
509.67	84.19
509.887	109.19
510.103	119.19
510.319	186.19
510.536	692.19
510.752	2097.19
510.968	592.19
511.184	145.19
511.401	102.19
511.617	98.19
511.833	95.19
512.049	80.19
512.265	86.19
512.481	88.19
512.698	100.19
512.914	80.19
513.13	92.19
513.346	97.19
513.562	93.19
513.778	92.19
513.994	105.19
514.21	89.19
514.426	129.19
514.642	118.19
514.858	109.19
515.074	148.19
515.29	366.19
515.506	1167.19
515.721	444.19
515.937	156.19
516.153	121.19
516.369	94.19
516.585	98.19
516.801	89.19
517.016	98.19
