Data from Uncirc_2000_H10_HRD10591_00014.txt Node
Date: Wed Jan 03 10:48:20 EST 2024
User: Yrep
Spectrometer: HR+D1059
Trigger mode: 1
Integration Time (sec): 1.000000E-1
Scans to average: 1
Electric dark correction enabled: true
Nonlinearity correction enabled: false
Boxcar width: 0
XAxis mode: Wavelengths
Number of Pixels in Spectrum: 2048
>>>>>Begin Spectral Data<<<<<
223.165	-12.25
223.4	-12.25
223.635	-12.25
223.869	-21.25
224.104	-17.25
224.338	-12.25
224.573	-23.25
224.808	-13.25
225.042	-15.25
225.277	-4.25
225.511	-18.25
225.746	-10.25
225.98	4.75
226.215	14.75
226.449	12.75
226.683	34.75
226.918	47.75
227.152	32.75
227.387	30.75
227.621	46.75
227.856	40.75
228.09	44.75
228.324	52.75
228.559	57.75
228.793	55.75
229.027	55.75
229.262	73.75
229.496	74.75
229.73	69.75
229.964	78.75
230.199	82.75
230.433	72.75
230.667	90.75
230.901	66.75
231.136	61.75
231.37	79.75
231.604	73.75
231.838	96.75
232.072	79.75
232.306	96.75
232.541	64.75
232.775	85.75
233.009	69.75
233.243	84.75
233.477	72.75
233.711	85.75
233.945	82.75
234.179	75.75
234.413	90.75
234.647	71.75
234.881	69.75
235.115	74.75
235.349	89.75
235.583	68.75
235.817	71.75
236.051	79.75
236.285	75.75
236.519	81.75
236.753	81.75
236.987	81.75
237.221	85.75
237.455	90.75
237.689	78.75
237.922	82.75
238.156	77.75
238.39	82.75
238.624	84.75
238.858	69.75
239.091	64.75
239.325	68.75
239.559	68.75
239.793	91.75
240.027	84.75
240.26	84.75
240.494	82.75
240.728	79.75
240.961	85.75
241.195	72.75
241.429	80.75
241.662	81.75
241.896	71.75
242.13	74.75
242.363	80.75
242.597	71.75
242.83	60.75
243.064	66.75
243.298	80.75
243.531	87.75
243.765	84.75
243.998	80.75
244.232	76.75
244.465	84.75
244.699	88.75
244.932	70.75
245.166	75.75
245.399	71.75
245.633	82.75
245.866	81.75
246.099	91.75
246.333	69.75
246.566	78.75
246.8	83.75
247.033	84.75
247.266	60.75
247.5	71.75
247.733	79.75
247.966	85.75
248.2	88.75
248.433	87.75
248.666	76.75
248.899	83.75
249.133	94.75
249.366	87.75
249.599	92.75
249.832	57.75
250.066	78.75
250.299	72.75
250.532	80.75
250.765	71.75
250.998	75.75
251.231	76.75
251.465	79.75
251.698	68.75
251.931	82.75
252.164	86.75
252.397	60.75
252.63	87.75
252.863	78.75
253.096	82.75
253.329	75.75
253.562	79.75
253.795	85.75
254.028	82.75
254.261	74.75
254.494	86.75
254.727	60.75
254.96	83.75
255.193	80.75
255.426	91.75
255.659	80.75
255.892	78.75
256.124	81.75
256.357	76.75
256.59	93.75
256.823	77.75
257.056	88.75
257.289	73.75
257.521	76.75
257.754	72.75
257.987	75.75
258.22	76.75
258.452	74.75
258.685	83.75
258.918	88.75
259.151	76.75
259.383	75.75
259.616	80.75
259.849	83.75
260.081	83.75
260.314	74.75
260.547	94.75
260.779	86.75
261.012	86.75
261.244	85.75
261.477	88.75
261.71	84.75
261.942	113.75
262.175	91.75
262.407	81.75
262.64	94.75
262.872	82.75
263.105	83.75
263.337	93.75
263.57	76.75
263.802	70.75
264.035	82.75
264.267	64.75
264.499	75.75
264.732	68.75
264.964	83.75
265.197	84.75
265.429	75.75
265.661	80.75
265.894	75.75
266.126	83.75
266.358	86.75
266.591	84.75
266.823	93.75
267.055	88.75
267.287	70.75
267.52	89.75
267.752	87.75
267.984	84.75
268.216	89.75
268.448	91.75
268.681	98.75
268.913	73.75
269.145	83.75
269.377	76.75
269.609	84.75
269.841	99.75
270.073	98.75
270.306	76.75
270.538	93.75
270.77	91.75
271.002	76.75
271.234	85.75
271.466	93.75
271.698	76.75
271.93	87.75
272.162	84.75
272.394	85.75
272.626	85.75
272.858	77.75
273.09	97.75
273.322	84.75
273.553	80.75
273.785	87.75
274.017	82.75
274.249	85.75
274.481	69.75
274.713	81.75
274.945	91.75
275.176	103.75
275.408	79.75
275.64	79.75
275.872	85.75
276.104	90.75
276.335	85.75
276.567	92.75
276.799	98.75
277.031	85.75
277.262	81.75
277.494	97.75
277.726	84.75
277.957	77.75
278.189	87.75
278.421	83.75
278.652	74.75
278.884	100.75
279.115	91.75
279.347	91.75
279.579	81.75
279.81	71.75
280.042	72.75
280.273	85.75
280.505	76.75
280.736	74.75
280.968	78.75
281.199	84.75
281.431	92.75
281.662	85.75
281.894	82.75
282.125	103.75
282.356	100.75
282.588	122.75
282.819	97.75
283.051	84.75
283.282	93.75
283.513	88.75
283.745	79.75
283.976	97.75
284.207	85.75
284.439	77.75
284.67	91.75
284.901	96.75
285.132	87.75
285.364	87.75
285.595	109.75
285.826	78.75
286.057	99.75
286.288	90.75
286.52	89.75
286.751	93.75
286.982	93.75
287.213	77.75
287.444	90.75
287.675	86.75
287.906	78.75
288.138	81.75
288.369	94.75
288.6	85.75
288.831	95.75
289.062	85.75
289.293	89.75
289.524	82.75
289.755	86.75
289.986	90.75
290.217	101.75
290.448	88.75
290.679	91.75
290.91	107.75
291.141	75.75
291.371	93.75
291.602	82.75
291.833	87.75
292.064	80.75
292.295	89.75
292.526	96.75
292.757	90.75
292.987	95.75
293.218	91.75
293.449	73.75
293.68	78.75
293.91	99.75
294.141	87.75
294.372	92.75
294.603	85.75
294.833	90.75
295.064	100.75
295.295	83.75
295.525	82.75
295.756	94.75
295.987	125.75
296.217	119.75
296.448	102.75
296.679	88.75
296.909	91.75
297.14	80.75
297.37	91.75
297.601	97.75
297.831	89.75
298.062	82.75
298.292	85.75
298.523	83.75
298.753	85.75
298.984	91.75
299.214	95.75
299.445	78.75
299.675	94.75
299.905	69.75
300.136	83.75
300.366	66.75
300.597	80.75
300.827	99.75
301.057	85.75
301.288	96.75
301.518	95.75
301.748	79.75
301.979	97.75
302.209	96.75
302.439	91.75
302.669	88.75
302.9	97.75
303.13	87.75
303.36	88.75
303.59	87.75
303.82	106.75
304.051	103.75
304.281	82.75
304.511	99.75
304.741	96.75
304.971	92.75
305.201	94.75
305.431	80.75
305.661	84.75
305.891	97.75
306.121	85.75
306.352	86.75
306.582	89.75
306.812	83.75
307.042	85.75
307.272	89.75
307.502	90.75
307.731	89.75
307.961	91.75
308.191	87.75
308.421	104.75
308.651	84.75
308.881	94.75
309.111	90.75
309.341	87.75
309.571	84.75
309.8	83.75
310.03	81.75
310.26	90.75
310.49	106.75
310.72	95.75
310.949	88.75
311.179	100.75
311.409	94.75
311.639	95.75
311.868	97.75
312.098	92.75
312.328	97.75
312.557	84.75
312.787	95.75
313.017	94.75
313.246	86.75
313.476	87.75
313.706	86.75
313.935	76.75
314.165	99.75
314.394	94.75
314.624	83.75
314.853	91.75
315.083	101.75
315.312	85.75
315.542	84.75
315.771	89.75
316.001	89.75
316.23	86.75
316.46	97.75
316.689	93.75
316.919	98.75
317.148	68.75
317.377	91.75
317.607	98.75
317.836	88.75
318.065	90.75
318.295	93.75
318.524	88.75
318.753	92.75
318.983	86.75
319.212	94.75
319.441	101.75
319.67	90.75
319.9	93.75
320.129	90.75
320.358	94.75
320.587	84.75
320.816	93.75
321.046	106.75
321.275	97.75
321.504	96.75
321.733	98.75
321.962	92.75
322.191	96.75
322.42	97.75
322.649	105.75
322.878	116.75
323.108	108.75
323.337	117.75
323.566	127.75
323.795	124.75
324.024	195.75
324.253	330.75
324.482	678.75
324.71	1308.75
324.939	1723.75
325.168	636.75
325.397	201.75
325.626	120.75
325.855	99.75
326.084	109.75
326.313	124.75
326.542	133.75
326.77	208.75
326.999	401.75
327.228	769.75
327.457	1363.75
327.686	1050.75
327.914	290.75
328.143	167.75
328.372	122.75
328.6	101.75
328.829	121.75
329.058	114.75
329.287	98.75
329.515	106.75
329.744	109.75
329.972	95.75
330.201	97.75
330.43	100.75
330.658	114.75
330.887	130.75
331.115	118.75
331.344	94.75
331.572	93.75
331.801	92.75
332.03	102.75
332.258	82.75
332.486	90.75
332.715	100.75
332.943	90.75
333.172	99.75
333.4	91.75
333.629	116.75
333.857	110.75
334.085	108.75
334.314	92.75
334.542	92.75
334.771	88.75
334.999	109.75
335.227	91.75
335.455	107.75
335.684	100.75
335.912	90.75
336.14	91.75
336.369	96.75
336.597	95.75
336.825	94.75
337.053	84.75
337.281	84.75
337.51	83.75
337.738	83.75
337.966	94.75
338.194	92.75
338.422	94.75
338.65	84.75
338.878	91.75
339.106	72.75
339.334	89.75
339.562	94.75
339.79	94.75
340.018	92.75
340.246	98.75
340.474	90.75
340.702	92.75
340.93	95.75
341.158	94.75
341.386	96.75
341.614	88.75
341.842	88.75
342.07	110.75
342.298	85.75
342.526	71.75
342.754	81.75
342.981	94.75
343.209	91.75
343.437	96.75
343.665	72.75
343.893	83.75
344.12	90.75
344.348	100.75
344.576	96.75
344.804	88.75
345.031	91.75
345.259	86.75
345.487	90.75
345.714	91.75
345.942	90.75
346.17	72.75
346.397	97.75
346.625	80.75
346.853	86.75
347.08	98.75
347.308	94.75
347.535	94.75
347.763	93.75
347.99	92.75
348.218	104.75
348.445	96.75
348.673	99.75
348.9	99.75
349.128	99.75
349.355	74.75
349.583	91.75
349.81	83.75
350.037	89.75
350.265	89.75
350.492	107.75
350.72	94.75
350.947	88.75
351.174	90.75
351.402	99.75
351.629	115.75
351.856	100.75
352.083	90.75
352.311	90.75
352.538	106.75
352.765	106.75
352.992	109.75
353.22	108.75
353.447	100.75
353.674	114.75
353.901	99.75
354.128	93.75
354.355	86.75
354.583	97.75
354.81	89.75
355.037	92.75
355.264	88.75
355.491	83.75
355.718	82.75
355.945	88.75
356.172	98.75
356.399	102.75
356.626	89.75
356.853	89.75
357.08	85.75
357.307	86.75
357.534	89.75
357.761	93.75
357.988	102.75
358.215	104.75
358.441	85.75
358.668	107.75
358.895	93.75
359.122	87.75
359.349	96.75
359.576	91.75
359.802	93.75
360.029	105.75
360.256	95.75
360.483	88.75
360.709	91.75
360.936	99.75
361.163	123.75
361.39	89.75
361.616	90.75
361.843	92.75
362.07	94.75
362.296	102.75
362.523	103.75
362.749	87.75
362.976	94.75
363.203	84.75
363.429	93.75
363.656	97.75
363.882	92.75
364.109	98.75
364.335	100.75
364.562	91.75
364.788	91.75
365.015	105.75
365.241	97.75
365.468	101.75
365.694	90.75
365.92	89.75
366.147	80.75
366.373	89.75
366.599	98.75
366.826	90.75
367.052	84.75
367.278	82.75
367.505	75.75
367.731	90.75
367.957	82.75
368.184	91.75
368.41	96.75
368.636	86.75
368.862	116.75
369.089	98.75
369.315	104.75
369.541	88.75
369.767	89.75
369.993	112.75
370.219	91.75
370.445	86.75
370.672	103.75
370.898	90.75
371.124	86.75
371.35	90.75
371.576	83.75
371.802	77.75
372.028	86.75
372.254	98.75
372.48	84.75
372.706	88.75
372.932	82.75
373.158	87.75
373.384	91.75
373.61	89.75
373.835	98.75
374.061	95.75
374.287	108.75
374.513	99.75
374.739	86.75
374.965	85.75
375.191	86.75
375.416	88.75
375.642	84.75
375.868	90.75
376.094	89.75
376.319	93.75
376.545	92.75
376.771	88.75
376.997	94.75
377.222	87.75
377.448	85.75
377.674	105.75
377.899	101.75
378.125	105.75
378.35	87.75
378.576	96.75
378.802	88.75
379.027	99.75
379.253	100.75
379.478	87.75
379.704	107.75
379.929	79.75
380.155	89.75
380.38	96.75
380.606	82.75
380.831	94.75
381.057	95.75
381.282	99.75
381.507	101.75
381.733	94.75
381.958	99.75
382.184	88.75
382.409	99.75
382.634	89.75
382.86	107.75
383.085	106.75
383.31	100.75
383.535	101.75
383.761	92.75
383.986	101.75
384.211	101.75
384.436	96.75
384.662	91.75
384.887	101.75
385.112	112.75
385.337	110.75
385.562	115.75
385.787	108.75
386.013	106.75
386.238	120.75
386.463	115.75
386.688	109.75
386.913	117.75
387.138	106.75
387.363	113.75
387.588	110.75
387.813	103.75
388.038	105.75
388.263	112.75
388.488	117.75
388.713	105.75
388.938	80.75
389.163	102.75
389.387	91.75
389.612	88.75
389.837	89.75
390.062	87.75
390.287	85.75
390.512	89.75
390.736	86.75
390.961	95.75
391.186	91.75
391.411	84.75
391.636	85.75
391.86	85.75
392.085	76.75
392.31	94.75
392.534	80.75
392.759	86.75
392.984	83.75
393.208	81.75
393.433	109.75
393.658	93.75
393.882	88.75
394.107	83.75
394.331	83.75
394.556	91.75
394.78	92.75
395.005	90.75
395.229	85.75
395.454	80.75
395.678	81.75
395.903	89.75
396.127	82.75
396.352	94.75
396.576	89.75
396.801	89.75
397.025	93.75
397.249	81.75
397.474	88.75
397.698	88.75
397.922	94.75
398.147	89.75
398.371	87.75
398.595	91.75
398.82	91.75
399.044	81.75
399.268	77.75
399.492	77.75
399.717	84.75
399.941	77.75
400.165	98.75
400.389	86.75
400.613	92.75
400.837	85.75
401.062	93.75
401.286	88.75
401.51	93.75
401.734	82.75
401.958	93.75
402.182	116.75
402.406	122.75
402.63	102.75
402.854	81.75
403.078	87.75
403.302	77.75
403.526	88.75
403.75	93.75
403.974	82.75
404.198	86.75
404.422	94.75
404.645	78.75
404.869	83.75
405.093	98.75
405.317	94.75
405.541	93.75
405.765	101.75
405.988	102.75
406.212	139.75
406.436	187.75
406.66	119.75
406.883	92.75
407.107	93.75
407.331	82.75
407.555	85.75
407.778	97.75
408.002	89.75
408.226	91.75
408.449	91.75
408.673	86.75
408.896	92.75
409.12	105.75
409.344	81.75
409.567	86.75
409.791	90.75
410.014	80.75
410.238	99.75
410.461	91.75
410.685	88.75
410.908	102.75
411.132	99.75
411.355	96.75
411.578	87.75
411.802	94.75
412.025	84.75
412.249	84.75
412.472	82.75
412.695	77.75
412.919	80.75
413.142	89.75
413.365	100.75
413.589	93.75
413.812	96.75
414.035	83.75
414.258	80.75
414.482	94.75
414.705	89.75
414.928	92.75
415.151	98.75
415.374	103.75
415.597	93.75
415.821	93.75
416.044	77.75
416.267	89.75
416.49	94.75
416.713	95.75
416.936	83.75
417.159	84.75
417.382	89.75
417.605	92.75
417.828	81.75
418.051	87.75
418.274	87.75
418.497	98.75
418.72	82.75
418.943	79.75
419.166	68.75
419.389	90.75
419.611	98.75
419.834	103.75
420.057	82.75
420.28	85.75
420.503	89.75
420.726	94.75
420.948	105.75
421.171	87.75
421.394	78.75
421.617	94.75
421.839	91.75
422.062	118.75
422.285	95.75
422.507	99.75
422.73	101.75
422.953	97.75
423.175	93.75
423.398	100.75
423.621	75.75
423.843	76.75
424.066	83.75
424.288	87.75
424.511	87.75
424.733	100.75
424.956	70.75
425.178	86.75
425.401	102.75
425.623	94.75
425.846	100.75
426.068	98.75
426.291	94.75
426.513	89.75
426.735	78.75
426.958	84.75
427.18	99.75
427.402	124.75
427.625	115.75
427.847	89.75
428.069	92.75
428.292	86.75
428.514	89.75
428.736	98.75
428.958	86.75
429.181	82.75
429.403	86.75
429.625	87.75
429.847	75.75
430.069	97.75
430.292	91.75
430.514	87.75
430.736	87.75
430.958	94.75
431.18	85.75
431.402	87.75
431.624	74.75
431.846	94.75
432.068	97.75
432.29	99.75
432.512	83.75
432.734	84.75
432.956	94.75
433.178	102.75
433.4	90.75
433.622	88.75
433.844	105.75
434.066	81.75
434.287	102.75
434.509	88.75
434.731	90.75
434.953	93.75
435.175	71.75
435.397	81.75
435.618	88.75
435.84	95.75
436.062	107.75
436.284	108.75
436.505	82.75
436.727	98.75
436.949	95.75
437.17	89.75
437.392	74.75
437.614	95.75
437.835	89.75
438.057	100.75
438.278	96.75
438.5	98.75
438.721	96.75
438.943	100.75
439.165	80.75
439.386	93.75
439.608	97.75
439.829	98.75
440.05	101.75
440.272	117.75
440.493	113.75
440.715	78.75
440.936	92.75
441.158	89.75
441.379	91.75
441.6	88.75
441.822	107.75
442.043	95.75
442.264	84.75
442.486	102.75
442.707	90.75
442.928	102.75
443.149	108.75
443.371	117.75
443.592	90.75
443.813	100.75
444.034	102.75
444.255	103.75
444.476	90.75
444.698	81.75
444.919	86.75
445.14	114.75
445.361	107.75
445.582	105.75
445.803	126.75
446.024	114.75
446.245	123.75
446.466	98.75
446.687	81.75
446.908	92.75
447.129	96.75
447.35	91.75
447.571	83.75
447.792	94.75
448.013	97.75
448.234	100.75
448.455	92.75
448.675	92.75
448.896	108.75
449.117	107.75
449.338	98.75
449.559	124.75
449.779	127.75
450	81.75
450.221	82.75
450.442	86.75
450.662	87.75
450.883	87.75
451.104	108.75
451.324	80.75
451.545	88.75
451.766	91.75
451.986	91.75
452.207	90.75
452.428	94.75
452.648	94.75
452.869	93.75
453.089	100.75
453.31	115.75
453.53	99.75
453.751	88.75
453.971	103.75
454.192	95.75
454.412	98.75
454.633	87.75
454.853	89.75
455.073	86.75
455.294	82.75
455.514	82.75
455.734	91.75
455.955	76.75
456.175	97.75
456.395	66.75
456.616	92.75
456.836	83.75
457.056	89.75
457.276	72.75
457.497	91.75
457.717	101.75
457.937	83.75
458.157	82.75
458.377	99.75
458.598	97.75
458.818	121.75
459.038	125.75
459.258	99.75
459.478	100.75
459.698	81.75
459.918	91.75
460.138	88.75
460.358	94.75
460.578	81.75
460.798	92.75
461.018	84.75
461.238	79.75
461.458	92.75
461.678	88.75
461.898	90.75
462.118	91.75
462.338	91.75
462.558	79.75
462.777	85.75
462.997	93.75
463.217	82.75
463.437	92.75
463.657	78.75
463.876	91.75
464.096	90.75
464.316	90.75
464.536	77.75
464.755	98.75
464.975	92.75
465.195	134.75
465.414	119.75
465.634	88.75
465.854	85.75
466.073	93.75
466.293	81.75
466.512	89.75
466.732	99.75
466.951	83.75
467.171	92.75
467.391	89.75
467.61	90.75
467.829	89.75
468.049	93.75
468.268	90.75
468.488	97.75
468.707	84.75
468.927	81.75
469.146	88.75
469.365	99.75
469.585	79.75
469.804	83.75
470.023	81.75
470.243	84.75
470.462	91.75
470.681	99.75
470.901	89.75
471.12	84.75
471.339	96.75
471.558	87.75
471.777	90.75
471.997	98.75
472.216	83.75
472.435	80.75
472.654	76.75
472.873	95.75
473.092	87.75
473.311	99.75
473.53	94.75
473.749	92.75
473.968	80.75
474.187	101.75
474.406	99.75
474.625	77.75
474.844	90.75
475.063	81.75
475.282	105.75
475.501	78.75
475.72	89.75
475.939	86.75
476.158	94.75
476.377	88.75
476.596	87.75
476.814	98.75
477.033	89.75
477.252	77.75
477.471	88.75
477.69	86.75
477.908	80.75
478.127	97.75
478.346	81.75
478.564	101.75
478.783	100.75
479.002	80.75
479.22	87.75
479.439	86.75
479.658	88.75
479.876	93.75
480.095	83.75
480.313	90.75
480.532	87.75
480.751	98.75
480.969	93.75
481.188	96.75
481.406	82.75
481.624	82.75
481.843	97.75
482.061	89.75
482.28	90.75
482.498	79.75
482.717	93.75
482.935	87.75
483.153	89.75
483.372	90.75
483.59	69.75
483.808	92.75
484.027	93.75
484.245	82.75
484.463	96.75
484.681	105.75
484.9	103.75
485.118	92.75
485.336	108.75
485.554	102.75
485.772	97.75
485.99	101.75
486.209	106.75
486.427	107.75
486.645	106.75
486.863	94.75
487.081	86.75
487.299	99.75
487.517	97.75
487.735	82.75
487.953	79.75
488.171	107.75
488.389	96.75
488.607	98.75
488.825	73.75
489.043	93.75
489.261	88.75
489.479	86.75
489.696	92.75
489.914	78.75
490.132	80.75
490.35	84.75
490.568	99.75
490.786	90.75
491.003	89.75
491.221	83.75
491.439	101.75
491.657	91.75
491.874	90.75
492.092	107.75
492.31	93.75
492.527	92.75
492.745	88.75
492.963	84.75
493.18	87.75
493.398	99.75
493.615	124.75
493.833	91.75
494.05	90.75
494.268	84.75
494.485	81.75
494.703	98.75
494.92	90.75
495.138	86.75
495.355	100.75
495.573	84.75
495.79	91.75
496.008	99.75
496.225	86.75
496.442	97.75
496.66	102.75
496.877	82.75
497.094	96.75
497.312	86.75
497.529	76.75
497.746	99.75
497.963	96.75
498.181	83.75
498.398	94.75
498.615	109.75
498.832	96.75
499.049	100.75
499.267	106.75
499.484	81.75
499.701	90.75
499.918	92.75
500.135	89.75
500.352	97.75
500.569	94.75
500.786	91.75
501.003	84.75
501.22	101.75
501.437	92.75
501.654	85.75
501.871	111.75
502.088	92.75
502.305	78.75
502.522	90.75
502.739	94.75
502.956	91.75
503.172	85.75
503.389	98.75
503.606	101.75
503.823	84.75
504.04	91.75
504.256	87.75
504.473	77.75
504.69	94.75
504.907	97.75
505.123	100.75
505.34	112.75
505.557	97.75
505.773	90.75
505.99	83.75
506.207	77.75
506.423	81.75
506.64	78.75
506.856	83.75
507.073	90.75
507.289	92.75
507.506	93.75
507.722	103.75
507.939	89.75
508.155	96.75
508.372	99.75
508.588	90.75
508.805	99.75
509.021	86.75
509.238	95.75
509.454	89.75
509.67	105.75
509.887	106.75
510.103	103.75
510.319	178.75
510.536	596.75
510.752	1702.75
510.968	504.75
511.184	148.75
511.401	94.75
511.617	98.75
511.833	91.75
512.049	94.75
512.265	84.75
512.481	101.75
512.698	101.75
512.914	77.75
513.13	91.75
513.346	108.75
513.562	97.75
513.778	86.75
513.994	106.75
514.21	97.75
514.426	112.75
514.642	103.75
514.858	115.75
515.074	134.75
515.29	328.75
515.506	990.75
515.721	388.75
515.937	128.75
516.153	111.75
516.369	88.75
516.585	77.75
516.801	78.75
