Data from Uncirc_2000_H10_HRD10591_00084.txt Node
Date: Wed Jan 03 10:48:34 EST 2024
User: Yrep
Spectrometer: HR+D1059
Trigger mode: 1
Integration Time (sec): 1.000000E-1
Scans to average: 1
Electric dark correction enabled: true
Nonlinearity correction enabled: false
Boxcar width: 0
XAxis mode: Wavelengths
Number of Pixels in Spectrum: 2048
>>>>>Begin Spectral Data<<<<<
223.165	-19.69
223.4	-19.69
223.635	-19.69
223.869	-3.69
224.104	-21.69
224.338	-29.69
224.573	-15.69
224.808	-3.69
225.042	-19.69
225.277	6.31
225.511	0.31
225.746	7.31
225.98	1.31
226.215	18.31
226.449	14.31
226.683	11.31
226.918	31.31
227.152	23.31
227.387	36.31
227.621	41.31
227.856	39.31
228.09	56.31
228.324	49.31
228.559	58.31
228.793	53.31
229.027	59.31
229.262	67.31
229.496	74.31
229.73	79.31
229.964	70.31
230.199	81.31
230.433	65.31
230.667	81.31
230.901	75.31
231.136	68.31
231.37	73.31
231.604	80.31
231.838	80.31
232.072	77.31
232.306	75.31
232.541	91.31
232.775	96.31
233.009	72.31
233.243	73.31
233.477	76.31
233.711	73.31
233.945	74.31
234.179	85.31
234.413	83.31
234.647	85.31
234.881	82.31
235.115	76.31
235.349	76.31
235.583	74.31
235.817	85.31
236.051	77.31
236.285	85.31
236.519	66.31
236.753	76.31
236.987	84.31
237.221	65.31
237.455	81.31
237.689	74.31
237.922	80.31
238.156	76.31
238.39	81.31
238.624	80.31
238.858	57.31
239.091	80.31
239.325	76.31
239.559	79.31
239.793	74.31
240.027	82.31
240.26	70.31
240.494	77.31
240.728	77.31
240.961	67.31
241.195	90.31
241.429	70.31
241.662	64.31
241.896	76.31
242.13	77.31
242.363	80.31
242.597	90.31
242.83	82.31
243.064	60.31
243.298	80.31
243.531	68.31
243.765	84.31
243.998	77.31
244.232	81.31
244.465	72.31
244.699	75.31
244.932	70.31
245.166	82.31
245.399	84.31
245.633	80.31
245.866	72.31
246.099	79.31
246.333	86.31
246.566	77.31
246.8	74.31
247.033	74.31
247.266	80.31
247.5	73.31
247.733	73.31
247.966	84.31
248.2	83.31
248.433	73.31
248.666	82.31
248.899	83.31
249.133	79.31
249.366	94.31
249.599	92.31
249.832	81.31
250.066	76.31
250.299	69.31
250.532	74.31
250.765	77.31
250.998	83.31
251.231	90.31
251.465	85.31
251.698	92.31
251.931	94.31
252.164	74.31
252.397	82.31
252.63	83.31
252.863	60.31
253.096	83.31
253.329	88.31
253.562	89.31
253.795	76.31
254.028	85.31
254.261	89.31
254.494	88.31
254.727	70.31
254.96	76.31
255.193	84.31
255.426	94.31
255.659	98.31
255.892	78.31
256.124	86.31
256.357	81.31
256.59	83.31
256.823	77.31
257.056	94.31
257.289	84.31
257.521	69.31
257.754	78.31
257.987	75.31
258.22	82.31
258.452	91.31
258.685	89.31
258.918	84.31
259.151	78.31
259.383	82.31
259.616	73.31
259.849	81.31
260.081	73.31
260.314	75.31
260.547	88.31
260.779	84.31
261.012	84.31
261.244	79.31
261.477	74.31
261.71	88.31
261.942	94.31
262.175	100.31
262.407	84.31
262.64	78.31
262.872	80.31
263.105	83.31
263.337	75.31
263.57	92.31
263.802	91.31
264.035	77.31
264.267	91.31
264.499	71.31
264.732	75.31
264.964	86.31
265.197	98.31
265.429	84.31
265.661	82.31
265.894	84.31
266.126	87.31
266.358	85.31
266.591	83.31
266.823	101.31
267.055	86.31
267.287	78.31
267.52	76.31
267.752	77.31
267.984	80.31
268.216	90.31
268.448	85.31
268.681	74.31
268.913	72.31
269.145	75.31
269.377	80.31
269.609	83.31
269.841	76.31
270.073	77.31
270.306	73.31
270.538	87.31
270.77	80.31
271.002	86.31
271.234	86.31
271.466	95.31
271.698	84.31
271.93	75.31
272.162	87.31
272.394	90.31
272.626	85.31
272.858	68.31
273.09	90.31
273.322	78.31
273.553	83.31
273.785	72.31
274.017	78.31
274.249	75.31
274.481	70.31
274.713	73.31
274.945	86.31
275.176	88.31
275.408	88.31
275.64	81.31
275.872	84.31
276.104	97.31
276.335	85.31
276.567	101.31
276.799	101.31
277.031	91.31
277.262	89.31
277.494	77.31
277.726	90.31
277.957	79.31
278.189	80.31
278.421	83.31
278.652	83.31
278.884	95.31
279.115	85.31
279.347	92.31
279.579	84.31
279.81	92.31
280.042	81.31
280.273	78.31
280.505	84.31
280.736	76.31
280.968	75.31
281.199	85.31
281.431	62.31
281.662	89.31
281.894	86.31
282.125	100.31
282.356	110.31
282.588	147.31
282.819	108.31
283.051	100.31
283.282	87.31
283.513	104.31
283.745	84.31
283.976	87.31
284.207	86.31
284.439	76.31
284.67	92.31
284.901	96.31
285.132	97.31
285.364	87.31
285.595	67.31
285.826	84.31
286.057	90.31
286.288	91.31
286.52	88.31
286.751	74.31
286.982	98.31
287.213	89.31
287.444	78.31
287.675	87.31
287.906	78.31
288.138	72.31
288.369	83.31
288.6	84.31
288.831	85.31
289.062	72.31
289.293	84.31
289.524	95.31
289.755	76.31
289.986	87.31
290.217	85.31
290.448	91.31
290.679	87.31
290.91	88.31
291.141	77.31
291.371	95.31
291.602	98.31
291.833	80.31
292.064	88.31
292.295	92.31
292.526	101.31
292.757	83.31
292.987	91.31
293.218	89.31
293.449	87.31
293.68	78.31
293.91	75.31
294.141	113.31
294.372	95.31
294.603	101.31
294.833	83.31
295.064	85.31
295.295	98.31
295.525	84.31
295.756	98.31
295.987	90.31
296.217	116.31
296.448	115.31
296.679	81.31
296.909	88.31
297.14	89.31
297.37	84.31
297.601	74.31
297.831	86.31
298.062	91.31
298.292	89.31
298.523	79.31
298.753	90.31
298.984	101.31
299.214	86.31
299.445	90.31
299.675	89.31
299.905	102.31
300.136	98.31
300.366	88.31
300.597	80.31
300.827	92.31
301.057	102.31
301.288	91.31
301.518	92.31
301.748	97.31
301.979	108.31
302.209	91.31
302.439	91.31
302.669	94.31
302.9	100.31
303.13	96.31
303.36	96.31
303.59	90.31
303.82	100.31
304.051	91.31
304.281	95.31
304.511	98.31
304.741	98.31
304.971	84.31
305.201	70.31
305.431	89.31
305.661	97.31
305.891	96.31
306.121	101.31
306.352	114.31
306.582	104.31
306.812	92.31
307.042	96.31
307.272	84.31
307.502	89.31
307.731	90.31
307.961	93.31
308.191	93.31
308.421	100.31
308.651	108.31
308.881	97.31
309.111	101.31
309.341	92.31
309.571	94.31
309.8	102.31
310.03	99.31
310.26	92.31
310.49	103.31
310.72	94.31
310.949	92.31
311.179	109.31
311.409	98.31
311.639	105.31
311.868	86.31
312.098	102.31
312.328	98.31
312.557	97.31
312.787	106.31
313.017	94.31
313.246	79.31
313.476	86.31
313.706	72.31
313.935	95.31
314.165	93.31
314.394	110.31
314.624	76.31
314.853	108.31
315.083	86.31
315.312	89.31
315.542	102.31
315.771	82.31
316.001	91.31
316.23	83.31
316.46	100.31
316.689	93.31
316.919	100.31
317.148	92.31
317.377	91.31
317.607	103.31
317.836	97.31
318.065	94.31
318.295	96.31
318.524	101.31
318.753	105.31
318.983	101.31
319.212	100.31
319.441	104.31
319.67	102.31
319.9	77.31
320.129	100.31
320.358	91.31
320.587	100.31
320.816	89.31
321.046	78.31
321.275	98.31
321.504	91.31
321.733	90.31
321.962	88.31
322.191	100.31
322.42	100.31
322.649	108.31
322.878	118.31
323.108	110.31
323.337	122.31
323.566	126.31
323.795	133.31
324.024	198.31
324.253	347.31
324.482	736.31
324.71	1549.31
324.939	1998.31
325.168	731.31
325.397	217.31
325.626	140.31
325.855	113.31
326.084	130.31
326.313	115.31
326.542	139.31
326.77	227.31
326.999	424.31
327.228	873.31
327.457	1600.31
327.686	1246.31
327.914	332.31
328.143	165.31
328.372	126.31
328.6	116.31
328.829	116.31
329.058	115.31
329.287	117.31
329.515	94.31
329.744	93.31
329.972	97.31
330.201	92.31
330.43	97.31
330.658	106.31
330.887	133.31
331.115	122.31
331.344	107.31
331.572	94.31
331.801	108.31
332.03	87.31
332.258	85.31
332.486	93.31
332.715	88.31
332.943	88.31
333.172	89.31
333.4	83.31
333.629	98.31
333.857	97.31
334.085	111.31
334.314	106.31
334.542	85.31
334.771	99.31
334.999	100.31
335.227	108.31
335.455	107.31
335.684	94.31
335.912	103.31
336.14	100.31
336.369	99.31
336.597	93.31
336.825	89.31
337.053	87.31
337.281	101.31
337.51	82.31
337.738	90.31
337.966	78.31
338.194	92.31
338.422	97.31
338.65	101.31
338.878	84.31
339.106	99.31
339.334	98.31
339.562	78.31
339.79	94.31
340.018	92.31
340.246	91.31
340.474	94.31
340.702	95.31
340.93	93.31
341.158	90.31
341.386	91.31
341.614	105.31
341.842	91.31
342.07	94.31
342.298	90.31
342.526	94.31
342.754	88.31
342.981	86.31
343.209	94.31
343.437	109.31
343.665	86.31
343.893	91.31
344.12	84.31
344.348	93.31
344.576	92.31
344.804	93.31
345.031	98.31
345.259	96.31
345.487	98.31
345.714	102.31
345.942	90.31
346.17	94.31
346.397	83.31
346.625	91.31
346.853	86.31
347.08	98.31
347.308	90.31
347.535	99.31
347.763	93.31
347.99	98.31
348.218	110.31
348.445	109.31
348.673	99.31
348.9	97.31
349.128	95.31
349.355	92.31
349.583	97.31
349.81	97.31
350.037	74.31
350.265	100.31
350.492	95.31
350.72	94.31
350.947	89.31
351.174	114.31
351.402	117.31
351.629	112.31
351.856	97.31
352.083	103.31
352.311	100.31
352.538	104.31
352.765	110.31
352.992	101.31
353.22	119.31
353.447	93.31
353.674	102.31
353.901	98.31
354.128	96.31
354.355	96.31
354.583	112.31
354.81	93.31
355.037	82.31
355.264	124.31
355.491	97.31
355.718	92.31
355.945	97.31
356.172	89.31
356.399	84.31
356.626	102.31
356.853	92.31
357.08	83.31
357.307	77.31
357.534	94.31
357.761	109.31
357.988	94.31
358.215	99.31
358.441	85.31
358.668	101.31
358.895	95.31
359.122	81.31
359.349	88.31
359.576	96.31
359.802	93.31
360.029	100.31
360.256	108.31
360.483	107.31
360.709	93.31
360.936	101.31
361.163	81.31
361.39	90.31
361.616	95.31
361.843	99.31
362.07	97.31
362.296	76.31
362.523	94.31
362.749	88.31
362.976	90.31
363.203	91.31
363.429	88.31
363.656	91.31
363.882	80.31
364.109	91.31
364.335	99.31
364.562	77.31
364.788	89.31
365.015	97.31
365.241	91.31
365.468	98.31
365.694	103.31
365.92	87.31
366.147	97.31
366.373	89.31
366.599	88.31
366.826	82.31
367.052	82.31
367.278	95.31
367.505	94.31
367.731	98.31
367.957	109.31
368.184	81.31
368.41	94.31
368.636	95.31
368.862	110.31
369.089	102.31
369.315	102.31
369.541	92.31
369.767	104.31
369.993	92.31
370.219	88.31
370.445	76.31
370.672	98.31
370.898	76.31
371.124	80.31
371.35	81.31
371.576	89.31
371.802	87.31
372.028	90.31
372.254	71.31
372.48	89.31
372.706	98.31
372.932	86.31
373.158	85.31
373.384	103.31
373.61	86.31
373.835	96.31
374.061	98.31
374.287	92.31
374.513	84.31
374.739	89.31
374.965	99.31
375.191	95.31
375.416	91.31
375.642	85.31
375.868	82.31
376.094	102.31
376.319	99.31
376.545	89.31
376.771	97.31
376.997	103.31
377.222	90.31
377.448	89.31
377.674	99.31
377.899	80.31
378.125	83.31
378.35	94.31
378.576	102.31
378.802	84.31
379.027	87.31
379.253	91.31
379.478	94.31
379.704	97.31
379.929	93.31
380.155	85.31
380.38	87.31
380.606	94.31
380.831	78.31
381.057	86.31
381.282	94.31
381.507	93.31
381.733	87.31
381.958	83.31
382.184	95.31
382.409	95.31
382.634	109.31
382.86	99.31
383.085	80.31
383.31	101.31
383.535	94.31
383.761	94.31
383.986	109.31
384.211	105.31
384.436	83.31
384.662	74.31
384.887	95.31
385.112	106.31
385.337	97.31
385.562	104.31
385.787	84.31
386.013	100.31
386.238	102.31
386.463	99.31
386.688	103.31
386.913	110.31
387.138	96.31
387.363	114.31
387.588	86.31
387.813	92.31
388.038	103.31
388.263	111.31
388.488	106.31
388.713	97.31
388.938	103.31
389.163	109.31
389.387	98.31
389.612	87.31
389.837	92.31
390.062	104.31
390.287	96.31
390.512	92.31
390.736	84.31
390.961	76.31
391.186	84.31
391.411	93.31
391.636	83.31
391.86	94.31
392.085	94.31
392.31	87.31
392.534	89.31
392.759	87.31
392.984	77.31
393.208	82.31
393.433	93.31
393.658	82.31
393.882	91.31
394.107	87.31
394.331	90.31
394.556	80.31
394.78	80.31
395.005	88.31
395.229	88.31
395.454	93.31
395.678	76.31
395.903	84.31
396.127	90.31
396.352	96.31
396.576	73.31
396.801	90.31
397.025	86.31
397.249	83.31
397.474	89.31
397.698	97.31
397.922	88.31
398.147	91.31
398.371	80.31
398.595	87.31
398.82	81.31
399.044	85.31
399.268	90.31
399.492	96.31
399.717	95.31
399.941	89.31
400.165	89.31
400.389	90.31
400.613	95.31
400.837	89.31
401.062	92.31
401.286	84.31
401.51	85.31
401.734	84.31
401.958	87.31
402.182	132.31
402.406	133.31
402.63	112.31
402.854	86.31
403.078	84.31
403.302	101.31
403.526	100.31
403.75	83.31
403.974	77.31
404.198	76.31
404.422	75.31
404.645	85.31
404.869	87.31
405.093	79.31
405.317	96.31
405.541	95.31
405.765	105.31
405.988	108.31
406.212	153.31
406.436	208.31
406.66	118.31
406.883	114.31
407.107	91.31
407.331	100.31
407.555	83.31
407.778	86.31
408.002	73.31
408.226	86.31
408.449	70.31
408.673	92.31
408.896	97.31
409.12	87.31
409.344	93.31
409.567	92.31
409.791	93.31
410.014	78.31
410.238	80.31
410.461	92.31
410.685	92.31
410.908	99.31
411.132	92.31
411.355	109.31
411.578	93.31
411.802	84.31
412.025	86.31
412.249	96.31
412.472	93.31
412.695	83.31
412.919	92.31
413.142	79.31
413.365	82.31
413.589	97.31
413.812	101.31
414.035	80.31
414.258	84.31
414.482	89.31
414.705	94.31
414.928	85.31
415.151	101.31
415.374	96.31
415.597	72.31
415.821	91.31
416.044	97.31
416.267	113.31
416.49	89.31
416.713	93.31
416.936	89.31
417.159	88.31
417.382	61.31
417.605	84.31
417.828	87.31
418.051	65.31
418.274	88.31
418.497	96.31
418.72	81.31
418.943	89.31
419.166	92.31
419.389	88.31
419.611	99.31
419.834	92.31
420.057	87.31
420.28	95.31
420.503	93.31
420.726	93.31
420.948	94.31
421.171	84.31
421.394	100.31
421.617	91.31
421.839	93.31
422.062	95.31
422.285	112.31
422.507	103.31
422.73	98.31
422.953	98.31
423.175	84.31
423.398	91.31
423.621	93.31
423.843	73.31
424.066	77.31
424.288	86.31
424.511	81.31
424.733	99.31
424.956	97.31
425.178	107.31
425.401	92.31
425.623	105.31
425.846	86.31
426.068	105.31
426.291	76.31
426.513	92.31
426.735	82.31
426.958	81.31
427.18	99.31
427.402	125.31
427.625	150.31
427.847	132.31
428.069	95.31
428.292	86.31
428.514	87.31
428.736	81.31
428.958	72.31
429.181	80.31
429.403	105.31
429.625	88.31
429.847	77.31
430.069	89.31
430.292	80.31
430.514	91.31
430.736	100.31
430.958	79.31
431.18	84.31
431.402	93.31
431.624	90.31
431.846	75.31
432.068	92.31
432.29	85.31
432.512	98.31
432.734	79.31
432.956	95.31
433.178	87.31
433.4	86.31
433.622	81.31
433.844	100.31
434.066	79.31
434.287	101.31
434.509	87.31
434.731	92.31
434.953	80.31
435.175	90.31
435.397	89.31
435.618	88.31
435.84	93.31
436.062	105.31
436.284	120.31
436.505	95.31
436.727	103.31
436.949	71.31
437.17	91.31
437.392	74.31
437.614	88.31
437.835	114.31
438.057	98.31
438.278	99.31
438.5	104.31
438.721	108.31
438.943	92.31
439.165	84.31
439.386	81.31
439.608	102.31
439.829	99.31
440.05	108.31
440.272	133.31
440.493	97.31
440.715	77.31
440.936	87.31
441.158	85.31
441.379	97.31
441.6	101.31
441.822	77.31
442.043	80.31
442.264	100.31
442.486	80.31
442.707	85.31
442.928	111.31
443.149	118.31
443.371	139.31
443.592	96.31
443.813	106.31
444.034	92.31
444.255	91.31
444.476	93.31
444.698	70.31
444.919	91.31
445.14	118.31
445.361	120.31
445.582	103.31
445.803	125.31
446.024	132.31
446.245	119.31
446.466	109.31
446.687	95.31
446.908	96.31
447.129	80.31
447.35	78.31
447.571	98.31
447.792	86.31
448.013	101.31
448.234	101.31
448.455	108.31
448.675	97.31
448.896	103.31
449.117	85.31
449.338	94.31
449.559	111.31
449.779	151.31
450	96.31
450.221	96.31
450.442	94.31
450.662	86.31
450.883	99.31
451.104	101.31
451.324	94.31
451.545	83.31
451.766	80.31
451.986	76.31
452.207	83.31
452.428	93.31
452.648	86.31
452.869	112.31
453.089	120.31
453.31	109.31
453.53	93.31
453.751	95.31
453.971	91.31
454.192	98.31
454.412	77.31
454.633	79.31
454.853	90.31
455.073	91.31
455.294	84.31
455.514	83.31
455.734	81.31
455.955	82.31
456.175	86.31
456.395	80.31
456.616	82.31
456.836	89.31
457.056	89.31
457.276	76.31
457.497	73.31
457.717	89.31
457.937	88.31
458.157	94.31
458.377	100.31
458.598	84.31
458.818	128.31
459.038	139.31
459.258	108.31
459.478	94.31
459.698	84.31
459.918	87.31
460.138	86.31
460.358	85.31
460.578	79.31
460.798	84.31
461.018	86.31
461.238	94.31
461.458	92.31
461.678	82.31
461.898	98.31
462.118	86.31
462.338	87.31
462.558	78.31
462.777	94.31
462.997	98.31
463.217	86.31
463.437	89.31
463.657	83.31
463.876	94.31
464.096	93.31
464.316	78.31
464.536	85.31
464.755	84.31
464.975	100.31
465.195	136.31
465.414	138.31
465.634	80.31
465.854	85.31
466.073	87.31
466.293	83.31
466.512	88.31
466.732	104.31
466.951	90.31
467.171	95.31
467.391	101.31
467.61	88.31
467.829	93.31
468.049	88.31
468.268	89.31
468.488	91.31
468.707	87.31
468.927	89.31
469.146	72.31
469.365	90.31
469.585	94.31
469.804	89.31
470.023	90.31
470.243	78.31
470.462	87.31
470.681	101.31
470.901	100.31
471.12	88.31
471.339	84.31
471.558	86.31
471.777	76.31
471.997	90.31
472.216	88.31
472.435	93.31
472.654	84.31
472.873	93.31
473.092	88.31
473.311	72.31
473.53	86.31
473.749	58.31
473.968	84.31
474.187	91.31
474.406	77.31
474.625	94.31
474.844	85.31
475.063	92.31
475.282	99.31
475.501	76.31
475.72	84.31
475.939	85.31
476.158	86.31
476.377	95.31
476.596	87.31
476.814	94.31
477.033	87.31
477.252	82.31
477.471	89.31
477.69	91.31
477.908	95.31
478.127	91.31
478.346	84.31
478.564	89.31
478.783	89.31
479.002	90.31
479.22	80.31
479.439	91.31
479.658	88.31
479.876	101.31
480.095	100.31
480.313	85.31
480.532	99.31
480.751	99.31
480.969	75.31
481.188	89.31
481.406	94.31
481.624	93.31
481.843	89.31
482.061	91.31
482.28	75.31
482.498	85.31
482.717	85.31
482.935	101.31
483.153	105.31
483.372	100.31
483.59	91.31
483.808	85.31
484.027	76.31
484.245	102.31
484.463	101.31
484.681	101.31
484.9	84.31
485.118	94.31
485.336	97.31
485.554	81.31
485.772	98.31
485.99	84.31
486.209	85.31
486.427	89.31
486.645	91.31
486.863	104.31
487.081	104.31
487.299	100.31
487.517	91.31
487.735	88.31
487.953	105.31
488.171	99.31
488.389	96.31
488.607	105.31
488.825	94.31
489.043	87.31
489.261	96.31
489.479	92.31
489.696	106.31
489.914	91.31
490.132	70.31
490.35	80.31
490.568	95.31
490.786	85.31
491.003	97.31
491.221	97.31
491.439	87.31
491.657	87.31
491.874	88.31
492.092	90.31
492.31	96.31
492.527	67.31
492.745	83.31
492.963	84.31
493.18	94.31
493.398	87.31
493.615	100.31
493.833	105.31
494.05	98.31
494.268	77.31
494.485	97.31
494.703	83.31
494.92	94.31
495.138	86.31
495.355	84.31
495.573	78.31
495.79	86.31
496.008	88.31
496.225	82.31
496.442	72.31
496.66	94.31
496.877	82.31
497.094	81.31
497.312	88.31
497.529	95.31
497.746	92.31
497.963	92.31
498.181	79.31
498.398	77.31
498.615	100.31
498.832	115.31
499.049	93.31
499.267	94.31
499.484	101.31
499.701	91.31
499.918	102.31
500.135	86.31
500.352	93.31
500.569	89.31
500.786	94.31
501.003	96.31
501.22	103.31
501.437	97.31
501.654	77.31
501.871	112.31
502.088	83.31
502.305	85.31
502.522	89.31
502.739	76.31
502.956	75.31
503.172	87.31
503.389	93.31
503.606	115.31
503.823	98.31
504.04	80.31
504.256	79.31
504.473	92.31
504.69	105.31
504.907	96.31
505.123	105.31
505.34	97.31
505.557	105.31
505.773	84.31
505.99	76.31
506.207	98.31
506.423	89.31
506.64	86.31
506.856	95.31
507.073	109.31
507.289	96.31
507.506	91.31
507.722	112.31
507.939	102.31
508.155	89.31
508.372	89.31
508.588	104.31
508.805	87.31
509.021	84.31
509.238	98.31
509.454	82.31
509.67	99.31
509.887	97.31
510.103	129.31
510.319	205.31
510.536	688.31
510.752	2179.31
510.968	621.31
511.184	156.31
511.401	102.31
511.617	105.31
511.833	93.31
512.049	101.31
512.265	85.31
512.481	80.31
512.698	82.31
512.914	88.31
513.13	90.31
513.346	92.31
513.562	89.31
513.778	98.31
513.994	100.31
514.21	100.31
514.426	103.31
514.642	113.31
514.858	94.31
515.074	159.31
515.29	386.31
515.506	1232.31
515.721	476.31
515.937	146.31
516.153	106.31
516.369	116.31
