Data from Uncirc_2000_H10_HRD10591_00086.txt Node
Date: Wed Jan 03 10:48:34 EST 2024
User: Yrep
Spectrometer: HR+D1059
Trigger mode: 1
Integration Time (sec): 1.000000E-1
Scans to average: 1
Electric dark correction enabled: true
Nonlinearity correction enabled: false
Boxcar width: 0
XAxis mode: Wavelengths
Number of Pixels in Spectrum: 2048
>>>>>Begin Spectral Data<<<<<
223.165	-4.44
223.4	-4.44
223.635	-4.44
223.869	-22.44
224.104	-36.44
224.338	-7.44
224.573	-13.44
224.808	-9.44
225.042	-11.44
225.277	1.56
225.511	-10.44
225.746	8.56
225.98	13.56
226.215	15.56
226.449	3.56
226.683	11.56
226.918	18.56
227.152	42.56
227.387	31.56
227.621	37.56
227.856	48.56
228.09	45.56
228.324	51.56
228.559	53.56
228.793	70.56
229.027	73.56
229.262	75.56
229.496	69.56
229.73	80.56
229.964	64.56
230.199	65.56
230.433	72.56
230.667	81.56
230.901	85.56
231.136	73.56
231.37	80.56
231.604	77.56
231.838	75.56
232.072	87.56
232.306	87.56
232.541	89.56
232.775	88.56
233.009	85.56
233.243	79.56
233.477	87.56
233.711	58.56
233.945	68.56
234.179	73.56
234.413	70.56
234.647	84.56
234.881	77.56
235.115	59.56
235.349	72.56
235.583	68.56
235.817	81.56
236.051	83.56
236.285	88.56
236.519	75.56
236.753	73.56
236.987	79.56
237.221	82.56
237.455	76.56
237.689	71.56
237.922	85.56
238.156	68.56
238.39	73.56
238.624	76.56
238.858	86.56
239.091	76.56
239.325	89.56
239.559	69.56
239.793	65.56
240.027	66.56
240.26	54.56
240.494	84.56
240.728	72.56
240.961	71.56
241.195	87.56
241.429	54.56
241.662	75.56
241.896	77.56
242.13	75.56
242.363	64.56
242.597	79.56
242.83	81.56
243.064	70.56
243.298	67.56
243.531	79.56
243.765	67.56
243.998	76.56
244.232	82.56
244.465	83.56
244.699	68.56
244.932	79.56
245.166	82.56
245.399	83.56
245.633	69.56
245.866	68.56
246.099	76.56
246.333	80.56
246.566	81.56
246.8	83.56
247.033	87.56
247.266	72.56
247.5	73.56
247.733	61.56
247.966	70.56
248.2	73.56
248.433	81.56
248.666	77.56
248.899	81.56
249.133	80.56
249.366	77.56
249.599	87.56
249.832	82.56
250.066	77.56
250.299	72.56
250.532	62.56
250.765	63.56
250.998	88.56
251.231	80.56
251.465	87.56
251.698	84.56
251.931	82.56
252.164	75.56
252.397	78.56
252.63	77.56
252.863	82.56
253.096	76.56
253.329	79.56
253.562	73.56
253.795	85.56
254.028	83.56
254.261	83.56
254.494	98.56
254.727	99.56
254.96	81.56
255.193	91.56
255.426	78.56
255.659	79.56
255.892	76.56
256.124	64.56
256.357	85.56
256.59	92.56
256.823	76.56
257.056	80.56
257.289	79.56
257.521	69.56
257.754	67.56
257.987	75.56
258.22	86.56
258.452	82.56
258.685	84.56
258.918	83.56
259.151	93.56
259.383	88.56
259.616	76.56
259.849	85.56
260.081	89.56
260.314	78.56
260.547	68.56
260.779	80.56
261.012	87.56
261.244	79.56
261.477	88.56
261.71	83.56
261.942	111.56
262.175	100.56
262.407	72.56
262.64	81.56
262.872	78.56
263.105	77.56
263.337	90.56
263.57	75.56
263.802	95.56
264.035	82.56
264.267	86.56
264.499	58.56
264.732	78.56
264.964	89.56
265.197	85.56
265.429	84.56
265.661	81.56
265.894	89.56
266.126	93.56
266.358	84.56
266.591	71.56
266.823	71.56
267.055	74.56
267.287	102.56
267.52	86.56
267.752	80.56
267.984	89.56
268.216	79.56
268.448	82.56
268.681	82.56
268.913	87.56
269.145	75.56
269.377	81.56
269.609	76.56
269.841	95.56
270.073	75.56
270.306	78.56
270.538	77.56
270.77	89.56
271.002	89.56
271.234	83.56
271.466	82.56
271.698	92.56
271.93	88.56
272.162	75.56
272.394	86.56
272.626	80.56
272.858	87.56
273.09	96.56
273.322	83.56
273.553	78.56
273.785	79.56
274.017	94.56
274.249	76.56
274.481	84.56
274.713	84.56
274.945	79.56
275.176	81.56
275.408	86.56
275.64	87.56
275.872	85.56
276.104	87.56
276.335	88.56
276.567	87.56
276.799	103.56
277.031	109.56
277.262	92.56
277.494	85.56
277.726	93.56
277.957	89.56
278.189	85.56
278.421	74.56
278.652	75.56
278.884	79.56
279.115	83.56
279.347	91.56
279.579	92.56
279.81	83.56
280.042	77.56
280.273	77.56
280.505	81.56
280.736	73.56
280.968	96.56
281.199	78.56
281.431	89.56
281.662	82.56
281.894	96.56
282.125	74.56
282.356	106.56
282.588	118.56
282.819	113.56
283.051	80.56
283.282	91.56
283.513	90.56
283.745	86.56
283.976	81.56
284.207	97.56
284.439	87.56
284.67	80.56
284.901	74.56
285.132	86.56
285.364	88.56
285.595	87.56
285.826	87.56
286.057	76.56
286.288	86.56
286.52	85.56
286.751	65.56
286.982	84.56
287.213	73.56
287.444	98.56
287.675	86.56
287.906	72.56
288.138	92.56
288.369	86.56
288.6	91.56
288.831	80.56
289.062	74.56
289.293	87.56
289.524	92.56
289.755	73.56
289.986	93.56
290.217	89.56
290.448	89.56
290.679	81.56
290.91	86.56
291.141	71.56
291.371	91.56
291.602	97.56
291.833	92.56
292.064	97.56
292.295	87.56
292.526	86.56
292.757	100.56
292.987	83.56
293.218	92.56
293.449	68.56
293.68	96.56
293.91	88.56
294.141	97.56
294.372	87.56
294.603	87.56
294.833	102.56
295.064	83.56
295.295	101.56
295.525	100.56
295.756	109.56
295.987	112.56
296.217	115.56
296.448	125.56
296.679	99.56
296.909	97.56
297.14	84.56
297.37	80.56
297.601	89.56
297.831	93.56
298.062	87.56
298.292	93.56
298.523	90.56
298.753	83.56
298.984	76.56
299.214	93.56
299.445	88.56
299.675	84.56
299.905	92.56
300.136	84.56
300.366	95.56
300.597	88.56
300.827	83.56
301.057	91.56
301.288	93.56
301.518	98.56
301.748	85.56
301.979	109.56
302.209	82.56
302.439	79.56
302.669	96.56
302.9	99.56
303.13	98.56
303.36	90.56
303.59	82.56
303.82	96.56
304.051	84.56
304.281	85.56
304.511	90.56
304.741	91.56
304.971	103.56
305.201	103.56
305.431	81.56
305.661	88.56
305.891	92.56
306.121	83.56
306.352	86.56
306.582	83.56
306.812	85.56
307.042	97.56
307.272	97.56
307.502	93.56
307.731	86.56
307.961	86.56
308.191	74.56
308.421	91.56
308.651	91.56
308.881	98.56
309.111	79.56
309.341	94.56
309.571	112.56
309.8	103.56
310.03	95.56
310.26	78.56
310.49	89.56
310.72	94.56
310.949	104.56
311.179	79.56
311.409	91.56
311.639	79.56
311.868	96.56
312.098	97.56
312.328	99.56
312.557	92.56
312.787	86.56
313.017	77.56
313.246	93.56
313.476	112.56
313.706	89.56
313.935	85.56
314.165	101.56
314.394	102.56
314.624	98.56
314.853	103.56
315.083	100.56
315.312	83.56
315.542	100.56
315.771	79.56
316.001	100.56
316.23	88.56
316.46	87.56
316.689	79.56
316.919	85.56
317.148	98.56
317.377	92.56
317.607	98.56
317.836	99.56
318.065	88.56
318.295	91.56
318.524	87.56
318.753	90.56
318.983	87.56
319.212	92.56
319.441	99.56
319.67	113.56
319.9	95.56
320.129	100.56
320.358	72.56
320.587	95.56
320.816	90.56
321.046	96.56
321.275	95.56
321.504	74.56
321.733	92.56
321.962	100.56
322.191	90.56
322.42	104.56
322.649	97.56
322.878	99.56
323.108	117.56
323.337	116.56
323.566	124.56
323.795	159.56
324.024	195.56
324.253	348.56
324.482	777.56
324.71	1570.56
324.939	2034.56
325.168	756.56
325.397	224.56
325.626	129.56
325.855	132.56
326.084	118.56
326.313	112.56
326.542	146.56
326.77	228.56
326.999	454.56
327.228	879.56
327.457	1611.56
327.686	1273.56
327.914	345.56
328.143	175.56
328.372	131.56
328.6	99.56
328.829	114.56
329.058	117.56
329.287	117.56
329.515	102.56
329.744	97.56
329.972	101.56
330.201	110.56
330.43	103.56
330.658	113.56
330.887	131.56
331.115	107.56
331.344	104.56
331.572	97.56
331.801	88.56
332.03	99.56
332.258	91.56
332.486	100.56
332.715	99.56
332.943	83.56
333.172	96.56
333.4	98.56
333.629	102.56
333.857	110.56
334.085	89.56
334.314	86.56
334.542	100.56
334.771	87.56
334.999	91.56
335.227	99.56
335.455	85.56
335.684	106.56
335.912	90.56
336.14	106.56
336.369	93.56
336.597	102.56
336.825	92.56
337.053	87.56
337.281	84.56
337.51	77.56
337.738	91.56
337.966	76.56
338.194	82.56
338.422	82.56
338.65	92.56
338.878	98.56
339.106	96.56
339.334	81.56
339.562	80.56
339.79	85.56
340.018	75.56
340.246	85.56
340.474	85.56
340.702	99.56
340.93	82.56
341.158	84.56
341.386	95.56
341.614	90.56
341.842	98.56
342.07	101.56
342.298	94.56
342.526	85.56
342.754	79.56
342.981	98.56
343.209	86.56
343.437	93.56
343.665	93.56
343.893	85.56
344.12	100.56
344.348	78.56
344.576	83.56
344.804	93.56
345.031	96.56
345.259	92.56
345.487	98.56
345.714	71.56
345.942	100.56
346.17	91.56
346.397	92.56
346.625	96.56
346.853	100.56
347.08	100.56
347.308	81.56
347.535	88.56
347.763	103.56
347.99	97.56
348.218	100.56
348.445	82.56
348.673	109.56
348.9	85.56
349.128	96.56
349.355	91.56
349.583	99.56
349.81	101.56
350.037	87.56
350.265	91.56
350.492	95.56
350.72	88.56
350.947	99.56
351.174	98.56
351.402	108.56
351.629	88.56
351.856	96.56
352.083	83.56
352.311	98.56
352.538	101.56
352.765	102.56
352.992	104.56
353.22	110.56
353.447	100.56
353.674	100.56
353.901	91.56
354.128	86.56
354.355	101.56
354.583	102.56
354.81	89.56
355.037	89.56
355.264	101.56
355.491	92.56
355.718	93.56
355.945	91.56
356.172	90.56
356.399	109.56
356.626	91.56
356.853	84.56
357.08	81.56
357.307	79.56
357.534	99.56
357.761	93.56
357.988	94.56
358.215	92.56
358.441	91.56
358.668	83.56
358.895	94.56
359.122	80.56
359.349	81.56
359.576	97.56
359.802	97.56
360.029	95.56
360.256	105.56
360.483	78.56
360.709	86.56
360.936	88.56
361.163	98.56
361.39	95.56
361.616	91.56
361.843	85.56
362.07	98.56
362.296	97.56
362.523	88.56
362.749	87.56
362.976	82.56
363.203	89.56
363.429	79.56
363.656	89.56
363.882	82.56
364.109	87.56
364.335	93.56
364.562	97.56
364.788	80.56
365.015	97.56
365.241	103.56
365.468	91.56
365.694	91.56
365.92	94.56
366.147	93.56
366.373	89.56
366.599	91.56
366.826	96.56
367.052	105.56
367.278	80.56
367.505	91.56
367.731	84.56
367.957	88.56
368.184	84.56
368.41	89.56
368.636	114.56
368.862	105.56
369.089	103.56
369.315	87.56
369.541	93.56
369.767	89.56
369.993	91.56
370.219	84.56
370.445	91.56
370.672	93.56
370.898	100.56
371.124	90.56
371.35	94.56
371.576	95.56
371.802	96.56
372.028	84.56
372.254	76.56
372.48	86.56
372.706	80.56
372.932	94.56
373.158	97.56
373.384	89.56
373.61	78.56
373.835	96.56
374.061	87.56
374.287	101.56
374.513	94.56
374.739	100.56
374.965	93.56
375.191	93.56
375.416	86.56
375.642	85.56
375.868	81.56
376.094	91.56
376.319	92.56
376.545	95.56
376.771	101.56
376.997	77.56
377.222	83.56
377.448	90.56
377.674	80.56
377.899	87.56
378.125	84.56
378.35	90.56
378.576	93.56
378.802	97.56
379.027	100.56
379.253	108.56
379.478	93.56
379.704	83.56
379.929	81.56
380.155	93.56
380.38	103.56
380.606	87.56
380.831	88.56
381.057	98.56
381.282	85.56
381.507	99.56
381.733	87.56
381.958	105.56
382.184	101.56
382.409	92.56
382.634	92.56
382.86	91.56
383.085	99.56
383.31	108.56
383.535	90.56
383.761	104.56
383.986	93.56
384.211	89.56
384.436	102.56
384.662	102.56
384.887	92.56
385.112	94.56
385.337	87.56
385.562	101.56
385.787	89.56
386.013	96.56
386.238	112.56
386.463	99.56
386.688	97.56
386.913	97.56
387.138	111.56
387.363	100.56
387.588	101.56
387.813	99.56
388.038	98.56
388.263	87.56
388.488	103.56
388.713	102.56
388.938	92.56
389.163	87.56
389.387	85.56
389.612	87.56
389.837	97.56
390.062	105.56
390.287	97.56
390.512	93.56
390.736	81.56
390.961	82.56
391.186	88.56
391.411	82.56
391.636	79.56
391.86	89.56
392.085	107.56
392.31	63.56
392.534	86.56
392.759	91.56
392.984	85.56
393.208	88.56
393.433	71.56
393.658	95.56
393.882	85.56
394.107	85.56
394.331	82.56
394.556	97.56
394.78	79.56
395.005	84.56
395.229	83.56
395.454	93.56
395.678	84.56
395.903	81.56
396.127	90.56
396.352	86.56
396.576	94.56
396.801	87.56
397.025	85.56
397.249	91.56
397.474	97.56
397.698	88.56
397.922	84.56
398.147	85.56
398.371	96.56
398.595	106.56
398.82	97.56
399.044	82.56
399.268	84.56
399.492	81.56
399.717	86.56
399.941	77.56
400.165	91.56
400.389	92.56
400.613	95.56
400.837	96.56
401.062	90.56
401.286	82.56
401.51	93.56
401.734	90.56
401.958	88.56
402.182	111.56
402.406	143.56
402.63	96.56
402.854	97.56
403.078	79.56
403.302	105.56
403.526	97.56
403.75	90.56
403.974	87.56
404.198	83.56
404.422	79.56
404.645	95.56
404.869	86.56
405.093	81.56
405.317	104.56
405.541	79.56
405.765	93.56
405.988	100.56
406.212	148.56
406.436	195.56
406.66	130.56
406.883	96.56
407.107	85.56
407.331	101.56
407.555	81.56
407.778	94.56
408.002	99.56
408.226	95.56
408.449	103.56
408.673	97.56
408.896	98.56
409.12	88.56
409.344	91.56
409.567	96.56
409.791	82.56
410.014	88.56
410.238	96.56
410.461	87.56
410.685	86.56
410.908	87.56
411.132	103.56
411.355	106.56
411.578	101.56
411.802	87.56
412.025	86.56
412.249	98.56
412.472	85.56
412.695	92.56
412.919	80.56
413.142	91.56
413.365	83.56
413.589	88.56
413.812	84.56
414.035	80.56
414.258	80.56
414.482	84.56
414.705	83.56
414.928	90.56
415.151	89.56
415.374	98.56
415.597	85.56
415.821	92.56
416.044	83.56
416.267	82.56
416.49	89.56
416.713	85.56
416.936	93.56
417.159	76.56
417.382	83.56
417.605	94.56
417.828	103.56
418.051	94.56
418.274	95.56
418.497	94.56
418.72	95.56
418.943	88.56
419.166	98.56
419.389	76.56
419.611	86.56
419.834	93.56
420.057	86.56
420.28	82.56
420.503	88.56
420.726	94.56
420.948	96.56
421.171	101.56
421.394	93.56
421.617	82.56
421.839	85.56
422.062	87.56
422.285	90.56
422.507	88.56
422.73	78.56
422.953	92.56
423.175	79.56
423.398	98.56
423.621	91.56
423.843	86.56
424.066	96.56
424.288	88.56
424.511	74.56
424.733	93.56
424.956	107.56
425.178	92.56
425.401	96.56
425.623	98.56
425.846	82.56
426.068	89.56
426.291	79.56
426.513	92.56
426.735	87.56
426.958	97.56
427.18	101.56
427.402	127.56
427.625	145.56
427.847	117.56
428.069	93.56
428.292	83.56
428.514	87.56
428.736	104.56
428.958	82.56
429.181	83.56
429.403	85.56
429.625	65.56
429.847	95.56
430.069	94.56
430.292	91.56
430.514	86.56
430.736	75.56
430.958	105.56
431.18	93.56
431.402	77.56
431.624	76.56
431.846	100.56
432.068	92.56
432.29	83.56
432.512	91.56
432.734	93.56
432.956	80.56
433.178	86.56
433.4	101.56
433.622	84.56
433.844	93.56
434.066	99.56
434.287	81.56
434.509	88.56
434.731	80.56
434.953	83.56
435.175	93.56
435.397	91.56
435.618	86.56
435.84	92.56
436.062	116.56
436.284	99.56
436.505	86.56
436.727	92.56
436.949	87.56
437.17	88.56
437.392	92.56
437.614	93.56
437.835	90.56
438.057	104.56
438.278	103.56
438.5	102.56
438.721	98.56
438.943	111.56
439.165	85.56
439.386	83.56
439.608	92.56
439.829	83.56
440.05	110.56
440.272	123.56
440.493	100.56
440.715	79.56
440.936	90.56
441.158	82.56
441.379	86.56
441.6	99.56
441.822	87.56
442.043	77.56
442.264	100.56
442.486	87.56
442.707	93.56
442.928	104.56
443.149	137.56
443.371	115.56
443.592	92.56
443.813	105.56
444.034	105.56
444.255	84.56
444.476	77.56
444.698	82.56
444.919	78.56
445.14	119.56
445.361	124.56
445.582	106.56
445.803	110.56
446.024	121.56
446.245	123.56
446.466	101.56
446.687	85.56
446.908	103.56
447.129	89.56
447.35	83.56
447.571	79.56
447.792	89.56
448.013	87.56
448.234	91.56
448.455	91.56
448.675	107.56
448.896	111.56
449.117	101.56
449.338	97.56
449.559	129.56
449.779	127.56
450	107.56
450.221	80.56
450.442	88.56
450.662	93.56
450.883	103.56
451.104	105.56
451.324	87.56
451.545	84.56
451.766	89.56
451.986	78.56
452.207	100.56
452.428	82.56
452.648	104.56
452.869	99.56
453.089	108.56
453.31	92.56
453.53	86.56
453.751	89.56
453.971	98.56
454.192	103.56
454.412	87.56
454.633	104.56
454.853	79.56
455.073	67.56
455.294	82.56
455.514	100.56
455.734	94.56
455.955	92.56
456.175	80.56
456.395	76.56
456.616	74.56
456.836	80.56
457.056	88.56
457.276	95.56
457.497	90.56
457.717	92.56
457.937	89.56
458.157	101.56
458.377	96.56
458.598	100.56
458.818	115.56
459.038	139.56
459.258	97.56
459.478	90.56
459.698	81.56
459.918	95.56
460.138	81.56
460.358	93.56
460.578	92.56
460.798	71.56
461.018	79.56
461.238	69.56
461.458	101.56
461.678	92.56
461.898	87.56
462.118	84.56
462.338	84.56
462.558	84.56
462.777	82.56
462.997	93.56
463.217	86.56
463.437	80.56
463.657	80.56
463.876	89.56
464.096	89.56
464.316	83.56
464.536	81.56
464.755	99.56
464.975	99.56
465.195	130.56
465.414	133.56
465.634	90.56
465.854	88.56
466.073	90.56
466.293	104.56
466.512	72.56
466.732	74.56
466.951	95.56
467.171	93.56
467.391	66.56
467.61	100.56
467.829	99.56
468.049	99.56
468.268	85.56
468.488	93.56
468.707	73.56
468.927	81.56
469.146	87.56
469.365	83.56
469.585	88.56
469.804	100.56
470.023	104.56
470.243	93.56
470.462	97.56
470.681	96.56
470.901	90.56
471.12	100.56
471.339	76.56
471.558	85.56
471.777	93.56
471.997	91.56
472.216	91.56
472.435	77.56
472.654	71.56
472.873	77.56
473.092	92.56
473.311	81.56
473.53	83.56
473.749	86.56
473.968	88.56
474.187	96.56
474.406	85.56
474.625	85.56
474.844	67.56
475.063	88.56
475.282	89.56
475.501	78.56
475.72	99.56
475.939	75.56
476.158	85.56
476.377	80.56
476.596	83.56
476.814	83.56
477.033	96.56
477.252	106.56
477.471	91.56
477.69	86.56
477.908	81.56
478.127	84.56
478.346	84.56
478.564	76.56
478.783	85.56
479.002	90.56
479.22	82.56
479.439	91.56
479.658	91.56
479.876	71.56
480.095	77.56
480.313	79.56
480.532	81.56
480.751	82.56
480.969	92.56
481.188	96.56
481.406	92.56
481.624	92.56
481.843	90.56
482.061	79.56
482.28	89.56
482.498	87.56
482.717	85.56
482.935	90.56
483.153	85.56
483.372	80.56
483.59	77.56
483.808	80.56
484.027	87.56
484.245	82.56
484.463	80.56
484.681	85.56
484.9	105.56
485.118	92.56
485.336	93.56
485.554	95.56
485.772	101.56
485.99	97.56
486.209	93.56
486.427	95.56
486.645	92.56
486.863	108.56
487.081	103.56
487.299	104.56
487.517	93.56
487.735	94.56
487.953	90.56
488.171	101.56
488.389	94.56
488.607	91.56
488.825	89.56
489.043	81.56
489.261	97.56
489.479	83.56
489.696	79.56
489.914	91.56
490.132	98.56
490.35	81.56
490.568	91.56
490.786	89.56
491.003	108.56
491.221	89.56
491.439	88.56
491.657	80.56
491.874	101.56
492.092	99.56
492.31	77.56
492.527	99.56
492.745	87.56
492.963	97.56
493.18	82.56
493.398	76.56
493.615	91.56
493.833	95.56
494.05	89.56
494.268	84.56
494.485	98.56
494.703	90.56
494.92	91.56
495.138	88.56
495.355	90.56
495.573	84.56
495.79	88.56
496.008	89.56
496.225	84.56
496.442	103.56
496.66	88.56
496.877	88.56
497.094	89.56
497.312	92.56
497.529	93.56
497.746	104.56
497.963	94.56
498.181	84.56
498.398	89.56
498.615	108.56
498.832	88.56
499.049	83.56
499.267	84.56
499.484	84.56
499.701	92.56
499.918	85.56
500.135	90.56
500.352	89.56
500.569	89.56
500.786	98.56
501.003	87.56
501.22	84.56
501.437	105.56
501.654	91.56
501.871	98.56
502.088	84.56
502.305	98.56
502.522	87.56
502.739	101.56
502.956	88.56
503.172	86.56
503.389	91.56
503.606	93.56
503.823	97.56
504.04	91.56
504.256	84.56
504.473	88.56
504.69	84.56
504.907	96.56
505.123	82.56
505.34	90.56
505.557	80.56
505.773	85.56
505.99	94.56
506.207	107.56
506.423	99.56
506.64	92.56
506.856	91.56
507.073	83.56
507.289	95.56
507.506	89.56
507.722	99.56
507.939	99.56
508.155	79.56
508.372	92.56
508.588	92.56
508.805	100.56
509.021	77.56
509.238	88.56
509.454	98.56
509.67	102.56
509.887	100.56
510.103	130.56
510.319	201.56
510.536	655.56
510.752	2111.56
510.968	577.56
511.184	153.56
511.401	103.56
511.617	92.56
511.833	93.56
512.049	88.56
512.265	90.56
512.481	80.56
512.698	97.56
512.914	95.56
513.13	85.56
513.346	91.56
513.562	95.56
513.778	82.56
513.994	88.56
514.21	97.56
514.426	111.56
514.642	112.56
514.858	144.56
515.074	138.56
515.29	383.56
515.506	1168.56
515.721	442.56
515.937	116.56
516.153	96.56
516.369	91.56
516.585	81.56
516.801	92.56
