Data from Uncirc_2000_H10_HRD10591_00078.txt Node
Date: Wed Jan 03 10:48:32 EST 2024
User: Yrep
Spectrometer: HR+D1059
Trigger mode: 1
Integration Time (sec): 1.000000E-1
Scans to average: 1
Electric dark correction enabled: true
Nonlinearity correction enabled: false
Boxcar width: 0
XAxis mode: Wavelengths
Number of Pixels in Spectrum: 2048
>>>>>Begin Spectral Data<<<<<
223.165	-36.75
223.4	-36.75
223.635	-36.75
223.869	-18.75
224.104	-24.75
224.338	-10.75
224.573	-10.75
224.808	-11.75
225.042	-5.75
225.277	2.25
225.511	-5.75
225.746	13.25
225.98	-0.75
226.215	4.25
226.449	19.25
226.683	24.25
226.918	33.25
227.152	29.25
227.387	30.25
227.621	37.25
227.856	41.25
228.09	44.25
228.324	52.25
228.559	62.25
228.793	171.25
229.027	441.25
229.262	505.25
229.496	578.25
229.73	761.25
229.964	768.25
230.199	529.25
230.433	472.25
230.667	459.25
230.901	437.25
231.136	422.25
231.37	436.25
231.604	436.25
231.838	432.25
232.072	420.25
232.306	435.25
232.541	459.25
232.775	437.25
233.009	452.25
233.243	458.25
233.477	455.25
233.711	463.25
233.945	481.25
234.179	483.25
234.413	500.25
234.647	471.25
234.881	492.25
235.115	489.25
235.349	527.25
235.583	523.25
235.817	563.25
236.051	614.25
236.285	571.25
236.519	623.25
236.753	679.25
236.987	865.25
237.221	1339.25
237.455	1481.25
237.689	865.25
237.922	695.25
238.156	687.25
238.39	648.25
238.624	599.25
238.858	613.25
239.091	599.25
239.325	657.25
239.559	645.25
239.793	660.25
240.027	725.25
240.26	852.25
240.494	933.25
240.728	910.25
240.961	843.25
241.195	758.25
241.429	728.25
241.662	751.25
241.896	723.25
242.13	730.25
242.363	730.25
242.597	761.25
242.83	788.25
243.064	758.25
243.298	783.25
243.531	792.25
243.765	767.25
243.998	803.25
244.232	802.25
244.465	831.25
244.699	840.25
244.932	866.25
245.166	853.25
245.399	862.25
245.633	861.25
245.866	864.25
246.099	888.25
246.333	876.25
246.566	913.25
246.8	898.25
247.033	953.25
247.266	991.25
247.5	1001.25
247.733	1111.25
247.966	1114.25
248.2	1080.25
248.433	1080.25
248.666	1161.25
248.899	1252.25
249.133	1379.25
249.366	1359.25
249.599	1223.25
249.832	1125.25
250.066	1148.25
250.299	1152.25
250.532	1241.25
250.765	1407.25
250.998	1635.25
251.231	1544.25
251.465	1381.25
251.698	1328.25
251.931	1324.25
252.164	1304.25
252.397	1340.25
252.63	1385.25
252.863	1475.25
253.096	1563.25
253.329	1635.25
253.562	1538.25
253.795	1481.25
254.028	1461.25
254.261	1520.25
254.494	1740.25
254.727	2063.25
254.96	2100.25
255.193	1844.25
255.426	1637.25
255.659	1527.25
255.892	1455.25
256.124	1467.25
256.357	1417.25
256.59	1405.25
256.823	1371.25
257.056	1396.25
257.289	1452.25
257.521	1458.25
257.754	1452.25
257.987	1435.25
258.22	1423.25
258.452	1458.25
258.685	1457.25
258.918	1483.25
259.151	1527.25
259.383	1599.25
259.616	1619.25
259.849	1675.25
260.081	1859.25
260.314	2014.25
260.547	1918.25
260.779	1777.25
261.012	1687.25
261.244	1626.25
261.477	1588.25
261.71	1613.25
261.942	1665.25
262.175	1679.25
262.407	1645.25
262.64	1567.25
262.872	1555.25
263.105	1546.25
263.337	1566.25
263.57	1577.25
263.802	1580.25
264.035	1574.25
264.267	1615.25
264.499	1609.25
264.732	1608.25
264.964	1623.25
265.197	1620.25
265.429	1633.25
265.661	1586.25
265.894	1641.25
266.126	1683.25
266.358	1651.25
266.591	1663.25
266.823	1807.25
267.055	1812.25
267.287	1753.25
267.52	1777.25
267.752	1773.25
267.984	1772.25
268.216	1788.25
268.448	1841.25
268.681	1930.25
268.913	2025.25
269.145	2220.25
269.377	2319.25
269.609	2203.25
269.841	2164.25
270.073	2286.25
270.306	2573.25
270.538	2667.25
270.77	2540.25
271.002	2382.25
271.234	2397.25
271.466	2499.25
271.698	2658.25
271.93	2613.25
272.162	2657.25
272.394	2608.25
272.626	2395.25
272.858	2249.25
273.09	2205.25
273.322	2212.25
273.553	2125.25
273.785	2150.25
274.017	2165.25
274.249	2187.25
274.481	2149.25
274.713	2181.25
274.945	2184.25
275.176	2179.25
275.408	2152.25
275.64	2165.25
275.872	2163.25
276.104	2143.25
276.335	2224.25
276.567	2294.25
276.799	2411.25
277.031	2642.25
277.262	2770.25
277.494	2665.25
277.726	2453.25
277.957	2357.25
278.189	2328.25
278.421	2290.25
278.652	2285.25
278.884	2252.25
279.115	2291.25
279.347	2288.25
279.579	2281.25
279.81	2237.25
280.042	2249.25
280.273	2267.25
280.505	2327.25
280.736	2301.25
280.968	2266.25
281.199	2347.25
281.431	2332.25
281.662	2392.25
281.894	2403.25
282.125	2443.25
282.356	2573.25
282.588	2695.25
282.819	2536.25
283.051	2440.25
283.282	2408.25
283.513	2437.25
283.745	2494.25
283.976	2601.25
284.207	2575.25
284.439	2504.25
284.67	2541.25
284.901	2502.25
285.132	2550.25
285.364	2529.25
285.595	2557.25
285.826	2495.25
286.057	2531.25
286.288	2560.25
286.52	2565.25
286.751	2605.25
286.982	2584.25
287.213	2639.25
287.444	2679.25
287.675	2736.25
287.906	2780.25
288.138	2832.25
288.369	2807.25
288.6	2808.25
288.831	2735.25
289.062	2732.25
289.293	2716.25
289.524	2766.25
289.755	2735.25
289.986	2671.25
290.217	2706.25
290.448	2737.25
290.679	2753.25
290.91	2714.25
291.141	2722.25
291.371	2721.25
291.602	2710.25
291.833	2741.25
292.064	2725.25
292.295	2729.25
292.526	2721.25
292.757	2786.25
292.987	2770.25
293.218	2647.25
293.449	2844.25
293.68	2768.25
293.91	2734.25
294.141	2766.25
294.372	2766.25
294.603	2747.25
294.833	2815.25
295.064	2790.25
295.295	2815.25
295.525	2765.25
295.756	2851.25
295.987	2915.25
296.217	3061.25
296.448	3002.25
296.679	2880.25
296.909	2840.25
297.14	2851.25
297.37	2921.25
297.601	2949.25
297.831	2913.25
298.062	2944.25
298.292	2900.25
298.523	2975.25
298.753	2993.25
298.984	2963.25
299.214	3009.25
299.445	2995.25
299.675	2979.25
299.905	3065.25
300.136	3091.25
300.366	2995.25
300.597	3059.25
300.827	3167.25
301.057	3229.25
301.288	3256.25
301.518	3250.25
301.748	3230.25
301.979	3232.25
302.209	3301.25
302.439	3255.25
302.669	3236.25
302.9	3227.25
303.13	3189.25
303.36	3240.25
303.59	3265.25
303.82	3258.25
304.051	3231.25
304.281	3210.25
304.511	3152.25
304.741	3207.25
304.971	3218.25
305.201	3168.25
305.431	3136.25
305.661	3208.25
305.891	3152.25
306.121	3186.25
306.352	3272.25
306.582	3162.25
306.812	3123.25
307.042	3164.25
307.272	3176.25
307.502	3131.25
307.731	3147.25
307.961	3163.25
308.191	3172.25
308.421	3113.25
308.651	3191.25
308.881	3233.25
309.111	3263.25
309.341	3264.25
309.571	3409.25
309.8	3369.25
310.03	3467.25
310.26	3474.25
310.49	3426.25
310.72	3479.25
310.949	3631.25
311.179	3608.25
311.409	3473.25
311.639	3491.25
311.868	3521.25
312.098	3553.25
312.328	3639.25
312.557	3801.25
312.787	3767.25
313.017	3735.25
313.246	3657.25
313.476	3685.25
313.706	3692.25
313.935	3727.25
314.165	3812.25
314.394	3809.25
314.624	3755.25
314.853	3729.25
315.083	3677.25
315.312	3642.25
315.542	3573.25
315.771	3527.25
316.001	3541.25
316.23	3491.25
316.46	3521.25
316.689	3622.25
316.919	3667.25
317.148	3662.25
317.377	3630.25
317.607	3612.25
317.836	3585.25
318.065	3575.25
318.295	3529.25
318.524	3540.25
318.753	3479.25
318.983	3574.25
319.212	3499.25
319.441	3635.25
319.67	3676.25
319.9	3607.25
320.129	3607.25
320.358	3633.25
320.587	3589.25
320.816	3682.25
321.046	3732.25
321.275	3721.25
321.504	3677.25
321.733	3733.25
321.962	3748.25
322.191	3879.25
322.42	3964.25
322.649	4051.25
322.878	4140.25
323.108	4165.25
323.337	4380.25
323.566	4560.25
323.795	4765.25
324.024	5317.25
324.253	7017.25
324.482	10371.25
324.71	14886.25
324.939	15613.25
325.168	12198.25
325.397	6293.25
325.626	5083.25
325.855	4755.25
326.084	4539.25
326.313	4567.25
326.542	4701.25
326.77	5346.25
326.999	6664.25
327.228	9827.25
327.457	13940.25
327.686	13096.25
327.914	7031.25
328.143	5558.25
328.372	5145.25
328.6	4997.25
328.829	4935.25
329.058	5148.25
329.287	5021.25
329.515	4776.25
329.744	4561.25
329.972	4598.25
330.201	4668.25
330.43	4882.25
330.658	5186.25
330.887	5452.25
331.115	5037.25
331.344	4833.25
331.572	4705.25
331.801	4791.25
332.03	4830.25
332.258	4805.25
332.486	4800.25
332.715	4896.25
332.943	5067.25
333.172	5232.25
333.4	5315.25
333.629	5282.25
333.857	5415.25
334.085	5357.25
334.314	5191.25
334.542	5152.25
334.771	5192.25
334.999	5089.25
335.227	5028.25
335.455	4992.25
335.684	4886.25
335.912	4837.25
336.14	4807.25
336.369	4735.25
336.597	4856.25
336.825	4754.25
337.053	4729.25
337.281	4660.25
337.51	4596.25
337.738	4591.25
337.966	4497.25
338.194	4536.25
338.422	4514.25
338.65	4389.25
338.878	4441.25
339.106	4400.25
339.334	4424.25
339.562	4390.25
339.79	4332.25
340.018	4240.25
340.246	4292.25
340.474	4339.25
340.702	4287.25
340.93	4296.25
341.158	4347.25
341.386	4275.25
341.614	4315.25
341.842	4261.25
342.07	4188.25
342.298	4247.25
342.526	4207.25
342.754	4177.25
342.981	4215.25
343.209	4318.25
343.437	4525.25
343.665	4824.25
343.893	5129.25
344.12	5116.25
344.348	4837.25
344.576	4643.25
344.804	4588.25
345.031	4524.25
345.259	4482.25
345.487	4307.25
345.714	4285.25
345.942	4199.25
346.17	4148.25
346.397	4139.25
346.625	4103.25
346.853	4039.25
347.08	4043.25
347.308	4146.25
347.535	4238.25
347.763	4220.25
347.99	4177.25
348.218	4199.25
348.445	4188.25
348.673	4109.25
348.9	4063.25
349.128	4005.25
349.355	3915.25
349.583	4044.25
349.81	3979.25
350.037	3967.25
350.265	3923.25
350.492	3921.25
350.72	3992.25
350.947	3954.25
351.174	4097.25
351.402	4124.25
351.629	4073.25
351.856	3963.25
352.083	4099.25
352.311	4101.25
352.538	4086.25
352.765	4066.25
352.992	4087.25
353.22	4010.25
353.447	3963.25
353.674	3900.25
353.901	3852.25
354.128	3869.25
354.355	3840.25
354.583	3885.25
354.81	3865.25
355.037	3883.25
355.264	3894.25
355.491	3851.25
355.718	3859.25
355.945	3843.25
356.172	3865.25
356.399	3892.25
356.626	3820.25
356.853	3830.25
357.08	3845.25
357.307	3875.25
357.534	3844.25
357.761	3954.25
357.988	3883.25
358.215	3875.25
358.441	3939.25
358.668	3885.25
358.895	4040.25
359.122	3919.25
359.349	4054.25
359.576	4171.25
359.802	4316.25
360.029	4452.25
360.256	4405.25
360.483	4268.25
360.709	4119.25
360.936	4130.25
361.163	4078.25
361.39	4084.25
361.616	4158.25
361.843	4043.25
362.07	4049.25
362.296	4104.25
362.523	4064.25
362.749	4024.25
362.976	4012.25
363.203	3940.25
363.429	3919.25
363.656	3954.25
363.882	3979.25
364.109	3879.25
364.335	3865.25
364.562	3881.25
364.788	3936.25
365.015	3968.25
365.241	3929.25
365.468	3999.25
365.694	4016.25
365.92	3993.25
366.147	3932.25
366.373	3950.25
366.599	3889.25
366.826	3941.25
367.052	3809.25
367.278	4015.25
367.505	3920.25
367.731	4003.25
367.957	3973.25
368.184	3988.25
368.41	4131.25
368.636	4131.25
368.862	4145.25
369.089	4103.25
369.315	4009.25
369.541	4035.25
369.767	4027.25
369.993	4056.25
370.219	4070.25
370.445	4049.25
370.672	4111.25
370.898	4112.25
371.124	4195.25
371.35	4169.25
371.576	4184.25
371.802	4157.25
372.028	4175.25
372.254	4206.25
372.48	4290.25
372.706	4356.25
372.932	4369.25
373.158	4260.25
373.384	4256.25
373.61	4186.25
373.835	4300.25
374.061	4274.25
374.287	4411.25
374.513	4353.25
374.739	4482.25
374.965	4585.25
375.191	4668.25
375.416	4578.25
375.642	4411.25
375.868	4456.25
376.094	4353.25
376.319	4201.25
376.545	4274.25
376.771	4272.25
376.997	4220.25
377.222	4228.25
377.448	4197.25
377.674	4138.25
377.899	4216.25
378.125	4217.25
378.35	4140.25
378.576	4061.25
378.802	4186.25
379.027	4212.25
379.253	4205.25
379.478	4177.25
379.704	4224.25
379.929	4234.25
380.155	4184.25
380.38	4213.25
380.606	4219.25
380.831	4188.25
381.057	4248.25
381.282	4204.25
381.507	4218.25
381.733	4314.25
381.958	4264.25
382.184	4347.25
382.409	4468.25
382.634	4447.25
382.86	4461.25
383.085	4525.25
383.31	4607.25
383.535	4659.25
383.761	4745.25
383.986	4834.25
384.211	4833.25
384.436	4939.25
384.662	5015.25
384.887	5127.25
385.112	5063.25
385.337	5083.25
385.562	5111.25
385.787	5106.25
386.013	5235.25
386.238	5184.25
386.463	5163.25
386.688	5132.25
386.913	5041.25
387.138	5038.25
387.363	5087.25
387.588	5068.25
387.813	5049.25
388.038	5028.25
388.263	5107.25
388.488	5110.25
388.713	5148.25
388.938	5001.25
389.163	4994.25
389.387	5089.25
389.612	5009.25
389.837	4947.25
390.062	4947.25
390.287	4938.25
390.512	5029.25
390.736	5012.25
390.961	5147.25
391.186	5205.25
391.411	5325.25
391.636	5487.25
391.86	5618.25
392.085	5645.25
392.31	5549.25
392.534	5444.25
392.759	5391.25
392.984	5251.25
393.208	5287.25
393.433	5313.25
393.658	5189.25
393.882	5216.25
394.107	5273.25
394.331	5342.25
394.556	5359.25
394.78	5348.25
395.005	5378.25
395.229	5424.25
395.454	5552.25
395.678	5677.25
395.903	5694.25
396.127	5784.25
396.352	5575.25
396.576	5387.25
396.801	5349.25
397.025	5414.25
397.249	5581.25
397.474	5746.25
397.698	5679.25
397.922	5874.25
398.147	5955.25
398.371	6054.25
398.595	6189.25
398.82	6436.25
399.044	7013.25
399.268	7863.25
399.492	8895.25
399.717	9491.25
399.941	9226.25
400.165	8630.25
400.389	7985.25
400.613	7111.25
400.837	6681.25
401.062	6520.25
401.286	6436.25
401.51	6340.25
401.734	6298.25
401.958	6531.25
402.182	6578.25
402.406	6745.25
402.63	6844.25
402.854	6877.25
403.078	6975.25
403.302	6994.25
403.526	7246.25
403.75	7271.25
403.974	7363.25
404.198	7232.25
404.422	7330.25
404.645	7238.25
404.869	7161.25
405.093	7317.25
405.317	7354.25
405.541	7391.25
405.765	7025.25
405.988	7132.25
406.212	7199.25
406.436	7431.25
406.66	7551.25
406.883	7574.25
407.107	8137.25
407.331	8664.25
407.555	9166.25
407.778	8900.25
408.002	8083.25
408.226	7717.25
408.449	7568.25
408.673	7547.25
408.896	7722.25
409.12	7882.25
409.344	7372.25
409.567	7068.25
409.791	7016.25
410.014	6945.25
410.238	6786.25
410.461	6847.25
410.685	6919.25
410.908	6963.25
411.132	7186.25
411.355	7235.25
411.578	6882.25
411.802	6605.25
412.025	6550.25
412.249	6679.25
412.472	6585.25
412.695	6504.25
412.919	6391.25
413.142	6348.25
413.365	6296.25
413.589	6265.25
413.812	6160.25
414.035	6227.25
414.258	6134.25
414.482	6206.25
414.705	6386.25
414.928	6303.25
415.151	6262.25
415.374	6225.25
415.597	6248.25
415.821	6220.25
416.044	6093.25
416.267	6097.25
416.49	6102.25
416.713	6081.25
416.936	6208.25
417.159	6200.25
417.382	6264.25
417.605	6247.25
417.828	6339.25
418.051	6510.25
418.274	6407.25
418.497	6317.25
418.72	6466.25
418.943	6334.25
419.166	6725.25
419.389	7094.25
419.611	6963.25
419.834	6714.25
420.057	6577.25
420.28	6385.25
420.503	6291.25
420.726	6347.25
420.948	6507.25
421.171	6911.25
421.394	6935.25
421.617	6460.25
421.839	6428.25
422.062	6509.25
422.285	6678.25
422.507	7313.25
422.73	7789.25
422.953	7256.25
423.175	6833.25
423.398	6881.25
423.621	6888.25
423.843	7164.25
424.066	7116.25
424.288	7064.25
424.511	7261.25
424.733	7665.25
424.956	8178.25
425.178	7639.25
425.401	7851.25
425.623	7697.25
425.846	6665.25
426.068	6447.25
426.291	6452.25
426.513	6439.25
426.735	6553.25
426.958	7046.25
427.18	7780.25
427.402	8865.25
427.625	8767.25
427.847	7431.25
428.069	6480.25
428.292	6280.25
428.514	5952.25
428.736	5895.25
428.958	5794.25
429.181	5661.25
429.403	5722.25
429.625	5888.25
429.847	6255.25
430.069	6682.25
430.292	6280.25
430.514	5712.25
430.736	5693.25
430.958	5634.25
431.18	5547.25
431.402	5531.25
431.624	5565.25
431.846	5596.25
432.068	5623.25
432.29	5678.25
432.512	5613.25
432.734	5789.25
432.956	5700.25
433.178	5686.25
433.4	5723.25
433.622	5631.25
433.844	5759.25
434.066	5665.25
434.287	5712.25
434.509	5935.25
434.731	6172.25
434.953	6356.25
435.175	6514.25
435.397	6556.25
435.618	6479.25
435.84	6893.25
436.062	7718.25
436.284	7633.25
436.505	6401.25
436.727	6193.25
436.949	5872.25
437.17	5663.25
437.392	5647.25
437.614	5826.25
437.835	6229.25
438.057	7175.25
438.278	7866.25
438.5	7781.25
438.721	8618.25
438.943	7537.25
439.165	6347.25
439.386	6174.25
439.608	6238.25
439.829	6248.25
440.05	6535.25
440.272	6844.25
440.493	6256.25
440.715	5995.25
440.936	5984.25
441.158	6037.25
441.379	6209.25
441.6	6478.25
441.822	6701.25
442.043	7144.25
442.264	7959.25
442.486	7583.25
442.707	6777.25
442.928	6557.25
443.149	6745.25
443.371	7016.25
443.592	7540.25
443.813	8595.25
444.034	8485.25
444.255	7451.25
444.476	7311.25
444.698	7425.25
444.919	7531.25
445.14	7272.25
445.361	7046.25
445.582	7231.25
445.803	7767.25
446.024	8454.25
446.245	7951.25
446.466	7275.25
446.687	6357.25
446.908	6024.25
447.129	5684.25
447.35	5608.25
447.571	5529.25
447.792	5450.25
448.013	5534.25
448.234	5713.25
448.455	6419.25
448.675	7529.25
448.896	8035.25
449.117	6584.25
449.338	6853.25
449.559	8153.25
449.779	8367.25
450	6324.25
450.221	5673.25
450.442	5461.25
450.662	5352.25
450.883	5399.25
451.104	5541.25
451.324	5357.25
451.545	5179.25
451.766	5155.25
451.986	4984.25
452.207	5000.25
452.428	5018.25
452.648	5001.25
452.869	4939.25
453.089	5097.25
453.31	5144.25
453.53	5027.25
453.751	4931.25
453.971	4935.25
454.192	5027.25
454.412	4852.25
454.633	4794.25
454.853	4857.25
455.073	4817.25
455.294	5217.25
455.514	5684.25
455.734	5251.25
455.955	4710.25
456.175	4618.25
456.395	4548.25
456.616	4548.25
456.836	4571.25
457.056	4507.25
457.276	4453.25
457.497	4623.25
457.717	4594.25
457.937	4736.25
458.157	4761.25
458.377	4892.25
458.598	5142.25
458.818	5871.25
459.038	6574.25
459.258	6489.25
459.478	5800.25
459.698	5619.25
459.918	5795.25
460.138	5915.25
460.358	6217.25
460.578	6143.25
460.798	6273.25
461.018	6273.25
461.238	6127.25
461.458	6095.25
461.678	6120.25
461.898	6297.25
462.118	6303.25
462.338	6607.25
462.558	6777.25
462.777	6988.25
462.997	7615.25
463.217	7937.25
463.437	7796.25
463.657	7172.25
463.876	7025.25
464.096	7109.25
464.316	7031.25
464.536	7060.25
464.755	6813.25
464.975	6781.25
465.195	6916.25
465.414	6926.25
465.634	6095.25
465.854	5815.25
466.073	5605.25
466.293	5347.25
466.512	5259.25
466.732	5099.25
466.951	5100.25
467.171	5163.25
467.391	5195.25
467.61	5189.25
467.829	5191.25
468.049	5115.25
468.268	4902.25
468.488	4859.25
468.707	4843.25
468.927	4935.25
469.146	4883.25
469.365	4976.25
469.585	4996.25
469.804	5172.25
470.023	5339.25
470.243	5345.25
470.462	5399.25
470.681	5492.25
470.901	5337.25
471.12	5238.25
471.339	5209.25
471.558	5160.25
471.777	5105.25
471.997	4957.25
472.216	4883.25
472.435	4873.25
472.654	4912.25
472.873	4789.25
473.092	4828.25
473.311	4875.25
473.53	4889.25
473.749	5047.25
473.968	5592.25
474.187	6505.25
474.406	6085.25
474.625	5232.25
474.844	4893.25
475.063	4835.25
475.282	4881.25
475.501	5012.25
475.72	5034.25
475.939	5019.25
476.158	5030.25
476.377	5141.25
476.596	5066.25
476.814	5191.25
477.033	5268.25
477.252	5404.25
477.471	5458.25
477.69	5560.25
477.908	5676.25
478.127	5828.25
478.346	5923.25
478.564	5923.25
478.783	6075.25
479.002	6209.25
479.22	6170.25
479.439	6290.25
479.658	6386.25
479.876	6532.25
480.095	6652.25
480.313	7111.25
480.532	6934.25
480.751	6710.25
480.969	6595.25
481.188	6413.25
481.406	6280.25
481.624	6060.25
481.843	5914.25
482.061	5876.25
482.28	5811.25
482.498	5748.25
482.717	5773.25
482.935	5722.25
483.153	5622.25
483.372	5691.25
483.59	5652.25
483.808	5719.25
484.027	5743.25
484.245	5771.25
484.463	5775.25
484.681	5884.25
484.9	5975.25
485.118	6024.25
485.336	6012.25
485.554	6113.25
485.772	6054.25
485.99	6095.25
486.209	6189.25
486.427	6201.25
486.645	6221.25
486.863	6305.25
487.081	6241.25
487.299	6147.25
487.517	6239.25
487.735	6192.25
487.953	6088.25
