Data from 15780_1_HRD10591_00045.txt Node
Date: Mon Jan 19 14:18:32 EST 2026
User: Yrep
Spectrometer: HR+D1059
Trigger mode: 1
Integration Time (sec): 1.000000E-1
Scans to average: 1
Electric dark correction enabled: true
Nonlinearity correction enabled: false
Boxcar width: 0
XAxis mode: Wavelengths
Number of Pixels in Spectrum: 2048
>>>>>Begin Spectral Data<<<<<
223.165	-21.94
223.4	-21.94
223.635	-21.94
223.869	-18.94
224.104	-24.94
224.338	-20.94
224.573	-0.94
224.808	-13.94
225.042	-3.94
225.277	6.06
225.511	-9.94
225.746	-7.94
225.98	5.06
226.215	14.06
226.449	23.06
226.683	22.06
226.918	29.06
227.152	24.06
227.387	39.06
227.621	24.06
227.856	48.06
228.09	54.06
228.324	52.06
228.559	54.06
228.793	57.06
229.027	66.06
229.262	49.06
229.496	67.06
229.73	53.06
229.964	54.06
230.199	80.06
230.433	72.06
230.667	71.06
230.901	74.06
231.136	64.06
231.37	72.06
231.604	89.06
231.838	70.06
232.072	87.06
232.306	82.06
232.541	86.06
232.775	82.06
233.009	68.06
233.243	78.06
233.477	86.06
233.711	86.06
233.945	64.06
234.179	68.06
234.413	65.06
234.647	64.06
234.881	79.06
235.115	77.06
235.349	66.06
235.583	72.06
235.817	72.06
236.051	69.06
236.285	68.06
236.519	74.06
236.753	66.06
236.987	81.06
237.221	82.06
237.455	89.06
237.689	70.06
237.922	68.06
238.156	64.06
238.39	75.06
238.624	79.06
238.858	83.06
239.091	72.06
239.325	78.06
239.559	81.06
239.793	72.06
240.027	70.06
240.26	72.06
240.494	85.06
240.728	72.06
240.961	73.06
241.195	75.06
241.429	78.06
241.662	72.06
241.896	71.06
242.13	71.06
242.363	58.06
242.597	71.06
242.83	96.06
243.064	81.06
243.298	62.06
243.531	48.06
243.765	69.06
243.998	67.06
244.232	61.06
244.465	59.06
244.699	69.06
244.932	71.06
245.166	73.06
245.399	73.06
245.633	82.06
245.866	72.06
246.099	64.06
246.333	72.06
246.566	81.06
246.8	69.06
247.033	80.06
247.266	76.06
247.5	77.06
247.733	78.06
247.966	69.06
248.2	78.06
248.433	76.06
248.666	87.06
248.899	85.06
249.133	78.06
249.366	80.06
249.599	70.06
249.832	82.06
250.066	82.06
250.299	84.06
250.532	83.06
250.765	59.06
250.998	84.06
251.231	70.06
251.465	72.06
251.698	81.06
251.931	80.06
252.164	73.06
252.397	92.06
252.63	80.06
252.863	75.06
253.096	63.06
253.329	66.06
253.562	70.06
253.795	81.06
254.028	86.06
254.261	82.06
254.494	78.06
254.727	85.06
254.96	83.06
255.193	69.06
255.426	75.06
255.659	79.06
255.892	75.06
256.124	80.06
256.357	76.06
256.59	78.06
256.823	80.06
257.056	74.06
257.289	70.06
257.521	80.06
257.754	72.06
257.987	86.06
258.22	78.06
258.452	80.06
258.685	69.06
258.918	93.06
259.151	80.06
259.383	74.06
259.616	85.06
259.849	64.06
260.081	69.06
260.314	71.06
260.547	73.06
260.779	71.06
261.012	85.06
261.244	77.06
261.477	89.06
261.71	80.06
261.942	82.06
262.175	96.06
262.407	84.06
262.64	72.06
262.872	82.06
263.105	72.06
263.337	82.06
263.57	76.06
263.802	83.06
264.035	66.06
264.267	91.06
264.499	78.06
264.732	90.06
264.964	74.06
265.197	80.06
265.429	82.06
265.661	74.06
265.894	80.06
266.126	82.06
266.358	75.06
266.591	93.06
266.823	86.06
267.055	75.06
267.287	82.06
267.52	71.06
267.752	74.06
267.984	70.06
268.216	86.06
268.448	87.06
268.681	82.06
268.913	85.06
269.145	89.06
269.377	73.06
269.609	87.06
269.841	80.06
270.073	81.06
270.306	70.06
270.538	80.06
270.77	89.06
271.002	73.06
271.234	82.06
271.466	80.06
271.698	67.06
271.93	71.06
272.162	77.06
272.394	96.06
272.626	78.06
272.858	78.06
273.09	81.06
273.322	66.06
273.553	87.06
273.785	94.06
274.017	94.06
274.249	88.06
274.481	58.06
274.713	79.06
274.945	79.06
275.176	92.06
275.408	72.06
275.64	82.06
275.872	85.06
276.104	74.06
276.335	71.06
276.567	72.06
276.799	65.06
277.031	78.06
277.262	74.06
277.494	103.06
277.726	84.06
277.957	99.06
278.189	73.06
278.421	79.06
278.652	82.06
278.884	61.06
279.115	87.06
279.347	86.06
279.579	96.06
279.81	92.06
280.042	84.06
280.273	87.06
280.505	86.06
280.736	88.06
280.968	79.06
281.199	85.06
281.431	78.06
281.662	80.06
281.894	74.06
282.125	90.06
282.356	84.06
282.588	85.06
282.819	84.06
283.051	67.06
283.282	79.06
283.513	77.06
283.745	84.06
283.976	64.06
284.207	82.06
284.439	82.06
284.67	87.06
284.901	86.06
285.132	78.06
285.364	111.06
285.595	82.06
285.826	79.06
286.057	95.06
286.288	79.06
286.52	72.06
286.751	80.06
286.982	89.06
287.213	70.06
287.444	69.06
287.675	73.06
287.906	80.06
288.138	83.06
288.369	96.06
288.6	80.06
288.831	69.06
289.062	71.06
289.293	74.06
289.524	79.06
289.755	74.06
289.986	81.06
290.217	84.06
290.448	75.06
290.679	81.06
290.91	93.06
291.141	89.06
291.371	88.06
291.602	80.06
291.833	73.06
292.064	84.06
292.295	87.06
292.526	72.06
292.757	90.06
292.987	102.06
293.218	83.06
293.449	80.06
293.68	75.06
293.91	70.06
294.141	92.06
294.372	97.06
294.603	71.06
294.833	80.06
295.064	84.06
295.295	88.06
295.525	93.06
295.756	84.06
295.987	83.06
296.217	80.06
296.448	80.06
296.679	71.06
296.909	98.06
297.14	85.06
297.37	79.06
297.601	85.06
297.831	72.06
298.062	74.06
298.292	76.06
298.523	92.06
298.753	70.06
298.984	71.06
299.214	85.06
299.445	98.06
299.675	83.06
299.905	94.06
300.136	74.06
300.366	80.06
300.597	95.06
300.827	103.06
301.057	100.06
301.288	79.06
301.518	77.06
301.748	87.06
301.979	88.06
302.209	100.06
302.439	90.06
302.669	88.06
302.9	84.06
303.13	75.06
303.36	86.06
303.59	92.06
303.82	82.06
304.051	78.06
304.281	95.06
304.511	92.06
304.741	75.06
304.971	101.06
305.201	82.06
305.431	84.06
305.661	85.06
305.891	86.06
306.121	75.06
306.352	82.06
306.582	84.06
306.812	77.06
307.042	83.06
307.272	74.06
307.502	88.06
307.731	94.06
307.961	87.06
308.191	84.06
308.421	110.06
308.651	92.06
308.881	86.06
309.111	105.06
309.341	97.06
309.571	95.06
309.8	93.06
310.03	80.06
310.26	85.06
310.49	84.06
310.72	87.06
310.949	75.06
311.179	84.06
311.409	75.06
311.639	91.06
311.868	79.06
312.098	80.06
312.328	96.06
312.557	82.06
312.787	73.06
313.017	87.06
313.246	89.06
313.476	77.06
313.706	81.06
313.935	93.06
314.165	90.06
314.394	89.06
314.624	78.06
314.853	78.06
315.083	93.06
315.312	92.06
315.542	88.06
315.771	119.06
316.001	126.06
316.23	121.06
316.46	82.06
316.689	78.06
316.919	96.06
317.148	80.06
317.377	95.06
317.607	101.06
317.836	122.06
318.065	151.06
318.295	120.06
318.524	85.06
318.753	80.06
318.983	82.06
319.212	74.06
319.441	86.06
319.67	87.06
319.9	96.06
320.129	84.06
320.358	78.06
320.587	89.06
320.816	69.06
321.046	68.06
321.275	94.06
321.504	80.06
321.733	96.06
321.962	83.06
322.191	82.06
322.42	88.06
322.649	85.06
322.878	83.06
323.108	94.06
323.337	80.06
323.566	88.06
323.795	89.06
324.024	85.06
324.253	88.06
324.482	86.06
324.71	87.06
324.939	85.06
325.168	86.06
325.397	76.06
325.626	82.06
325.855	75.06
326.084	83.06
326.313	81.06
326.542	78.06
326.77	81.06
326.999	84.06
327.228	68.06
327.457	81.06
327.686	84.06
327.914	97.06
328.143	68.06
328.372	82.06
328.6	104.06
328.829	84.06
329.058	80.06
329.287	86.06
329.515	74.06
329.744	89.06
329.972	91.06
330.201	89.06
330.43	81.06
330.658	87.06
330.887	81.06
331.115	89.06
331.344	80.06
331.572	70.06
331.801	78.06
332.03	76.06
332.258	105.06
332.486	96.06
332.715	97.06
332.943	69.06
333.172	76.06
333.4	89.06
333.629	73.06
333.857	85.06
334.085	90.06
334.314	99.06
334.542	88.06
334.771	103.06
334.999	98.06
335.227	88.06
335.455	93.06
335.684	75.06
335.912	87.06
336.14	92.06
336.369	96.06
336.597	75.06
336.825	100.06
337.053	95.06
337.281	87.06
337.51	90.06
337.738	67.06
337.966	94.06
338.194	80.06
338.422	89.06
338.65	85.06
338.878	81.06
339.106	87.06
339.334	84.06
339.562	88.06
339.79	80.06
340.018	66.06
340.246	82.06
340.474	98.06
340.702	81.06
340.93	99.06
341.158	76.06
341.386	82.06
341.614	97.06
341.842	79.06
342.07	80.06
342.298	93.06
342.526	84.06
342.754	76.06
342.981	70.06
343.209	74.06
343.437	98.06
343.665	84.06
343.893	78.06
344.12	82.06
344.348	80.06
344.576	87.06
344.804	98.06
345.031	86.06
345.259	95.06
345.487	90.06
345.714	97.06
345.942	77.06
346.17	98.06
346.397	102.06
346.625	72.06
346.853	90.06
347.08	89.06
347.308	77.06
347.535	82.06
347.763	71.06
347.99	94.06
348.218	79.06
348.445	90.06
348.673	89.06
348.9	90.06
349.128	84.06
349.355	90.06
349.583	97.06
349.81	88.06
350.037	70.06
350.265	75.06
350.492	88.06
350.72	72.06
350.947	84.06
351.174	88.06
351.402	98.06
351.629	84.06
351.856	78.06
352.083	80.06
352.311	68.06
352.538	83.06
352.765	97.06
352.992	86.06
353.22	84.06
353.447	82.06
353.674	95.06
353.901	80.06
354.128	86.06
354.355	75.06
354.583	88.06
354.81	78.06
355.037	92.06
355.264	93.06
355.491	93.06
355.718	85.06
355.945	76.06
356.172	82.06
356.399	81.06
356.626	75.06
356.853	95.06
357.08	97.06
357.307	82.06
357.534	70.06
357.761	103.06
357.988	97.06
358.215	106.06
358.441	90.06
358.668	95.06
358.895	94.06
359.122	88.06
359.349	93.06
359.576	85.06
359.802	104.06
360.029	84.06
360.256	72.06
360.483	93.06
360.709	97.06
360.936	101.06
361.163	93.06
361.39	86.06
361.616	98.06
361.843	90.06
362.07	94.06
362.296	90.06
362.523	97.06
362.749	98.06
362.976	119.06
363.203	130.06
363.429	114.06
363.656	97.06
363.882	113.06
364.109	108.06
364.335	124.06
364.562	146.06
364.788	110.06
365.015	101.06
365.241	102.06
365.468	97.06
365.694	80.06
365.92	94.06
366.147	72.06
366.373	72.06
366.599	80.06
366.826	91.06
367.052	75.06
367.278	85.06
367.505	83.06
367.731	87.06
367.957	93.06
368.184	87.06
368.41	92.06
368.636	80.06
368.862	86.06
369.089	86.06
369.315	83.06
369.541	87.06
369.767	81.06
369.993	83.06
370.219	90.06
370.445	96.06
370.672	116.06
370.898	96.06
371.124	91.06
371.35	75.06
371.576	91.06
371.802	92.06
372.028	90.06
372.254	105.06
372.48	104.06
372.706	103.06
372.932	102.06
373.158	119.06
373.384	124.06
373.61	154.06
373.835	161.06
374.061	113.06
374.287	93.06
374.513	104.06
374.739	116.06
374.965	118.06
375.191	94.06
375.416	88.06
375.642	92.06
375.868	85.06
376.094	110.06
376.319	96.06
376.545	97.06
376.771	100.06
376.997	90.06
377.222	77.06
377.448	89.06
377.674	86.06
377.899	74.06
378.125	83.06
378.35	88.06
378.576	96.06
378.802	90.06
379.027	92.06
379.253	86.06
379.478	79.06
379.704	88.06
379.929	86.06
380.155	89.06
380.38	88.06
380.606	89.06
380.831	89.06
381.057	95.06
381.282	86.06
381.507	94.06
381.733	105.06
381.958	115.06
382.184	102.06
382.409	116.06
382.634	118.06
382.86	112.06
383.085	108.06
383.31	103.06
383.535	103.06
383.761	113.06
383.986	108.06
384.211	113.06
384.436	106.06
384.662	95.06
384.887	104.06
385.112	109.06
385.337	94.06
385.562	104.06
385.787	110.06
386.013	132.06
386.238	130.06
386.463	97.06
386.688	114.06
386.913	116.06
387.138	104.06
387.363	120.06
387.588	104.06
387.813	118.06
388.038	110.06
388.263	110.06
388.488	110.06
388.713	92.06
388.938	101.06
389.163	103.06
389.387	103.06
389.612	82.06
389.837	101.06
390.062	95.06
390.287	80.06
390.512	103.06
390.736	92.06
390.961	93.06
391.186	79.06
391.411	89.06
391.636	81.06
391.86	100.06
392.085	110.06
392.31	121.06
392.534	133.06
392.759	169.06
392.984	326.06
393.208	672.06
393.433	1044.06
393.658	757.06
393.882	263.06
394.107	148.06
394.331	170.06
394.556	182.06
394.78	115.06
395.005	106.06
395.229	114.06
395.454	115.06
395.678	121.06
395.903	158.06
396.127	215.06
396.352	255.06
396.576	370.06
396.801	670.06
397.025	751.06
397.249	330.06
397.474	164.06
397.698	114.06
397.922	121.06
398.147	101.06
398.371	81.06
398.595	92.06
398.82	90.06
399.044	99.06
399.268	79.06
399.492	89.06
399.717	97.06
399.941	88.06
400.165	94.06
400.389	81.06
400.613	85.06
400.837	90.06
401.062	97.06
401.286	84.06
401.51	80.06
401.734	65.06
401.958	82.06
402.182	78.06
402.406	90.06
402.63	93.06
402.854	78.06
403.078	75.06
403.302	91.06
403.526	77.06
403.75	69.06
403.974	88.06
404.198	94.06
404.422	132.06
404.645	146.06
404.869	120.06
405.093	96.06
405.317	96.06
405.541	88.06
405.765	76.06
405.988	80.06
406.212	87.06
406.436	77.06
406.66	91.06
406.883	102.06
407.107	87.06
407.331	80.06
407.555	125.06
407.778	157.06
408.002	175.06
408.226	114.06
408.449	92.06
408.673	89.06
408.896	80.06
409.12	96.06
409.344	93.06
409.567	93.06
409.791	97.06
410.014	110.06
410.238	100.06
410.461	90.06
410.685	76.06
410.908	73.06
411.132	90.06
411.355	80.06
411.578	79.06
411.802	88.06
412.025	82.06
412.249	82.06
412.472	83.06
412.695	87.06
412.919	85.06
413.142	82.06
413.365	88.06
413.589	95.06
413.812	72.06
414.035	89.06
414.258	94.06
414.482	70.06
414.705	78.06
414.928	89.06
415.151	100.06
415.374	97.06
415.597	81.06
415.821	65.06
416.044	82.06
416.267	91.06
416.49	83.06
416.713	81.06
416.936	101.06
417.159	95.06
417.382	78.06
417.605	94.06
417.828	77.06
418.051	84.06
418.274	87.06
418.497	88.06
418.72	92.06
418.943	94.06
419.166	75.06
419.389	79.06
419.611	82.06
419.834	96.06
420.057	87.06
420.28	88.06
420.503	84.06
420.726	96.06
420.948	83.06
421.171	101.06
421.394	132.06
421.617	155.06
421.839	137.06
422.062	136.06
422.285	197.06
422.507	392.06
422.73	674.06
422.953	608.06
423.175	228.06
423.398	130.06
423.621	106.06
423.843	91.06
424.066	96.06
424.288	79.06
424.511	88.06
424.733	98.06
424.956	88.06
425.178	84.06
425.401	85.06
425.623	79.06
425.846	95.06
426.068	99.06
426.291	67.06
426.513	72.06
426.735	90.06
426.958	84.06
427.18	92.06
427.402	94.06
427.625	78.06
427.847	86.06
428.069	116.06
428.292	157.06
428.514	184.06
428.736	142.06
428.958	172.06
429.181	186.06
429.403	105.06
429.625	105.06
429.847	155.06
430.069	228.06
430.292	272.06
430.514	272.06
430.736	192.06
430.958	197.06
431.18	117.06
431.402	91.06
431.624	122.06
431.846	143.06
432.068	178.06
432.29	101.06
432.512	78.06
432.734	85.06
432.956	90.06
433.178	95.06
433.4	84.06
433.622	89.06
433.844	84.06
434.066	90.06
434.287	82.06
434.509	81.06
434.731	97.06
434.953	89.06
435.175	81.06
435.397	97.06
435.618	86.06
435.84	97.06
436.062	102.06
436.284	86.06
436.505	85.06
436.727	81.06
436.949	92.06
437.17	81.06
437.392	79.06
437.614	93.06
437.835	94.06
438.057	82.06
438.278	78.06
438.5	97.06
438.721	93.06
438.943	78.06
439.165	81.06
439.386	92.06
439.608	90.06
439.829	75.06
440.05	84.06
440.272	86.06
440.493	89.06
440.715	89.06
440.936	98.06
441.158	91.06
441.379	82.06
441.6	95.06
441.822	104.06
442.043	78.06
442.264	105.06
442.486	175.06
442.707	220.06
442.928	157.06
443.149	116.06
443.371	183.06
443.592	344.06
443.813	300.06
444.034	106.06
444.255	78.06
444.476	79.06
444.698	79.06
444.919	89.06
445.14	212.06
445.361	272.06
445.582	451.06
445.803	378.06
446.024	139.06
446.245	112.06
446.466	94.06
446.687	99.06
446.908	88.06
447.129	83.06
447.35	90.06
447.571	93.06
447.792	70.06
448.013	67.06
448.234	75.06
448.455	87.06
448.675	79.06
448.896	82.06
449.117	88.06
449.338	78.06
449.559	100.06
449.779	96.06
450	84.06
450.221	91.06
450.442	84.06
450.662	77.06
450.883	89.06
451.104	95.06
451.324	92.06
451.545	84.06
451.766	82.06
451.986	91.06
452.207	84.06
452.428	100.06
452.648	87.06
452.869	90.06
453.089	100.06
453.31	93.06
453.53	92.06
453.751	89.06
453.971	75.06
454.192	74.06
454.412	86.06
454.633	92.06
454.853	87.06
455.073	91.06
455.294	90.06
455.514	99.06
455.734	101.06
455.955	77.06
456.175	79.06
456.395	84.06
456.616	81.06
456.836	91.06
457.056	78.06
457.276	72.06
457.497	74.06
457.717	88.06
457.937	110.06
458.157	142.06
458.377	129.06
458.598	119.06
458.818	139.06
459.038	101.06
459.258	75.06
459.478	88.06
459.698	90.06
459.918	95.06
460.138	74.06
460.358	76.06
460.578	114.06
460.798	133.06
461.018	114.06
461.238	88.06
461.458	89.06
461.678	91.06
461.898	70.06
462.118	78.06
462.338	72.06
462.558	88.06
462.777	73.06
462.997	100.06
463.217	79.06
463.437	78.06
463.657	65.06
463.876	70.06
464.096	75.06
464.316	74.06
464.536	80.06
464.755	93.06
464.975	92.06
465.195	81.06
465.414	74.06
465.634	88.06
465.854	87.06
466.073	76.06
466.293	74.06
466.512	74.06
466.732	77.06
466.951	81.06
467.171	79.06
467.391	70.06
467.61	80.06
467.829	78.06
468.049	75.06
468.268	88.06
468.488	87.06
468.707	89.06
468.927	73.06
469.146	73.06
469.365	86.06
469.585	81.06
469.804	64.06
470.023	96.06
470.243	84.06
470.462	84.06
470.681	80.06
470.901	96.06
471.12	71.06
471.339	88.06
471.558	85.06
471.777	74.06
471.997	73.06
472.216	83.06
472.435	90.06
472.654	90.06
472.873	83.06
473.092	98.06
473.311	92.06
473.53	84.06
473.749	96.06
473.968	82.06
474.187	81.06
474.406	70.06
474.625	77.06
474.844	85.06
475.063	87.06
475.282	75.06
475.501	82.06
475.72	113.06
475.939	85.06
476.158	82.06
476.377	94.06
476.596	88.06
476.814	80.06
477.033	80.06
477.252	92.06
477.471	82.06
477.69	81.06
477.908	79.06
478.127	80.06
478.346	98.06
478.564	94.06
478.783	81.06
479.002	73.06
479.22	80.06
479.439	76.06
479.658	86.06
479.876	86.06
480.095	83.06
480.313	92.06
480.532	83.06
480.751	80.06
480.969	84.06
481.188	80.06
481.406	84.06
481.624	86.06
481.843	89.06
482.061	84.06
482.28	92.06
482.498	95.06
482.717	86.06
482.935	82.06
483.153	87.06
483.372	97.06
483.59	99.06
483.808	72.06
484.027	92.06
484.245	92.06
484.463	95.06
484.681	85.06
484.9	83.06
485.118	84.06
485.336	85.06
485.554	84.06
485.772	80.06
485.99	82.06
486.209	82.06
486.427	77.06
486.645	81.06
486.863	77.06
487.081	93.06
487.299	95.06
487.517	98.06
487.735	109.06
487.953	177.06
488.171	160.06
488.389	102.06
488.607	90.06
488.825	86.06
489.043	86.06
489.261	79.06
489.479	77.06
489.696	81.06
489.914	87.06
490.132	98.06
490.35	92.06
490.568	74.06
490.786	78.06
491.003	91.06
491.221	85.06
491.439	96.06
491.657	80.06
491.874	79.06
492.092	90.06
492.31	88.06
492.527	83.06
492.745	80.06
492.963	90.06
493.18	83.06
493.398	104.06
493.615	92.06
493.833	79.06
494.05	85.06
494.268	84.06
494.485	80.06
494.703	88.06
494.92	98.06
495.138	97.06
495.355	86.06
495.573	96.06
495.79	94.06
496.008	109.06
496.225	81.06
496.442	87.06
496.66	91.06
496.877	79.06
497.094	92.06
497.312	75.06
497.529	79.06
497.746	89.06
497.963	89.06
498.181	103.06
498.398	105.06
498.615	94.06
498.832	89.06
499.049	102.06
499.267	104.06
499.484	83.06
499.701	74.06
499.918	85.06
500.135	110.06
500.352	83.06
500.569	88.06
500.786	94.06
501.003	89.06
501.22	89.06
501.437	84.06
501.654	105.06
501.871	95.06
502.088	94.06
502.305	92.06
502.522	90.06
502.739	88.06
502.956	94.06
503.172	80.06
503.389	80.06
503.606	87.06
503.823	90.06
504.04	117.06
504.256	130.06
504.473	133.06
504.69	94.06
504.907	97.06
505.123	103.06
505.34	88.06
505.557	80.06
505.773	70.06
505.99	90.06
506.207	88.06
506.423	80.06
506.64	79.06
506.856	78.06
507.073	82.06
507.289	75.06
507.506	88.06
507.722	102.06
507.939	92.06
508.155	83.06
508.372	81.06
508.588	82.06
508.805	84.06
509.021	85.06
509.238	81.06
509.454	74.06
509.67	85.06
509.887	80.06
510.103	92.06
510.319	84.06
510.536	93.06
510.752	83.06
510.968	86.06
511.184	92.06
511.401	85.06
511.617	106.06
511.833	90.06
512.049	94.06
512.265	90.06
512.481	87.06
512.698	92.06
512.914	70.06
513.13	88.06
513.346	72.06
513.562	88.06
513.778	94.06
513.994	97.06
514.21	88.06
514.426	88.06
514.642	85.06
514.858	90.06
515.074	95.06
515.29	108.06
515.506	80.06
515.721	82.06
515.937	83.06
516.153	72.06
516.369	82.06
516.585	90.06
516.801	86.06
517.016	88.06
517.232	82.06
