Data from 15780_1_HRD10591_00021.txt Node
Date: Mon Jan 19 14:18:20 EST 2026
User: Yrep
Spectrometer: HR+D1059
Trigger mode: 1
Integration Time (sec): 1.000000E-1
Scans to average: 1
Electric dark correction enabled: true
Nonlinearity correction enabled: false
Boxcar width: 0
XAxis mode: Wavelengths
Number of Pixels in Spectrum: 2048
>>>>>Begin Spectral Data<<<<<
223.165	-17.19
223.4	-17.19
223.635	-17.19
223.869	-31.19
224.104	-12.19
224.338	-16.19
224.573	-23.19
224.808	-11.19
225.042	0.81
225.277	-17.19
225.511	8.81
225.746	3.81
225.98	-7.19
226.215	12.81
226.449	29.81
226.683	23.81
226.918	21.81
227.152	33.81
227.387	21.81
227.621	37.81
227.856	42.81
228.09	45.81
228.324	49.81
228.559	50.81
228.793	74.81
229.027	62.81
229.262	50.81
229.496	62.81
229.73	69.81
229.964	79.81
230.199	71.81
230.433	62.81
230.667	66.81
230.901	81.81
231.136	75.81
231.37	70.81
231.604	74.81
231.838	80.81
232.072	81.81
232.306	82.81
232.541	77.81
232.775	85.81
233.009	88.81
233.243	67.81
233.477	84.81
233.711	64.81
233.945	87.81
234.179	65.81
234.413	80.81
234.647	82.81
234.881	88.81
235.115	78.81
235.349	73.81
235.583	74.81
235.817	80.81
236.051	70.81
236.285	80.81
236.519	71.81
236.753	80.81
236.987	65.81
237.221	80.81
237.455	68.81
237.689	71.81
237.922	73.81
238.156	78.81
238.39	66.81
238.624	64.81
238.858	87.81
239.091	66.81
239.325	70.81
239.559	72.81
239.793	81.81
240.027	75.81
240.26	69.81
240.494	72.81
240.728	78.81
240.961	88.81
241.195	73.81
241.429	67.81
241.662	61.81
241.896	72.81
242.13	68.81
242.363	86.81
242.597	74.81
242.83	58.81
243.064	63.81
243.298	73.81
243.531	73.81
243.765	62.81
243.998	76.81
244.232	70.81
244.465	83.81
244.699	82.81
244.932	86.81
245.166	73.81
245.399	64.81
245.633	76.81
245.866	72.81
246.099	69.81
246.333	83.81
246.566	81.81
246.8	81.81
247.033	66.81
247.266	64.81
247.5	73.81
247.733	87.81
247.966	84.81
248.2	72.81
248.433	66.81
248.666	81.81
248.899	70.81
249.133	76.81
249.366	98.81
249.599	76.81
249.832	79.81
250.066	75.81
250.299	65.81
250.532	72.81
250.765	83.81
250.998	83.81
251.231	80.81
251.465	71.81
251.698	78.81
251.931	86.81
252.164	78.81
252.397	81.81
252.63	76.81
252.863	74.81
253.096	74.81
253.329	77.81
253.562	73.81
253.795	60.81
254.028	72.81
254.261	75.81
254.494	64.81
254.727	86.81
254.96	66.81
255.193	75.81
255.426	71.81
255.659	65.81
255.892	72.81
256.124	68.81
256.357	92.81
256.59	85.81
256.823	70.81
257.056	84.81
257.289	71.81
257.521	70.81
257.754	83.81
257.987	64.81
258.22	85.81
258.452	74.81
258.685	71.81
258.918	92.81
259.151	75.81
259.383	73.81
259.616	73.81
259.849	79.81
260.081	81.81
260.314	73.81
260.547	82.81
260.779	78.81
261.012	78.81
261.244	70.81
261.477	85.81
261.71	85.81
261.942	85.81
262.175	73.81
262.407	75.81
262.64	83.81
262.872	71.81
263.105	81.81
263.337	78.81
263.57	82.81
263.802	81.81
264.035	73.81
264.267	87.81
264.499	62.81
264.732	82.81
264.964	86.81
265.197	88.81
265.429	75.81
265.661	71.81
265.894	87.81
266.126	87.81
266.358	82.81
266.591	78.81
266.823	73.81
267.055	71.81
267.287	73.81
267.52	80.81
267.752	95.81
267.984	86.81
268.216	90.81
268.448	84.81
268.681	85.81
268.913	74.81
269.145	74.81
269.377	78.81
269.609	77.81
269.841	82.81
270.073	94.81
270.306	83.81
270.538	85.81
270.77	66.81
271.002	85.81
271.234	74.81
271.466	86.81
271.698	90.81
271.93	77.81
272.162	72.81
272.394	87.81
272.626	80.81
272.858	84.81
273.09	80.81
273.322	82.81
273.553	79.81
273.785	80.81
274.017	74.81
274.249	84.81
274.481	73.81
274.713	76.81
274.945	76.81
275.176	81.81
275.408	81.81
275.64	85.81
275.872	82.81
276.104	84.81
276.335	89.81
276.567	91.81
276.799	87.81
277.031	86.81
277.262	70.81
277.494	70.81
277.726	80.81
277.957	76.81
278.189	84.81
278.421	90.81
278.652	89.81
278.884	83.81
279.115	85.81
279.347	80.81
279.579	77.81
279.81	83.81
280.042	86.81
280.273	81.81
280.505	80.81
280.736	72.81
280.968	82.81
281.199	80.81
281.431	79.81
281.662	80.81
281.894	88.81
282.125	73.81
282.356	87.81
282.588	65.81
282.819	82.81
283.051	76.81
283.282	92.81
283.513	92.81
283.745	70.81
283.976	80.81
284.207	79.81
284.439	84.81
284.67	91.81
284.901	63.81
285.132	78.81
285.364	84.81
285.595	88.81
285.826	68.81
286.057	84.81
286.288	82.81
286.52	84.81
286.751	88.81
286.982	81.81
287.213	93.81
287.444	72.81
287.675	70.81
287.906	78.81
288.138	73.81
288.369	68.81
288.6	74.81
288.831	80.81
289.062	74.81
289.293	89.81
289.524	74.81
289.755	94.81
289.986	84.81
290.217	86.81
290.448	88.81
290.679	89.81
290.91	82.81
291.141	71.81
291.371	80.81
291.602	83.81
291.833	80.81
292.064	86.81
292.295	88.81
292.526	81.81
292.757	86.81
292.987	84.81
293.218	86.81
293.449	90.81
293.68	78.81
293.91	66.81
294.141	81.81
294.372	82.81
294.603	89.81
294.833	82.81
295.064	66.81
295.295	70.81
295.525	71.81
295.756	77.81
295.987	88.81
296.217	79.81
296.448	84.81
296.679	81.81
296.909	85.81
297.14	88.81
297.37	71.81
297.601	89.81
297.831	78.81
298.062	74.81
298.292	83.81
298.523	83.81
298.753	75.81
298.984	81.81
299.214	83.81
299.445	81.81
299.675	78.81
299.905	78.81
300.136	85.81
300.366	77.81
300.597	72.81
300.827	70.81
301.057	72.81
301.288	73.81
301.518	94.81
301.748	92.81
301.979	101.81
302.209	90.81
302.439	92.81
302.669	93.81
302.9	79.81
303.13	83.81
303.36	84.81
303.59	78.81
303.82	80.81
304.051	86.81
304.281	81.81
304.511	85.81
304.741	83.81
304.971	73.81
305.201	88.81
305.431	89.81
305.661	79.81
305.891	81.81
306.121	80.81
306.352	98.81
306.582	84.81
306.812	72.81
307.042	101.81
307.272	77.81
307.502	71.81
307.731	74.81
307.961	80.81
308.191	84.81
308.421	73.81
308.651	81.81
308.881	96.81
309.111	88.81
309.341	84.81
309.571	73.81
309.8	70.81
310.03	79.81
310.26	72.81
310.49	58.81
310.72	75.81
310.949	74.81
311.179	70.81
311.409	72.81
311.639	74.81
311.868	81.81
312.098	89.81
312.328	94.81
312.557	89.81
312.787	82.81
313.017	75.81
313.246	88.81
313.476	86.81
313.706	82.81
313.935	80.81
314.165	91.81
314.394	90.81
314.624	82.81
314.853	80.81
315.083	65.81
315.312	98.81
315.542	90.81
315.771	81.81
316.001	81.81
316.23	100.81
316.46	73.81
316.689	80.81
316.919	66.81
317.148	78.81
317.377	87.81
317.607	94.81
317.836	68.81
318.065	77.81
318.295	90.81
318.524	76.81
318.753	74.81
318.983	86.81
319.212	79.81
319.441	94.81
319.67	86.81
319.9	67.81
320.129	86.81
320.358	82.81
320.587	84.81
320.816	72.81
321.046	80.81
321.275	81.81
321.504	95.81
321.733	69.81
321.962	71.81
322.191	83.81
322.42	87.81
322.649	84.81
322.878	101.81
323.108	82.81
323.337	72.81
323.566	84.81
323.795	91.81
324.024	88.81
324.253	88.81
324.482	82.81
324.71	73.81
324.939	89.81
325.168	83.81
325.397	78.81
325.626	78.81
325.855	84.81
326.084	85.81
326.313	75.81
326.542	66.81
326.77	86.81
326.999	82.81
327.228	98.81
327.457	94.81
327.686	72.81
327.914	75.81
328.143	78.81
328.372	84.81
328.6	77.81
328.829	72.81
329.058	78.81
329.287	89.81
329.515	71.81
329.744	90.81
329.972	73.81
330.201	74.81
330.43	81.81
330.658	84.81
330.887	76.81
331.115	74.81
331.344	84.81
331.572	70.81
331.801	71.81
332.03	81.81
332.258	86.81
332.486	73.81
332.715	87.81
332.943	82.81
333.172	80.81
333.4	83.81
333.629	73.81
333.857	80.81
334.085	94.81
334.314	73.81
334.542	71.81
334.771	71.81
334.999	69.81
335.227	91.81
335.455	80.81
335.684	88.81
335.912	86.81
336.14	83.81
336.369	87.81
336.597	83.81
336.825	86.81
337.053	64.81
337.281	91.81
337.51	73.81
337.738	73.81
337.966	74.81
338.194	86.81
338.422	92.81
338.65	77.81
338.878	78.81
339.106	87.81
339.334	84.81
339.562	82.81
339.79	80.81
340.018	83.81
340.246	71.81
340.474	83.81
340.702	80.81
340.93	97.81
341.158	78.81
341.386	71.81
341.614	78.81
341.842	66.81
342.07	76.81
342.298	63.81
342.526	88.81
342.754	73.81
342.981	84.81
343.209	89.81
343.437	87.81
343.665	81.81
343.893	77.81
344.12	93.81
344.348	73.81
344.576	76.81
344.804	80.81
345.031	70.81
345.259	82.81
345.487	72.81
345.714	64.81
345.942	93.81
346.17	72.81
346.397	85.81
346.625	78.81
346.853	73.81
347.08	59.81
347.308	85.81
347.535	86.81
347.763	83.81
347.99	81.81
348.218	75.81
348.445	74.81
348.673	87.81
348.9	79.81
349.128	72.81
349.355	80.81
349.583	97.81
349.81	72.81
350.037	71.81
350.265	81.81
350.492	80.81
350.72	83.81
350.947	80.81
351.174	76.81
351.402	82.81
351.629	66.81
351.856	79.81
352.083	75.81
352.311	85.81
352.538	69.81
352.765	70.81
352.992	75.81
353.22	74.81
353.447	73.81
353.674	81.81
353.901	73.81
354.128	78.81
354.355	81.81
354.583	81.81
354.81	78.81
355.037	82.81
355.264	96.81
355.491	89.81
355.718	77.81
355.945	69.81
356.172	87.81
356.399	78.81
356.626	72.81
356.853	62.81
357.08	87.81
357.307	74.81
357.534	63.81
357.761	82.81
357.988	74.81
358.215	84.81
358.441	94.81
358.668	87.81
358.895	86.81
359.122	73.81
359.349	72.81
359.576	75.81
359.802	65.81
360.029	80.81
360.256	71.81
360.483	66.81
360.709	81.81
360.936	90.81
361.163	70.81
361.39	67.81
361.616	88.81
361.843	85.81
362.07	80.81
362.296	96.81
362.523	80.81
362.749	69.81
362.976	78.81
363.203	83.81
363.429	77.81
363.656	83.81
363.882	85.81
364.109	86.81
364.335	109.81
364.562	88.81
364.788	83.81
365.015	80.81
365.241	79.81
365.468	84.81
365.694	77.81
365.92	92.81
366.147	75.81
366.373	92.81
366.599	81.81
366.826	82.81
367.052	83.81
367.278	84.81
367.505	84.81
367.731	83.81
367.957	71.81
368.184	81.81
368.41	87.81
368.636	76.81
368.862	65.81
369.089	78.81
369.315	84.81
369.541	75.81
369.767	81.81
369.993	84.81
370.219	81.81
370.445	89.81
370.672	77.81
370.898	78.81
371.124	70.81
371.35	71.81
371.576	76.81
371.802	87.81
372.028	70.81
372.254	88.81
372.48	86.81
372.706	77.81
372.932	76.81
373.158	78.81
373.384	85.81
373.61	80.81
373.835	80.81
374.061	82.81
374.287	73.81
374.513	75.81
374.739	80.81
374.965	86.81
375.191	89.81
375.416	83.81
375.642	79.81
375.868	76.81
376.094	85.81
376.319	88.81
376.545	83.81
376.771	80.81
376.997	74.81
377.222	78.81
377.448	72.81
377.674	85.81
377.899	89.81
378.125	77.81
378.35	80.81
378.576	69.81
378.802	69.81
379.027	73.81
379.253	65.81
379.478	86.81
379.704	75.81
379.929	75.81
380.155	73.81
380.38	78.81
380.606	87.81
380.831	92.81
381.057	84.81
381.282	77.81
381.507	85.81
381.733	73.81
381.958	87.81
382.184	75.81
382.409	76.81
382.634	87.81
382.86	75.81
383.085	78.81
383.31	72.81
383.535	79.81
383.761	69.81
383.986	79.81
384.211	77.81
384.436	70.81
384.662	77.81
384.887	72.81
385.112	74.81
385.337	76.81
385.562	84.81
385.787	84.81
386.013	79.81
386.238	69.81
386.463	70.81
386.688	98.81
386.913	73.81
387.138	89.81
387.363	86.81
387.588	80.81
387.813	82.81
388.038	80.81
388.263	79.81
388.488	74.81
388.713	82.81
388.938	85.81
389.163	81.81
389.387	90.81
389.612	68.81
389.837	89.81
390.062	92.81
390.287	82.81
390.512	87.81
390.736	65.81
390.961	87.81
391.186	64.81
391.411	62.81
391.636	85.81
391.86	67.81
392.085	86.81
392.31	70.81
392.534	84.81
392.759	87.81
392.984	82.81
393.208	102.81
393.433	102.81
393.658	95.81
393.882	75.81
394.107	92.81
394.331	87.81
394.556	84.81
394.78	82.81
395.005	70.81
395.229	88.81
395.454	73.81
395.678	89.81
395.903	89.81
396.127	88.81
396.352	98.81
396.576	88.81
396.801	83.81
397.025	113.81
397.249	88.81
397.474	84.81
397.698	72.81
397.922	68.81
398.147	82.81
398.371	86.81
398.595	90.81
398.82	69.81
399.044	69.81
399.268	82.81
399.492	76.81
399.717	72.81
399.941	91.81
400.165	79.81
400.389	65.81
400.613	56.81
400.837	80.81
401.062	73.81
401.286	73.81
401.51	82.81
401.734	83.81
401.958	74.81
402.182	76.81
402.406	80.81
402.63	84.81
402.854	64.81
403.078	80.81
403.302	59.81
403.526	92.81
403.75	84.81
403.974	75.81
404.198	73.81
404.422	78.81
404.645	74.81
404.869	65.81
405.093	76.81
405.317	83.81
405.541	102.81
405.765	74.81
405.988	77.81
406.212	81.81
406.436	96.81
406.66	76.81
406.883	86.81
407.107	81.81
407.331	82.81
407.555	94.81
407.778	86.81
408.002	83.81
408.226	75.81
408.449	69.81
408.673	70.81
408.896	80.81
409.12	80.81
409.344	73.81
409.567	88.81
409.791	77.81
410.014	80.81
410.238	69.81
410.461	79.81
410.685	83.81
410.908	73.81
411.132	81.81
411.355	66.81
411.578	82.81
411.802	63.81
412.025	80.81
412.249	71.81
412.472	83.81
412.695	76.81
412.919	66.81
413.142	87.81
413.365	70.81
413.589	69.81
413.812	78.81
414.035	84.81
414.258	85.81
414.482	76.81
414.705	77.81
414.928	81.81
415.151	79.81
415.374	83.81
415.597	82.81
415.821	92.81
416.044	74.81
416.267	83.81
416.49	69.81
416.713	83.81
416.936	76.81
417.159	91.81
417.382	79.81
417.605	75.81
417.828	74.81
418.051	81.81
418.274	79.81
418.497	83.81
418.72	77.81
418.943	82.81
419.166	88.81
419.389	81.81
419.611	80.81
419.834	71.81
420.057	73.81
420.28	72.81
420.503	91.81
420.726	72.81
420.948	70.81
421.171	77.81
421.394	84.81
421.617	74.81
421.839	73.81
422.062	64.81
422.285	94.81
422.507	107.81
422.73	138.81
422.953	134.81
423.175	95.81
423.398	83.81
423.621	67.81
423.843	82.81
424.066	78.81
424.288	87.81
424.511	82.81
424.733	72.81
424.956	86.81
425.178	75.81
425.401	69.81
425.623	72.81
425.846	81.81
426.068	67.81
426.291	80.81
426.513	83.81
426.735	80.81
426.958	79.81
427.18	100.81
427.402	84.81
427.625	83.81
427.847	82.81
428.069	66.81
428.292	81.81
428.514	90.81
428.736	87.81
428.958	78.81
429.181	84.81
429.403	87.81
429.625	81.81
429.847	76.81
430.069	95.81
430.292	94.81
430.514	91.81
430.736	82.81
430.958	92.81
431.18	88.81
431.402	67.81
431.624	72.81
431.846	74.81
432.068	81.81
432.29	81.81
432.512	71.81
432.734	62.81
432.956	86.81
433.178	86.81
433.4	87.81
433.622	80.81
433.844	107.81
434.066	71.81
434.287	75.81
434.509	65.81
434.731	81.81
434.953	83.81
435.175	81.81
435.397	70.81
435.618	70.81
435.84	89.81
436.062	76.81
436.284	85.81
436.505	79.81
436.727	73.81
436.949	65.81
437.17	74.81
437.392	72.81
437.614	88.81
437.835	74.81
438.057	74.81
438.278	84.81
438.5	62.81
438.721	76.81
438.943	82.81
439.165	72.81
439.386	82.81
439.608	87.81
439.829	95.81
440.05	80.81
440.272	80.81
440.493	68.81
440.715	76.81
440.936	72.81
441.158	77.81
441.379	84.81
441.6	80.81
441.822	69.81
442.043	87.81
442.264	70.81
442.486	85.81
442.707	88.81
442.928	87.81
443.149	83.81
443.371	68.81
443.592	96.81
443.813	101.81
444.034	80.81
444.255	92.81
444.476	65.81
444.698	72.81
444.919	76.81
445.14	144.81
445.361	110.81
445.582	100.81
445.803	86.81
446.024	79.81
446.245	92.81
446.466	93.81
446.687	72.81
446.908	86.81
447.129	74.81
447.35	80.81
447.571	80.81
447.792	79.81
448.013	70.81
448.234	76.81
448.455	67.81
448.675	77.81
448.896	69.81
449.117	89.81
449.338	84.81
449.559	85.81
449.779	72.81
450	73.81
450.221	87.81
450.442	79.81
450.662	73.81
450.883	80.81
451.104	82.81
451.324	100.81
451.545	72.81
451.766	84.81
451.986	74.81
452.207	75.81
452.428	74.81
452.648	80.81
452.869	65.81
453.089	78.81
453.31	80.81
453.53	83.81
453.751	96.81
453.971	80.81
454.192	86.81
454.412	68.81
454.633	73.81
454.853	77.81
455.073	80.81
455.294	93.81
455.514	81.81
455.734	77.81
455.955	79.81
456.175	79.81
456.395	74.81
456.616	86.81
456.836	81.81
457.056	73.81
457.276	73.81
457.497	80.81
457.717	74.81
457.937	81.81
458.157	73.81
458.377	80.81
458.598	71.81
458.818	75.81
459.038	88.81
459.258	98.81
459.478	70.81
459.698	71.81
459.918	85.81
460.138	70.81
460.358	87.81
460.578	78.81
460.798	87.81
461.018	87.81
461.238	76.81
461.458	75.81
461.678	81.81
461.898	75.81
462.118	71.81
462.338	83.81
462.558	88.81
462.777	81.81
462.997	76.81
463.217	86.81
463.437	77.81
463.657	85.81
463.876	79.81
464.096	74.81
464.316	83.81
464.536	78.81
464.755	78.81
464.975	77.81
465.195	79.81
465.414	71.81
465.634	71.81
465.854	75.81
466.073	77.81
466.293	85.81
466.512	82.81
466.732	82.81
466.951	62.81
467.171	73.81
467.391	79.81
467.61	89.81
467.829	79.81
468.049	77.81
468.268	72.81
468.488	82.81
468.707	78.81
468.927	80.81
469.146	84.81
469.365	82.81
469.585	78.81
469.804	90.81
470.023	70.81
470.243	82.81
470.462	66.81
470.681	79.81
470.901	85.81
471.12	76.81
471.339	73.81
471.558	80.81
471.777	87.81
471.997	81.81
472.216	86.81
472.435	79.81
472.654	77.81
472.873	85.81
473.092	75.81
473.311	73.81
473.53	76.81
473.749	84.81
473.968	78.81
474.187	94.81
474.406	85.81
474.625	92.81
474.844	81.81
475.063	66.81
475.282	92.81
475.501	81.81
475.72	90.81
475.939	80.81
476.158	84.81
476.377	72.81
476.596	66.81
476.814	71.81
477.033	73.81
477.252	73.81
477.471	92.81
477.69	83.81
477.908	84.81
478.127	84.81
478.346	67.81
478.564	67.81
478.783	83.81
479.002	80.81
479.22	94.81
479.439	79.81
479.658	93.81
479.876	72.81
480.095	70.81
480.313	99.81
480.532	80.81
480.751	76.81
480.969	64.81
481.188	79.81
481.406	68.81
481.624	68.81
481.843	62.81
482.061	74.81
482.28	105.81
482.498	81.81
482.717	86.81
482.935	69.81
483.153	73.81
483.372	79.81
483.59	74.81
483.808	84.81
484.027	78.81
484.245	79.81
484.463	78.81
484.681	78.81
484.9	77.81
485.118	88.81
485.336	89.81
485.554	74.81
485.772	84.81
485.99	92.81
486.209	82.81
486.427	88.81
486.645	85.81
486.863	90.81
487.081	77.81
487.299	82.81
487.517	78.81
487.735	77.81
487.953	93.81
488.171	78.81
488.389	86.81
488.607	78.81
488.825	82.81
489.043	92.81
489.261	74.81
489.479	79.81
489.696	81.81
489.914	92.81
490.132	89.81
490.35	77.81
490.568	61.81
490.786	73.81
491.003	79.81
491.221	82.81
491.439	79.81
491.657	74.81
491.874	80.81
492.092	75.81
492.31	70.81
492.527	77.81
492.745	73.81
492.963	87.81
493.18	80.81
493.398	90.81
493.615	82.81
493.833	82.81
494.05	87.81
494.268	83.81
494.485	68.81
494.703	84.81
494.92	78.81
495.138	89.81
495.355	90.81
495.573	88.81
495.79	88.81
496.008	80.81
496.225	86.81
496.442	84.81
496.66	82.81
496.877	82.81
497.094	89.81
497.312	86.81
497.529	71.81
497.746	91.81
497.963	81.81
498.181	75.81
498.398	90.81
498.615	83.81
498.832	83.81
499.049	77.81
499.267	68.81
499.484	76.81
499.701	95.81
499.918	87.81
500.135	78.81
500.352	84.81
500.569	76.81
500.786	85.81
501.003	74.81
501.22	85.81
501.437	81.81
501.654	71.81
501.871	67.81
502.088	74.81
502.305	86.81
502.522	97.81
502.739	71.81
502.956	81.81
503.172	83.81
503.389	80.81
503.606	90.81
503.823	90.81
504.04	78.81
504.256	80.81
504.473	86.81
504.69	87.81
504.907	88.81
505.123	89.81
505.34	76.81
505.557	86.81
505.773	66.81
505.99	81.81
506.207	74.81
506.423	74.81
506.64	74.81
506.856	69.81
507.073	79.81
507.289	96.81
507.506	74.81
507.722	80.81
507.939	83.81
508.155	93.81
508.372	80.81
508.588	73.81
508.805	73.81
509.021	81.81
509.238	86.81
509.454	74.81
509.67	72.81
509.887	68.81
510.103	92.81
510.319	86.81
510.536	71.81
510.752	70.81
510.968	72.81
511.184	84.81
511.401	74.81
511.617	76.81
511.833	85.81
512.049	102.81
512.265	94.81
512.481	74.81
512.698	97.81
512.914	72.81
513.13	82.81
513.346	83.81
513.562	75.81
513.778	72.81
513.994	76.81
514.21	88.81
514.426	88.81
514.642	75.81
514.858	66.81
515.074	79.81
515.29	77.81
515.506	90.81
515.721	74.81
515.937	72.81
516.153	78.81
516.369	84.81
516.585	80.81
516.801	71.81
517.016	84.81
517.232	89.81
517.448	95.81
517.664	93.81
517.879	81.81
518.095	76.81
518.311	71.81
518.527	68.81
518.742	75.81
518.958	83.81
519.173	62.81
519.389	66.81
519.605	85.81
519.82	90.81
520.036	82.81
