Data from 15780_1_HRD10591_00024.txt Node
Date: Mon Jan 19 14:18:22 EST 2026
User: Yrep
Spectrometer: HR+D1059
Trigger mode: 1
Integration Time (sec): 1.000000E-1
Scans to average: 1
Electric dark correction enabled: true
Nonlinearity correction enabled: false
Boxcar width: 0
XAxis mode: Wavelengths
Number of Pixels in Spectrum: 2048
>>>>>Begin Spectral Data<<<<<
223.165	-23.12
223.4	-23.12
223.635	-23.12
223.869	-18.12
224.104	-21.12
224.338	-32.12
224.573	-14.12
224.808	-11.12
225.042	-3.12
225.277	-10.12
225.511	1.88
225.746	-0.12
225.98	-2.12
226.215	11.88
226.449	29.88
226.683	28.88
226.918	25.88
227.152	36.88
227.387	24.88
227.621	48.88
227.856	39.88
228.09	47.88
228.324	48.88
228.559	59.88
228.793	65.88
229.027	67.88
229.262	68.88
229.496	66.88
229.73	69.88
229.964	65.88
230.199	84.88
230.433	79.88
230.667	74.88
230.901	83.88
231.136	89.88
231.37	62.88
231.604	77.88
231.838	84.88
232.072	72.88
232.306	87.88
232.541	90.88
232.775	85.88
233.009	87.88
233.243	66.88
233.477	65.88
233.711	83.88
233.945	77.88
234.179	75.88
234.413	68.88
234.647	64.88
234.881	75.88
235.115	79.88
235.349	77.88
235.583	78.88
235.817	77.88
236.051	73.88
236.285	81.88
236.519	70.88
236.753	76.88
236.987	77.88
237.221	92.88
237.455	75.88
237.689	80.88
237.922	83.88
238.156	62.88
238.39	81.88
238.624	70.88
238.858	79.88
239.091	79.88
239.325	105.88
239.559	68.88
239.793	92.88
240.027	95.88
240.26	73.88
240.494	91.88
240.728	78.88
240.961	76.88
241.195	72.88
241.429	78.88
241.662	67.88
241.896	71.88
242.13	70.88
242.363	75.88
242.597	75.88
242.83	73.88
243.064	79.88
243.298	73.88
243.531	72.88
243.765	71.88
243.998	73.88
244.232	87.88
244.465	86.88
244.699	70.88
244.932	84.88
245.166	78.88
245.399	79.88
245.633	70.88
245.866	83.88
246.099	73.88
246.333	71.88
246.566	69.88
246.8	76.88
247.033	74.88
247.266	74.88
247.5	78.88
247.733	67.88
247.966	67.88
248.2	70.88
248.433	70.88
248.666	77.88
248.899	89.88
249.133	85.88
249.366	92.88
249.599	65.88
249.832	84.88
250.066	89.88
250.299	70.88
250.532	81.88
250.765	77.88
250.998	76.88
251.231	69.88
251.465	75.88
251.698	64.88
251.931	87.88
252.164	76.88
252.397	83.88
252.63	78.88
252.863	85.88
253.096	66.88
253.329	91.88
253.562	74.88
253.795	85.88
254.028	80.88
254.261	70.88
254.494	83.88
254.727	83.88
254.96	80.88
255.193	78.88
255.426	88.88
255.659	80.88
255.892	75.88
256.124	78.88
256.357	67.88
256.59	77.88
256.823	73.88
257.056	84.88
257.289	92.88
257.521	75.88
257.754	75.88
257.987	82.88
258.22	74.88
258.452	83.88
258.685	75.88
258.918	86.88
259.151	90.88
259.383	73.88
259.616	81.88
259.849	86.88
260.081	76.88
260.314	76.88
260.547	77.88
260.779	60.88
261.012	71.88
261.244	79.88
261.477	81.88
261.71	82.88
261.942	75.88
262.175	83.88
262.407	87.88
262.64	80.88
262.872	92.88
263.105	71.88
263.337	83.88
263.57	87.88
263.802	87.88
264.035	79.88
264.267	80.88
264.499	80.88
264.732	87.88
264.964	91.88
265.197	88.88
265.429	91.88
265.661	78.88
265.894	92.88
266.126	70.88
266.358	87.88
266.591	96.88
266.823	71.88
267.055	72.88
267.287	91.88
267.52	74.88
267.752	91.88
267.984	83.88
268.216	74.88
268.448	94.88
268.681	87.88
268.913	90.88
269.145	83.88
269.377	90.88
269.609	83.88
269.841	86.88
270.073	81.88
270.306	65.88
270.538	81.88
270.77	81.88
271.002	74.88
271.234	82.88
271.466	90.88
271.698	74.88
271.93	85.88
272.162	73.88
272.394	73.88
272.626	84.88
272.858	71.88
273.09	100.88
273.322	83.88
273.553	79.88
273.785	90.88
274.017	82.88
274.249	86.88
274.481	88.88
274.713	73.88
274.945	81.88
275.176	80.88
275.408	88.88
275.64	81.88
275.872	98.88
276.104	83.88
276.335	90.88
276.567	81.88
276.799	82.88
277.031	80.88
277.262	103.88
277.494	91.88
277.726	87.88
277.957	88.88
278.189	92.88
278.421	91.88
278.652	86.88
278.884	95.88
279.115	82.88
279.347	92.88
279.579	85.88
279.81	78.88
280.042	92.88
280.273	73.88
280.505	92.88
280.736	85.88
280.968	77.88
281.199	79.88
281.431	72.88
281.662	83.88
281.894	76.88
282.125	83.88
282.356	74.88
282.588	77.88
282.819	91.88
283.051	87.88
283.282	83.88
283.513	77.88
283.745	88.88
283.976	83.88
284.207	85.88
284.439	80.88
284.67	74.88
284.901	81.88
285.132	102.88
285.364	78.88
285.595	79.88
285.826	80.88
286.057	72.88
286.288	81.88
286.52	78.88
286.751	78.88
286.982	85.88
287.213	87.88
287.444	86.88
287.675	71.88
287.906	85.88
288.138	78.88
288.369	77.88
288.6	82.88
288.831	80.88
289.062	93.88
289.293	99.88
289.524	71.88
289.755	83.88
289.986	77.88
290.217	95.88
290.448	88.88
290.679	94.88
290.91	81.88
291.141	78.88
291.371	92.88
291.602	83.88
291.833	92.88
292.064	79.88
292.295	84.88
292.526	85.88
292.757	87.88
292.987	86.88
293.218	88.88
293.449	87.88
293.68	76.88
293.91	79.88
294.141	98.88
294.372	81.88
294.603	87.88
294.833	73.88
295.064	87.88
295.295	75.88
295.525	83.88
295.756	82.88
295.987	78.88
296.217	83.88
296.448	92.88
296.679	84.88
296.909	81.88
297.14	78.88
297.37	85.88
297.601	81.88
297.831	78.88
298.062	88.88
298.292	75.88
298.523	84.88
298.753	91.88
298.984	92.88
299.214	89.88
299.445	80.88
299.675	84.88
299.905	88.88
300.136	91.88
300.366	77.88
300.597	92.88
300.827	100.88
301.057	79.88
301.288	80.88
301.518	83.88
301.748	103.88
301.979	97.88
302.209	79.88
302.439	83.88
302.669	84.88
302.9	97.88
303.13	86.88
303.36	98.88
303.59	83.88
303.82	81.88
304.051	89.88
304.281	97.88
304.511	84.88
304.741	89.88
304.971	85.88
305.201	97.88
305.431	90.88
305.661	80.88
305.891	89.88
306.121	94.88
306.352	91.88
306.582	87.88
306.812	71.88
307.042	86.88
307.272	84.88
307.502	75.88
307.731	79.88
307.961	84.88
308.191	83.88
308.421	84.88
308.651	84.88
308.881	97.88
309.111	105.88
309.341	76.88
309.571	85.88
309.8	85.88
310.03	88.88
310.26	80.88
310.49	100.88
310.72	87.88
310.949	79.88
311.179	76.88
311.409	84.88
311.639	87.88
311.868	95.88
312.098	76.88
312.328	96.88
312.557	105.88
312.787	85.88
313.017	82.88
313.246	91.88
313.476	80.88
313.706	90.88
313.935	93.88
314.165	88.88
314.394	82.88
314.624	89.88
314.853	69.88
315.083	98.88
315.312	80.88
315.542	89.88
315.771	81.88
316.001	84.88
316.23	78.88
316.46	98.88
316.689	107.88
316.919	88.88
317.148	73.88
317.377	93.88
317.607	96.88
317.836	90.88
318.065	91.88
318.295	90.88
318.524	101.88
318.753	83.88
318.983	85.88
319.212	81.88
319.441	82.88
319.67	69.88
319.9	97.88
320.129	82.88
320.358	90.88
320.587	77.88
320.816	84.88
321.046	84.88
321.275	91.88
321.504	83.88
321.733	86.88
321.962	64.88
322.191	78.88
322.42	89.88
322.649	100.88
322.878	73.88
323.108	95.88
323.337	88.88
323.566	82.88
323.795	71.88
324.024	85.88
324.253	83.88
324.482	90.88
324.71	84.88
324.939	97.88
325.168	81.88
325.397	96.88
325.626	75.88
325.855	82.88
326.084	92.88
326.313	77.88
326.542	89.88
326.77	83.88
326.999	86.88
327.228	79.88
327.457	102.88
327.686	86.88
327.914	87.88
328.143	77.88
328.372	83.88
328.6	83.88
328.829	85.88
329.058	91.88
329.287	79.88
329.515	75.88
329.744	78.88
329.972	78.88
330.201	97.88
330.43	81.88
330.658	68.88
330.887	87.88
331.115	79.88
331.344	77.88
331.572	83.88
331.801	90.88
332.03	80.88
332.258	83.88
332.486	97.88
332.715	73.88
332.943	88.88
333.172	80.88
333.4	77.88
333.629	89.88
333.857	95.88
334.085	100.88
334.314	87.88
334.542	88.88
334.771	89.88
334.999	81.88
335.227	85.88
335.455	90.88
335.684	95.88
335.912	94.88
336.14	80.88
336.369	91.88
336.597	87.88
336.825	82.88
337.053	83.88
337.281	74.88
337.51	79.88
337.738	96.88
337.966	92.88
338.194	91.88
338.422	86.88
338.65	73.88
338.878	74.88
339.106	87.88
339.334	77.88
339.562	87.88
339.79	81.88
340.018	88.88
340.246	90.88
340.474	81.88
340.702	89.88
340.93	84.88
341.158	92.88
341.386	82.88
341.614	89.88
341.842	79.88
342.07	81.88
342.298	88.88
342.526	98.88
342.754	76.88
342.981	84.88
343.209	96.88
343.437	84.88
343.665	91.88
343.893	75.88
344.12	94.88
344.348	83.88
344.576	82.88
344.804	80.88
345.031	70.88
345.259	91.88
345.487	77.88
345.714	74.88
345.942	83.88
346.17	89.88
346.397	91.88
346.625	73.88
346.853	87.88
347.08	67.88
347.308	91.88
347.535	85.88
347.763	91.88
347.99	89.88
348.218	88.88
348.445	71.88
348.673	81.88
348.9	82.88
349.128	88.88
349.355	94.88
349.583	82.88
349.81	92.88
350.037	85.88
350.265	89.88
350.492	86.88
350.72	95.88
350.947	76.88
351.174	97.88
351.402	94.88
351.629	79.88
351.856	81.88
352.083	76.88
352.311	75.88
352.538	81.88
352.765	95.88
352.992	88.88
353.22	72.88
353.447	80.88
353.674	69.88
353.901	93.88
354.128	92.88
354.355	88.88
354.583	103.88
354.81	87.88
355.037	83.88
355.264	93.88
355.491	76.88
355.718	85.88
355.945	83.88
356.172	73.88
356.399	81.88
356.626	76.88
356.853	85.88
357.08	84.88
357.307	85.88
357.534	102.88
357.761	84.88
357.988	96.88
358.215	97.88
358.441	77.88
358.668	88.88
358.895	73.88
359.122	69.88
359.349	83.88
359.576	88.88
359.802	80.88
360.029	82.88
360.256	81.88
360.483	99.88
360.709	99.88
360.936	78.88
361.163	74.88
361.39	85.88
361.616	83.88
361.843	73.88
362.07	75.88
362.296	82.88
362.523	94.88
362.749	94.88
362.976	72.88
363.203	89.88
363.429	88.88
363.656	96.88
363.882	76.88
364.109	77.88
364.335	93.88
364.562	77.88
364.788	81.88
365.015	71.88
365.241	70.88
365.468	89.88
365.694	88.88
365.92	86.88
366.147	74.88
366.373	89.88
366.599	76.88
366.826	83.88
367.052	79.88
367.278	94.88
367.505	97.88
367.731	88.88
367.957	97.88
368.184	96.88
368.41	80.88
368.636	89.88
368.862	78.88
369.089	78.88
369.315	68.88
369.541	79.88
369.767	76.88
369.993	87.88
370.219	77.88
370.445	80.88
370.672	92.88
370.898	68.88
371.124	82.88
371.35	94.88
371.576	89.88
371.802	74.88
372.028	75.88
372.254	90.88
372.48	92.88
372.706	90.88
372.932	83.88
373.158	92.88
373.384	85.88
373.61	83.88
373.835	75.88
374.061	87.88
374.287	81.88
374.513	99.88
374.739	93.88
374.965	86.88
375.191	89.88
375.416	80.88
375.642	74.88
375.868	85.88
376.094	74.88
376.319	85.88
376.545	83.88
376.771	75.88
376.997	88.88
377.222	81.88
377.448	84.88
377.674	78.88
377.899	77.88
378.125	78.88
378.35	79.88
378.576	80.88
378.802	85.88
379.027	81.88
379.253	89.88
379.478	92.88
379.704	71.88
379.929	73.88
380.155	81.88
380.38	85.88
380.606	85.88
380.831	90.88
381.057	90.88
381.282	85.88
381.507	81.88
381.733	88.88
381.958	95.88
382.184	95.88
382.409	71.88
382.634	92.88
382.86	86.88
383.085	83.88
383.31	76.88
383.535	100.88
383.761	92.88
383.986	97.88
384.211	84.88
384.436	85.88
384.662	84.88
384.887	96.88
385.112	76.88
385.337	88.88
385.562	65.88
385.787	75.88
386.013	86.88
386.238	85.88
386.463	84.88
386.688	103.88
386.913	69.88
387.138	75.88
387.363	81.88
387.588	87.88
387.813	93.88
388.038	92.88
388.263	89.88
388.488	81.88
388.713	71.88
388.938	74.88
389.163	100.88
389.387	80.88
389.612	89.88
389.837	88.88
390.062	90.88
390.287	92.88
390.512	77.88
390.736	87.88
390.961	77.88
391.186	63.88
391.411	74.88
391.636	87.88
391.86	91.88
392.085	76.88
392.31	70.88
392.534	87.88
392.759	95.88
392.984	96.88
393.208	141.88
393.433	179.88
393.658	139.88
393.882	91.88
394.107	83.88
394.331	93.88
394.556	91.88
394.78	90.88
395.005	82.88
395.229	80.88
395.454	82.88
395.678	86.88
395.903	94.88
396.127	125.88
396.352	120.88
396.576	111.88
396.801	132.88
397.025	153.88
397.249	109.88
397.474	100.88
397.698	92.88
397.922	85.88
398.147	86.88
398.371	75.88
398.595	88.88
398.82	93.88
399.044	81.88
399.268	74.88
399.492	77.88
399.717	95.88
399.941	81.88
400.165	90.88
400.389	81.88
400.613	84.88
400.837	75.88
401.062	58.88
401.286	94.88
401.51	92.88
401.734	87.88
401.958	79.88
402.182	64.88
402.406	81.88
402.63	85.88
402.854	79.88
403.078	83.88
403.302	85.88
403.526	71.88
403.75	83.88
403.974	67.88
404.198	81.88
404.422	89.88
404.645	88.88
404.869	74.88
405.093	83.88
405.317	80.88
405.541	88.88
405.765	80.88
405.988	88.88
406.212	96.88
406.436	76.88
406.66	99.88
406.883	76.88
407.107	86.88
407.331	85.88
407.555	85.88
407.778	102.88
408.002	99.88
408.226	78.88
408.449	79.88
408.673	83.88
408.896	108.88
409.12	68.88
409.344	93.88
409.567	79.88
409.791	78.88
410.014	89.88
410.238	76.88
410.461	70.88
410.685	84.88
410.908	91.88
411.132	91.88
411.355	87.88
411.578	85.88
411.802	81.88
412.025	76.88
412.249	87.88
412.472	83.88
412.695	75.88
412.919	77.88
413.142	85.88
413.365	67.88
413.589	74.88
413.812	69.88
414.035	95.88
414.258	88.88
414.482	95.88
414.705	73.88
414.928	76.88
415.151	92.88
415.374	79.88
415.597	90.88
415.821	91.88
416.044	73.88
416.267	83.88
416.49	79.88
416.713	84.88
416.936	95.88
417.159	77.88
417.382	81.88
417.605	93.88
417.828	91.88
418.051	74.88
418.274	88.88
418.497	67.88
418.72	85.88
418.943	84.88
419.166	90.88
419.389	77.88
419.611	75.88
419.834	67.88
420.057	81.88
420.28	75.88
420.503	89.88
420.726	88.88
420.948	80.88
421.171	85.88
421.394	95.88
421.617	81.88
421.839	100.88
422.062	93.88
422.285	87.88
422.507	124.88
422.73	177.88
422.953	177.88
423.175	94.88
423.398	101.88
423.621	83.88
423.843	76.88
424.066	84.88
424.288	83.88
424.511	76.88
424.733	75.88
424.956	87.88
425.178	74.88
425.401	78.88
425.623	68.88
425.846	87.88
426.068	93.88
426.291	84.88
426.513	85.88
426.735	85.88
426.958	78.88
427.18	95.88
427.402	74.88
427.625	83.88
427.847	84.88
428.069	98.88
428.292	91.88
428.514	93.88
428.736	77.88
428.958	92.88
429.181	86.88
429.403	83.88
429.625	89.88
429.847	97.88
430.069	102.88
430.292	110.88
430.514	101.88
430.736	90.88
430.958	85.88
431.18	70.88
431.402	87.88
431.624	78.88
431.846	92.88
432.068	98.88
432.29	93.88
432.512	84.88
432.734	88.88
432.956	90.88
433.178	77.88
433.4	87.88
433.622	97.88
433.844	75.88
434.066	83.88
434.287	87.88
434.509	86.88
434.731	84.88
434.953	74.88
435.175	78.88
435.397	84.88
435.618	80.88
435.84	82.88
436.062	83.88
436.284	86.88
436.505	78.88
436.727	78.88
436.949	80.88
437.17	77.88
437.392	75.88
437.614	91.88
437.835	83.88
438.057	88.88
438.278	85.88
438.5	88.88
438.721	87.88
438.943	90.88
439.165	89.88
439.386	76.88
439.608	93.88
439.829	81.88
440.05	88.88
440.272	68.88
440.493	83.88
440.715	86.88
440.936	87.88
441.158	88.88
441.379	92.88
441.6	76.88
441.822	95.88
442.043	81.88
442.264	71.88
442.486	87.88
442.707	90.88
442.928	75.88
443.149	87.88
443.371	97.88
443.592	140.88
443.813	107.88
444.034	91.88
444.255	82.88
444.476	82.88
444.698	72.88
444.919	75.88
445.14	182.88
445.361	143.88
445.582	131.88
445.803	124.88
446.024	88.88
446.245	85.88
446.466	84.88
446.687	76.88
446.908	86.88
447.129	93.88
447.35	66.88
447.571	79.88
447.792	90.88
448.013	69.88
448.234	95.88
448.455	88.88
448.675	82.88
448.896	94.88
449.117	94.88
449.338	90.88
449.559	82.88
449.779	70.88
450	94.88
450.221	83.88
450.442	92.88
450.662	91.88
450.883	86.88
451.104	82.88
451.324	77.88
451.545	76.88
451.766	73.88
451.986	77.88
452.207	80.88
452.428	71.88
452.648	92.88
452.869	97.88
453.089	71.88
453.31	77.88
453.53	83.88
453.751	85.88
453.971	64.88
454.192	84.88
454.412	76.88
454.633	89.88
454.853	78.88
455.073	80.88
455.294	87.88
455.514	85.88
455.734	83.88
455.955	83.88
456.175	78.88
456.395	79.88
456.616	70.88
456.836	78.88
457.056	71.88
457.276	85.88
457.497	94.88
457.717	78.88
457.937	75.88
458.157	86.88
458.377	92.88
458.598	93.88
458.818	105.88
459.038	78.88
459.258	83.88
459.478	69.88
459.698	81.88
459.918	83.88
460.138	74.88
460.358	83.88
460.578	95.88
460.798	75.88
461.018	81.88
461.238	87.88
461.458	89.88
461.678	77.88
461.898	78.88
462.118	77.88
462.338	75.88
462.558	90.88
462.777	76.88
462.997	72.88
463.217	82.88
463.437	88.88
463.657	68.88
463.876	81.88
464.096	82.88
464.316	90.88
464.536	84.88
464.755	92.88
464.975	77.88
465.195	78.88
465.414	73.88
465.634	83.88
465.854	73.88
466.073	85.88
466.293	94.88
466.512	83.88
466.732	78.88
466.951	89.88
467.171	67.88
467.391	87.88
467.61	84.88
467.829	93.88
468.049	77.88
468.268	79.88
468.488	77.88
468.707	74.88
468.927	87.88
469.146	70.88
469.365	74.88
469.585	74.88
469.804	81.88
470.023	70.88
470.243	75.88
470.462	96.88
470.681	87.88
470.901	79.88
471.12	71.88
471.339	83.88
471.558	74.88
471.777	88.88
471.997	83.88
472.216	83.88
472.435	89.88
472.654	84.88
472.873	90.88
473.092	96.88
473.311	84.88
473.53	78.88
473.749	71.88
473.968	90.88
474.187	91.88
474.406	73.88
474.625	70.88
474.844	89.88
475.063	72.88
475.282	74.88
475.501	83.88
475.72	79.88
475.939	73.88
476.158	92.88
476.377	83.88
476.596	97.88
476.814	85.88
477.033	86.88
477.252	80.88
477.471	74.88
477.69	73.88
477.908	91.88
478.127	90.88
478.346	85.88
478.564	78.88
478.783	84.88
479.002	75.88
479.22	95.88
479.439	86.88
479.658	71.88
479.876	75.88
480.095	82.88
480.313	74.88
480.532	83.88
480.751	82.88
480.969	88.88
481.188	65.88
481.406	91.88
481.624	91.88
481.843	81.88
482.061	65.88
482.28	64.88
482.498	80.88
482.717	92.88
482.935	96.88
483.153	77.88
483.372	95.88
483.59	87.88
483.808	87.88
484.027	68.88
484.245	93.88
484.463	76.88
484.681	85.88
484.9	75.88
485.118	89.88
485.336	83.88
485.554	94.88
485.772	77.88
485.99	86.88
486.209	93.88
486.427	85.88
486.645	77.88
486.863	69.88
487.081	80.88
487.299	89.88
487.517	72.88
487.735	92.88
487.953	89.88
488.171	88.88
488.389	87.88
488.607	81.88
488.825	76.88
489.043	84.88
489.261	94.88
489.479	78.88
489.696	78.88
489.914	64.88
490.132	85.88
490.35	73.88
490.568	83.88
490.786	87.88
491.003	83.88
491.221	96.88
491.439	84.88
491.657	102.88
491.874	87.88
492.092	83.88
492.31	76.88
492.527	78.88
492.745	86.88
492.963	83.88
493.18	89.88
493.398	78.88
493.615	91.88
493.833	91.88
494.05	85.88
494.268	86.88
494.485	84.88
494.703	99.88
494.92	85.88
495.138	71.88
495.355	65.88
495.573	75.88
495.79	73.88
496.008	101.88
496.225	83.88
496.442	85.88
496.66	78.88
496.877	68.88
497.094	89.88
497.312	84.88
497.529	83.88
497.746	87.88
497.963	76.88
498.181	80.88
498.398	92.88
498.615	85.88
498.832	75.88
499.049	101.88
499.267	97.88
499.484	83.88
499.701	86.88
499.918	96.88
500.135	83.88
500.352	82.88
500.569	76.88
500.786	95.88
501.003	89.88
501.22	82.88
501.437	87.88
501.654	76.88
501.871	82.88
502.088	84.88
502.305	92.88
502.522	98.88
502.739	82.88
502.956	89.88
503.172	104.88
503.389	80.88
503.606	95.88
503.823	91.88
504.04	99.88
504.256	101.88
504.473	87.88
504.69	71.88
504.907	90.88
505.123	92.88
505.34	78.88
505.557	86.88
505.773	100.88
505.99	79.88
506.207	74.88
506.423	92.88
506.64	96.88
506.856	83.88
507.073	78.88
507.289	92.88
507.506	71.88
507.722	78.88
507.939	87.88
508.155	87.88
508.372	84.88
508.588	84.88
508.805	82.88
509.021	91.88
509.238	81.88
509.454	74.88
509.67	87.88
509.887	78.88
510.103	92.88
510.319	91.88
510.536	85.88
510.752	88.88
510.968	80.88
511.184	98.88
511.401	88.88
511.617	95.88
511.833	95.88
512.049	78.88
512.265	90.88
512.481	88.88
512.698	88.88
512.914	81.88
513.13	96.88
513.346	91.88
513.562	83.88
513.778	78.88
513.994	86.88
514.21	84.88
514.426	102.88
514.642	85.88
514.858	88.88
515.074	84.88
515.29	93.88
515.506	88.88
515.721	91.88
515.937	86.88
516.153	83.88
516.369	84.88
516.585	92.88
516.801	78.88
517.016	77.88
517.232	86.88
517.448	81.88
517.664	83.88
517.879	85.88
518.095	76.88
518.311	77.88
518.527	87.88
518.742	81.88
518.958	101.88
519.173	92.88
519.389	87.88
