Data from 15780_1_HRD10591_00007.txt Node
Date: Mon Jan 19 14:18:13 EST 2026
User: Yrep
Spectrometer: HR+D1059
Trigger mode: 1
Integration Time (sec): 1.000000E-1
Scans to average: 1
Electric dark correction enabled: true
Nonlinearity correction enabled: false
Boxcar width: 0
XAxis mode: Wavelengths
Number of Pixels in Spectrum: 2048
>>>>>Begin Spectral Data<<<<<
223.165	-21.5
223.4	-21.5
223.635	-21.5
223.869	-18.5
224.104	-21.5
224.338	-22.5
224.573	-18.5
224.808	-21.5
225.042	-10.5
225.277	-13.5
225.511	14.5
225.746	10.5
225.98	20.5
226.215	9.5
226.449	20.5
226.683	13.5
226.918	34.5
227.152	24.5
227.387	41.5
227.621	34.5
227.856	53.5
228.09	42.5
228.324	68.5
228.559	59.5
228.793	61.5
229.027	59.5
229.262	51.5
229.496	73.5
229.73	61.5
229.964	65.5
230.199	76.5
230.433	81.5
230.667	83.5
230.901	74.5
231.136	74.5
231.37	75.5
231.604	86.5
231.838	84.5
232.072	86.5
232.306	98.5
232.541	86.5
232.775	81.5
233.009	75.5
233.243	91.5
233.477	93.5
233.711	75.5
233.945	74.5
234.179	78.5
234.413	83.5
234.647	81.5
234.881	67.5
235.115	76.5
235.349	80.5
235.583	59.5
235.817	72.5
236.051	83.5
236.285	80.5
236.519	85.5
236.753	73.5
236.987	63.5
237.221	76.5
237.455	83.5
237.689	72.5
237.922	81.5
238.156	67.5
238.39	68.5
238.624	73.5
238.858	72.5
239.091	65.5
239.325	65.5
239.559	63.5
239.793	78.5
240.027	71.5
240.26	79.5
240.494	80.5
240.728	66.5
240.961	73.5
241.195	76.5
241.429	81.5
241.662	65.5
241.896	69.5
242.13	86.5
242.363	67.5
242.597	57.5
242.83	81.5
243.064	77.5
243.298	81.5
243.531	84.5
243.765	54.5
243.998	82.5
244.232	72.5
244.465	77.5
244.699	81.5
244.932	83.5
245.166	89.5
245.399	77.5
245.633	65.5
245.866	73.5
246.099	83.5
246.333	79.5
246.566	75.5
246.8	82.5
247.033	85.5
247.266	83.5
247.5	77.5
247.733	63.5
247.966	61.5
248.2	79.5
248.433	78.5
248.666	65.5
248.899	93.5
249.133	75.5
249.366	82.5
249.599	73.5
249.832	76.5
250.066	77.5
250.299	87.5
250.532	81.5
250.765	73.5
250.998	93.5
251.231	67.5
251.465	75.5
251.698	85.5
251.931	79.5
252.164	73.5
252.397	81.5
252.63	73.5
252.863	63.5
253.096	73.5
253.329	86.5
253.562	77.5
253.795	72.5
254.028	68.5
254.261	77.5
254.494	77.5
254.727	90.5
254.96	71.5
255.193	70.5
255.426	79.5
255.659	69.5
255.892	74.5
256.124	67.5
256.357	67.5
256.59	82.5
256.823	74.5
257.056	80.5
257.289	67.5
257.521	65.5
257.754	80.5
257.987	76.5
258.22	85.5
258.452	83.5
258.685	79.5
258.918	74.5
259.151	83.5
259.383	76.5
259.616	89.5
259.849	80.5
260.081	84.5
260.314	79.5
260.547	84.5
260.779	83.5
261.012	87.5
261.244	81.5
261.477	94.5
261.71	82.5
261.942	67.5
262.175	87.5
262.407	80.5
262.64	79.5
262.872	89.5
263.105	69.5
263.337	81.5
263.57	83.5
263.802	86.5
264.035	81.5
264.267	83.5
264.499	78.5
264.732	81.5
264.964	87.5
265.197	75.5
265.429	76.5
265.661	87.5
265.894	88.5
266.126	81.5
266.358	75.5
266.591	88.5
266.823	79.5
267.055	81.5
267.287	77.5
267.52	79.5
267.752	65.5
267.984	89.5
268.216	74.5
268.448	88.5
268.681	81.5
268.913	87.5
269.145	71.5
269.377	77.5
269.609	82.5
269.841	90.5
270.073	75.5
270.306	78.5
270.538	79.5
270.77	93.5
271.002	82.5
271.234	73.5
271.466	79.5
271.698	84.5
271.93	75.5
272.162	80.5
272.394	81.5
272.626	73.5
272.858	96.5
273.09	85.5
273.322	81.5
273.553	74.5
273.785	76.5
274.017	81.5
274.249	83.5
274.481	82.5
274.713	86.5
274.945	87.5
275.176	82.5
275.408	96.5
275.64	73.5
275.872	93.5
276.104	74.5
276.335	88.5
276.567	91.5
276.799	81.5
277.031	73.5
277.262	79.5
277.494	81.5
277.726	82.5
277.957	80.5
278.189	90.5
278.421	73.5
278.652	78.5
278.884	79.5
279.115	72.5
279.347	81.5
279.579	85.5
279.81	79.5
280.042	85.5
280.273	80.5
280.505	81.5
280.736	79.5
280.968	80.5
281.199	73.5
281.431	83.5
281.662	83.5
281.894	87.5
282.125	84.5
282.356	69.5
282.588	85.5
282.819	93.5
283.051	96.5
283.282	67.5
283.513	85.5
283.745	85.5
283.976	89.5
284.207	76.5
284.439	76.5
284.67	87.5
284.901	86.5
285.132	87.5
285.364	82.5
285.595	107.5
285.826	85.5
286.057	77.5
286.288	86.5
286.52	80.5
286.751	88.5
286.982	85.5
287.213	86.5
287.444	91.5
287.675	84.5
287.906	90.5
288.138	78.5
288.369	83.5
288.6	93.5
288.831	82.5
289.062	85.5
289.293	92.5
289.524	89.5
289.755	75.5
289.986	93.5
290.217	76.5
290.448	91.5
290.679	64.5
290.91	79.5
291.141	81.5
291.371	83.5
291.602	79.5
291.833	107.5
292.064	81.5
292.295	75.5
292.526	82.5
292.757	80.5
292.987	79.5
293.218	76.5
293.449	81.5
293.68	95.5
293.91	83.5
294.141	71.5
294.372	75.5
294.603	69.5
294.833	80.5
295.064	77.5
295.295	79.5
295.525	63.5
295.756	89.5
295.987	93.5
296.217	86.5
296.448	88.5
296.679	75.5
296.909	79.5
297.14	89.5
297.37	80.5
297.601	84.5
297.831	98.5
298.062	79.5
298.292	87.5
298.523	85.5
298.753	89.5
298.984	76.5
299.214	87.5
299.445	97.5
299.675	80.5
299.905	81.5
300.136	85.5
300.366	83.5
300.597	85.5
300.827	96.5
301.057	79.5
301.288	99.5
301.518	86.5
301.748	79.5
301.979	83.5
302.209	81.5
302.439	82.5
302.669	80.5
302.9	80.5
303.13	81.5
303.36	95.5
303.59	67.5
303.82	85.5
304.051	91.5
304.281	78.5
304.511	93.5
304.741	71.5
304.971	81.5
305.201	94.5
305.431	82.5
305.661	94.5
305.891	83.5
306.121	89.5
306.352	89.5
306.582	98.5
306.812	76.5
307.042	87.5
307.272	65.5
307.502	99.5
307.731	79.5
307.961	83.5
308.191	81.5
308.421	90.5
308.651	89.5
308.881	96.5
309.111	88.5
309.341	85.5
309.571	95.5
309.8	98.5
310.03	86.5
310.26	84.5
310.49	72.5
310.72	113.5
310.949	90.5
311.179	88.5
311.409	76.5
311.639	70.5
311.868	91.5
312.098	78.5
312.328	89.5
312.557	85.5
312.787	70.5
313.017	93.5
313.246	90.5
313.476	89.5
313.706	73.5
313.935	74.5
314.165	86.5
314.394	85.5
314.624	88.5
314.853	82.5
315.083	65.5
315.312	86.5
315.542	101.5
315.771	97.5
316.001	78.5
316.23	100.5
316.46	93.5
316.689	91.5
316.919	72.5
317.148	93.5
317.377	95.5
317.607	99.5
317.836	89.5
318.065	81.5
318.295	78.5
318.524	90.5
318.753	96.5
318.983	84.5
319.212	68.5
319.441	88.5
319.67	73.5
319.9	81.5
320.129	89.5
320.358	89.5
320.587	88.5
320.816	69.5
321.046	73.5
321.275	93.5
321.504	98.5
321.733	85.5
321.962	91.5
322.191	82.5
322.42	81.5
322.649	90.5
322.878	81.5
323.108	76.5
323.337	89.5
323.566	80.5
323.795	73.5
324.024	75.5
324.253	79.5
324.482	101.5
324.71	81.5
324.939	79.5
325.168	71.5
325.397	86.5
325.626	77.5
325.855	70.5
326.084	84.5
326.313	80.5
326.542	87.5
326.77	74.5
326.999	90.5
327.228	86.5
327.457	88.5
327.686	88.5
327.914	67.5
328.143	85.5
328.372	91.5
328.6	91.5
328.829	71.5
329.058	89.5
329.287	98.5
329.515	94.5
329.744	92.5
329.972	90.5
330.201	90.5
330.43	65.5
330.658	82.5
330.887	89.5
331.115	58.5
331.344	93.5
331.572	101.5
331.801	82.5
332.03	78.5
332.258	85.5
332.486	86.5
332.715	96.5
332.943	82.5
333.172	75.5
333.4	84.5
333.629	101.5
333.857	88.5
334.085	88.5
334.314	79.5
334.542	80.5
334.771	88.5
334.999	90.5
335.227	98.5
335.455	81.5
335.684	97.5
335.912	79.5
336.14	93.5
336.369	88.5
336.597	87.5
336.825	76.5
337.053	64.5
337.281	75.5
337.51	90.5
337.738	99.5
337.966	81.5
338.194	88.5
338.422	72.5
338.65	83.5
338.878	71.5
339.106	86.5
339.334	74.5
339.562	77.5
339.79	83.5
340.018	98.5
340.246	98.5
340.474	86.5
340.702	94.5
340.93	89.5
341.158	75.5
341.386	71.5
341.614	97.5
341.842	90.5
342.07	89.5
342.298	104.5
342.526	77.5
342.754	80.5
342.981	78.5
343.209	82.5
343.437	88.5
343.665	75.5
343.893	88.5
344.12	88.5
344.348	100.5
344.576	90.5
344.804	98.5
345.031	84.5
345.259	74.5
345.487	97.5
345.714	84.5
345.942	86.5
346.17	85.5
346.397	81.5
346.625	82.5
346.853	83.5
347.08	84.5
347.308	77.5
347.535	97.5
347.763	86.5
347.99	87.5
348.218	76.5
348.445	73.5
348.673	83.5
348.9	91.5
349.128	85.5
349.355	88.5
349.583	78.5
349.81	86.5
350.037	75.5
350.265	80.5
350.492	81.5
350.72	77.5
350.947	91.5
351.174	89.5
351.402	72.5
351.629	96.5
351.856	87.5
352.083	92.5
352.311	70.5
352.538	83.5
352.765	80.5
352.992	96.5
353.22	79.5
353.447	82.5
353.674	86.5
353.901	75.5
354.128	91.5
354.355	88.5
354.583	94.5
354.81	84.5
355.037	83.5
355.264	72.5
355.491	84.5
355.718	84.5
355.945	87.5
356.172	73.5
356.399	81.5
356.626	86.5
356.853	77.5
357.08	93.5
357.307	87.5
357.534	76.5
357.761	80.5
357.988	101.5
358.215	101.5
358.441	91.5
358.668	79.5
358.895	97.5
359.122	85.5
359.349	97.5
359.576	79.5
359.802	71.5
360.029	81.5
360.256	89.5
360.483	81.5
360.709	94.5
360.936	81.5
361.163	81.5
361.39	95.5
361.616	84.5
361.843	85.5
362.07	95.5
362.296	86.5
362.523	96.5
362.749	95.5
362.976	85.5
363.203	103.5
363.429	80.5
363.656	97.5
363.882	102.5
364.109	84.5
364.335	102.5
364.562	111.5
364.788	85.5
365.015	94.5
365.241	80.5
365.468	90.5
365.694	73.5
365.92	87.5
366.147	90.5
366.373	69.5
366.599	90.5
366.826	87.5
367.052	90.5
367.278	77.5
367.505	73.5
367.731	84.5
367.957	71.5
368.184	65.5
368.41	78.5
368.636	98.5
368.862	90.5
369.089	90.5
369.315	93.5
369.541	89.5
369.767	80.5
369.993	95.5
370.219	86.5
370.445	88.5
370.672	87.5
370.898	102.5
371.124	87.5
371.35	93.5
371.576	77.5
371.802	82.5
372.028	80.5
372.254	80.5
372.48	79.5
372.706	85.5
372.932	93.5
373.158	100.5
373.384	93.5
373.61	96.5
373.835	99.5
374.061	87.5
374.287	87.5
374.513	81.5
374.739	91.5
374.965	97.5
375.191	106.5
375.416	89.5
375.642	87.5
375.868	92.5
376.094	98.5
376.319	77.5
376.545	95.5
376.771	74.5
376.997	76.5
377.222	89.5
377.448	90.5
377.674	90.5
377.899	82.5
378.125	83.5
378.35	92.5
378.576	82.5
378.802	86.5
379.027	81.5
379.253	81.5
379.478	91.5
379.704	93.5
379.929	105.5
380.155	70.5
380.38	85.5
380.606	82.5
380.831	99.5
381.057	87.5
381.282	96.5
381.507	91.5
381.733	91.5
381.958	82.5
382.184	81.5
382.409	87.5
382.634	81.5
382.86	79.5
383.085	99.5
383.31	90.5
383.535	101.5
383.761	94.5
383.986	101.5
384.211	87.5
384.436	76.5
384.662	80.5
384.887	102.5
385.112	92.5
385.337	90.5
385.562	93.5
385.787	98.5
386.013	111.5
386.238	95.5
386.463	84.5
386.688	79.5
386.913	86.5
387.138	97.5
387.363	93.5
387.588	93.5
387.813	94.5
388.038	95.5
388.263	92.5
388.488	89.5
388.713	93.5
388.938	92.5
389.163	82.5
389.387	85.5
389.612	89.5
389.837	81.5
390.062	99.5
390.287	99.5
390.512	76.5
390.736	83.5
390.961	91.5
391.186	92.5
391.411	91.5
391.636	95.5
391.86	89.5
392.085	87.5
392.31	96.5
392.534	81.5
392.759	106.5
392.984	122.5
393.208	211.5
393.433	287.5
393.658	226.5
393.882	114.5
394.107	95.5
394.331	111.5
394.556	114.5
394.78	98.5
395.005	89.5
395.229	71.5
395.454	99.5
395.678	87.5
395.903	107.5
396.127	123.5
396.352	122.5
396.576	121.5
396.801	215.5
397.025	247.5
397.249	146.5
397.474	102.5
397.698	69.5
397.922	91.5
398.147	88.5
398.371	89.5
398.595	87.5
398.82	70.5
399.044	82.5
399.268	81.5
399.492	107.5
399.717	90.5
399.941	100.5
400.165	74.5
400.389	69.5
400.613	81.5
400.837	90.5
401.062	79.5
401.286	81.5
401.51	98.5
401.734	88.5
401.958	72.5
402.182	96.5
402.406	79.5
402.63	83.5
402.854	77.5
403.078	86.5
403.302	70.5
403.526	84.5
403.75	87.5
403.974	82.5
404.198	88.5
404.422	98.5
404.645	104.5
404.869	84.5
405.093	91.5
405.317	85.5
405.541	91.5
405.765	77.5
405.988	75.5
406.212	87.5
406.436	93.5
406.66	91.5
406.883	75.5
407.107	87.5
407.331	87.5
407.555	95.5
407.778	116.5
408.002	95.5
408.226	82.5
408.449	81.5
408.673	95.5
408.896	61.5
409.12	84.5
409.344	89.5
409.567	89.5
409.791	90.5
410.014	90.5
410.238	89.5
410.461	81.5
410.685	98.5
410.908	84.5
411.132	81.5
411.355	69.5
411.578	79.5
411.802	77.5
412.025	88.5
412.249	72.5
412.472	79.5
412.695	73.5
412.919	91.5
413.142	83.5
413.365	67.5
413.589	89.5
413.812	85.5
414.035	89.5
414.258	80.5
414.482	81.5
414.705	89.5
414.928	90.5
415.151	68.5
415.374	79.5
415.597	77.5
415.821	83.5
416.044	89.5
416.267	73.5
416.49	74.5
416.713	94.5
416.936	84.5
417.159	73.5
417.382	68.5
417.605	77.5
417.828	102.5
418.051	89.5
418.274	79.5
418.497	85.5
418.72	69.5
418.943	80.5
419.166	81.5
419.389	86.5
419.611	73.5
419.834	79.5
420.057	88.5
420.28	85.5
420.503	79.5
420.726	75.5
420.948	81.5
421.171	95.5
421.394	97.5
421.617	92.5
421.839	102.5
422.062	113.5
422.285	131.5
422.507	218.5
422.73	325.5
422.953	296.5
423.175	171.5
423.398	117.5
423.621	85.5
423.843	106.5
424.066	97.5
424.288	97.5
424.511	79.5
424.733	97.5
424.956	85.5
425.178	105.5
425.401	89.5
425.623	97.5
425.846	79.5
426.068	103.5
426.291	98.5
426.513	81.5
426.735	89.5
426.958	74.5
427.18	81.5
427.402	88.5
427.625	87.5
427.847	79.5
428.069	92.5
428.292	113.5
428.514	123.5
428.736	100.5
428.958	103.5
429.181	121.5
429.403	89.5
429.625	87.5
429.847	113.5
430.069	133.5
430.292	159.5
430.514	139.5
430.736	119.5
430.958	125.5
431.18	91.5
431.402	85.5
431.624	87.5
431.846	131.5
432.068	120.5
432.29	93.5
432.512	91.5
432.734	77.5
432.956	95.5
433.178	87.5
433.4	81.5
433.622	58.5
433.844	81.5
434.066	98.5
434.287	66.5
434.509	70.5
434.731	79.5
434.953	68.5
435.175	88.5
435.397	83.5
435.618	86.5
435.84	77.5
436.062	88.5
436.284	79.5
436.505	83.5
436.727	80.5
436.949	82.5
437.17	87.5
437.392	93.5
437.614	83.5
437.835	81.5
438.057	81.5
438.278	68.5
438.5	89.5
438.721	99.5
438.943	83.5
439.165	89.5
439.386	71.5
439.608	89.5
439.829	88.5
440.05	85.5
440.272	79.5
440.493	80.5
440.715	93.5
440.936	82.5
441.158	96.5
441.379	71.5
441.6	67.5
441.822	96.5
442.043	82.5
442.264	95.5
442.486	116.5
442.707	142.5
442.928	116.5
443.149	103.5
443.371	121.5
443.592	192.5
443.813	178.5
444.034	97.5
444.255	83.5
444.476	91.5
444.698	94.5
444.919	100.5
445.14	179.5
445.361	164.5
445.582	216.5
445.803	192.5
446.024	101.5
446.245	81.5
446.466	96.5
446.687	82.5
446.908	94.5
447.129	74.5
447.35	75.5
447.571	99.5
447.792	95.5
448.013	87.5
448.234	77.5
448.455	85.5
448.675	88.5
448.896	97.5
449.117	77.5
449.338	76.5
449.559	74.5
449.779	81.5
450	74.5
450.221	91.5
450.442	86.5
450.662	89.5
450.883	109.5
451.104	97.5
451.324	81.5
451.545	73.5
451.766	88.5
451.986	94.5
452.207	73.5
452.428	102.5
452.648	87.5
452.869	82.5
453.089	92.5
453.31	96.5
453.53	84.5
453.751	89.5
453.971	75.5
454.192	71.5
454.412	82.5
454.633	75.5
454.853	84.5
455.073	87.5
455.294	97.5
455.514	77.5
455.734	78.5
455.955	87.5
456.175	99.5
456.395	81.5
456.616	88.5
456.836	79.5
457.056	78.5
457.276	76.5
457.497	72.5
457.717	87.5
457.937	98.5
458.157	105.5
458.377	123.5
458.598	107.5
458.818	120.5
459.038	90.5
459.258	84.5
459.478	82.5
459.698	79.5
459.918	95.5
460.138	88.5
460.358	75.5
460.578	87.5
460.798	117.5
461.018	121.5
461.238	93.5
461.458	96.5
461.678	82.5
461.898	83.5
462.118	100.5
462.338	82.5
462.558	92.5
462.777	83.5
462.997	93.5
463.217	93.5
463.437	76.5
463.657	82.5
463.876	94.5
464.096	91.5
464.316	83.5
464.536	80.5
464.755	85.5
464.975	95.5
465.195	87.5
465.414	79.5
465.634	98.5
465.854	81.5
466.073	83.5
466.293	69.5
466.512	79.5
466.732	84.5
466.951	90.5
467.171	74.5
467.391	74.5
467.61	66.5
467.829	75.5
468.049	79.5
468.268	90.5
468.488	94.5
468.707	84.5
468.927	85.5
469.146	87.5
469.365	88.5
469.585	83.5
469.804	86.5
470.023	83.5
470.243	80.5
470.462	86.5
470.681	72.5
470.901	97.5
471.12	84.5
471.339	89.5
471.558	91.5
471.777	86.5
471.997	88.5
472.216	95.5
472.435	89.5
472.654	91.5
472.873	83.5
473.092	79.5
473.311	85.5
473.53	83.5
473.749	86.5
473.968	94.5
474.187	85.5
474.406	71.5
474.625	83.5
474.844	77.5
475.063	94.5
475.282	71.5
475.501	80.5
475.72	76.5
475.939	86.5
476.158	84.5
476.377	93.5
476.596	85.5
476.814	72.5
477.033	87.5
477.252	73.5
477.471	89.5
477.69	80.5
477.908	87.5
478.127	89.5
478.346	71.5
478.564	86.5
478.783	82.5
479.002	99.5
479.22	89.5
479.439	71.5
479.658	78.5
479.876	103.5
480.095	85.5
480.313	90.5
480.532	90.5
480.751	78.5
480.969	84.5
481.188	85.5
481.406	91.5
481.624	80.5
481.843	95.5
482.061	103.5
482.28	83.5
482.498	79.5
482.717	85.5
482.935	91.5
483.153	83.5
483.372	100.5
483.59	107.5
483.808	85.5
484.027	81.5
484.245	88.5
484.463	99.5
484.681	98.5
484.9	79.5
485.118	77.5
485.336	82.5
485.554	91.5
485.772	96.5
485.99	75.5
486.209	93.5
486.427	105.5
486.645	104.5
486.863	106.5
487.081	107.5
487.299	99.5
487.517	101.5
487.735	107.5
487.953	139.5
488.171	128.5
488.389	79.5
488.607	113.5
488.825	74.5
489.043	90.5
489.261	92.5
489.479	81.5
489.696	101.5
489.914	83.5
490.132	91.5
490.35	106.5
490.568	86.5
490.786	87.5
491.003	80.5
491.221	90.5
491.439	105.5
491.657	92.5
491.874	103.5
492.092	99.5
492.31	93.5
492.527	81.5
492.745	86.5
492.963	95.5
493.18	80.5
493.398	93.5
493.615	92.5
493.833	85.5
494.05	88.5
494.268	95.5
494.485	103.5
494.703	91.5
494.92	94.5
495.138	100.5
495.355	82.5
495.573	77.5
495.79	74.5
496.008	100.5
496.225	89.5
496.442	88.5
496.66	84.5
496.877	89.5
497.094	95.5
497.312	86.5
497.529	85.5
497.746	93.5
497.963	95.5
498.181	84.5
498.398	97.5
498.615	94.5
498.832	93.5
499.049	90.5
499.267	92.5
499.484	84.5
499.701	77.5
499.918	102.5
500.135	91.5
500.352	89.5
500.569	92.5
500.786	87.5
501.003	99.5
501.22	93.5
501.437	86.5
501.654	81.5
501.871	87.5
502.088	97.5
502.305	90.5
502.522	85.5
502.739	89.5
502.956	95.5
503.172	92.5
503.389	87.5
503.606	94.5
503.823	91.5
504.04	107.5
504.256	116.5
504.473	103.5
504.69	115.5
504.907	98.5
505.123	71.5
505.34	73.5
505.557	83.5
505.773	88.5
505.99	84.5
506.207	89.5
506.423	90.5
506.64	95.5
506.856	91.5
507.073	102.5
507.289	85.5
507.506	93.5
507.722	93.5
507.939	85.5
508.155	75.5
508.372	81.5
508.588	85.5
508.805	97.5
509.021	82.5
509.238	94.5
509.454	84.5
509.67	87.5
509.887	97.5
510.103	103.5
510.319	87.5
510.536	83.5
510.752	94.5
510.968	94.5
511.184	86.5
511.401	90.5
511.617	78.5
511.833	83.5
512.049	83.5
512.265	90.5
512.481	98.5
512.698	96.5
512.914	85.5
513.13	92.5
513.346	79.5
513.562	89.5
513.778	88.5
513.994	83.5
514.21	86.5
514.426	87.5
514.642	102.5
514.858	83.5
515.074	90.5
515.29	98.5
515.506	97.5
515.721	82.5
515.937	96.5
516.153	88.5
516.369	77.5
516.585	80.5
516.801	83.5
517.016	100.5
517.232	83.5
517.448	99.5
517.664	101.5
517.879	101.5
518.095	97.5
518.311	99.5
518.527	85.5
518.742	113.5
518.958	137.5
519.173	153.5
519.389	87.5
519.605	84.5
519.82	86.5
520.036	96.5
520.251	83.5
520.467	95.5
520.682	111.5
520.898	89.5
521.113	89.5
521.329	89.5
521.544	89.5
521.76	91.5
521.975	98.5
522.19	89.5
522.406	94.5
522.621	96.5
522.836	100.5
523.052	94.5
523.267	98.5
523.482	101.5
523.698	88.5
523.913	100.5
524.128	88.5
524.343	101.5
524.559	100.5
524.774	81.5
524.989	80.5
525.204	88.5
525.419	97.5
525.634	100.5
525.849	101.5
526.064	117.5
526.28	159.5
526.495	239.5
526.71	257.5
526.925	187.5
527.14	239.5
527.355	201.5
527.57	99.5
527.785	101.5
527.999	89.5
528.214	107.5
528.429	85.5
528.644	78.5
528.859	93.5
529.074	100.5
529.289	101.5
529.503	102.5
529.718	99.5
529.933	102.5
530.148	102.5
530.363	114.5
530.577	93.5
530.792	103.5
531.007	93.5
531.221	91.5
531.436	98.5
531.651	98.5
531.865	102.5
532.08	100.5
532.295	104.5
532.509	94.5
532.724	101.5
532.938	107.5
533.153	83.5
533.367	93.5
533.582	86.5
533.796	105.5
534.011	95.5
534.225	104.5
534.44	105.5
534.654	123.5
534.868	116.5
535.083	150.5
535.297	149.5
535.511	94.5
535.726	107.5
535.94	106.5
536.154	110.5
536.369	104.5
536.583	114.5
536.797	104.5
537.011	83.5
537.225	109.5
537.44	99.5
537.654	109.5
537.868	106.5
538.082	105.5
