Data from 15780_1_HRD10591_00022.txt Node
Date: Mon Jan 19 14:18:21 EST 2026
User: Yrep
Spectrometer: HR+D1059
Trigger mode: 1
Integration Time (sec): 1.000000E-1
Scans to average: 1
Electric dark correction enabled: true
Nonlinearity correction enabled: false
Boxcar width: 0
XAxis mode: Wavelengths
Number of Pixels in Spectrum: 2048
>>>>>Begin Spectral Data<<<<<
223.165	-13.81
223.4	-13.81
223.635	-13.81
223.869	-38.81
224.104	-16.81
224.338	-10.81
224.573	-19.81
224.808	-15.81
225.042	-5.81
225.277	-5.81
225.511	3.19
225.746	15.19
225.98	7.19
226.215	16.19
226.449	10.19
226.683	22.19
226.918	23.19
227.152	30.19
227.387	29.19
227.621	41.19
227.856	53.19
228.09	35.19
228.324	29.19
228.559	51.19
228.793	59.19
229.027	58.19
229.262	61.19
229.496	70.19
229.73	65.19
229.964	70.19
230.199	66.19
230.433	75.19
230.667	81.19
230.901	65.19
231.136	80.19
231.37	76.19
231.604	80.19
231.838	79.19
232.072	63.19
232.306	90.19
232.541	81.19
232.775	81.19
233.009	93.19
233.243	73.19
233.477	71.19
233.711	75.19
233.945	91.19
234.179	73.19
234.413	76.19
234.647	81.19
234.881	69.19
235.115	68.19
235.349	80.19
235.583	83.19
235.817	77.19
236.051	69.19
236.285	78.19
236.519	88.19
236.753	92.19
236.987	84.19
237.221	72.19
237.455	84.19
237.689	79.19
237.922	75.19
238.156	88.19
238.39	92.19
238.624	72.19
238.858	74.19
239.091	63.19
239.325	78.19
239.559	84.19
239.793	85.19
240.027	83.19
240.26	75.19
240.494	90.19
240.728	99.19
240.961	86.19
241.195	74.19
241.429	73.19
241.662	70.19
241.896	81.19
242.13	80.19
242.363	81.19
242.597	83.19
242.83	74.19
243.064	73.19
243.298	76.19
243.531	87.19
243.765	77.19
243.998	67.19
244.232	96.19
244.465	80.19
244.699	83.19
244.932	65.19
245.166	89.19
245.399	68.19
245.633	91.19
245.866	67.19
246.099	77.19
246.333	84.19
246.566	95.19
246.8	72.19
247.033	88.19
247.266	79.19
247.5	63.19
247.733	77.19
247.966	80.19
248.2	77.19
248.433	77.19
248.666	61.19
248.899	93.19
249.133	96.19
249.366	81.19
249.599	85.19
249.832	84.19
250.066	80.19
250.299	85.19
250.532	81.19
250.765	67.19
250.998	75.19
251.231	63.19
251.465	65.19
251.698	79.19
251.931	87.19
252.164	78.19
252.397	84.19
252.63	81.19
252.863	85.19
253.096	89.19
253.329	84.19
253.562	84.19
253.795	77.19
254.028	87.19
254.261	79.19
254.494	83.19
254.727	80.19
254.96	90.19
255.193	72.19
255.426	87.19
255.659	79.19
255.892	80.19
256.124	85.19
256.357	56.19
256.59	77.19
256.823	86.19
257.056	71.19
257.289	83.19
257.521	78.19
257.754	75.19
257.987	81.19
258.22	79.19
258.452	68.19
258.685	79.19
258.918	84.19
259.151	80.19
259.383	77.19
259.616	77.19
259.849	82.19
260.081	84.19
260.314	89.19
260.547	65.19
260.779	72.19
261.012	83.19
261.244	86.19
261.477	81.19
261.71	89.19
261.942	88.19
262.175	85.19
262.407	96.19
262.64	81.19
262.872	76.19
263.105	82.19
263.337	83.19
263.57	67.19
263.802	81.19
264.035	69.19
264.267	93.19
264.499	81.19
264.732	94.19
264.964	89.19
265.197	83.19
265.429	74.19
265.661	85.19
265.894	78.19
266.126	77.19
266.358	90.19
266.591	76.19
266.823	85.19
267.055	72.19
267.287	84.19
267.52	71.19
267.752	77.19
267.984	78.19
268.216	75.19
268.448	88.19
268.681	71.19
268.913	84.19
269.145	85.19
269.377	66.19
269.609	89.19
269.841	77.19
270.073	71.19
270.306	79.19
270.538	85.19
270.77	80.19
271.002	83.19
271.234	95.19
271.466	86.19
271.698	64.19
271.93	66.19
272.162	87.19
272.394	89.19
272.626	66.19
272.858	69.19
273.09	91.19
273.322	78.19
273.553	83.19
273.785	74.19
274.017	92.19
274.249	92.19
274.481	93.19
274.713	92.19
274.945	89.19
275.176	77.19
275.408	91.19
275.64	104.19
275.872	79.19
276.104	87.19
276.335	68.19
276.567	78.19
276.799	61.19
277.031	77.19
277.262	72.19
277.494	74.19
277.726	83.19
277.957	83.19
278.189	83.19
278.421	66.19
278.652	85.19
278.884	91.19
279.115	85.19
279.347	78.19
279.579	91.19
279.81	74.19
280.042	98.19
280.273	91.19
280.505	71.19
280.736	68.19
280.968	91.19
281.199	77.19
281.431	71.19
281.662	91.19
281.894	78.19
282.125	98.19
282.356	94.19
282.588	90.19
282.819	78.19
283.051	85.19
283.282	72.19
283.513	79.19
283.745	91.19
283.976	74.19
284.207	76.19
284.439	90.19
284.67	85.19
284.901	68.19
285.132	98.19
285.364	67.19
285.595	85.19
285.826	97.19
286.057	84.19
286.288	71.19
286.52	91.19
286.751	77.19
286.982	76.19
287.213	81.19
287.444	79.19
287.675	92.19
287.906	95.19
288.138	90.19
288.369	71.19
288.6	91.19
288.831	74.19
289.062	69.19
289.293	81.19
289.524	80.19
289.755	84.19
289.986	80.19
290.217	77.19
290.448	88.19
290.679	97.19
290.91	68.19
291.141	96.19
291.371	82.19
291.602	88.19
291.833	67.19
292.064	73.19
292.295	77.19
292.526	81.19
292.757	89.19
292.987	81.19
293.218	89.19
293.449	94.19
293.68	88.19
293.91	83.19
294.141	87.19
294.372	78.19
294.603	97.19
294.833	79.19
295.064	84.19
295.295	84.19
295.525	77.19
295.756	87.19
295.987	81.19
296.217	84.19
296.448	83.19
296.679	87.19
296.909	91.19
297.14	76.19
297.37	79.19
297.601	76.19
297.831	86.19
298.062	87.19
298.292	83.19
298.523	72.19
298.753	81.19
298.984	91.19
299.214	83.19
299.445	95.19
299.675	86.19
299.905	71.19
300.136	84.19
300.366	87.19
300.597	87.19
300.827	88.19
301.057	93.19
301.288	81.19
301.518	78.19
301.748	89.19
301.979	97.19
302.209	93.19
302.439	83.19
302.669	86.19
302.9	83.19
303.13	79.19
303.36	72.19
303.59	92.19
303.82	85.19
304.051	70.19
304.281	91.19
304.511	74.19
304.741	92.19
304.971	90.19
305.201	80.19
305.431	83.19
305.661	93.19
305.891	79.19
306.121	84.19
306.352	107.19
306.582	83.19
306.812	86.19
307.042	94.19
307.272	78.19
307.502	86.19
307.731	85.19
307.961	103.19
308.191	96.19
308.421	96.19
308.651	84.19
308.881	77.19
309.111	90.19
309.341	87.19
309.571	82.19
309.8	78.19
310.03	84.19
310.26	93.19
310.49	85.19
310.72	88.19
310.949	101.19
311.179	89.19
311.409	97.19
311.639	79.19
311.868	89.19
312.098	73.19
312.328	84.19
312.557	87.19
312.787	76.19
313.017	78.19
313.246	81.19
313.476	83.19
313.706	90.19
313.935	82.19
314.165	76.19
314.394	87.19
314.624	85.19
314.853	73.19
315.083	87.19
315.312	85.19
315.542	82.19
315.771	95.19
316.001	87.19
316.23	85.19
316.46	91.19
316.689	74.19
316.919	76.19
317.148	77.19
317.377	84.19
317.607	77.19
317.836	88.19
318.065	88.19
318.295	75.19
318.524	71.19
318.753	71.19
318.983	95.19
319.212	85.19
319.441	84.19
319.67	78.19
319.9	93.19
320.129	91.19
320.358	77.19
320.587	101.19
320.816	102.19
321.046	77.19
321.275	81.19
321.504	75.19
321.733	96.19
321.962	85.19
322.191	83.19
322.42	83.19
322.649	75.19
322.878	80.19
323.108	78.19
323.337	82.19
323.566	78.19
323.795	86.19
324.024	101.19
324.253	98.19
324.482	86.19
324.71	71.19
324.939	77.19
325.168	88.19
325.397	93.19
325.626	76.19
325.855	87.19
326.084	79.19
326.313	83.19
326.542	83.19
326.77	88.19
326.999	88.19
327.228	85.19
327.457	83.19
327.686	80.19
327.914	98.19
328.143	99.19
328.372	67.19
328.6	89.19
328.829	91.19
329.058	79.19
329.287	83.19
329.515	90.19
329.744	80.19
329.972	86.19
330.201	75.19
330.43	83.19
330.658	88.19
330.887	75.19
331.115	80.19
331.344	77.19
331.572	83.19
331.801	85.19
332.03	76.19
332.258	96.19
332.486	81.19
332.715	81.19
332.943	90.19
333.172	87.19
333.4	90.19
333.629	84.19
333.857	85.19
334.085	86.19
334.314	69.19
334.542	79.19
334.771	67.19
334.999	84.19
335.227	79.19
335.455	76.19
335.684	101.19
335.912	89.19
336.14	92.19
336.369	83.19
336.597	81.19
336.825	76.19
337.053	90.19
337.281	91.19
337.51	86.19
337.738	93.19
337.966	87.19
338.194	77.19
338.422	75.19
338.65	80.19
338.878	83.19
339.106	99.19
339.334	76.19
339.562	85.19
339.79	81.19
340.018	78.19
340.246	81.19
340.474	92.19
340.702	77.19
340.93	88.19
341.158	85.19
341.386	99.19
341.614	85.19
341.842	92.19
342.07	89.19
342.298	89.19
342.526	90.19
342.754	72.19
342.981	89.19
343.209	75.19
343.437	100.19
343.665	94.19
343.893	87.19
344.12	91.19
344.348	101.19
344.576	103.19
344.804	92.19
345.031	81.19
345.259	97.19
345.487	84.19
345.714	93.19
345.942	79.19
346.17	82.19
346.397	83.19
346.625	82.19
346.853	91.19
347.08	95.19
347.308	81.19
347.535	72.19
347.763	77.19
347.99	79.19
348.218	82.19
348.445	70.19
348.673	85.19
348.9	83.19
349.128	91.19
349.355	85.19
349.583	81.19
349.81	77.19
350.037	78.19
350.265	91.19
350.492	81.19
350.72	85.19
350.947	86.19
351.174	81.19
351.402	87.19
351.629	86.19
351.856	86.19
352.083	77.19
352.311	83.19
352.538	81.19
352.765	87.19
352.992	94.19
353.22	75.19
353.447	72.19
353.674	90.19
353.901	91.19
354.128	93.19
354.355	76.19
354.583	75.19
354.81	82.19
355.037	89.19
355.264	71.19
355.491	85.19
355.718	86.19
355.945	91.19
356.172	86.19
356.399	95.19
356.626	84.19
356.853	75.19
357.08	65.19
357.307	81.19
357.534	93.19
357.761	83.19
357.988	87.19
358.215	86.19
358.441	94.19
358.668	103.19
358.895	95.19
359.122	74.19
359.349	83.19
359.576	68.19
359.802	83.19
360.029	88.19
360.256	93.19
360.483	76.19
360.709	78.19
360.936	83.19
361.163	87.19
361.39	83.19
361.616	90.19
361.843	74.19
362.07	92.19
362.296	93.19
362.523	98.19
362.749	95.19
362.976	87.19
363.203	91.19
363.429	75.19
363.656	75.19
363.882	87.19
364.109	91.19
364.335	85.19
364.562	98.19
364.788	91.19
365.015	80.19
365.241	82.19
365.468	104.19
365.694	95.19
365.92	74.19
366.147	92.19
366.373	91.19
366.599	90.19
366.826	88.19
367.052	95.19
367.278	97.19
367.505	78.19
367.731	95.19
367.957	85.19
368.184	79.19
368.41	83.19
368.636	87.19
368.862	79.19
369.089	84.19
369.315	83.19
369.541	105.19
369.767	85.19
369.993	77.19
370.219	83.19
370.445	81.19
370.672	87.19
370.898	87.19
371.124	79.19
371.35	86.19
371.576	74.19
371.802	83.19
372.028	75.19
372.254	87.19
372.48	81.19
372.706	78.19
372.932	81.19
373.158	88.19
373.384	106.19
373.61	79.19
373.835	89.19
374.061	94.19
374.287	89.19
374.513	85.19
374.739	80.19
374.965	76.19
375.191	83.19
375.416	77.19
375.642	75.19
375.868	89.19
376.094	92.19
376.319	84.19
376.545	98.19
376.771	76.19
376.997	79.19
377.222	80.19
377.448	89.19
377.674	72.19
377.899	90.19
378.125	82.19
378.35	94.19
378.576	83.19
378.802	80.19
379.027	79.19
379.253	75.19
379.478	79.19
379.704	88.19
379.929	91.19
380.155	85.19
380.38	85.19
380.606	77.19
380.831	78.19
381.057	88.19
381.282	91.19
381.507	91.19
381.733	96.19
381.958	80.19
382.184	94.19
382.409	89.19
382.634	82.19
382.86	87.19
383.085	98.19
383.31	87.19
383.535	81.19
383.761	81.19
383.986	90.19
384.211	75.19
384.436	72.19
384.662	65.19
384.887	88.19
385.112	91.19
385.337	76.19
385.562	84.19
385.787	86.19
386.013	82.19
386.238	97.19
386.463	85.19
386.688	98.19
386.913	87.19
387.138	107.19
387.363	76.19
387.588	81.19
387.813	81.19
388.038	77.19
388.263	91.19
388.488	69.19
388.713	58.19
388.938	79.19
389.163	92.19
389.387	85.19
389.612	82.19
389.837	83.19
390.062	86.19
390.287	87.19
390.512	72.19
390.736	82.19
390.961	81.19
391.186	74.19
391.411	81.19
391.636	83.19
391.86	85.19
392.085	84.19
392.31	80.19
392.534	76.19
392.759	77.19
392.984	93.19
393.208	117.19
393.433	145.19
393.658	133.19
393.882	97.19
394.107	82.19
394.331	103.19
394.556	99.19
394.78	84.19
395.005	87.19
395.229	89.19
395.454	90.19
395.678	85.19
395.903	89.19
396.127	92.19
396.352	92.19
396.576	90.19
396.801	106.19
397.025	138.19
397.249	99.19
397.474	97.19
397.698	76.19
397.922	72.19
398.147	88.19
398.371	77.19
398.595	83.19
398.82	85.19
399.044	87.19
399.268	93.19
399.492	87.19
399.717	88.19
399.941	87.19
400.165	77.19
400.389	82.19
400.613	74.19
400.837	83.19
401.062	84.19
401.286	83.19
401.51	83.19
401.734	85.19
401.958	88.19
402.182	83.19
402.406	77.19
402.63	87.19
402.854	73.19
403.078	67.19
403.302	84.19
403.526	78.19
403.75	73.19
403.974	89.19
404.198	81.19
404.422	93.19
404.645	90.19
404.869	81.19
405.093	81.19
405.317	76.19
405.541	87.19
405.765	75.19
405.988	89.19
406.212	94.19
406.436	88.19
406.66	90.19
406.883	80.19
407.107	85.19
407.331	80.19
407.555	78.19
407.778	85.19
408.002	79.19
408.226	79.19
408.449	83.19
408.673	79.19
408.896	77.19
409.12	73.19
409.344	100.19
409.567	100.19
409.791	78.19
410.014	95.19
410.238	76.19
410.461	93.19
410.685	76.19
410.908	88.19
411.132	104.19
411.355	84.19
411.578	90.19
411.802	92.19
412.025	87.19
412.249	75.19
412.472	64.19
412.695	88.19
412.919	94.19
413.142	82.19
413.365	90.19
413.589	77.19
413.812	65.19
414.035	83.19
414.258	78.19
414.482	82.19
414.705	81.19
414.928	83.19
415.151	75.19
415.374	75.19
415.597	78.19
415.821	90.19
416.044	80.19
416.267	81.19
416.49	68.19
416.713	91.19
416.936	76.19
417.159	91.19
417.382	84.19
417.605	100.19
417.828	85.19
418.051	75.19
418.274	81.19
418.497	79.19
418.72	84.19
418.943	88.19
419.166	83.19
419.389	72.19
419.611	78.19
419.834	77.19
420.057	78.19
420.28	75.19
420.503	76.19
420.726	70.19
420.948	83.19
421.171	83.19
421.394	94.19
421.617	97.19
421.839	77.19
422.062	82.19
422.285	87.19
422.507	111.19
422.73	169.19
422.953	136.19
423.175	92.19
423.398	95.19
423.621	79.19
423.843	85.19
424.066	71.19
424.288	90.19
424.511	92.19
424.733	80.19
424.956	90.19
425.178	86.19
425.401	84.19
425.623	90.19
425.846	80.19
426.068	58.19
426.291	89.19
426.513	83.19
426.735	70.19
426.958	85.19
427.18	75.19
427.402	85.19
427.625	73.19
427.847	76.19
428.069	76.19
428.292	102.19
428.514	88.19
428.736	93.19
428.958	99.19
429.181	76.19
429.403	80.19
429.625	89.19
429.847	77.19
430.069	94.19
430.292	99.19
430.514	105.19
430.736	95.19
430.958	99.19
431.18	97.19
431.402	90.19
431.624	71.19
431.846	83.19
432.068	107.19
432.29	84.19
432.512	87.19
432.734	82.19
432.956	89.19
433.178	90.19
433.4	86.19
433.622	93.19
433.844	76.19
434.066	82.19
434.287	99.19
434.509	71.19
434.731	92.19
434.953	67.19
435.175	85.19
435.397	97.19
435.618	103.19
435.84	75.19
436.062	83.19
436.284	70.19
436.505	91.19
436.727	71.19
436.949	94.19
437.17	78.19
437.392	83.19
437.614	85.19
437.835	75.19
438.057	81.19
438.278	94.19
438.5	85.19
438.721	91.19
438.943	81.19
439.165	78.19
439.386	70.19
439.608	77.19
439.829	81.19
440.05	82.19
440.272	94.19
440.493	69.19
440.715	93.19
440.936	102.19
441.158	82.19
441.379	85.19
441.6	93.19
441.822	61.19
442.043	81.19
442.264	87.19
442.486	98.19
442.707	74.19
442.928	100.19
443.149	111.19
443.371	99.19
443.592	99.19
443.813	86.19
444.034	89.19
444.255	94.19
444.476	88.19
444.698	84.19
444.919	87.19
445.14	172.19
445.361	128.19
445.582	124.19
445.803	97.19
446.024	84.19
446.245	78.19
446.466	89.19
446.687	79.19
446.908	78.19
447.129	76.19
447.35	89.19
447.571	83.19
447.792	70.19
448.013	61.19
448.234	95.19
448.455	75.19
448.675	79.19
448.896	73.19
449.117	87.19
449.338	76.19
449.559	73.19
449.779	69.19
450	77.19
450.221	76.19
450.442	88.19
450.662	98.19
450.883	77.19
451.104	70.19
451.324	78.19
451.545	99.19
451.766	84.19
451.986	90.19
452.207	78.19
452.428	68.19
452.648	76.19
452.869	87.19
453.089	97.19
453.31	80.19
453.53	89.19
453.751	58.19
453.971	76.19
454.192	75.19
454.412	88.19
454.633	75.19
454.853	92.19
455.073	85.19
455.294	85.19
455.514	74.19
455.734	89.19
455.955	88.19
456.175	91.19
456.395	82.19
456.616	65.19
456.836	88.19
457.056	77.19
457.276	83.19
457.497	78.19
457.717	80.19
457.937	90.19
458.157	88.19
458.377	84.19
458.598	85.19
458.818	88.19
459.038	84.19
459.258	84.19
459.478	86.19
459.698	78.19
459.918	68.19
460.138	76.19
460.358	78.19
460.578	83.19
460.798	86.19
461.018	88.19
461.238	94.19
461.458	77.19
461.678	82.19
461.898	85.19
462.118	89.19
462.338	73.19
462.558	84.19
462.777	83.19
462.997	84.19
463.217	86.19
463.437	88.19
463.657	85.19
463.876	101.19
464.096	87.19
464.316	87.19
464.536	87.19
464.755	81.19
464.975	77.19
465.195	96.19
465.414	87.19
465.634	71.19
465.854	78.19
466.073	81.19
466.293	75.19
466.512	84.19
466.732	76.19
466.951	88.19
467.171	89.19
467.391	69.19
467.61	84.19
467.829	79.19
468.049	85.19
468.268	91.19
468.488	87.19
468.707	91.19
468.927	97.19
469.146	77.19
469.365	72.19
469.585	91.19
469.804	93.19
470.023	84.19
470.243	78.19
470.462	89.19
470.681	81.19
470.901	73.19
471.12	83.19
471.339	79.19
471.558	75.19
471.777	78.19
471.997	65.19
472.216	85.19
472.435	75.19
472.654	77.19
472.873	94.19
473.092	89.19
473.311	82.19
473.53	77.19
473.749	72.19
473.968	87.19
474.187	82.19
474.406	75.19
474.625	75.19
474.844	88.19
475.063	68.19
475.282	85.19
475.501	82.19
475.72	95.19
475.939	78.19
476.158	82.19
476.377	67.19
476.596	78.19
476.814	86.19
477.033	78.19
477.252	74.19
477.471	85.19
477.69	85.19
477.908	88.19
478.127	80.19
478.346	84.19
478.564	81.19
478.783	95.19
479.002	92.19
479.22	81.19
479.439	91.19
479.658	76.19
479.876	72.19
480.095	68.19
480.313	71.19
480.532	77.19
480.751	74.19
480.969	74.19
481.188	91.19
481.406	80.19
481.624	81.19
481.843	76.19
482.061	81.19
482.28	77.19
482.498	93.19
482.717	94.19
482.935	89.19
483.153	74.19
483.372	91.19
483.59	69.19
483.808	63.19
484.027	82.19
484.245	85.19
484.463	83.19
484.681	90.19
484.9	84.19
485.118	86.19
485.336	91.19
485.554	75.19
485.772	87.19
485.99	88.19
486.209	77.19
486.427	77.19
486.645	73.19
486.863	86.19
487.081	89.19
487.299	79.19
487.517	84.19
487.735	85.19
487.953	99.19
488.171	88.19
488.389	83.19
488.607	78.19
488.825	74.19
489.043	84.19
489.261	93.19
489.479	86.19
489.696	77.19
489.914	93.19
490.132	89.19
490.35	89.19
490.568	87.19
490.786	83.19
491.003	83.19
491.221	103.19
491.439	77.19
491.657	83.19
491.874	87.19
492.092	70.19
492.31	81.19
492.527	89.19
492.745	92.19
492.963	92.19
493.18	89.19
493.398	95.19
493.615	87.19
493.833	89.19
494.05	93.19
494.268	91.19
494.485	78.19
494.703	93.19
494.92	70.19
495.138	79.19
495.355	95.19
495.573	99.19
495.79	88.19
496.008	92.19
496.225	83.19
496.442	85.19
496.66	94.19
496.877	88.19
497.094	99.19
497.312	79.19
497.529	97.19
497.746	101.19
497.963	71.19
498.181	91.19
498.398	101.19
498.615	87.19
498.832	91.19
499.049	96.19
499.267	73.19
499.484	79.19
499.701	83.19
499.918	80.19
500.135	84.19
500.352	85.19
500.569	81.19
500.786	78.19
501.003	84.19
501.22	83.19
501.437	95.19
501.654	83.19
501.871	74.19
502.088	82.19
502.305	87.19
502.522	88.19
502.739	87.19
502.956	91.19
503.172	86.19
503.389	78.19
503.606	76.19
503.823	91.19
504.04	83.19
504.256	80.19
504.473	85.19
504.69	100.19
504.907	100.19
505.123	81.19
505.34	91.19
505.557	91.19
505.773	65.19
505.99	76.19
506.207	73.19
506.423	86.19
506.64	88.19
506.856	84.19
507.073	73.19
507.289	83.19
507.506	77.19
507.722	87.19
507.939	83.19
508.155	92.19
508.372	104.19
508.588	84.19
508.805	85.19
509.021	82.19
509.238	93.19
509.454	81.19
509.67	71.19
509.887	93.19
510.103	73.19
510.319	64.19
510.536	81.19
510.752	77.19
510.968	91.19
511.184	103.19
511.401	90.19
511.617	77.19
511.833	75.19
512.049	87.19
512.265	80.19
512.481	93.19
512.698	98.19
512.914	88.19
513.13	74.19
513.346	81.19
513.562	71.19
513.778	88.19
513.994	98.19
514.21	73.19
514.426	92.19
514.642	88.19
514.858	81.19
515.074	82.19
515.29	89.19
515.506	91.19
515.721	77.19
515.937	84.19
516.153	91.19
516.369	85.19
516.585	76.19
516.801	75.19
517.016	67.19
517.232	89.19
517.448	76.19
517.664	87.19
517.879	86.19
518.095	77.19
518.311	97.19
518.527	93.19
518.742	83.19
518.958	96.19
519.173	79.19
519.389	90.19
519.605	94.19
