Data from 15780_1_HRD10591_00050.txt Node
Date: Mon Jan 19 14:18:35 EST 2026
User: Yrep
Spectrometer: HR+D1059
Trigger mode: 1
Integration Time (sec): 1.000000E-1
Scans to average: 1
Electric dark correction enabled: true
Nonlinearity correction enabled: false
Boxcar width: 0
XAxis mode: Wavelengths
Number of Pixels in Spectrum: 2048
>>>>>Begin Spectral Data<<<<<
223.165	-16.31
223.4	-16.31
223.635	-16.31
223.869	-27.31
224.104	-9.31
224.338	-11.31
224.573	-24.31
224.808	-10.31
225.042	-11.31
225.277	-7.31
225.511	-0.31
225.746	8.69
225.98	3.69
226.215	18.69
226.449	14.69
226.683	14.69
226.918	33.69
227.152	23.69
227.387	26.69
227.621	36.69
227.856	49.69
228.09	54.69
228.324	43.69
228.559	56.69
228.793	77.69
229.027	57.69
229.262	63.69
229.496	54.69
229.73	72.69
229.964	79.69
230.199	70.69
230.433	67.69
230.667	87.69
230.901	75.69
231.136	69.69
231.37	80.69
231.604	83.69
231.838	76.69
232.072	75.69
232.306	77.69
232.541	63.69
232.775	86.69
233.009	84.69
233.243	81.69
233.477	95.69
233.711	89.69
233.945	70.69
234.179	75.69
234.413	74.69
234.647	72.69
234.881	79.69
235.115	75.69
235.349	81.69
235.583	85.69
235.817	71.69
236.051	73.69
236.285	72.69
236.519	75.69
236.753	83.69
236.987	78.69
237.221	80.69
237.455	78.69
237.689	69.69
237.922	87.69
238.156	68.69
238.39	68.69
238.624	66.69
238.858	69.69
239.091	70.69
239.325	70.69
239.559	64.69
239.793	82.69
240.027	85.69
240.26	77.69
240.494	81.69
240.728	75.69
240.961	72.69
241.195	83.69
241.429	84.69
241.662	81.69
241.896	77.69
242.13	85.69
242.363	77.69
242.597	74.69
242.83	67.69
243.064	73.69
243.298	61.69
243.531	84.69
243.765	67.69
243.998	85.69
244.232	72.69
244.465	79.69
244.699	58.69
244.932	85.69
245.166	77.69
245.399	63.69
245.633	89.69
245.866	73.69
246.099	69.69
246.333	67.69
246.566	90.69
246.8	62.69
247.033	78.69
247.266	73.69
247.5	67.69
247.733	84.69
247.966	78.69
248.2	75.69
248.433	72.69
248.666	73.69
248.899	87.69
249.133	85.69
249.366	77.69
249.599	81.69
249.832	84.69
250.066	75.69
250.299	80.69
250.532	87.69
250.765	83.69
250.998	73.69
251.231	78.69
251.465	76.69
251.698	86.69
251.931	83.69
252.164	78.69
252.397	71.69
252.63	68.69
252.863	70.69
253.096	78.69
253.329	79.69
253.562	65.69
253.795	56.69
254.028	81.69
254.261	90.69
254.494	76.69
254.727	85.69
254.96	71.69
255.193	78.69
255.426	76.69
255.659	78.69
255.892	81.69
256.124	87.69
256.357	90.69
256.59	77.69
256.823	79.69
257.056	75.69
257.289	64.69
257.521	89.69
257.754	88.69
257.987	64.69
258.22	81.69
258.452	82.69
258.685	59.69
258.918	70.69
259.151	79.69
259.383	83.69
259.616	86.69
259.849	74.69
260.081	80.69
260.314	83.69
260.547	69.69
260.779	63.69
261.012	85.69
261.244	79.69
261.477	83.69
261.71	73.69
261.942	82.69
262.175	71.69
262.407	77.69
262.64	74.69
262.872	87.69
263.105	80.69
263.337	93.69
263.57	81.69
263.802	76.69
264.035	90.69
264.267	81.69
264.499	80.69
264.732	80.69
264.964	82.69
265.197	79.69
265.429	81.69
265.661	93.69
265.894	85.69
266.126	89.69
266.358	84.69
266.591	82.69
266.823	79.69
267.055	75.69
267.287	74.69
267.52	71.69
267.752	81.69
267.984	97.69
268.216	75.69
268.448	81.69
268.681	83.69
268.913	85.69
269.145	82.69
269.377	84.69
269.609	83.69
269.841	84.69
270.073	80.69
270.306	77.69
270.538	80.69
270.77	71.69
271.002	73.69
271.234	72.69
271.466	82.69
271.698	82.69
271.93	76.69
272.162	82.69
272.394	79.69
272.626	74.69
272.858	75.69
273.09	75.69
273.322	86.69
273.553	77.69
273.785	66.69
274.017	80.69
274.249	79.69
274.481	63.69
274.713	88.69
274.945	67.69
275.176	81.69
275.408	87.69
275.64	81.69
275.872	73.69
276.104	77.69
276.335	82.69
276.567	75.69
276.799	73.69
277.031	82.69
277.262	84.69
277.494	77.69
277.726	93.69
277.957	75.69
278.189	90.69
278.421	84.69
278.652	85.69
278.884	76.69
279.115	73.69
279.347	81.69
279.579	73.69
279.81	93.69
280.042	89.69
280.273	77.69
280.505	90.69
280.736	81.69
280.968	72.69
281.199	81.69
281.431	77.69
281.662	75.69
281.894	73.69
282.125	85.69
282.356	75.69
282.588	89.69
282.819	80.69
283.051	75.69
283.282	80.69
283.513	85.69
283.745	77.69
283.976	82.69
284.207	81.69
284.439	81.69
284.67	80.69
284.901	84.69
285.132	69.69
285.364	83.69
285.595	94.69
285.826	77.69
286.057	70.69
286.288	84.69
286.52	97.69
286.751	93.69
286.982	74.69
287.213	87.69
287.444	71.69
287.675	73.69
287.906	94.69
288.138	89.69
288.369	79.69
288.6	89.69
288.831	76.69
289.062	81.69
289.293	91.69
289.524	80.69
289.755	80.69
289.986	85.69
290.217	79.69
290.448	79.69
290.679	72.69
290.91	85.69
291.141	69.69
291.371	82.69
291.602	83.69
291.833	91.69
292.064	81.69
292.295	74.69
292.526	69.69
292.757	102.69
292.987	87.69
293.218	91.69
293.449	89.69
293.68	88.69
293.91	92.69
294.141	97.69
294.372	70.69
294.603	89.69
294.833	85.69
295.064	95.69
295.295	90.69
295.525	90.69
295.756	84.69
295.987	80.69
296.217	81.69
296.448	79.69
296.679	69.69
296.909	88.69
297.14	88.69
297.37	72.69
297.601	80.69
297.831	81.69
298.062	86.69
298.292	80.69
298.523	90.69
298.753	93.69
298.984	87.69
299.214	76.69
299.445	79.69
299.675	99.69
299.905	90.69
300.136	80.69
300.366	77.69
300.597	81.69
300.827	93.69
301.057	86.69
301.288	90.69
301.518	90.69
301.748	84.69
301.979	110.69
302.209	85.69
302.439	77.69
302.669	78.69
302.9	82.69
303.13	72.69
303.36	89.69
303.59	82.69
303.82	75.69
304.051	83.69
304.281	87.69
304.511	73.69
304.741	70.69
304.971	79.69
305.201	79.69
305.431	80.69
305.661	89.69
305.891	99.69
306.121	77.69
306.352	100.69
306.582	87.69
306.812	91.69
307.042	92.69
307.272	83.69
307.502	74.69
307.731	102.69
307.961	97.69
308.191	94.69
308.421	105.69
308.651	77.69
308.881	93.69
309.111	86.69
309.341	96.69
309.571	89.69
309.8	94.69
310.03	83.69
310.26	88.69
310.49	81.69
310.72	73.69
310.949	75.69
311.179	74.69
311.409	78.69
311.639	77.69
311.868	80.69
312.098	87.69
312.328	79.69
312.557	92.69
312.787	78.69
313.017	97.69
313.246	76.69
313.476	73.69
313.706	88.69
313.935	86.69
314.165	82.69
314.394	89.69
314.624	93.69
314.853	79.69
315.083	74.69
315.312	85.69
315.542	98.69
315.771	85.69
316.001	67.69
316.23	77.69
316.46	89.69
316.689	95.69
316.919	79.69
317.148	95.69
317.377	96.69
317.607	75.69
317.836	86.69
318.065	82.69
318.295	70.69
318.524	77.69
318.753	82.69
318.983	89.69
319.212	71.69
319.441	95.69
319.67	90.69
319.9	83.69
320.129	89.69
320.358	98.69
320.587	72.69
320.816	99.69
321.046	94.69
321.275	95.69
321.504	82.69
321.733	79.69
321.962	67.69
322.191	90.69
322.42	81.69
322.649	90.69
322.878	89.69
323.108	72.69
323.337	90.69
323.566	77.69
323.795	75.69
324.024	79.69
324.253	87.69
324.482	95.69
324.71	94.69
324.939	102.69
325.168	87.69
325.397	84.69
325.626	76.69
325.855	77.69
326.084	102.69
326.313	65.69
326.542	87.69
326.77	63.69
326.999	95.69
327.228	71.69
327.457	89.69
327.686	77.69
327.914	75.69
328.143	86.69
328.372	95.69
328.6	81.69
328.829	87.69
329.058	89.69
329.287	79.69
329.515	68.69
329.744	87.69
329.972	81.69
330.201	90.69
330.43	73.69
330.658	92.69
330.887	83.69
331.115	101.69
331.344	85.69
331.572	90.69
331.801	81.69
332.03	74.69
332.258	85.69
332.486	87.69
332.715	88.69
332.943	94.69
333.172	87.69
333.4	77.69
333.629	81.69
333.857	91.69
334.085	82.69
334.314	77.69
334.542	77.69
334.771	80.69
334.999	85.69
335.227	84.69
335.455	82.69
335.684	94.69
335.912	94.69
336.14	92.69
336.369	75.69
336.597	82.69
336.825	69.69
337.053	82.69
337.281	91.69
337.51	85.69
337.738	105.69
337.966	70.69
338.194	79.69
338.422	79.69
338.65	68.69
338.878	82.69
339.106	88.69
339.334	84.69
339.562	88.69
339.79	97.69
340.018	81.69
340.246	81.69
340.474	73.69
340.702	79.69
340.93	77.69
341.158	81.69
341.386	85.69
341.614	75.69
341.842	73.69
342.07	88.69
342.298	86.69
342.526	88.69
342.754	81.69
342.981	76.69
343.209	83.69
343.437	92.69
343.665	82.69
343.893	94.69
344.12	90.69
344.348	89.69
344.576	93.69
344.804	93.69
345.031	94.69
345.259	80.69
345.487	96.69
345.714	94.69
345.942	87.69
346.17	75.69
346.397	87.69
346.625	72.69
346.853	92.69
347.08	74.69
347.308	87.69
347.535	70.69
347.763	85.69
347.99	95.69
348.218	84.69
348.445	88.69
348.673	81.69
348.9	83.69
349.128	90.69
349.355	90.69
349.583	83.69
349.81	80.69
350.037	83.69
350.265	87.69
350.492	97.69
350.72	84.69
350.947	87.69
351.174	82.69
351.402	93.69
351.629	82.69
351.856	81.69
352.083	87.69
352.311	93.69
352.538	75.69
352.765	89.69
352.992	90.69
353.22	90.69
353.447	78.69
353.674	87.69
353.901	84.69
354.128	84.69
354.355	72.69
354.583	80.69
354.81	85.69
355.037	80.69
355.264	78.69
355.491	76.69
355.718	84.69
355.945	75.69
356.172	86.69
356.399	91.69
356.626	79.69
356.853	88.69
357.08	84.69
357.307	85.69
357.534	84.69
357.761	79.69
357.988	79.69
358.215	98.69
358.441	83.69
358.668	74.69
358.895	83.69
359.122	77.69
359.349	90.69
359.576	83.69
359.802	81.69
360.029	87.69
360.256	83.69
360.483	82.69
360.709	92.69
360.936	89.69
361.163	60.69
361.39	83.69
361.616	92.69
361.843	81.69
362.07	97.69
362.296	85.69
362.523	85.69
362.749	93.69
362.976	96.69
363.203	94.69
363.429	95.69
363.656	80.69
363.882	90.69
364.109	84.69
364.335	102.69
364.562	104.69
364.788	88.69
365.015	94.69
365.241	84.69
365.468	86.69
365.694	91.69
365.92	99.69
366.147	89.69
366.373	99.69
366.599	87.69
366.826	90.69
367.052	89.69
367.278	85.69
367.505	82.69
367.731	88.69
367.957	79.69
368.184	97.69
368.41	86.69
368.636	82.69
368.862	83.69
369.089	76.69
369.315	78.69
369.541	84.69
369.767	77.69
369.993	88.69
370.219	75.69
370.445	85.69
370.672	84.69
370.898	89.69
371.124	94.69
371.35	85.69
371.576	89.69
371.802	96.69
372.028	86.69
372.254	94.69
372.48	75.69
372.706	65.69
372.932	77.69
373.158	86.69
373.384	90.69
373.61	104.69
373.835	87.69
374.061	111.69
374.287	78.69
374.513	90.69
374.739	75.69
374.965	98.69
375.191	90.69
375.416	74.69
375.642	70.69
375.868	89.69
376.094	77.69
376.319	81.69
376.545	83.69
376.771	80.69
376.997	97.69
377.222	87.69
377.448	83.69
377.674	73.69
377.899	81.69
378.125	77.69
378.35	84.69
378.576	89.69
378.802	78.69
379.027	89.69
379.253	90.69
379.478	82.69
379.704	86.69
379.929	95.69
380.155	92.69
380.38	79.69
380.606	85.69
380.831	90.69
381.057	85.69
381.282	91.69
381.507	92.69
381.733	93.69
381.958	71.69
382.184	81.69
382.409	69.69
382.634	81.69
382.86	87.69
383.085	85.69
383.31	73.69
383.535	89.69
383.761	74.69
383.986	93.69
384.211	79.69
384.436	85.69
384.662	80.69
384.887	101.69
385.112	86.69
385.337	82.69
385.562	79.69
385.787	85.69
386.013	87.69
386.238	81.69
386.463	90.69
386.688	103.69
386.913	84.69
387.138	67.69
387.363	95.69
387.588	88.69
387.813	74.69
388.038	70.69
388.263	83.69
388.488	73.69
388.713	76.69
388.938	81.69
389.163	77.69
389.387	70.69
389.612	84.69
389.837	82.69
390.062	85.69
390.287	78.69
390.512	89.69
390.736	77.69
390.961	73.69
391.186	81.69
391.411	82.69
391.636	82.69
391.86	90.69
392.085	68.69
392.31	75.69
392.534	82.69
392.759	106.69
392.984	114.69
393.208	167.69
393.433	229.69
393.658	180.69
393.882	104.69
394.107	107.69
394.331	94.69
394.556	98.69
394.78	89.69
395.005	85.69
395.229	86.69
395.454	110.69
395.678	93.69
395.903	94.69
396.127	113.69
396.352	110.69
396.576	144.69
396.801	179.69
397.025	193.69
397.249	130.69
397.474	87.69
397.698	79.69
397.922	87.69
398.147	86.69
398.371	69.69
398.595	87.69
398.82	77.69
399.044	83.69
399.268	82.69
399.492	90.69
399.717	90.69
399.941	83.69
400.165	82.69
400.389	75.69
400.613	91.69
400.837	88.69
401.062	78.69
401.286	72.69
401.51	94.69
401.734	85.69
401.958	79.69
402.182	72.69
402.406	82.69
402.63	96.69
402.854	77.69
403.078	74.69
403.302	67.69
403.526	74.69
403.75	88.69
403.974	92.69
404.198	100.69
404.422	137.69
404.645	170.69
404.869	133.69
405.093	102.69
405.317	105.69
405.541	77.69
405.765	97.69
405.988	91.69
406.212	75.69
406.436	93.69
406.66	93.69
406.883	86.69
407.107	85.69
407.331	93.69
407.555	102.69
407.778	98.69
408.002	99.69
408.226	99.69
408.449	76.69
408.673	97.69
408.896	82.69
409.12	87.69
409.344	83.69
409.567	89.69
409.791	99.69
410.014	89.69
410.238	88.69
410.461	83.69
410.685	87.69
410.908	82.69
411.132	78.69
411.355	79.69
411.578	91.69
411.802	78.69
412.025	69.69
412.249	91.69
412.472	75.69
412.695	94.69
412.919	80.69
413.142	84.69
413.365	85.69
413.589	86.69
413.812	88.69
414.035	78.69
414.258	81.69
414.482	84.69
414.705	84.69
414.928	66.69
415.151	67.69
415.374	84.69
415.597	89.69
415.821	81.69
416.044	73.69
416.267	79.69
416.49	91.69
416.713	84.69
416.936	81.69
417.159	98.69
417.382	73.69
417.605	77.69
417.828	88.69
418.051	81.69
418.274	85.69
418.497	79.69
418.72	76.69
418.943	83.69
419.166	86.69
419.389	73.69
419.611	85.69
419.834	84.69
420.057	83.69
420.28	80.69
420.503	71.69
420.726	77.69
420.948	82.69
421.171	81.69
421.394	93.69
421.617	77.69
421.839	91.69
422.062	115.69
422.285	113.69
422.507	180.69
422.73	277.69
422.953	262.69
423.175	125.69
423.398	104.69
423.621	88.69
423.843	97.69
424.066	103.69
424.288	90.69
424.511	74.69
424.733	71.69
424.956	85.69
425.178	80.69
425.401	84.69
425.623	97.69
425.846	78.69
426.068	88.69
426.291	89.69
426.513	81.69
426.735	79.69
426.958	80.69
427.18	73.69
427.402	97.69
427.625	73.69
427.847	77.69
428.069	86.69
428.292	106.69
428.514	122.69
428.736	76.69
428.958	93.69
429.181	105.69
429.403	93.69
429.625	99.69
429.847	107.69
430.069	115.69
430.292	125.69
430.514	142.69
430.736	98.69
430.958	115.69
431.18	103.69
431.402	96.69
431.624	90.69
431.846	106.69
432.068	117.69
432.29	85.69
432.512	77.69
432.734	83.69
432.956	87.69
433.178	77.69
433.4	89.69
433.622	76.69
433.844	92.69
434.066	96.69
434.287	85.69
434.509	83.69
434.731	88.69
434.953	85.69
435.175	72.69
435.397	93.69
435.618	86.69
435.84	73.69
436.062	73.69
436.284	91.69
436.505	80.69
436.727	71.69
436.949	74.69
437.17	78.69
437.392	86.69
437.614	72.69
437.835	86.69
438.057	85.69
438.278	88.69
438.5	64.69
438.721	74.69
438.943	70.69
439.165	96.69
439.386	78.69
439.608	90.69
439.829	77.69
440.05	87.69
440.272	85.69
440.493	82.69
440.715	85.69
440.936	79.69
441.158	73.69
441.379	78.69
441.6	82.69
441.822	84.69
442.043	78.69
442.264	94.69
442.486	99.69
442.707	120.69
442.928	98.69
443.149	82.69
443.371	117.69
443.592	153.69
443.813	132.69
444.034	89.69
444.255	81.69
444.476	85.69
444.698	88.69
444.919	97.69
445.14	179.69
445.361	163.69
445.582	173.69
445.803	151.69
446.024	109.69
446.245	81.69
446.466	73.69
446.687	77.69
446.908	89.69
447.129	89.69
447.35	81.69
447.571	80.69
447.792	85.69
448.013	78.69
448.234	80.69
448.455	69.69
448.675	91.69
448.896	87.69
449.117	75.69
449.338	54.69
449.559	86.69
449.779	83.69
450	87.69
450.221	84.69
450.442	80.69
450.662	82.69
450.883	71.69
451.104	87.69
451.324	74.69
451.545	89.69
451.766	79.69
451.986	61.69
452.207	93.69
452.428	95.69
452.648	72.69
452.869	87.69
453.089	68.69
453.31	77.69
453.53	69.69
453.751	75.69
453.971	68.69
454.192	73.69
454.412	83.69
454.633	84.69
454.853	95.69
455.073	88.69
455.294	78.69
455.514	90.69
455.734	85.69
455.955	75.69
456.175	87.69
456.395	99.69
456.616	75.69
456.836	69.69
457.056	83.69
457.276	93.69
457.497	74.69
457.717	91.69
457.937	85.69
458.157	83.69
458.377	85.69
458.598	89.69
458.818	104.69
459.038	89.69
459.258	82.69
459.478	92.69
459.698	90.69
459.918	89.69
460.138	90.69
460.358	79.69
460.578	95.69
460.798	109.69
461.018	89.69
461.238	96.69
461.458	74.69
461.678	76.69
461.898	86.69
462.118	88.69
462.338	89.69
462.558	82.69
462.777	82.69
462.997	79.69
463.217	89.69
463.437	80.69
463.657	74.69
463.876	87.69
464.096	85.69
464.316	83.69
464.536	81.69
464.755	79.69
464.975	70.69
465.195	79.69
465.414	72.69
465.634	89.69
465.854	81.69
466.073	81.69
466.293	72.69
466.512	80.69
466.732	87.69
466.951	77.69
467.171	85.69
467.391	66.69
467.61	85.69
467.829	82.69
468.049	87.69
468.268	81.69
468.488	90.69
468.707	82.69
468.927	80.69
469.146	85.69
469.365	73.69
469.585	81.69
469.804	77.69
470.023	82.69
470.243	77.69
470.462	75.69
470.681	86.69
470.901	77.69
471.12	87.69
471.339	66.69
471.558	77.69
471.777	68.69
471.997	84.69
472.216	93.69
472.435	73.69
472.654	97.69
472.873	86.69
473.092	88.69
473.311	79.69
473.53	78.69
473.749	66.69
473.968	85.69
474.187	82.69
474.406	89.69
474.625	79.69
474.844	78.69
475.063	79.69
475.282	73.69
475.501	86.69
475.72	86.69
475.939	85.69
476.158	84.69
476.377	77.69
476.596	72.69
476.814	85.69
477.033	82.69
477.252	76.69
477.471	84.69
477.69	94.69
477.908	92.69
478.127	90.69
478.346	94.69
478.564	72.69
478.783	63.69
479.002	95.69
479.22	74.69
479.439	81.69
479.658	77.69
479.876	70.69
480.095	87.69
480.313	80.69
480.532	85.69
480.751	89.69
480.969	68.69
481.188	88.69
481.406	87.69
481.624	82.69
481.843	76.69
482.061	80.69
482.28	89.69
482.498	86.69
482.717	90.69
482.935	84.69
483.153	66.69
483.372	81.69
483.59	83.69
483.808	86.69
484.027	93.69
484.245	92.69
484.463	86.69
484.681	104.69
484.9	85.69
485.118	87.69
485.336	84.69
485.554	68.69
485.772	89.69
485.99	89.69
486.209	82.69
486.427	87.69
486.645	80.69
486.863	83.69
487.081	83.69
487.299	99.69
487.517	83.69
487.735	100.69
487.953	111.69
488.171	86.69
488.389	87.69
488.607	84.69
488.825	91.69
489.043	71.69
489.261	97.69
489.479	78.69
489.696	80.69
489.914	80.69
490.132	88.69
490.35	93.69
490.568	94.69
490.786	79.69
491.003	75.69
491.221	73.69
491.439	81.69
491.657	79.69
491.874	95.69
492.092	89.69
492.31	71.69
492.527	90.69
492.745	83.69
492.963	81.69
493.18	83.69
493.398	89.69
493.615	86.69
493.833	72.69
494.05	79.69
494.268	69.69
494.485	88.69
494.703	75.69
494.92	87.69
495.138	85.69
495.355	83.69
495.573	98.69
495.79	80.69
496.008	84.69
496.225	78.69
496.442	79.69
496.66	84.69
496.877	87.69
497.094	94.69
497.312	84.69
497.529	89.69
497.746	75.69
497.963	74.69
498.181	81.69
498.398	101.69
498.615	80.69
498.832	83.69
499.049	93.69
499.267	94.69
499.484	76.69
499.701	101.69
499.918	89.69
500.135	79.69
500.352	84.69
500.569	90.69
500.786	79.69
501.003	93.69
501.22	74.69
501.437	85.69
501.654	73.69
501.871	90.69
502.088	89.69
502.305	83.69
502.522	87.69
502.739	90.69
502.956	90.69
503.172	88.69
503.389	74.69
503.606	92.69
503.823	82.69
504.04	83.69
504.256	98.69
504.473	97.69
504.69	101.69
504.907	96.69
505.123	86.69
505.34	93.69
505.557	96.69
505.773	92.69
505.99	93.69
506.207	83.69
506.423	84.69
506.64	83.69
506.856	94.69
507.073	71.69
507.289	87.69
507.506	78.69
507.722	84.69
507.939	95.69
508.155	85.69
508.372	76.69
508.588	93.69
508.805	94.69
509.021	79.69
509.238	98.69
509.454	75.69
509.67	83.69
509.887	77.69
510.103	84.69
510.319	88.69
510.536	81.69
510.752	89.69
510.968	95.69
511.184	94.69
511.401	98.69
511.617	75.69
511.833	97.69
512.049	92.69
512.265	89.69
512.481	85.69
512.698	85.69
512.914	85.69
513.13	78.69
513.346	63.69
513.562	83.69
513.778	86.69
513.994	96.69
514.21	90.69
514.426	81.69
514.642	88.69
514.858	89.69
515.074	89.69
515.29	97.69
515.506	80.69
515.721	80.69
515.937	94.69
516.153	102.69
516.369	84.69
516.585	85.69
516.801	89.69
517.016	89.69
517.232	68.69
517.448	93.69
517.664	77.69
517.879	88.69
518.095	85.69
518.311	88.69
518.527	83.69
518.742	91.69
518.958	114.69
519.173	109.69
