Data from 15780_1_HRD10591_00025.txt Node
Date: Mon Jan 19 14:18:22 EST 2026
User: Yrep
Spectrometer: HR+D1059
Trigger mode: 1
Integration Time (sec): 1.000000E-1
Scans to average: 1
Electric dark correction enabled: true
Nonlinearity correction enabled: false
Boxcar width: 0
XAxis mode: Wavelengths
Number of Pixels in Spectrum: 2048
>>>>>Begin Spectral Data<<<<<
223.165	-6.06
223.4	-6.06
223.635	-6.06
223.869	-21.06
224.104	-17.06
224.338	-24.06
224.573	-20.06
224.808	-5.06
225.042	-4.06
225.277	-5.06
225.511	1.94
225.746	-7.06
225.98	0.94
226.215	9.94
226.449	30.94
226.683	6.94
226.918	28.94
227.152	29.94
227.387	48.94
227.621	38.94
227.856	55.94
228.09	62.94
228.324	50.94
228.559	63.94
228.793	63.94
229.027	63.94
229.262	72.94
229.496	75.94
229.73	74.94
229.964	63.94
230.199	80.94
230.433	69.94
230.667	70.94
230.901	71.94
231.136	73.94
231.37	84.94
231.604	76.94
231.838	85.94
232.072	86.94
232.306	84.94
232.541	78.94
232.775	78.94
233.009	89.94
233.243	69.94
233.477	97.94
233.711	87.94
233.945	94.94
234.179	86.94
234.413	74.94
234.647	76.94
234.881	68.94
235.115	96.94
235.349	83.94
235.583	86.94
235.817	75.94
236.051	84.94
236.285	67.94
236.519	90.94
236.753	76.94
236.987	76.94
237.221	59.94
237.455	83.94
237.689	85.94
237.922	79.94
238.156	72.94
238.39	78.94
238.624	71.94
238.858	70.94
239.091	64.94
239.325	72.94
239.559	79.94
239.793	62.94
240.027	81.94
240.26	82.94
240.494	73.94
240.728	80.94
240.961	78.94
241.195	80.94
241.429	78.94
241.662	61.94
241.896	71.94
242.13	92.94
242.363	72.94
242.597	81.94
242.83	54.94
243.064	72.94
243.298	73.94
243.531	75.94
243.765	81.94
243.998	72.94
244.232	60.94
244.465	81.94
244.699	95.94
244.932	63.94
245.166	74.94
245.399	78.94
245.633	70.94
245.866	71.94
246.099	68.94
246.333	82.94
246.566	80.94
246.8	69.94
247.033	75.94
247.266	82.94
247.5	86.94
247.733	78.94
247.966	78.94
248.2	66.94
248.433	84.94
248.666	92.94
248.899	94.94
249.133	78.94
249.366	79.94
249.599	87.94
249.832	72.94
250.066	78.94
250.299	78.94
250.532	86.94
250.765	80.94
250.998	82.94
251.231	78.94
251.465	89.94
251.698	67.94
251.931	82.94
252.164	80.94
252.397	80.94
252.63	86.94
252.863	79.94
253.096	76.94
253.329	74.94
253.562	82.94
253.795	82.94
254.028	75.94
254.261	82.94
254.494	75.94
254.727	88.94
254.96	98.94
255.193	74.94
255.426	70.94
255.659	89.94
255.892	81.94
256.124	75.94
256.357	84.94
256.59	66.94
256.823	86.94
257.056	88.94
257.289	81.94
257.521	92.94
257.754	73.94
257.987	86.94
258.22	83.94
258.452	71.94
258.685	65.94
258.918	76.94
259.151	86.94
259.383	85.94
259.616	72.94
259.849	75.94
260.081	75.94
260.314	72.94
260.547	80.94
260.779	76.94
261.012	78.94
261.244	70.94
261.477	82.94
261.71	84.94
261.942	76.94
262.175	87.94
262.407	82.94
262.64	97.94
262.872	94.94
263.105	86.94
263.337	78.94
263.57	82.94
263.802	79.94
264.035	92.94
264.267	88.94
264.499	84.94
264.732	81.94
264.964	83.94
265.197	87.94
265.429	74.94
265.661	91.94
265.894	89.94
266.126	98.94
266.358	86.94
266.591	75.94
266.823	86.94
267.055	82.94
267.287	82.94
267.52	87.94
267.752	76.94
267.984	78.94
268.216	80.94
268.448	76.94
268.681	88.94
268.913	67.94
269.145	79.94
269.377	83.94
269.609	67.94
269.841	87.94
270.073	76.94
270.306	84.94
270.538	88.94
270.77	70.94
271.002	89.94
271.234	76.94
271.466	71.94
271.698	81.94
271.93	70.94
272.162	89.94
272.394	99.94
272.626	83.94
272.858	89.94
273.09	89.94
273.322	78.94
273.553	82.94
273.785	93.94
274.017	81.94
274.249	84.94
274.481	76.94
274.713	77.94
274.945	76.94
275.176	89.94
275.408	77.94
275.64	65.94
275.872	90.94
276.104	73.94
276.335	82.94
276.567	90.94
276.799	83.94
277.031	84.94
277.262	64.94
277.494	77.94
277.726	77.94
277.957	86.94
278.189	83.94
278.421	86.94
278.652	97.94
278.884	86.94
279.115	81.94
279.347	85.94
279.579	86.94
279.81	99.94
280.042	95.94
280.273	89.94
280.505	98.94
280.736	74.94
280.968	91.94
281.199	83.94
281.431	84.94
281.662	67.94
281.894	88.94
282.125	83.94
282.356	87.94
282.588	101.94
282.819	72.94
283.051	82.94
283.282	80.94
283.513	81.94
283.745	71.94
283.976	68.94
284.207	72.94
284.439	84.94
284.67	95.94
284.901	79.94
285.132	75.94
285.364	103.94
285.595	91.94
285.826	76.94
286.057	88.94
286.288	76.94
286.52	89.94
286.751	87.94
286.982	84.94
287.213	73.94
287.444	86.94
287.675	84.94
287.906	81.94
288.138	85.94
288.369	85.94
288.6	90.94
288.831	82.94
289.062	72.94
289.293	89.94
289.524	87.94
289.755	92.94
289.986	75.94
290.217	75.94
290.448	86.94
290.679	83.94
290.91	89.94
291.141	87.94
291.371	92.94
291.602	77.94
291.833	89.94
292.064	80.94
292.295	79.94
292.526	68.94
292.757	87.94
292.987	86.94
293.218	94.94
293.449	84.94
293.68	103.94
293.91	84.94
294.141	89.94
294.372	79.94
294.603	75.94
294.833	80.94
295.064	75.94
295.295	82.94
295.525	70.94
295.756	86.94
295.987	78.94
296.217	84.94
296.448	90.94
296.679	88.94
296.909	83.94
297.14	82.94
297.37	89.94
297.601	80.94
297.831	84.94
298.062	89.94
298.292	77.94
298.523	91.94
298.753	82.94
298.984	91.94
299.214	81.94
299.445	90.94
299.675	99.94
299.905	86.94
300.136	97.94
300.366	87.94
300.597	98.94
300.827	87.94
301.057	86.94
301.288	86.94
301.518	82.94
301.748	87.94
301.979	108.94
302.209	105.94
302.439	93.94
302.669	97.94
302.9	86.94
303.13	89.94
303.36	81.94
303.59	88.94
303.82	90.94
304.051	81.94
304.281	88.94
304.511	76.94
304.741	76.94
304.971	68.94
305.201	75.94
305.431	83.94
305.661	78.94
305.891	98.94
306.121	101.94
306.352	90.94
306.582	77.94
306.812	78.94
307.042	82.94
307.272	85.94
307.502	96.94
307.731	89.94
307.961	92.94
308.191	96.94
308.421	84.94
308.651	100.94
308.881	95.94
309.111	79.94
309.341	102.94
309.571	97.94
309.8	84.94
310.03	78.94
310.26	69.94
310.49	81.94
310.72	98.94
310.949	94.94
311.179	84.94
311.409	87.94
311.639	80.94
311.868	96.94
312.098	86.94
312.328	85.94
312.557	98.94
312.787	85.94
313.017	100.94
313.246	78.94
313.476	86.94
313.706	78.94
313.935	84.94
314.165	80.94
314.394	72.94
314.624	72.94
314.853	73.94
315.083	85.94
315.312	90.94
315.542	78.94
315.771	93.94
316.001	97.94
316.23	94.94
316.46	82.94
316.689	72.94
316.919	83.94
317.148	96.94
317.377	84.94
317.607	92.94
317.836	95.94
318.065	96.94
318.295	85.94
318.524	80.94
318.753	93.94
318.983	79.94
319.212	84.94
319.441	87.94
319.67	80.94
319.9	91.94
320.129	87.94
320.358	80.94
320.587	92.94
320.816	82.94
321.046	98.94
321.275	95.94
321.504	90.94
321.733	84.94
321.962	81.94
322.191	89.94
322.42	85.94
322.649	81.94
322.878	89.94
323.108	87.94
323.337	85.94
323.566	88.94
323.795	86.94
324.024	93.94
324.253	91.94
324.482	90.94
324.71	91.94
324.939	85.94
325.168	91.94
325.397	87.94
325.626	79.94
325.855	80.94
326.084	82.94
326.313	76.94
326.542	102.94
326.77	73.94
326.999	89.94
327.228	83.94
327.457	86.94
327.686	84.94
327.914	80.94
328.143	89.94
328.372	86.94
328.6	100.94
328.829	89.94
329.058	86.94
329.287	99.94
329.515	71.94
329.744	83.94
329.972	91.94
330.201	83.94
330.43	74.94
330.658	84.94
330.887	95.94
331.115	71.94
331.344	70.94
331.572	96.94
331.801	81.94
332.03	87.94
332.258	90.94
332.486	88.94
332.715	94.94
332.943	80.94
333.172	77.94
333.4	80.94
333.629	78.94
333.857	87.94
334.085	90.94
334.314	95.94
334.542	100.94
334.771	113.94
334.999	96.94
335.227	91.94
335.455	87.94
335.684	91.94
335.912	105.94
336.14	83.94
336.369	84.94
336.597	90.94
336.825	82.94
337.053	87.94
337.281	96.94
337.51	104.94
337.738	86.94
337.966	93.94
338.194	90.94
338.422	87.94
338.65	87.94
338.878	88.94
339.106	74.94
339.334	92.94
339.562	87.94
339.79	89.94
340.018	82.94
340.246	84.94
340.474	86.94
340.702	91.94
340.93	86.94
341.158	82.94
341.386	73.94
341.614	76.94
341.842	92.94
342.07	86.94
342.298	83.94
342.526	85.94
342.754	90.94
342.981	71.94
343.209	82.94
343.437	103.94
343.665	95.94
343.893	82.94
344.12	99.94
344.348	84.94
344.576	90.94
344.804	96.94
345.031	75.94
345.259	91.94
345.487	91.94
345.714	84.94
345.942	81.94
346.17	94.94
346.397	80.94
346.625	71.94
346.853	82.94
347.08	86.94
347.308	84.94
347.535	102.94
347.763	84.94
347.99	92.94
348.218	97.94
348.445	82.94
348.673	87.94
348.9	89.94
349.128	89.94
349.355	97.94
349.583	82.94
349.81	78.94
350.037	80.94
350.265	95.94
350.492	86.94
350.72	84.94
350.947	90.94
351.174	89.94
351.402	81.94
351.629	64.94
351.856	72.94
352.083	75.94
352.311	80.94
352.538	98.94
352.765	88.94
352.992	85.94
353.22	84.94
353.447	88.94
353.674	87.94
353.901	76.94
354.128	84.94
354.355	76.94
354.583	86.94
354.81	82.94
355.037	87.94
355.264	94.94
355.491	87.94
355.718	80.94
355.945	79.94
356.172	91.94
356.399	83.94
356.626	80.94
356.853	86.94
357.08	106.94
357.307	96.94
357.534	102.94
357.761	100.94
357.988	89.94
358.215	88.94
358.441	101.94
358.668	99.94
358.895	84.94
359.122	98.94
359.349	76.94
359.576	76.94
359.802	80.94
360.029	88.94
360.256	96.94
360.483	81.94
360.709	107.94
360.936	94.94
361.163	91.94
361.39	79.94
361.616	84.94
361.843	85.94
362.07	103.94
362.296	97.94
362.523	95.94
362.749	101.94
362.976	119.94
363.203	124.94
363.429	88.94
363.656	109.94
363.882	95.94
364.109	112.94
364.335	127.94
364.562	130.94
364.788	96.94
365.015	111.94
365.241	91.94
365.468	87.94
365.694	89.94
365.92	95.94
366.147	86.94
366.373	88.94
366.599	87.94
366.826	91.94
367.052	81.94
367.278	64.94
367.505	81.94
367.731	79.94
367.957	81.94
368.184	85.94
368.41	89.94
368.636	84.94
368.862	102.94
369.089	75.94
369.315	97.94
369.541	78.94
369.767	76.94
369.993	69.94
370.219	92.94
370.445	87.94
370.672	90.94
370.898	78.94
371.124	99.94
371.35	89.94
371.576	77.94
371.802	104.94
372.028	96.94
372.254	89.94
372.48	96.94
372.706	99.94
372.932	83.94
373.158	89.94
373.384	109.94
373.61	127.94
373.835	122.94
374.061	108.94
374.287	86.94
374.513	120.94
374.739	123.94
374.965	114.94
375.191	103.94
375.416	108.94
375.642	94.94
375.868	89.94
376.094	101.94
376.319	93.94
376.545	95.94
376.771	96.94
376.997	86.94
377.222	98.94
377.448	77.94
377.674	84.94
377.899	92.94
378.125	87.94
378.35	93.94
378.576	100.94
378.802	95.94
379.027	94.94
379.253	86.94
379.478	78.94
379.704	74.94
379.929	95.94
380.155	88.94
380.38	88.94
380.606	72.94
380.831	91.94
381.057	75.94
381.282	97.94
381.507	93.94
381.733	100.94
381.958	101.94
382.184	91.94
382.409	112.94
382.634	109.94
382.86	103.94
383.085	103.94
383.31	120.94
383.535	121.94
383.761	98.94
383.986	91.94
384.211	98.94
384.436	101.94
384.662	79.94
384.887	70.94
385.112	90.94
385.337	107.94
385.562	90.94
385.787	103.94
386.013	98.94
386.238	105.94
386.463	99.94
386.688	104.94
386.913	94.94
387.138	107.94
387.363	102.94
387.588	78.94
387.813	104.94
388.038	92.94
388.263	93.94
388.488	94.94
388.713	109.94
388.938	104.94
389.163	90.94
389.387	86.94
389.612	97.94
389.837	92.94
390.062	74.94
390.287	84.94
390.512	105.94
390.736	93.94
390.961	86.94
391.186	82.94
391.411	87.94
391.636	81.94
391.86	98.94
392.085	99.94
392.31	113.94
392.534	104.94
392.759	130.94
392.984	186.94
393.208	322.94
393.433	513.94
393.658	373.94
393.882	151.94
394.107	120.94
394.331	107.94
394.556	128.94
394.78	111.94
395.005	92.94
395.229	84.94
395.454	110.94
395.678	103.94
395.903	116.94
396.127	148.94
396.352	183.94
396.576	200.94
396.801	323.94
397.025	381.94
397.249	193.94
397.474	131.94
397.698	95.94
397.922	89.94
398.147	98.94
398.371	73.94
398.595	71.94
398.82	79.94
399.044	102.94
399.268	85.94
399.492	91.94
399.717	86.94
399.941	103.94
400.165	95.94
400.389	85.94
400.613	92.94
400.837	82.94
401.062	89.94
401.286	94.94
401.51	73.94
401.734	76.94
401.958	93.94
402.182	82.94
402.406	80.94
402.63	89.94
402.854	85.94
403.078	89.94
403.302	88.94
403.526	85.94
403.75	86.94
403.974	94.94
404.198	110.94
404.422	116.94
404.645	135.94
404.869	107.94
405.093	88.94
405.317	91.94
405.541	81.94
405.765	90.94
405.988	96.94
406.212	84.94
406.436	80.94
406.66	95.94
406.883	85.94
407.107	96.94
407.331	97.94
407.555	105.94
407.778	133.94
408.002	124.94
408.226	88.94
408.449	87.94
408.673	98.94
408.896	96.94
409.12	87.94
409.344	103.94
409.567	104.94
409.791	99.94
410.014	104.94
410.238	72.94
410.461	84.94
410.685	92.94
410.908	83.94
411.132	81.94
411.355	88.94
411.578	80.94
411.802	83.94
412.025	74.94
412.249	99.94
412.472	86.94
412.695	90.94
412.919	78.94
413.142	87.94
413.365	103.94
413.589	83.94
413.812	84.94
414.035	77.94
414.258	90.94
414.482	79.94
414.705	89.94
414.928	74.94
415.151	84.94
415.374	74.94
415.597	74.94
415.821	84.94
416.044	82.94
416.267	87.94
416.49	85.94
416.713	84.94
416.936	93.94
417.159	79.94
417.382	84.94
417.605	84.94
417.828	86.94
418.051	90.94
418.274	87.94
418.497	80.94
418.72	90.94
418.943	95.94
419.166	89.94
419.389	72.94
419.611	82.94
419.834	82.94
420.057	99.94
420.28	101.94
420.503	78.94
420.726	93.94
420.948	86.94
421.171	89.94
421.394	92.94
421.617	119.94
421.839	125.94
422.062	116.94
422.285	163.94
422.507	300.94
422.73	522.94
422.953	447.94
423.175	200.94
423.398	124.94
423.621	110.94
423.843	106.94
424.066	102.94
424.288	86.94
424.511	89.94
424.733	94.94
424.956	82.94
425.178	87.94
425.401	72.94
425.623	93.94
425.846	98.94
426.068	91.94
426.291	73.94
426.513	71.94
426.735	63.94
426.958	75.94
427.18	106.94
427.402	122.94
427.625	93.94
427.847	98.94
428.069	110.94
428.292	134.94
428.514	142.94
428.736	117.94
428.958	149.94
429.181	143.94
429.403	106.94
429.625	106.94
429.847	140.94
430.069	163.94
430.292	198.94
430.514	203.94
430.736	156.94
430.958	154.94
431.18	106.94
431.402	99.94
431.624	92.94
431.846	122.94
432.068	151.94
432.29	106.94
432.512	92.94
432.734	93.94
432.956	90.94
433.178	90.94
433.4	81.94
433.622	83.94
433.844	93.94
434.066	91.94
434.287	74.94
434.509	74.94
434.731	69.94
434.953	76.94
435.175	86.94
435.397	91.94
435.618	71.94
435.84	85.94
436.062	67.94
436.284	84.94
436.505	80.94
436.727	82.94
436.949	67.94
437.17	84.94
437.392	84.94
437.614	84.94
437.835	97.94
438.057	94.94
438.278	95.94
438.5	90.94
438.721	100.94
438.943	83.94
439.165	92.94
439.386	89.94
439.608	88.94
439.829	102.94
440.05	84.94
440.272	82.94
440.493	97.94
440.715	85.94
440.936	82.94
441.158	98.94
441.379	83.94
441.6	102.94
441.822	84.94
442.043	88.94
442.264	91.94
442.486	136.94
442.707	152.94
442.928	116.94
443.149	111.94
443.371	145.94
443.592	255.94
443.813	206.94
444.034	113.94
444.255	103.94
444.476	96.94
444.698	102.94
444.919	89.94
445.14	214.94
445.361	217.94
445.582	333.94
445.803	280.94
446.024	129.94
446.245	93.94
446.466	102.94
446.687	83.94
446.908	86.94
447.129	72.94
447.35	91.94
447.571	74.94
447.792	79.94
448.013	86.94
448.234	87.94
448.455	98.94
448.675	92.94
448.896	75.94
449.117	91.94
449.338	82.94
449.559	78.94
449.779	78.94
450	83.94
450.221	92.94
450.442	86.94
450.662	79.94
450.883	77.94
451.104	87.94
451.324	75.94
451.545	80.94
451.766	77.94
451.986	80.94
452.207	86.94
452.428	94.94
452.648	99.94
452.869	95.94
453.089	92.94
453.31	98.94
453.53	86.94
453.751	82.94
453.971	86.94
454.192	82.94
454.412	74.94
454.633	75.94
454.853	95.94
455.073	87.94
455.294	84.94
455.514	97.94
455.734	87.94
455.955	84.94
456.175	84.94
456.395	85.94
456.616	71.94
456.836	86.94
457.056	86.94
457.276	90.94
457.497	81.94
457.717	91.94
457.937	92.94
458.157	119.94
458.377	126.94
458.598	101.94
458.818	112.94
459.038	103.94
459.258	80.94
459.478	86.94
459.698	88.94
459.918	78.94
460.138	78.94
460.358	101.94
460.578	112.94
460.798	140.94
461.018	131.94
461.238	95.94
461.458	98.94
461.678	86.94
461.898	88.94
462.118	101.94
462.338	88.94
462.558	105.94
462.777	86.94
462.997	92.94
463.217	82.94
463.437	93.94
463.657	83.94
463.876	86.94
464.096	84.94
464.316	88.94
464.536	80.94
464.755	97.94
464.975	100.94
465.195	76.94
465.414	87.94
465.634	87.94
465.854	97.94
466.073	76.94
466.293	84.94
466.512	91.94
466.732	102.94
466.951	94.94
467.171	86.94
467.391	88.94
467.61	99.94
467.829	86.94
468.049	84.94
468.268	85.94
468.488	78.94
468.707	84.94
468.927	73.94
469.146	80.94
469.365	88.94
469.585	84.94
469.804	82.94
470.023	100.94
470.243	99.94
470.462	89.94
470.681	103.94
470.901	76.94
471.12	84.94
471.339	74.94
471.558	90.94
471.777	82.94
471.997	104.94
472.216	90.94
472.435	87.94
472.654	84.94
472.873	109.94
473.092	95.94
473.311	98.94
473.53	83.94
473.749	90.94
473.968	92.94
474.187	96.94
474.406	79.94
474.625	85.94
474.844	93.94
475.063	79.94
475.282	85.94
475.501	89.94
475.72	84.94
475.939	82.94
476.158	92.94
476.377	86.94
476.596	91.94
476.814	84.94
477.033	74.94
477.252	96.94
477.471	85.94
477.69	93.94
477.908	79.94
478.127	88.94
478.346	103.94
478.564	84.94
478.783	93.94
479.002	94.94
479.22	79.94
479.439	96.94
479.658	87.94
479.876	87.94
480.095	87.94
480.313	91.94
480.532	87.94
480.751	96.94
480.969	95.94
481.188	97.94
481.406	88.94
481.624	80.94
481.843	98.94
482.061	86.94
482.28	100.94
482.498	94.94
482.717	93.94
482.935	77.94
483.153	89.94
483.372	90.94
483.59	107.94
483.808	96.94
484.027	100.94
484.245	108.94
484.463	99.94
484.681	102.94
484.9	97.94
485.118	98.94
485.336	94.94
485.554	83.94
485.772	95.94
485.99	98.94
486.209	84.94
486.427	88.94
486.645	94.94
486.863	84.94
487.081	84.94
487.299	90.94
487.517	90.94
487.735	120.94
487.953	163.94
488.171	133.94
488.389	113.94
488.607	100.94
488.825	95.94
489.043	83.94
489.261	90.94
489.479	90.94
489.696	90.94
489.914	101.94
490.132	80.94
490.35	95.94
490.568	76.94
490.786	76.94
491.003	83.94
491.221	98.94
491.439	81.94
491.657	83.94
491.874	93.94
492.092	89.94
492.31	94.94
492.527	99.94
492.745	86.94
492.963	86.94
493.18	100.94
493.398	90.94
493.615	87.94
493.833	85.94
494.05	96.94
494.268	86.94
494.485	92.94
494.703	90.94
494.92	91.94
495.138	87.94
495.355	92.94
495.573	84.94
495.79	99.94
496.008	95.94
496.225	87.94
496.442	97.94
496.66	90.94
496.877	85.94
497.094	98.94
497.312	94.94
497.529	86.94
497.746	86.94
497.963	100.94
498.181	99.94
498.398	116.94
498.615	96.94
498.832	106.94
499.049	103.94
499.267	112.94
499.484	94.94
499.701	90.94
499.918	107.94
500.135	116.94
500.352	89.94
500.569	79.94
500.786	96.94
501.003	90.94
501.22	88.94
501.437	75.94
501.654	106.94
501.871	107.94
502.088	84.94
502.305	95.94
502.522	91.94
502.739	97.94
502.956	99.94
503.172	94.94
503.389	88.94
503.606	78.94
503.823	107.94
504.04	116.94
504.256	132.94
504.473	119.94
504.69	94.94
504.907	94.94
505.123	87.94
505.34	82.94
505.557	92.94
505.773	77.94
505.99	95.94
506.207	89.94
506.423	84.94
506.64	88.94
506.856	90.94
507.073	94.94
507.289	80.94
507.506	91.94
507.722	96.94
507.939	89.94
508.155	85.94
508.372	82.94
508.588	99.94
508.805	94.94
509.021	82.94
509.238	86.94
509.454	102.94
509.67	91.94
509.887	87.94
510.103	94.94
510.319	74.94
510.536	102.94
510.752	99.94
510.968	94.94
511.184	103.94
511.401	95.94
511.617	89.94
511.833	82.94
512.049	85.94
512.265	82.94
512.481	100.94
512.698	84.94
512.914	92.94
513.13	91.94
513.346	111.94
513.562	114.94
513.778	75.94
513.994	90.94
514.21	99.94
514.426	102.94
514.642	91.94
514.858	91.94
515.074	69.94
515.29	94.94
515.506	96.94
515.721	88.94
515.937	86.94
516.153	98.94
516.369	79.94
516.585	82.94
516.801	104.94
517.016	104.94
517.232	82.94
517.448	95.94
