Data from 15780_1_HRD10591_00039.txt Node
Date: Mon Jan 19 14:18:29 EST 2026
User: Yrep
Spectrometer: HR+D1059
Trigger mode: 1
Integration Time (sec): 1.000000E-1
Scans to average: 1
Electric dark correction enabled: true
Nonlinearity correction enabled: false
Boxcar width: 0
XAxis mode: Wavelengths
Number of Pixels in Spectrum: 2048
>>>>>Begin Spectral Data<<<<<
223.165	-18.5
223.4	-18.5
223.635	-18.5
223.869	-31.5
224.104	-18.5
224.338	-13.5
224.573	-0.5
224.808	-23.5
225.042	8.5
225.277	-14.5
225.511	-4.5
225.746	2.5
225.98	-3.5
226.215	18.5
226.449	9.5
226.683	24.5
226.918	29.5
227.152	35.5
227.387	41.5
227.621	36.5
227.856	43.5
228.09	48.5
228.324	62.5
228.559	65.5
228.793	56.5
229.027	67.5
229.262	62.5
229.496	77.5
229.73	67.5
229.964	66.5
230.199	76.5
230.433	76.5
230.667	74.5
230.901	82.5
231.136	76.5
231.37	72.5
231.604	83.5
231.838	90.5
232.072	85.5
232.306	77.5
232.541	82.5
232.775	85.5
233.009	86.5
233.243	71.5
233.477	72.5
233.711	77.5
233.945	92.5
234.179	82.5
234.413	89.5
234.647	83.5
234.881	84.5
235.115	77.5
235.349	78.5
235.583	81.5
235.817	80.5
236.051	77.5
236.285	64.5
236.519	61.5
236.753	77.5
236.987	81.5
237.221	75.5
237.455	72.5
237.689	72.5
237.922	60.5
238.156	82.5
238.39	76.5
238.624	74.5
238.858	81.5
239.091	60.5
239.325	77.5
239.559	82.5
239.793	73.5
240.027	86.5
240.26	72.5
240.494	76.5
240.728	85.5
240.961	62.5
241.195	69.5
241.429	71.5
241.662	57.5
241.896	80.5
242.13	71.5
242.363	72.5
242.597	78.5
242.83	71.5
243.064	76.5
243.298	85.5
243.531	88.5
243.765	82.5
243.998	84.5
244.232	81.5
244.465	89.5
244.699	83.5
244.932	72.5
245.166	68.5
245.399	95.5
245.633	88.5
245.866	63.5
246.099	70.5
246.333	70.5
246.566	69.5
246.8	69.5
247.033	78.5
247.266	68.5
247.5	76.5
247.733	85.5
247.966	80.5
248.2	83.5
248.433	83.5
248.666	74.5
248.899	69.5
249.133	85.5
249.366	82.5
249.599	75.5
249.832	79.5
250.066	82.5
250.299	84.5
250.532	85.5
250.765	72.5
250.998	92.5
251.231	84.5
251.465	86.5
251.698	91.5
251.931	86.5
252.164	87.5
252.397	72.5
252.63	58.5
252.863	79.5
253.096	81.5
253.329	99.5
253.562	83.5
253.795	68.5
254.028	80.5
254.261	70.5
254.494	66.5
254.727	89.5
254.96	90.5
255.193	77.5
255.426	90.5
255.659	64.5
255.892	81.5
256.124	67.5
256.357	95.5
256.59	86.5
256.823	79.5
257.056	90.5
257.289	87.5
257.521	93.5
257.754	70.5
257.987	84.5
258.22	88.5
258.452	62.5
258.685	66.5
258.918	84.5
259.151	100.5
259.383	75.5
259.616	84.5
259.849	89.5
260.081	88.5
260.314	83.5
260.547	75.5
260.779	75.5
261.012	79.5
261.244	91.5
261.477	87.5
261.71	92.5
261.942	78.5
262.175	81.5
262.407	72.5
262.64	82.5
262.872	86.5
263.105	90.5
263.337	72.5
263.57	86.5
263.802	84.5
264.035	67.5
264.267	84.5
264.499	82.5
264.732	93.5
264.964	89.5
265.197	74.5
265.429	83.5
265.661	106.5
265.894	91.5
266.126	82.5
266.358	77.5
266.591	68.5
266.823	72.5
267.055	91.5
267.287	92.5
267.52	83.5
267.752	89.5
267.984	88.5
268.216	86.5
268.448	89.5
268.681	80.5
268.913	75.5
269.145	81.5
269.377	79.5
269.609	82.5
269.841	79.5
270.073	92.5
270.306	98.5
270.538	82.5
270.77	70.5
271.002	81.5
271.234	74.5
271.466	77.5
271.698	81.5
271.93	84.5
272.162	90.5
272.394	89.5
272.626	83.5
272.858	88.5
273.09	83.5
273.322	76.5
273.553	85.5
273.785	84.5
274.017	76.5
274.249	82.5
274.481	89.5
274.713	87.5
274.945	98.5
275.176	84.5
275.408	84.5
275.64	86.5
275.872	80.5
276.104	73.5
276.335	79.5
276.567	68.5
276.799	103.5
277.031	91.5
277.262	80.5
277.494	88.5
277.726	80.5
277.957	90.5
278.189	77.5
278.421	86.5
278.652	78.5
278.884	91.5
279.115	87.5
279.347	87.5
279.579	85.5
279.81	80.5
280.042	88.5
280.273	82.5
280.505	82.5
280.736	98.5
280.968	89.5
281.199	83.5
281.431	78.5
281.662	86.5
281.894	83.5
282.125	81.5
282.356	93.5
282.588	77.5
282.819	78.5
283.051	93.5
283.282	78.5
283.513	103.5
283.745	89.5
283.976	90.5
284.207	84.5
284.439	106.5
284.67	97.5
284.901	82.5
285.132	86.5
285.364	84.5
285.595	86.5
285.826	79.5
286.057	74.5
286.288	94.5
286.52	86.5
286.751	87.5
286.982	79.5
287.213	84.5
287.444	75.5
287.675	76.5
287.906	86.5
288.138	85.5
288.369	92.5
288.6	82.5
288.831	69.5
289.062	82.5
289.293	105.5
289.524	96.5
289.755	90.5
289.986	69.5
290.217	72.5
290.448	80.5
290.679	89.5
290.91	87.5
291.141	93.5
291.371	100.5
291.602	79.5
291.833	88.5
292.064	85.5
292.295	84.5
292.526	92.5
292.757	81.5
292.987	78.5
293.218	90.5
293.449	92.5
293.68	85.5
293.91	90.5
294.141	90.5
294.372	77.5
294.603	87.5
294.833	92.5
295.064	86.5
295.295	90.5
295.525	88.5
295.756	91.5
295.987	86.5
296.217	85.5
296.448	85.5
296.679	82.5
296.909	92.5
297.14	76.5
297.37	76.5
297.601	88.5
297.831	88.5
298.062	98.5
298.292	86.5
298.523	92.5
298.753	88.5
298.984	92.5
299.214	99.5
299.445	99.5
299.675	86.5
299.905	82.5
300.136	108.5
300.366	97.5
300.597	79.5
300.827	77.5
301.057	92.5
301.288	96.5
301.518	74.5
301.748	89.5
301.979	112.5
302.209	107.5
302.439	92.5
302.669	83.5
302.9	85.5
303.13	86.5
303.36	77.5
303.59	88.5
303.82	90.5
304.051	90.5
304.281	101.5
304.511	82.5
304.741	79.5
304.971	81.5
305.201	91.5
305.431	67.5
305.661	101.5
305.891	86.5
306.121	89.5
306.352	85.5
306.582	77.5
306.812	97.5
307.042	100.5
307.272	82.5
307.502	96.5
307.731	89.5
307.961	104.5
308.191	85.5
308.421	87.5
308.651	91.5
308.881	105.5
309.111	103.5
309.341	96.5
309.571	89.5
309.8	86.5
310.03	104.5
310.26	84.5
310.49	78.5
310.72	80.5
310.949	72.5
311.179	84.5
311.409	87.5
311.639	88.5
311.868	89.5
312.098	105.5
312.328	82.5
312.557	98.5
312.787	97.5
313.017	90.5
313.246	88.5
313.476	78.5
313.706	90.5
313.935	87.5
314.165	100.5
314.394	91.5
314.624	83.5
314.853	89.5
315.083	86.5
315.312	86.5
315.542	90.5
315.771	81.5
316.001	108.5
316.23	86.5
316.46	96.5
316.689	83.5
316.919	80.5
317.148	91.5
317.377	86.5
317.607	83.5
317.836	96.5
318.065	108.5
318.295	104.5
318.524	99.5
318.753	94.5
318.983	80.5
319.212	76.5
319.441	81.5
319.67	90.5
319.9	88.5
320.129	91.5
320.358	89.5
320.587	88.5
320.816	79.5
321.046	88.5
321.275	83.5
321.504	92.5
321.733	73.5
321.962	101.5
322.191	84.5
322.42	84.5
322.649	89.5
322.878	94.5
323.108	91.5
323.337	94.5
323.566	92.5
323.795	98.5
324.024	89.5
324.253	100.5
324.482	96.5
324.71	101.5
324.939	99.5
325.168	79.5
325.397	82.5
325.626	76.5
325.855	68.5
326.084	89.5
326.313	86.5
326.542	81.5
326.77	94.5
326.999	84.5
327.228	86.5
327.457	78.5
327.686	97.5
327.914	90.5
328.143	85.5
328.372	90.5
328.6	86.5
328.829	97.5
329.058	68.5
329.287	96.5
329.515	84.5
329.744	82.5
329.972	83.5
330.201	100.5
330.43	81.5
330.658	93.5
330.887	92.5
331.115	91.5
331.344	83.5
331.572	102.5
331.801	80.5
332.03	73.5
332.258	88.5
332.486	69.5
332.715	82.5
332.943	83.5
333.172	96.5
333.4	90.5
333.629	93.5
333.857	73.5
334.085	88.5
334.314	90.5
334.542	93.5
334.771	93.5
334.999	105.5
335.227	93.5
335.455	84.5
335.684	84.5
335.912	92.5
336.14	104.5
336.369	90.5
336.597	95.5
336.825	87.5
337.053	94.5
337.281	99.5
337.51	78.5
337.738	86.5
337.966	86.5
338.194	81.5
338.422	100.5
338.65	73.5
338.878	96.5
339.106	91.5
339.334	90.5
339.562	83.5
339.79	70.5
340.018	93.5
340.246	89.5
340.474	88.5
340.702	78.5
340.93	83.5
341.158	92.5
341.386	78.5
341.614	82.5
341.842	94.5
342.07	77.5
342.298	77.5
342.526	87.5
342.754	75.5
342.981	85.5
343.209	98.5
343.437	91.5
343.665	89.5
343.893	84.5
344.12	93.5
344.348	94.5
344.576	95.5
344.804	77.5
345.031	81.5
345.259	72.5
345.487	84.5
345.714	92.5
345.942	86.5
346.17	81.5
346.397	76.5
346.625	87.5
346.853	96.5
347.08	86.5
347.308	86.5
347.535	78.5
347.763	72.5
347.99	81.5
348.218	83.5
348.445	86.5
348.673	75.5
348.9	84.5
349.128	95.5
349.355	83.5
349.583	96.5
349.81	97.5
350.037	94.5
350.265	83.5
350.492	96.5
350.72	90.5
350.947	80.5
351.174	81.5
351.402	85.5
351.629	93.5
351.856	90.5
352.083	77.5
352.311	89.5
352.538	74.5
352.765	84.5
352.992	96.5
353.22	78.5
353.447	93.5
353.674	97.5
353.901	84.5
354.128	74.5
354.355	84.5
354.583	91.5
354.81	84.5
355.037	85.5
355.264	73.5
355.491	87.5
355.718	98.5
355.945	76.5
356.172	87.5
356.399	89.5
356.626	84.5
356.853	100.5
357.08	99.5
357.307	91.5
357.534	91.5
357.761	100.5
357.988	91.5
358.215	82.5
358.441	96.5
358.668	97.5
358.895	88.5
359.122	67.5
359.349	85.5
359.576	87.5
359.802	79.5
360.029	89.5
360.256	81.5
360.483	84.5
360.709	78.5
360.936	100.5
361.163	96.5
361.39	84.5
361.616	94.5
361.843	97.5
362.07	106.5
362.296	96.5
362.523	89.5
362.749	80.5
362.976	104.5
363.203	106.5
363.429	98.5
363.656	96.5
363.882	91.5
364.109	99.5
364.335	92.5
364.562	109.5
364.788	104.5
365.015	96.5
365.241	94.5
365.468	85.5
365.694	92.5
365.92	93.5
366.147	76.5
366.373	76.5
366.599	90.5
366.826	79.5
367.052	92.5
367.278	90.5
367.505	91.5
367.731	81.5
367.957	79.5
368.184	87.5
368.41	101.5
368.636	90.5
368.862	78.5
369.089	83.5
369.315	92.5
369.541	83.5
369.767	81.5
369.993	79.5
370.219	88.5
370.445	86.5
370.672	97.5
370.898	98.5
371.124	111.5
371.35	72.5
371.576	90.5
371.802	86.5
372.028	105.5
372.254	84.5
372.48	84.5
372.706	79.5
372.932	81.5
373.158	100.5
373.384	105.5
373.61	116.5
373.835	114.5
374.061	98.5
374.287	98.5
374.513	98.5
374.739	101.5
374.965	86.5
375.191	105.5
375.416	92.5
375.642	85.5
375.868	95.5
376.094	90.5
376.319	91.5
376.545	96.5
376.771	76.5
376.997	83.5
377.222	92.5
377.448	92.5
377.674	73.5
377.899	80.5
378.125	72.5
378.35	91.5
378.576	76.5
378.802	72.5
379.027	77.5
379.253	100.5
379.478	92.5
379.704	91.5
379.929	68.5
380.155	89.5
380.38	76.5
380.606	84.5
380.831	92.5
381.057	93.5
381.282	89.5
381.507	90.5
381.733	89.5
381.958	90.5
382.184	105.5
382.409	97.5
382.634	108.5
382.86	106.5
383.085	103.5
383.31	85.5
383.535	108.5
383.761	88.5
383.986	85.5
384.211	94.5
384.436	85.5
384.662	91.5
384.887	81.5
385.112	100.5
385.337	88.5
385.562	88.5
385.787	101.5
386.013	105.5
386.238	101.5
386.463	78.5
386.688	86.5
386.913	97.5
387.138	92.5
387.363	92.5
387.588	102.5
387.813	84.5
388.038	109.5
388.263	102.5
388.488	88.5
388.713	91.5
388.938	89.5
389.163	86.5
389.387	88.5
389.612	82.5
389.837	102.5
390.062	78.5
390.287	94.5
390.512	85.5
390.736	94.5
390.961	78.5
391.186	84.5
391.411	84.5
391.636	86.5
391.86	88.5
392.085	90.5
392.31	81.5
392.534	89.5
392.759	134.5
392.984	181.5
393.208	327.5
393.433	489.5
393.658	372.5
393.882	158.5
394.107	96.5
394.331	126.5
394.556	122.5
394.78	112.5
395.005	115.5
395.229	75.5
395.454	101.5
395.678	93.5
395.903	132.5
396.127	160.5
396.352	183.5
396.576	212.5
396.801	311.5
397.025	386.5
397.249	193.5
397.474	98.5
397.698	102.5
397.922	91.5
398.147	100.5
398.371	101.5
398.595	88.5
398.82	96.5
399.044	84.5
399.268	85.5
399.492	77.5
399.717	89.5
399.941	89.5
400.165	76.5
400.389	79.5
400.613	72.5
400.837	75.5
401.062	87.5
401.286	82.5
401.51	90.5
401.734	70.5
401.958	90.5
402.182	86.5
402.406	92.5
402.63	76.5
402.854	73.5
403.078	85.5
403.302	73.5
403.526	84.5
403.75	83.5
403.974	87.5
404.198	114.5
404.422	144.5
404.645	145.5
404.869	122.5
405.093	114.5
405.317	82.5
405.541	94.5
405.765	98.5
405.988	94.5
406.212	98.5
406.436	88.5
406.66	71.5
406.883	104.5
407.107	85.5
407.331	85.5
407.555	104.5
407.778	107.5
408.002	102.5
408.226	93.5
408.449	78.5
408.673	88.5
408.896	90.5
409.12	102.5
409.344	84.5
409.567	105.5
409.791	96.5
410.014	105.5
410.238	84.5
410.461	77.5
410.685	97.5
410.908	104.5
411.132	81.5
411.355	75.5
411.578	98.5
411.802	73.5
412.025	74.5
412.249	74.5
412.472	78.5
412.695	86.5
412.919	98.5
413.142	89.5
413.365	86.5
413.589	81.5
413.812	84.5
414.035	86.5
414.258	91.5
414.482	69.5
414.705	81.5
414.928	84.5
415.151	83.5
415.374	89.5
415.597	93.5
415.821	83.5
416.044	88.5
416.267	81.5
416.49	83.5
416.713	95.5
416.936	83.5
417.159	73.5
417.382	77.5
417.605	88.5
417.828	88.5
418.051	91.5
418.274	84.5
418.497	89.5
418.72	93.5
418.943	79.5
419.166	73.5
419.389	87.5
419.611	84.5
419.834	92.5
420.057	90.5
420.28	96.5
420.503	83.5
420.726	92.5
420.948	85.5
421.171	86.5
421.394	94.5
421.617	105.5
421.839	112.5
422.062	109.5
422.285	142.5
422.507	251.5
422.73	438.5
422.953	401.5
423.175	158.5
423.398	114.5
423.621	97.5
423.843	88.5
424.066	88.5
424.288	97.5
424.511	82.5
424.733	81.5
424.956	90.5
425.178	85.5
425.401	84.5
425.623	76.5
425.846	84.5
426.068	85.5
426.291	87.5
426.513	93.5
426.735	88.5
426.958	85.5
427.18	100.5
427.402	84.5
427.625	94.5
427.847	94.5
428.069	88.5
428.292	121.5
428.514	146.5
428.736	104.5
428.958	143.5
429.181	122.5
429.403	101.5
429.625	110.5
429.847	130.5
430.069	192.5
430.292	199.5
430.514	180.5
430.736	128.5
430.958	148.5
431.18	98.5
431.402	87.5
431.624	97.5
431.846	122.5
432.068	146.5
432.29	105.5
432.512	100.5
432.734	92.5
432.956	90.5
433.178	76.5
433.4	86.5
433.622	83.5
433.844	100.5
434.066	89.5
434.287	78.5
434.509	84.5
434.731	89.5
434.953	84.5
435.175	94.5
435.397	81.5
435.618	86.5
435.84	94.5
436.062	89.5
436.284	72.5
436.505	84.5
436.727	89.5
436.949	84.5
437.17	82.5
437.392	86.5
437.614	92.5
437.835	84.5
438.057	94.5
438.278	88.5
438.5	83.5
438.721	86.5
438.943	92.5
439.165	84.5
439.386	98.5
439.608	81.5
439.829	74.5
440.05	68.5
440.272	93.5
440.493	92.5
440.715	95.5
440.936	94.5
441.158	88.5
441.379	81.5
441.6	80.5
441.822	82.5
442.043	92.5
442.264	96.5
442.486	121.5
442.707	166.5
442.928	123.5
443.149	100.5
443.371	155.5
443.592	232.5
443.813	205.5
444.034	107.5
444.255	100.5
444.476	84.5
444.698	94.5
444.919	94.5
445.14	188.5
445.361	210.5
445.582	304.5
445.803	249.5
446.024	117.5
446.245	92.5
446.466	72.5
446.687	89.5
446.908	76.5
447.129	88.5
447.35	71.5
447.571	90.5
447.792	78.5
448.013	77.5
448.234	90.5
448.455	84.5
448.675	84.5
448.896	79.5
449.117	75.5
449.338	80.5
449.559	72.5
449.779	89.5
450	84.5
450.221	93.5
450.442	82.5
450.662	82.5
450.883	89.5
451.104	82.5
451.324	71.5
451.545	84.5
451.766	94.5
451.986	82.5
452.207	93.5
452.428	85.5
452.648	90.5
452.869	96.5
453.089	74.5
453.31	88.5
453.53	91.5
453.751	85.5
453.971	89.5
454.192	75.5
454.412	84.5
454.633	93.5
454.853	98.5
455.073	89.5
455.294	87.5
455.514	86.5
455.734	90.5
455.955	76.5
456.175	94.5
456.395	105.5
456.616	81.5
456.836	84.5
457.056	78.5
457.276	82.5
457.497	81.5
457.717	88.5
457.937	107.5
458.157	99.5
458.377	107.5
458.598	103.5
458.818	114.5
459.038	104.5
459.258	84.5
459.478	81.5
459.698	88.5
459.918	91.5
460.138	81.5
460.358	84.5
460.578	98.5
460.798	120.5
461.018	108.5
461.238	90.5
461.458	78.5
461.678	92.5
461.898	80.5
462.118	90.5
462.338	81.5
462.558	65.5
462.777	85.5
462.997	74.5
463.217	90.5
463.437	84.5
463.657	108.5
463.876	86.5
464.096	85.5
464.316	75.5
464.536	68.5
464.755	84.5
464.975	89.5
465.195	85.5
465.414	79.5
465.634	79.5
465.854	68.5
466.073	82.5
466.293	86.5
466.512	82.5
466.732	87.5
466.951	96.5
467.171	73.5
467.391	86.5
467.61	86.5
467.829	88.5
468.049	70.5
468.268	67.5
468.488	93.5
468.707	82.5
468.927	89.5
469.146	64.5
469.365	93.5
469.585	101.5
469.804	87.5
470.023	87.5
470.243	72.5
470.462	86.5
470.681	79.5
470.901	88.5
471.12	89.5
471.339	90.5
471.558	81.5
471.777	85.5
471.997	92.5
472.216	85.5
472.435	88.5
472.654	92.5
472.873	90.5
473.092	86.5
473.311	99.5
473.53	83.5
473.749	83.5
473.968	85.5
474.187	82.5
474.406	92.5
474.625	96.5
474.844	83.5
475.063	84.5
475.282	78.5
475.501	83.5
475.72	77.5
475.939	93.5
476.158	83.5
476.377	75.5
476.596	97.5
476.814	106.5
477.033	90.5
477.252	90.5
477.471	74.5
477.69	73.5
477.908	93.5
478.127	78.5
478.346	92.5
478.564	82.5
478.783	89.5
479.002	78.5
479.22	77.5
479.439	82.5
479.658	92.5
479.876	95.5
480.095	81.5
480.313	72.5
480.532	88.5
480.751	92.5
480.969	94.5
481.188	94.5
481.406	84.5
481.624	72.5
481.843	79.5
482.061	78.5
482.28	94.5
482.498	81.5
482.717	84.5
482.935	87.5
483.153	91.5
483.372	93.5
483.59	87.5
483.808	78.5
484.027	92.5
484.245	82.5
484.463	90.5
484.681	94.5
484.9	81.5
485.118	86.5
485.336	99.5
485.554	90.5
485.772	86.5
485.99	86.5
486.209	85.5
486.427	91.5
486.645	94.5
486.863	70.5
487.081	101.5
487.299	92.5
487.517	64.5
487.735	101.5
487.953	152.5
488.171	133.5
488.389	94.5
488.607	91.5
488.825	92.5
489.043	94.5
489.261	95.5
489.479	84.5
489.696	80.5
489.914	84.5
490.132	93.5
490.35	91.5
490.568	76.5
490.786	83.5
491.003	80.5
491.221	83.5
491.439	86.5
491.657	73.5
491.874	73.5
492.092	86.5
492.31	93.5
492.527	98.5
492.745	92.5
492.963	88.5
493.18	92.5
493.398	102.5
493.615	101.5
493.833	82.5
494.05	88.5
494.268	87.5
494.485	93.5
494.703	84.5
494.92	86.5
495.138	78.5
495.355	78.5
495.573	90.5
495.79	96.5
496.008	115.5
496.225	86.5
496.442	96.5
496.66	89.5
496.877	98.5
497.094	72.5
497.312	92.5
497.529	92.5
497.746	88.5
497.963	80.5
498.181	97.5
498.398	100.5
498.615	84.5
498.832	97.5
499.049	102.5
499.267	107.5
499.484	90.5
499.701	83.5
499.918	97.5
500.135	101.5
500.352	92.5
500.569	87.5
500.786	105.5
501.003	85.5
501.22	89.5
501.437	91.5
501.654	81.5
501.871	87.5
502.088	90.5
502.305	96.5
502.522	96.5
502.739	83.5
502.956	77.5
503.172	84.5
503.389	80.5
503.606	78.5
503.823	92.5
504.04	100.5
504.256	125.5
504.473	105.5
504.69	103.5
504.907	81.5
505.123	106.5
505.34	90.5
505.557	87.5
505.773	93.5
505.99	92.5
506.207	88.5
506.423	86.5
506.64	78.5
506.856	87.5
507.073	82.5
507.289	92.5
507.506	91.5
507.722	89.5
507.939	98.5
508.155	99.5
508.372	87.5
508.588	75.5
508.805	78.5
509.021	78.5
509.238	85.5
509.454	91.5
509.67	91.5
509.887	78.5
510.103	82.5
510.319	87.5
510.536	92.5
510.752	74.5
510.968	81.5
511.184	98.5
511.401	75.5
511.617	100.5
511.833	78.5
512.049	106.5
512.265	87.5
512.481	101.5
512.698	83.5
512.914	89.5
513.13	82.5
513.346	91.5
513.562	89.5
513.778	87.5
513.994	88.5
514.21	72.5
514.426	74.5
514.642	88.5
514.858	98.5
515.074	88.5
515.29	86.5
515.506	88.5
515.721	69.5
515.937	86.5
516.153	84.5
516.369	91.5
516.585	91.5
516.801	94.5
517.016	86.5
517.232	85.5
517.448	106.5
517.664	102.5
517.879	93.5
518.095	86.5
518.311	96.5
518.527	106.5
518.742	109.5
518.958	117.5
519.173	150.5
519.389	96.5
519.605	90.5
519.82	90.5
520.036	72.5
520.251	92.5
520.467	96.5
520.682	84.5
520.898	83.5
521.113	100.5
521.329	89.5
521.544	78.5
521.76	84.5
521.975	96.5
522.19	89.5
522.406	109.5
522.621	84.5
522.836	93.5
523.052	85.5
523.267	97.5
523.482	89.5
523.698	88.5
523.913	78.5
524.128	90.5
524.343	92.5
524.559	84.5
524.774	95.5
524.989	86.5
525.204	92.5
525.419	93.5
525.634	89.5
525.849	98.5
526.064	117.5
526.28	173.5
526.495	235.5
526.71	269.5
526.925	198.5
527.14	268.5
527.355	218.5
527.57	114.5
527.785	110.5
527.999	91.5
528.214	94.5
528.429	81.5
528.644	74.5
528.859	88.5
529.074	87.5
529.289	88.5
529.503	79.5
529.718	107.5
529.933	80.5
530.148	79.5
530.363	89.5
530.577	89.5
530.792	89.5
531.007	93.5
531.221	90.5
531.436	90.5
531.651	89.5
531.865	98.5
532.08	76.5
532.295	94.5
532.509	95.5
532.724	92.5
532.938	98.5
533.153	85.5
533.367	94.5
533.582	91.5
533.796	86.5
534.011	94.5
534.225	102.5
534.44	108.5
534.654	93.5
534.868	103.5
535.083	139.5
535.297	118.5
535.511	91.5
535.726	88.5
535.94	74.5
536.154	78.5
536.369	97.5
536.583	96.5
536.797	96.5
537.011	82.5
537.225	88.5
537.44	89.5
537.654	98.5
537.868	92.5
