Data from 15780_1_HRD10591_00015.txt Node
Date: Mon Jan 19 14:18:17 EST 2026
User: Yrep
Spectrometer: HR+D1059
Trigger mode: 1
Integration Time (sec): 1.000000E-1
Scans to average: 1
Electric dark correction enabled: true
Nonlinearity correction enabled: false
Boxcar width: 0
XAxis mode: Wavelengths
Number of Pixels in Spectrum: 2048
>>>>>Begin Spectral Data<<<<<
223.165	-15.5
223.4	-15.5
223.635	-15.5
223.869	-28.5
224.104	-32.5
224.338	-7.5
224.573	-20.5
224.808	-13.5
225.042	-11.5
225.277	-23.5
225.511	1.5
225.746	0.5
225.98	18.5
226.215	12.5
226.449	41.5
226.683	32.5
226.918	17.5
227.152	28.5
227.387	43.5
227.621	31.5
227.856	54.5
228.09	36.5
228.324	51.5
228.559	57.5
228.793	61.5
229.027	53.5
229.262	53.5
229.496	69.5
229.73	67.5
229.964	70.5
230.199	69.5
230.433	76.5
230.667	85.5
230.901	88.5
231.136	81.5
231.37	65.5
231.604	76.5
231.838	82.5
232.072	73.5
232.306	64.5
232.541	78.5
232.775	78.5
233.009	79.5
233.243	76.5
233.477	89.5
233.711	89.5
233.945	66.5
234.179	79.5
234.413	80.5
234.647	68.5
234.881	78.5
235.115	80.5
235.349	79.5
235.583	73.5
235.817	73.5
236.051	71.5
236.285	72.5
236.519	60.5
236.753	70.5
236.987	74.5
237.221	80.5
237.455	78.5
237.689	84.5
237.922	80.5
238.156	72.5
238.39	75.5
238.624	78.5
238.858	90.5
239.091	84.5
239.325	83.5
239.559	80.5
239.793	67.5
240.027	86.5
240.26	61.5
240.494	83.5
240.728	84.5
240.961	73.5
241.195	64.5
241.429	76.5
241.662	77.5
241.896	78.5
242.13	73.5
242.363	70.5
242.597	76.5
242.83	71.5
243.064	76.5
243.298	78.5
243.531	78.5
243.765	70.5
243.998	82.5
244.232	83.5
244.465	85.5
244.699	77.5
244.932	66.5
245.166	79.5
245.399	88.5
245.633	82.5
245.866	79.5
246.099	62.5
246.333	84.5
246.566	81.5
246.8	80.5
247.033	70.5
247.266	71.5
247.5	78.5
247.733	90.5
247.966	73.5
248.2	77.5
248.433	65.5
248.666	61.5
248.899	76.5
249.133	84.5
249.366	91.5
249.599	77.5
249.832	76.5
250.066	75.5
250.299	79.5
250.532	78.5
250.765	79.5
250.998	86.5
251.231	78.5
251.465	76.5
251.698	76.5
251.931	89.5
252.164	93.5
252.397	66.5
252.63	84.5
252.863	86.5
253.096	70.5
253.329	87.5
253.562	84.5
253.795	78.5
254.028	68.5
254.261	77.5
254.494	68.5
254.727	69.5
254.96	82.5
255.193	78.5
255.426	66.5
255.659	74.5
255.892	86.5
256.124	85.5
256.357	78.5
256.59	77.5
256.823	72.5
257.056	85.5
257.289	99.5
257.521	83.5
257.754	79.5
257.987	75.5
258.22	87.5
258.452	84.5
258.685	84.5
258.918	83.5
259.151	86.5
259.383	85.5
259.616	75.5
259.849	77.5
260.081	93.5
260.314	89.5
260.547	85.5
260.779	77.5
261.012	88.5
261.244	80.5
261.477	91.5
261.71	81.5
261.942	82.5
262.175	75.5
262.407	72.5
262.64	77.5
262.872	79.5
263.105	73.5
263.337	81.5
263.57	76.5
263.802	86.5
264.035	90.5
264.267	85.5
264.499	77.5
264.732	73.5
264.964	80.5
265.197	85.5
265.429	89.5
265.661	89.5
265.894	67.5
266.126	75.5
266.358	69.5
266.591	97.5
266.823	82.5
267.055	90.5
267.287	73.5
267.52	75.5
267.752	86.5
267.984	90.5
268.216	96.5
268.448	77.5
268.681	86.5
268.913	76.5
269.145	91.5
269.377	90.5
269.609	92.5
269.841	74.5
270.073	60.5
270.306	77.5
270.538	88.5
270.77	67.5
271.002	90.5
271.234	68.5
271.466	88.5
271.698	80.5
271.93	87.5
272.162	86.5
272.394	92.5
272.626	86.5
272.858	80.5
273.09	92.5
273.322	84.5
273.553	74.5
273.785	86.5
274.017	76.5
274.249	85.5
274.481	76.5
274.713	80.5
274.945	72.5
275.176	84.5
275.408	89.5
275.64	87.5
275.872	79.5
276.104	84.5
276.335	84.5
276.567	99.5
276.799	77.5
277.031	87.5
277.262	60.5
277.494	76.5
277.726	70.5
277.957	90.5
278.189	88.5
278.421	60.5
278.652	77.5
278.884	88.5
279.115	85.5
279.347	74.5
279.579	88.5
279.81	87.5
280.042	74.5
280.273	82.5
280.505	88.5
280.736	90.5
280.968	85.5
281.199	71.5
281.431	76.5
281.662	76.5
281.894	85.5
282.125	71.5
282.356	89.5
282.588	101.5
282.819	90.5
283.051	84.5
283.282	97.5
283.513	93.5
283.745	89.5
283.976	85.5
284.207	69.5
284.439	86.5
284.67	84.5
284.901	86.5
285.132	76.5
285.364	89.5
285.595	82.5
285.826	80.5
286.057	92.5
286.288	79.5
286.52	80.5
286.751	82.5
286.982	83.5
287.213	76.5
287.444	68.5
287.675	71.5
287.906	80.5
288.138	86.5
288.369	83.5
288.6	93.5
288.831	75.5
289.062	83.5
289.293	70.5
289.524	84.5
289.755	80.5
289.986	97.5
290.217	74.5
290.448	85.5
290.679	78.5
290.91	82.5
291.141	90.5
291.371	77.5
291.602	78.5
291.833	76.5
292.064	84.5
292.295	82.5
292.526	86.5
292.757	77.5
292.987	78.5
293.218	99.5
293.449	92.5
293.68	77.5
293.91	80.5
294.141	88.5
294.372	89.5
294.603	92.5
294.833	86.5
295.064	87.5
295.295	87.5
295.525	78.5
295.756	86.5
295.987	64.5
296.217	86.5
296.448	90.5
296.679	85.5
296.909	85.5
297.14	86.5
297.37	74.5
297.601	79.5
297.831	88.5
298.062	84.5
298.292	90.5
298.523	82.5
298.753	78.5
298.984	89.5
299.214	89.5
299.445	66.5
299.675	83.5
299.905	90.5
300.136	104.5
300.366	85.5
300.597	85.5
300.827	75.5
301.057	87.5
301.288	98.5
301.518	86.5
301.748	73.5
301.979	96.5
302.209	99.5
302.439	93.5
302.669	103.5
302.9	110.5
303.13	86.5
303.36	86.5
303.59	87.5
303.82	77.5
304.051	84.5
304.281	96.5
304.511	86.5
304.741	82.5
304.971	73.5
305.201	91.5
305.431	89.5
305.661	77.5
305.891	88.5
306.121	81.5
306.352	72.5
306.582	85.5
306.812	68.5
307.042	78.5
307.272	70.5
307.502	89.5
307.731	85.5
307.961	93.5
308.191	79.5
308.421	96.5
308.651	90.5
308.881	91.5
309.111	101.5
309.341	100.5
309.571	89.5
309.8	82.5
310.03	95.5
310.26	84.5
310.49	91.5
310.72	89.5
310.949	80.5
311.179	93.5
311.409	70.5
311.639	78.5
311.868	89.5
312.098	82.5
312.328	79.5
312.557	78.5
312.787	85.5
313.017	87.5
313.246	85.5
313.476	74.5
313.706	89.5
313.935	86.5
314.165	87.5
314.394	84.5
314.624	68.5
314.853	87.5
315.083	85.5
315.312	97.5
315.542	101.5
315.771	88.5
316.001	78.5
316.23	81.5
316.46	76.5
316.689	80.5
316.919	89.5
317.148	83.5
317.377	90.5
317.607	99.5
317.836	86.5
318.065	99.5
318.295	87.5
318.524	85.5
318.753	84.5
318.983	91.5
319.212	87.5
319.441	87.5
319.67	89.5
319.9	90.5
320.129	81.5
320.358	84.5
320.587	92.5
320.816	85.5
321.046	76.5
321.275	75.5
321.504	82.5
321.733	98.5
321.962	78.5
322.191	76.5
322.42	76.5
322.649	90.5
322.878	97.5
323.108	90.5
323.337	96.5
323.566	75.5
323.795	74.5
324.024	80.5
324.253	81.5
324.482	90.5
324.71	74.5
324.939	87.5
325.168	83.5
325.397	94.5
325.626	93.5
325.855	82.5
326.084	98.5
326.313	74.5
326.542	84.5
326.77	97.5
326.999	72.5
327.228	95.5
327.457	78.5
327.686	92.5
327.914	104.5
328.143	98.5
328.372	92.5
328.6	98.5
328.829	72.5
329.058	73.5
329.287	97.5
329.515	89.5
329.744	83.5
329.972	85.5
330.201	96.5
330.43	79.5
330.658	91.5
330.887	79.5
331.115	84.5
331.344	86.5
331.572	93.5
331.801	84.5
332.03	95.5
332.258	81.5
332.486	81.5
332.715	64.5
332.943	86.5
333.172	83.5
333.4	78.5
333.629	94.5
333.857	95.5
334.085	85.5
334.314	88.5
334.542	79.5
334.771	93.5
334.999	90.5
335.227	89.5
335.455	93.5
335.684	94.5
335.912	82.5
336.14	88.5
336.369	94.5
336.597	88.5
336.825	91.5
337.053	74.5
337.281	85.5
337.51	84.5
337.738	74.5
337.966	74.5
338.194	77.5
338.422	89.5
338.65	86.5
338.878	93.5
339.106	92.5
339.334	95.5
339.562	91.5
339.79	94.5
340.018	91.5
340.246	80.5
340.474	72.5
340.702	84.5
340.93	66.5
341.158	66.5
341.386	89.5
341.614	73.5
341.842	64.5
342.07	83.5
342.298	92.5
342.526	76.5
342.754	83.5
342.981	93.5
343.209	98.5
343.437	94.5
343.665	78.5
343.893	78.5
344.12	80.5
344.348	94.5
344.576	88.5
344.804	87.5
345.031	81.5
345.259	83.5
345.487	93.5
345.714	88.5
345.942	92.5
346.17	100.5
346.397	76.5
346.625	76.5
346.853	88.5
347.08	72.5
347.308	90.5
347.535	80.5
347.763	99.5
347.99	69.5
348.218	84.5
348.445	74.5
348.673	96.5
348.9	85.5
349.128	100.5
349.355	94.5
349.583	75.5
349.81	81.5
350.037	80.5
350.265	75.5
350.492	88.5
350.72	88.5
350.947	69.5
351.174	85.5
351.402	87.5
351.629	95.5
351.856	79.5
352.083	66.5
352.311	67.5
352.538	86.5
352.765	92.5
352.992	85.5
353.22	97.5
353.447	77.5
353.674	82.5
353.901	92.5
354.128	73.5
354.355	87.5
354.583	84.5
354.81	89.5
355.037	96.5
355.264	85.5
355.491	91.5
355.718	90.5
355.945	85.5
356.172	77.5
356.399	93.5
356.626	83.5
356.853	88.5
357.08	90.5
357.307	88.5
357.534	91.5
357.761	103.5
357.988	85.5
358.215	90.5
358.441	98.5
358.668	89.5
358.895	68.5
359.122	86.5
359.349	88.5
359.576	73.5
359.802	79.5
360.029	77.5
360.256	78.5
360.483	84.5
360.709	76.5
360.936	94.5
361.163	93.5
361.39	83.5
361.616	83.5
361.843	94.5
362.07	85.5
362.296	88.5
362.523	82.5
362.749	89.5
362.976	102.5
363.203	100.5
363.429	96.5
363.656	80.5
363.882	92.5
364.109	104.5
364.335	100.5
364.562	108.5
364.788	96.5
365.015	94.5
365.241	96.5
365.468	92.5
365.694	87.5
365.92	89.5
366.147	78.5
366.373	86.5
366.599	93.5
366.826	73.5
367.052	96.5
367.278	71.5
367.505	94.5
367.731	95.5
367.957	76.5
368.184	89.5
368.41	85.5
368.636	93.5
368.862	85.5
369.089	87.5
369.315	83.5
369.541	94.5
369.767	86.5
369.993	96.5
370.219	95.5
370.445	89.5
370.672	87.5
370.898	70.5
371.124	85.5
371.35	84.5
371.576	73.5
371.802	78.5
372.028	81.5
372.254	86.5
372.48	85.5
372.706	91.5
372.932	68.5
373.158	88.5
373.384	97.5
373.61	87.5
373.835	97.5
374.061	102.5
374.287	90.5
374.513	86.5
374.739	96.5
374.965	76.5
375.191	83.5
375.416	86.5
375.642	102.5
375.868	87.5
376.094	99.5
376.319	97.5
376.545	87.5
376.771	89.5
376.997	84.5
377.222	88.5
377.448	75.5
377.674	80.5
377.899	74.5
378.125	96.5
378.35	90.5
378.576	85.5
378.802	88.5
379.027	82.5
379.253	83.5
379.478	85.5
379.704	79.5
379.929	100.5
380.155	88.5
380.38	71.5
380.606	88.5
380.831	82.5
381.057	88.5
381.282	81.5
381.507	82.5
381.733	76.5
381.958	80.5
382.184	108.5
382.409	92.5
382.634	89.5
382.86	94.5
383.085	92.5
383.31	102.5
383.535	93.5
383.761	92.5
383.986	99.5
384.211	85.5
384.436	92.5
384.662	64.5
384.887	88.5
385.112	78.5
385.337	79.5
385.562	84.5
385.787	82.5
386.013	83.5
386.238	90.5
386.463	96.5
386.688	105.5
386.913	78.5
387.138	97.5
387.363	94.5
387.588	88.5
387.813	91.5
388.038	91.5
388.263	88.5
388.488	94.5
388.713	88.5
388.938	88.5
389.163	79.5
389.387	78.5
389.612	90.5
389.837	99.5
390.062	76.5
390.287	98.5
390.512	87.5
390.736	74.5
390.961	85.5
391.186	93.5
391.411	67.5
391.636	84.5
391.86	96.5
392.085	95.5
392.31	93.5
392.534	90.5
392.759	113.5
392.984	120.5
393.208	165.5
393.433	210.5
393.658	194.5
393.882	111.5
394.107	95.5
394.331	112.5
394.556	106.5
394.78	107.5
395.005	90.5
395.229	88.5
395.454	88.5
395.678	92.5
395.903	101.5
396.127	121.5
396.352	114.5
396.576	132.5
396.801	164.5
397.025	194.5
397.249	119.5
397.474	96.5
397.698	82.5
397.922	87.5
398.147	99.5
398.371	82.5
398.595	79.5
398.82	85.5
399.044	92.5
399.268	102.5
399.492	105.5
399.717	79.5
399.941	84.5
400.165	80.5
400.389	88.5
400.613	85.5
400.837	79.5
401.062	85.5
401.286	88.5
401.51	93.5
401.734	80.5
401.958	84.5
402.182	80.5
402.406	68.5
402.63	88.5
402.854	91.5
403.078	83.5
403.302	84.5
403.526	85.5
403.75	82.5
403.974	97.5
404.198	89.5
404.422	92.5
404.645	105.5
404.869	72.5
405.093	84.5
405.317	77.5
405.541	72.5
405.765	70.5
405.988	75.5
406.212	88.5
406.436	93.5
406.66	93.5
406.883	84.5
407.107	86.5
407.331	84.5
407.555	88.5
407.778	108.5
408.002	107.5
408.226	98.5
408.449	82.5
408.673	94.5
408.896	81.5
409.12	86.5
409.344	89.5
409.567	92.5
409.791	100.5
410.014	85.5
410.238	88.5
410.461	89.5
410.685	97.5
410.908	81.5
411.132	83.5
411.355	82.5
411.578	82.5
411.802	76.5
412.025	85.5
412.249	77.5
412.472	77.5
412.695	87.5
412.919	90.5
413.142	86.5
413.365	89.5
413.589	80.5
413.812	88.5
414.035	85.5
414.258	86.5
414.482	65.5
414.705	79.5
414.928	84.5
415.151	75.5
415.374	92.5
415.597	76.5
415.821	84.5
416.044	84.5
416.267	79.5
416.49	73.5
416.713	84.5
416.936	72.5
417.159	79.5
417.382	72.5
417.605	72.5
417.828	83.5
418.051	74.5
418.274	77.5
418.497	89.5
418.72	92.5
418.943	91.5
419.166	76.5
419.389	96.5
419.611	82.5
419.834	97.5
420.057	76.5
420.28	87.5
420.503	81.5
420.726	83.5
420.948	78.5
421.171	78.5
421.394	92.5
421.617	88.5
421.839	106.5
422.062	96.5
422.285	124.5
422.507	185.5
422.73	274.5
422.953	257.5
423.175	130.5
423.398	110.5
423.621	110.5
423.843	81.5
424.066	91.5
424.288	74.5
424.511	82.5
424.733	84.5
424.956	83.5
425.178	73.5
425.401	97.5
425.623	86.5
425.846	79.5
426.068	84.5
426.291	83.5
426.513	80.5
426.735	80.5
426.958	79.5
427.18	85.5
427.402	87.5
427.625	88.5
427.847	83.5
428.069	85.5
428.292	108.5
428.514	125.5
428.736	112.5
428.958	104.5
429.181	113.5
429.403	97.5
429.625	95.5
429.847	107.5
430.069	123.5
430.292	145.5
430.514	146.5
430.736	112.5
430.958	124.5
431.18	89.5
431.402	97.5
431.624	104.5
431.846	101.5
432.068	123.5
432.29	80.5
432.512	84.5
432.734	90.5
432.956	84.5
433.178	101.5
433.4	79.5
433.622	79.5
433.844	75.5
434.066	76.5
434.287	100.5
434.509	78.5
434.731	84.5
434.953	80.5
435.175	85.5
435.397	89.5
435.618	89.5
435.84	83.5
436.062	81.5
436.284	74.5
436.505	92.5
436.727	84.5
436.949	75.5
437.17	75.5
437.392	75.5
437.614	80.5
437.835	76.5
438.057	66.5
438.278	88.5
438.5	90.5
438.721	85.5
438.943	78.5
439.165	79.5
439.386	100.5
439.608	87.5
439.829	82.5
440.05	100.5
440.272	72.5
440.493	88.5
440.715	79.5
440.936	96.5
441.158	83.5
441.379	81.5
441.6	87.5
441.822	86.5
442.043	87.5
442.264	90.5
442.486	117.5
442.707	121.5
442.928	104.5
443.149	90.5
443.371	122.5
443.592	164.5
443.813	153.5
444.034	100.5
444.255	84.5
444.476	90.5
444.698	82.5
444.919	98.5
445.14	171.5
445.361	176.5
445.582	206.5
445.803	178.5
446.024	119.5
446.245	95.5
446.466	83.5
446.687	76.5
446.908	83.5
447.129	90.5
447.35	86.5
447.571	86.5
447.792	89.5
448.013	76.5
448.234	78.5
448.455	82.5
448.675	74.5
448.896	73.5
449.117	80.5
449.338	70.5
449.559	93.5
449.779	86.5
450	88.5
450.221	81.5
450.442	88.5
450.662	79.5
450.883	91.5
451.104	86.5
451.324	90.5
451.545	93.5
451.766	102.5
451.986	71.5
452.207	71.5
452.428	90.5
452.648	94.5
452.869	97.5
453.089	92.5
453.31	84.5
453.53	86.5
453.751	94.5
453.971	105.5
454.192	90.5
454.412	75.5
454.633	92.5
454.853	91.5
455.073	92.5
455.294	89.5
455.514	78.5
455.734	83.5
455.955	88.5
456.175	86.5
456.395	81.5
456.616	80.5
456.836	93.5
457.056	84.5
457.276	77.5
457.497	80.5
457.717	88.5
457.937	100.5
458.157	90.5
458.377	106.5
458.598	91.5
458.818	81.5
459.038	96.5
459.258	74.5
459.478	80.5
459.698	87.5
459.918	76.5
460.138	97.5
460.358	80.5
460.578	77.5
460.798	120.5
461.018	98.5
461.238	76.5
461.458	83.5
461.678	72.5
461.898	87.5
462.118	87.5
462.338	69.5
462.558	71.5
462.777	82.5
462.997	77.5
463.217	92.5
463.437	86.5
463.657	86.5
463.876	82.5
464.096	88.5
464.316	66.5
464.536	80.5
464.755	84.5
464.975	83.5
465.195	92.5
465.414	83.5
465.634	90.5
465.854	91.5
466.073	79.5
466.293	92.5
466.512	74.5
466.732	78.5
466.951	89.5
467.171	88.5
467.391	75.5
467.61	83.5
467.829	87.5
468.049	84.5
468.268	88.5
468.488	76.5
468.707	104.5
468.927	98.5
469.146	89.5
469.365	99.5
469.585	84.5
469.804	98.5
470.023	88.5
470.243	87.5
470.462	75.5
470.681	75.5
470.901	78.5
471.12	88.5
471.339	73.5
471.558	90.5
471.777	82.5
471.997	73.5
472.216	93.5
472.435	73.5
472.654	80.5
472.873	83.5
473.092	99.5
473.311	87.5
473.53	80.5
473.749	76.5
473.968	89.5
474.187	93.5
474.406	82.5
474.625	78.5
474.844	88.5
475.063	72.5
475.282	79.5
475.501	88.5
475.72	86.5
475.939	75.5
476.158	82.5
476.377	82.5
476.596	98.5
476.814	69.5
477.033	81.5
477.252	100.5
477.471	92.5
477.69	81.5
477.908	96.5
478.127	86.5
478.346	80.5
478.564	79.5
478.783	73.5
479.002	88.5
479.22	96.5
479.439	89.5
479.658	72.5
479.876	87.5
480.095	81.5
480.313	77.5
480.532	78.5
480.751	67.5
480.969	82.5
481.188	74.5
481.406	91.5
481.624	77.5
481.843	93.5
482.061	79.5
482.28	82.5
482.498	102.5
482.717	82.5
482.935	84.5
483.153	83.5
483.372	81.5
483.59	86.5
483.808	89.5
484.027	88.5
484.245	84.5
484.463	74.5
484.681	87.5
484.9	72.5
485.118	99.5
485.336	96.5
485.554	84.5
485.772	96.5
485.99	91.5
486.209	87.5
486.427	94.5
486.645	74.5
486.863	94.5
487.081	88.5
487.299	88.5
487.517	68.5
487.735	80.5
487.953	124.5
488.171	117.5
488.389	81.5
488.607	61.5
488.825	93.5
489.043	85.5
489.261	86.5
489.479	88.5
489.696	93.5
489.914	89.5
490.132	81.5
490.35	102.5
490.568	80.5
490.786	82.5
491.003	96.5
491.221	76.5
491.439	71.5
491.657	83.5
491.874	90.5
492.092	106.5
492.31	83.5
492.527	69.5
492.745	92.5
492.963	76.5
493.18	89.5
493.398	80.5
493.615	96.5
493.833	92.5
494.05	80.5
494.268	81.5
494.485	81.5
494.703	85.5
494.92	78.5
495.138	92.5
495.355	92.5
495.573	82.5
495.79	83.5
496.008	99.5
496.225	77.5
496.442	82.5
496.66	83.5
496.877	81.5
497.094	87.5
497.312	75.5
497.529	72.5
497.746	90.5
497.963	90.5
498.181	107.5
498.398	119.5
498.615	86.5
498.832	83.5
499.049	99.5
499.267	113.5
499.484	84.5
499.701	94.5
499.918	85.5
500.135	94.5
500.352	81.5
500.569	78.5
500.786	89.5
501.003	91.5
501.22	84.5
501.437	79.5
501.654	99.5
501.871	97.5
502.088	95.5
502.305	82.5
502.522	76.5
502.739	89.5
502.956	75.5
503.172	88.5
503.389	92.5
503.606	84.5
503.823	99.5
504.04	102.5
504.256	125.5
504.473	116.5
504.69	77.5
504.907	94.5
505.123	81.5
505.34	88.5
505.557	86.5
505.773	99.5
505.99	84.5
506.207	73.5
506.423	110.5
506.64	97.5
506.856	73.5
507.073	87.5
507.289	83.5
507.506	94.5
507.722	91.5
507.939	92.5
508.155	85.5
508.372	77.5
508.588	104.5
508.805	105.5
509.021	87.5
509.238	88.5
509.454	87.5
509.67	83.5
509.887	93.5
510.103	92.5
510.319	69.5
510.536	102.5
510.752	96.5
510.968	96.5
511.184	92.5
511.401	93.5
511.617	99.5
511.833	80.5
512.049	90.5
512.265	87.5
512.481	92.5
512.698	82.5
512.914	79.5
513.13	81.5
513.346	92.5
513.562	94.5
513.778	88.5
513.994	102.5
514.21	89.5
514.426	83.5
514.642	95.5
514.858	100.5
515.074	81.5
515.29	85.5
515.506	89.5
515.721	93.5
515.937	85.5
516.153	92.5
516.369	101.5
516.585	90.5
516.801	96.5
517.016	88.5
517.232	89.5
517.448	87.5
517.664	92.5
517.879	90.5
518.095	96.5
518.311	94.5
518.527	100.5
518.742	93.5
518.958	111.5
519.173	125.5
519.389	88.5
519.605	98.5
519.82	88.5
520.036	98.5
520.251	82.5
520.467	89.5
520.682	90.5
520.898	77.5
521.113	97.5
521.329	103.5
521.544	89.5
521.76	93.5
521.975	79.5
522.19	88.5
522.406	87.5
522.621	86.5
522.836	98.5
523.052	88.5
523.267	86.5
523.482	86.5
523.698	89.5
523.913	93.5
524.128	101.5
524.343	79.5
524.559	102.5
524.774	77.5
524.989	88.5
525.204	92.5
525.419	77.5
525.634	100.5
525.849	86.5
526.064	103.5
526.28	144.5
526.495	187.5
526.71	207.5
526.925	152.5
527.14	188.5
527.355	165.5
527.57	100.5
527.785	98.5
527.999	86.5
528.214	78.5
528.429	87.5
528.644	92.5
528.859	86.5
529.074	95.5
529.289	85.5
529.503	82.5
529.718	105.5
529.933	81.5
530.148	74.5
530.363	91.5
530.577	78.5
530.792	74.5
531.007	92.5
531.221	98.5
531.436	71.5
531.651	98.5
531.865	81.5
532.08	82.5
532.295	93.5
532.509	93.5
532.724	86.5
532.938	86.5
533.153	93.5
533.367	88.5
533.582	96.5
533.796	81.5
534.011	85.5
534.225	86.5
534.44	85.5
534.654	97.5
534.868	112.5
535.083	132.5
535.297	122.5
535.511	91.5
535.726	105.5
535.94	96.5
536.154	85.5
536.369	100.5
536.583	94.5
536.797	100.5
537.011	84.5
537.225	102.5
537.44	97.5
537.654	113.5
537.868	93.5
538.082	93.5
538.296	92.5
538.51	82.5
538.724	91.5
