Data from 15780_1_HRD10591_00002.txt Node
Date: Mon Jan 19 14:18:11 EST 2026
User: Yrep
Spectrometer: HR+D1059
Trigger mode: 1
Integration Time (sec): 1.000000E-1
Scans to average: 1
Electric dark correction enabled: true
Nonlinearity correction enabled: false
Boxcar width: 0
XAxis mode: Wavelengths
Number of Pixels in Spectrum: 2048
>>>>>Begin Spectral Data<<<<<
223.165	-16.12
223.4	-16.12
223.635	-16.12
223.869	-17.12
224.104	-10.12
224.338	-27.12
224.573	-26.12
224.808	-10.12
225.042	-20.12
225.277	-11.12
225.511	8.88
225.746	-0.12
225.98	2.88
226.215	22.88
226.449	8.88
226.683	35.88
226.918	34.88
227.152	23.88
227.387	49.88
227.621	46.88
227.856	57.88
228.09	52.88
228.324	61.88
228.559	64.88
228.793	60.88
229.027	70.88
229.262	64.88
229.496	66.88
229.73	73.88
229.964	83.88
230.199	84.88
230.433	80.88
230.667	76.88
230.901	91.88
231.136	73.88
231.37	74.88
231.604	96.88
231.838	88.88
232.072	90.88
232.306	87.88
232.541	107.88
232.775	80.88
233.009	81.88
233.243	89.88
233.477	96.88
233.711	86.88
233.945	88.88
234.179	76.88
234.413	82.88
234.647	83.88
234.881	88.88
235.115	81.88
235.349	72.88
235.583	77.88
235.817	74.88
236.051	58.88
236.285	80.88
236.519	72.88
236.753	82.88
236.987	71.88
237.221	79.88
237.455	89.88
237.689	79.88
237.922	90.88
238.156	81.88
238.39	92.88
238.624	86.88
238.858	89.88
239.091	73.88
239.325	80.88
239.559	73.88
239.793	73.88
240.027	72.88
240.26	77.88
240.494	84.88
240.728	66.88
240.961	77.88
241.195	95.88
241.429	75.88
241.662	74.88
241.896	82.88
242.13	80.88
242.363	79.88
242.597	85.88
242.83	69.88
243.064	72.88
243.298	64.88
243.531	84.88
243.765	62.88
243.998	85.88
244.232	93.88
244.465	87.88
244.699	89.88
244.932	88.88
245.166	77.88
245.399	80.88
245.633	76.88
245.866	72.88
246.099	68.88
246.333	78.88
246.566	79.88
246.8	95.88
247.033	91.88
247.266	89.88
247.5	72.88
247.733	83.88
247.966	77.88
248.2	69.88
248.433	88.88
248.666	80.88
248.899	88.88
249.133	74.88
249.366	98.88
249.599	75.88
249.832	75.88
250.066	88.88
250.299	90.88
250.532	92.88
250.765	88.88
250.998	81.88
251.231	96.88
251.465	94.88
251.698	75.88
251.931	85.88
252.164	78.88
252.397	76.88
252.63	87.88
252.863	88.88
253.096	74.88
253.329	95.88
253.562	91.88
253.795	85.88
254.028	80.88
254.261	88.88
254.494	86.88
254.727	82.88
254.96	74.88
255.193	81.88
255.426	74.88
255.659	80.88
255.892	91.88
256.124	82.88
256.357	78.88
256.59	87.88
256.823	82.88
257.056	68.88
257.289	92.88
257.521	71.88
257.754	76.88
257.987	93.88
258.22	85.88
258.452	93.88
258.685	77.88
258.918	91.88
259.151	69.88
259.383	88.88
259.616	94.88
259.849	92.88
260.081	91.88
260.314	85.88
260.547	72.88
260.779	89.88
261.012	86.88
261.244	93.88
261.477	89.88
261.71	75.88
261.942	72.88
262.175	81.88
262.407	97.88
262.64	94.88
262.872	93.88
263.105	87.88
263.337	73.88
263.57	91.88
263.802	92.88
264.035	83.88
264.267	81.88
264.499	74.88
264.732	89.88
264.964	94.88
265.197	81.88
265.429	90.88
265.661	79.88
265.894	92.88
266.126	81.88
266.358	90.88
266.591	98.88
266.823	83.88
267.055	81.88
267.287	77.88
267.52	90.88
267.752	84.88
267.984	87.88
268.216	81.88
268.448	94.88
268.681	93.88
268.913	93.88
269.145	85.88
269.377	81.88
269.609	90.88
269.841	94.88
270.073	98.88
270.306	94.88
270.538	91.88
270.77	92.88
271.002	92.88
271.234	78.88
271.466	80.88
271.698	82.88
271.93	91.88
272.162	86.88
272.394	86.88
272.626	83.88
272.858	90.88
273.09	90.88
273.322	93.88
273.553	77.88
273.785	80.88
274.017	74.88
274.249	95.88
274.481	80.88
274.713	82.88
274.945	95.88
275.176	81.88
275.408	85.88
275.64	96.88
275.872	74.88
276.104	79.88
276.335	80.88
276.567	96.88
276.799	82.88
277.031	84.88
277.262	99.88
277.494	86.88
277.726	96.88
277.957	86.88
278.189	75.88
278.421	82.88
278.652	83.88
278.884	96.88
279.115	94.88
279.347	72.88
279.579	84.88
279.81	88.88
280.042	74.88
280.273	80.88
280.505	96.88
280.736	80.88
280.968	80.88
281.199	74.88
281.431	87.88
281.662	85.88
281.894	75.88
282.125	85.88
282.356	100.88
282.588	74.88
282.819	98.88
283.051	83.88
283.282	89.88
283.513	80.88
283.745	78.88
283.976	93.88
284.207	76.88
284.439	79.88
284.67	74.88
284.901	90.88
285.132	97.88
285.364	93.88
285.595	89.88
285.826	97.88
286.057	87.88
286.288	96.88
286.52	82.88
286.751	86.88
286.982	87.88
287.213	93.88
287.444	89.88
287.675	86.88
287.906	80.88
288.138	82.88
288.369	87.88
288.6	84.88
288.831	88.88
289.062	96.88
289.293	89.88
289.524	87.88
289.755	81.88
289.986	91.88
290.217	102.88
290.448	90.88
290.679	88.88
290.91	85.88
291.141	91.88
291.371	95.88
291.602	90.88
291.833	93.88
292.064	91.88
292.295	88.88
292.526	78.88
292.757	83.88
292.987	95.88
293.218	81.88
293.449	80.88
293.68	79.88
293.91	81.88
294.141	69.88
294.372	88.88
294.603	97.88
294.833	94.88
295.064	92.88
295.295	90.88
295.525	83.88
295.756	94.88
295.987	94.88
296.217	77.88
296.448	85.88
296.679	93.88
296.909	90.88
297.14	105.88
297.37	94.88
297.601	83.88
297.831	82.88
298.062	94.88
298.292	106.88
298.523	83.88
298.753	87.88
298.984	85.88
299.214	88.88
299.445	88.88
299.675	98.88
299.905	99.88
300.136	93.88
300.366	89.88
300.597	98.88
300.827	90.88
301.057	80.88
301.288	98.88
301.518	98.88
301.748	78.88
301.979	126.88
302.209	89.88
302.439	78.88
302.669	68.88
302.9	80.88
303.13	98.88
303.36	80.88
303.59	89.88
303.82	98.88
304.051	88.88
304.281	94.88
304.511	88.88
304.741	90.88
304.971	88.88
305.201	81.88
305.431	94.88
305.661	84.88
305.891	86.88
306.121	97.88
306.352	92.88
306.582	81.88
306.812	93.88
307.042	101.88
307.272	85.88
307.502	106.88
307.731	92.88
307.961	104.88
308.191	108.88
308.421	90.88
308.651	95.88
308.881	100.88
309.111	97.88
309.341	96.88
309.571	89.88
309.8	105.88
310.03	91.88
310.26	96.88
310.49	86.88
310.72	82.88
310.949	88.88
311.179	86.88
311.409	88.88
311.639	81.88
311.868	80.88
312.098	94.88
312.328	102.88
312.557	87.88
312.787	94.88
313.017	79.88
313.246	88.88
313.476	84.88
313.706	81.88
313.935	75.88
314.165	92.88
314.394	92.88
314.624	93.88
314.853	77.88
315.083	96.88
315.312	101.88
315.542	80.88
315.771	101.88
316.001	102.88
316.23	92.88
316.46	91.88
316.689	101.88
316.919	77.88
317.148	81.88
317.377	85.88
317.607	89.88
317.836	104.88
318.065	86.88
318.295	85.88
318.524	97.88
318.753	96.88
318.983	77.88
319.212	84.88
319.441	91.88
319.67	101.88
319.9	75.88
320.129	90.88
320.358	89.88
320.587	89.88
320.816	89.88
321.046	91.88
321.275	94.88
321.504	93.88
321.733	87.88
321.962	99.88
322.191	82.88
322.42	93.88
322.649	96.88
322.878	88.88
323.108	90.88
323.337	94.88
323.566	100.88
323.795	87.88
324.024	90.88
324.253	97.88
324.482	101.88
324.71	86.88
324.939	89.88
325.168	85.88
325.397	83.88
325.626	90.88
325.855	95.88
326.084	76.88
326.313	87.88
326.542	81.88
326.77	97.88
326.999	82.88
327.228	90.88
327.457	75.88
327.686	82.88
327.914	96.88
328.143	81.88
328.372	84.88
328.6	83.88
328.829	95.88
329.058	77.88
329.287	87.88
329.515	100.88
329.744	80.88
329.972	78.88
330.201	83.88
330.43	81.88
330.658	82.88
330.887	102.88
331.115	85.88
331.344	81.88
331.572	104.88
331.801	88.88
332.03	89.88
332.258	106.88
332.486	80.88
332.715	97.88
332.943	98.88
333.172	80.88
333.4	76.88
333.629	85.88
333.857	91.88
334.085	86.88
334.314	104.88
334.542	94.88
334.771	84.88
334.999	90.88
335.227	93.88
335.455	88.88
335.684	104.88
335.912	111.88
336.14	104.88
336.369	101.88
336.597	85.88
336.825	81.88
337.053	86.88
337.281	91.88
337.51	84.88
337.738	88.88
337.966	83.88
338.194	89.88
338.422	87.88
338.65	93.88
338.878	89.88
339.106	102.88
339.334	92.88
339.562	81.88
339.79	102.88
340.018	85.88
340.246	95.88
340.474	96.88
340.702	95.88
340.93	96.88
341.158	82.88
341.386	80.88
341.614	77.88
341.842	104.88
342.07	90.88
342.298	84.88
342.526	87.88
342.754	91.88
342.981	104.88
343.209	109.88
343.437	96.88
343.665	98.88
343.893	97.88
344.12	113.88
344.348	79.88
344.576	102.88
344.804	80.88
345.031	88.88
345.259	79.88
345.487	92.88
345.714	90.88
345.942	82.88
346.17	100.88
346.397	92.88
346.625	88.88
346.853	89.88
347.08	90.88
347.308	88.88
347.535	86.88
347.763	91.88
347.99	76.88
348.218	94.88
348.445	88.88
348.673	90.88
348.9	77.88
349.128	84.88
349.355	86.88
349.583	74.88
349.81	77.88
350.037	86.88
350.265	102.88
350.492	84.88
350.72	104.88
350.947	100.88
351.174	91.88
351.402	78.88
351.629	93.88
351.856	94.88
352.083	93.88
352.311	94.88
352.538	88.88
352.765	91.88
352.992	98.88
353.22	94.88
353.447	90.88
353.674	94.88
353.901	86.88
354.128	98.88
354.355	87.88
354.583	80.88
354.81	98.88
355.037	94.88
355.264	88.88
355.491	80.88
355.718	94.88
355.945	91.88
356.172	88.88
356.399	81.88
356.626	90.88
356.853	95.88
357.08	104.88
357.307	96.88
357.534	97.88
357.761	100.88
357.988	90.88
358.215	95.88
358.441	92.88
358.668	103.88
358.895	102.88
359.122	104.88
359.349	90.88
359.576	83.88
359.802	95.88
360.029	80.88
360.256	86.88
360.483	83.88
360.709	102.88
360.936	102.88
361.163	90.88
361.39	94.88
361.616	85.88
361.843	96.88
362.07	103.88
362.296	108.88
362.523	105.88
362.749	108.88
362.976	111.88
363.203	122.88
363.429	94.88
363.656	97.88
363.882	95.88
364.109	101.88
364.335	120.88
364.562	120.88
364.788	130.88
365.015	105.88
365.241	109.88
365.468	99.88
365.694	78.88
365.92	89.88
366.147	88.88
366.373	82.88
366.599	88.88
366.826	91.88
367.052	99.88
367.278	83.88
367.505	104.88
367.731	105.88
367.957	93.88
368.184	87.88
368.41	96.88
368.636	93.88
368.862	93.88
369.089	86.88
369.315	89.88
369.541	93.88
369.767	94.88
369.993	85.88
370.219	83.88
370.445	90.88
370.672	97.88
370.898	99.88
371.124	92.88
371.35	110.88
371.576	80.88
371.802	84.88
372.028	92.88
372.254	80.88
372.48	103.88
372.706	87.88
372.932	103.88
373.158	99.88
373.384	116.88
373.61	118.88
373.835	109.88
374.061	102.88
374.287	85.88
374.513	101.88
374.739	104.88
374.965	101.88
375.191	96.88
375.416	90.88
375.642	91.88
375.868	100.88
376.094	109.88
376.319	96.88
376.545	94.88
376.771	105.88
376.997	90.88
377.222	88.88
377.448	94.88
377.674	100.88
377.899	93.88
378.125	97.88
378.35	88.88
378.576	96.88
378.802	91.88
379.027	85.88
379.253	83.88
379.478	92.88
379.704	100.88
379.929	86.88
380.155	94.88
380.38	94.88
380.606	97.88
380.831	103.88
381.057	92.88
381.282	92.88
381.507	93.88
381.733	108.88
381.958	105.88
382.184	103.88
382.409	106.88
382.634	110.88
382.86	96.88
383.085	91.88
383.31	105.88
383.535	102.88
383.761	101.88
383.986	113.88
384.211	101.88
384.436	88.88
384.662	80.88
384.887	81.88
385.112	84.88
385.337	91.88
385.562	98.88
385.787	94.88
386.013	104.88
386.238	105.88
386.463	88.88
386.688	95.88
386.913	100.88
387.138	102.88
387.363	104.88
387.588	88.88
387.813	104.88
388.038	81.88
388.263	90.88
388.488	112.88
388.713	112.88
388.938	89.88
389.163	100.88
389.387	80.88
389.612	93.88
389.837	87.88
390.062	90.88
390.287	96.88
390.512	82.88
390.736	92.88
390.961	92.88
391.186	82.88
391.411	90.88
391.636	98.88
391.86	85.88
392.085	79.88
392.31	94.88
392.534	114.88
392.759	138.88
392.984	165.88
393.208	257.88
393.433	345.88
393.658	280.88
393.882	126.88
394.107	108.88
394.331	110.88
394.556	126.88
394.78	110.88
395.005	100.88
395.229	90.88
395.454	108.88
395.678	117.88
395.903	122.88
396.127	135.88
396.352	159.88
396.576	169.88
396.801	259.88
397.025	269.88
397.249	184.88
397.474	119.88
397.698	113.88
397.922	91.88
398.147	100.88
398.371	82.88
398.595	93.88
398.82	86.88
399.044	94.88
399.268	107.88
399.492	80.88
399.717	97.88
399.941	89.88
400.165	109.88
400.389	95.88
400.613	69.88
400.837	79.88
401.062	90.88
401.286	80.88
401.51	89.88
401.734	90.88
401.958	84.88
402.182	79.88
402.406	77.88
402.63	72.88
402.854	95.88
403.078	98.88
403.302	76.88
403.526	102.88
403.75	91.88
403.974	85.88
404.198	90.88
404.422	98.88
404.645	107.88
404.869	107.88
405.093	98.88
405.317	100.88
405.541	90.88
405.765	80.88
405.988	79.88
406.212	89.88
406.436	105.88
406.66	102.88
406.883	91.88
407.107	85.88
407.331	105.88
407.555	105.88
407.778	107.88
408.002	109.88
408.226	98.88
408.449	89.88
408.673	89.88
408.896	88.88
409.12	90.88
409.344	100.88
409.567	114.88
409.791	102.88
410.014	110.88
410.238	98.88
410.461	98.88
410.685	91.88
410.908	86.88
411.132	94.88
411.355	96.88
411.578	87.88
411.802	95.88
412.025	94.88
412.249	85.88
412.472	89.88
412.695	84.88
412.919	81.88
413.142	92.88
413.365	93.88
413.589	103.88
413.812	88.88
414.035	87.88
414.258	104.88
414.482	95.88
414.705	100.88
414.928	96.88
415.151	98.88
415.374	92.88
415.597	92.88
415.821	100.88
416.044	102.88
416.267	95.88
416.49	80.88
416.713	90.88
416.936	92.88
417.159	86.88
417.382	79.88
417.605	97.88
417.828	92.88
418.051	92.88
418.274	101.88
418.497	88.88
418.72	86.88
418.943	100.88
419.166	92.88
419.389	105.88
419.611	106.88
419.834	91.88
420.057	105.88
420.28	92.88
420.503	91.88
420.726	89.88
420.948	106.88
421.171	91.88
421.394	121.88
421.617	128.88
421.839	120.88
422.062	123.88
422.285	165.88
422.507	253.88
422.73	364.88
422.953	343.88
423.175	204.88
423.398	121.88
423.621	115.88
423.843	102.88
424.066	111.88
424.288	106.88
424.511	93.88
424.733	92.88
424.956	75.88
425.178	96.88
425.401	86.88
425.623	94.88
425.846	86.88
426.068	98.88
426.291	104.88
426.513	101.88
426.735	94.88
426.958	87.88
427.18	98.88
427.402	112.88
427.625	100.88
427.847	90.88
428.069	92.88
428.292	139.88
428.514	142.88
428.736	107.88
428.958	145.88
429.181	125.88
429.403	103.88
429.625	96.88
429.847	118.88
430.069	157.88
430.292	171.88
430.514	157.88
430.736	133.88
430.958	126.88
431.18	97.88
431.402	93.88
431.624	102.88
431.846	121.88
432.068	128.88
432.29	98.88
432.512	110.88
432.734	94.88
432.956	86.88
433.178	75.88
433.4	100.88
433.622	76.88
433.844	84.88
434.066	111.88
434.287	86.88
434.509	85.88
434.731	96.88
434.953	83.88
435.175	93.88
435.397	99.88
435.618	94.88
435.84	104.88
436.062	81.88
436.284	92.88
436.505	98.88
436.727	87.88
436.949	82.88
437.17	76.88
437.392	70.88
437.614	89.88
437.835	99.88
438.057	92.88
438.278	108.88
438.5	122.88
438.721	96.88
438.943	78.88
439.165	95.88
439.386	93.88
439.608	88.88
439.829	90.88
440.05	98.88
440.272	88.88
440.493	99.88
440.715	74.88
440.936	83.88
441.158	75.88
441.379	91.88
441.6	95.88
441.822	88.88
442.043	93.88
442.264	107.88
442.486	123.88
442.707	143.88
442.928	121.88
443.149	100.88
443.371	144.88
443.592	203.88
443.813	203.88
444.034	112.88
444.255	100.88
444.476	86.88
444.698	94.88
444.919	99.88
445.14	167.88
445.361	188.88
445.582	267.88
445.803	204.88
446.024	109.88
446.245	112.88
446.466	109.88
446.687	84.88
446.908	84.88
447.129	94.88
447.35	94.88
447.571	85.88
447.792	94.88
448.013	78.88
448.234	97.88
448.455	84.88
448.675	93.88
448.896	87.88
449.117	90.88
449.338	76.88
449.559	86.88
449.779	90.88
450	85.88
450.221	92.88
450.442	83.88
450.662	89.88
450.883	92.88
451.104	99.88
451.324	94.88
451.545	89.88
451.766	104.88
451.986	108.88
452.207	91.88
452.428	81.88
452.648	90.88
452.869	100.88
453.089	85.88
453.31	85.88
453.53	97.88
453.751	95.88
453.971	90.88
454.192	83.88
454.412	86.88
454.633	93.88
454.853	96.88
455.073	76.88
455.294	93.88
455.514	107.88
455.734	119.88
455.955	92.88
456.175	73.88
456.395	82.88
456.616	86.88
456.836	86.88
457.056	80.88
457.276	91.88
457.497	82.88
457.717	96.88
457.937	96.88
458.157	103.88
458.377	111.88
458.598	118.88
458.818	108.88
459.038	100.88
459.258	89.88
459.478	82.88
459.698	92.88
459.918	91.88
460.138	90.88
460.358	106.88
460.578	102.88
460.798	118.88
461.018	117.88
461.238	97.88
461.458	95.88
461.678	94.88
461.898	89.88
462.118	88.88
462.338	87.88
462.558	100.88
462.777	66.88
462.997	88.88
463.217	82.88
463.437	81.88
463.657	102.88
463.876	88.88
464.096	83.88
464.316	101.88
464.536	102.88
464.755	100.88
464.975	78.88
465.195	82.88
465.414	88.88
465.634	85.88
465.854	86.88
466.073	101.88
466.293	96.88
466.512	90.88
466.732	79.88
466.951	94.88
467.171	92.88
467.391	89.88
467.61	108.88
467.829	85.88
468.049	92.88
468.268	82.88
468.488	89.88
468.707	105.88
468.927	88.88
469.146	93.88
469.365	83.88
469.585	98.88
469.804	103.88
470.023	96.88
470.243	98.88
470.462	93.88
470.681	90.88
470.901	111.88
471.12	96.88
471.339	88.88
471.558	85.88
471.777	99.88
471.997	91.88
472.216	108.88
472.435	83.88
472.654	105.88
472.873	95.88
473.092	102.88
473.311	76.88
473.53	103.88
473.749	96.88
473.968	96.88
474.187	95.88
474.406	92.88
474.625	95.88
474.844	91.88
475.063	105.88
475.282	83.88
475.501	109.88
475.72	98.88
475.939	84.88
476.158	91.88
476.377	87.88
476.596	92.88
476.814	88.88
477.033	86.88
477.252	82.88
477.471	100.88
477.69	88.88
477.908	95.88
478.127	97.88
478.346	101.88
478.564	93.88
478.783	98.88
479.002	101.88
479.22	74.88
479.439	103.88
479.658	76.88
479.876	94.88
480.095	81.88
480.313	95.88
480.532	90.88
480.751	96.88
480.969	101.88
481.188	86.88
481.406	103.88
481.624	89.88
481.843	94.88
482.061	88.88
482.28	88.88
482.498	95.88
482.717	86.88
482.935	104.88
483.153	95.88
483.372	104.88
483.59	93.88
483.808	105.88
484.027	92.88
484.245	95.88
484.463	106.88
484.681	104.88
484.9	112.88
485.118	101.88
485.336	100.88
485.554	94.88
485.772	88.88
485.99	110.88
486.209	98.88
486.427	93.88
486.645	91.88
486.863	92.88
487.081	108.88
487.299	103.88
487.517	95.88
487.735	109.88
487.953	163.88
488.171	145.88
488.389	105.88
488.607	88.88
488.825	93.88
489.043	108.88
489.261	87.88
489.479	89.88
489.696	104.88
489.914	96.88
490.132	101.88
490.35	114.88
490.568	97.88
490.786	116.88
491.003	108.88
491.221	88.88
491.439	91.88
491.657	101.88
491.874	100.88
492.092	108.88
492.31	106.88
492.527	107.88
492.745	92.88
492.963	114.88
493.18	96.88
493.398	106.88
493.615	92.88
493.833	100.88
494.05	101.88
494.268	103.88
494.485	97.88
494.703	109.88
494.92	93.88
495.138	94.88
495.355	100.88
495.573	84.88
495.79	90.88
496.008	98.88
496.225	104.88
496.442	106.88
496.66	113.88
496.877	99.88
497.094	95.88
497.312	92.88
497.529	97.88
497.746	85.88
497.963	103.88
498.181	105.88
498.398	109.88
498.615	99.88
498.832	90.88
499.049	93.88
499.267	114.88
499.484	108.88
499.701	99.88
499.918	98.88
500.135	97.88
500.352	105.88
500.569	90.88
500.786	107.88
501.003	97.88
501.22	104.88
501.437	101.88
501.654	101.88
501.871	96.88
502.088	103.88
502.305	89.88
502.522	109.88
502.739	100.88
502.956	112.88
503.172	103.88
503.389	100.88
503.606	99.88
503.823	98.88
504.04	122.88
504.256	152.88
504.473	133.88
504.69	113.88
504.907	80.88
505.123	104.88
505.34	90.88
505.557	107.88
505.773	97.88
505.99	93.88
506.207	92.88
506.423	97.88
506.64	96.88
506.856	108.88
507.073	86.88
507.289	90.88
507.506	102.88
507.722	86.88
507.939	93.88
508.155	98.88
508.372	104.88
508.588	101.88
508.805	112.88
509.021	88.88
509.238	93.88
509.454	102.88
509.67	100.88
509.887	107.88
510.103	96.88
510.319	101.88
510.536	103.88
510.752	104.88
510.968	96.88
511.184	95.88
511.401	93.88
511.617	99.88
511.833	106.88
512.049	107.88
512.265	91.88
512.481	90.88
512.698	106.88
512.914	96.88
513.13	101.88
513.346	96.88
513.562	108.88
513.778	92.88
513.994	96.88
514.21	92.88
514.426	108.88
514.642	86.88
514.858	96.88
515.074	82.88
515.29	91.88
515.506	96.88
515.721	111.88
