Data from 15780_1_HRD10591_00033.txt Node
Date: Mon Jan 19 14:18:26 EST 2026
User: Yrep
Spectrometer: HR+D1059
Trigger mode: 1
Integration Time (sec): 1.000000E-1
Scans to average: 1
Electric dark correction enabled: true
Nonlinearity correction enabled: false
Boxcar width: 0
XAxis mode: Wavelengths
Number of Pixels in Spectrum: 2048
>>>>>Begin Spectral Data<<<<<
223.165	-9.88
223.4	-9.88
223.635	-9.88
223.869	-17.88
224.104	-34.88
224.338	-25.88
224.573	-9.88
224.808	-2.88
225.042	-3.88
225.277	-11.88
225.511	9.12
225.746	-0.88
225.98	11.12
226.215	11.12
226.449	18.12
226.683	17.12
226.918	26.12
227.152	25.12
227.387	34.12
227.621	52.12
227.856	42.12
228.09	50.12
228.324	54.12
228.559	43.12
228.793	66.12
229.027	57.12
229.262	69.12
229.496	79.12
229.73	72.12
229.964	78.12
230.199	76.12
230.433	79.12
230.667	72.12
230.901	78.12
231.136	73.12
231.37	83.12
231.604	73.12
231.838	74.12
232.072	84.12
232.306	68.12
232.541	73.12
232.775	76.12
233.009	97.12
233.243	92.12
233.477	90.12
233.711	98.12
233.945	79.12
234.179	83.12
234.413	89.12
234.647	85.12
234.881	78.12
235.115	86.12
235.349	75.12
235.583	78.12
235.817	73.12
236.051	84.12
236.285	86.12
236.519	93.12
236.753	95.12
236.987	84.12
237.221	88.12
237.455	68.12
237.689	66.12
237.922	82.12
238.156	75.12
238.39	72.12
238.624	74.12
238.858	74.12
239.091	78.12
239.325	75.12
239.559	79.12
239.793	74.12
240.027	81.12
240.26	78.12
240.494	70.12
240.728	73.12
240.961	76.12
241.195	81.12
241.429	85.12
241.662	88.12
241.896	80.12
242.13	78.12
242.363	80.12
242.597	93.12
242.83	86.12
243.064	87.12
243.298	94.12
243.531	78.12
243.765	82.12
243.998	89.12
244.232	79.12
244.465	88.12
244.699	72.12
244.932	79.12
245.166	77.12
245.399	81.12
245.633	70.12
245.866	80.12
246.099	82.12
246.333	79.12
246.566	73.12
246.8	78.12
247.033	84.12
247.266	77.12
247.5	77.12
247.733	65.12
247.966	73.12
248.2	84.12
248.433	82.12
248.666	70.12
248.899	92.12
249.133	99.12
249.366	84.12
249.599	84.12
249.832	85.12
250.066	82.12
250.299	84.12
250.532	85.12
250.765	79.12
250.998	88.12
251.231	84.12
251.465	89.12
251.698	85.12
251.931	97.12
252.164	76.12
252.397	82.12
252.63	90.12
252.863	71.12
253.096	75.12
253.329	85.12
253.562	74.12
253.795	90.12
254.028	84.12
254.261	91.12
254.494	86.12
254.727	77.12
254.96	76.12
255.193	78.12
255.426	87.12
255.659	77.12
255.892	71.12
256.124	91.12
256.357	84.12
256.59	87.12
256.823	86.12
257.056	77.12
257.289	68.12
257.521	79.12
257.754	88.12
257.987	80.12
258.22	86.12
258.452	69.12
258.685	84.12
258.918	79.12
259.151	76.12
259.383	83.12
259.616	86.12
259.849	78.12
260.081	100.12
260.314	81.12
260.547	69.12
260.779	70.12
261.012	97.12
261.244	97.12
261.477	98.12
261.71	76.12
261.942	92.12
262.175	85.12
262.407	79.12
262.64	70.12
262.872	78.12
263.105	90.12
263.337	76.12
263.57	83.12
263.802	91.12
264.035	82.12
264.267	86.12
264.499	87.12
264.732	99.12
264.964	95.12
265.197	100.12
265.429	92.12
265.661	99.12
265.894	92.12
266.126	73.12
266.358	78.12
266.591	83.12
266.823	88.12
267.055	80.12
267.287	79.12
267.52	79.12
267.752	88.12
267.984	84.12
268.216	63.12
268.448	107.12
268.681	81.12
268.913	91.12
269.145	98.12
269.377	72.12
269.609	74.12
269.841	77.12
270.073	83.12
270.306	90.12
270.538	90.12
270.77	78.12
271.002	89.12
271.234	78.12
271.466	107.12
271.698	86.12
271.93	87.12
272.162	71.12
272.394	82.12
272.626	85.12
272.858	96.12
273.09	80.12
273.322	80.12
273.553	89.12
273.785	89.12
274.017	91.12
274.249	94.12
274.481	93.12
274.713	85.12
274.945	85.12
275.176	77.12
275.408	79.12
275.64	83.12
275.872	79.12
276.104	91.12
276.335	96.12
276.567	97.12
276.799	86.12
277.031	97.12
277.262	88.12
277.494	81.12
277.726	77.12
277.957	82.12
278.189	84.12
278.421	89.12
278.652	102.12
278.884	98.12
279.115	86.12
279.347	86.12
279.579	87.12
279.81	78.12
280.042	88.12
280.273	95.12
280.505	87.12
280.736	80.12
280.968	86.12
281.199	87.12
281.431	106.12
281.662	93.12
281.894	85.12
282.125	81.12
282.356	75.12
282.588	74.12
282.819	91.12
283.051	80.12
283.282	92.12
283.513	93.12
283.745	78.12
283.976	71.12
284.207	81.12
284.439	94.12
284.67	89.12
284.901	89.12
285.132	101.12
285.364	87.12
285.595	90.12
285.826	95.12
286.057	89.12
286.288	77.12
286.52	90.12
286.751	77.12
286.982	94.12
287.213	95.12
287.444	88.12
287.675	100.12
287.906	87.12
288.138	71.12
288.369	92.12
288.6	85.12
288.831	76.12
289.062	92.12
289.293	89.12
289.524	81.12
289.755	77.12
289.986	92.12
290.217	95.12
290.448	95.12
290.679	89.12
290.91	90.12
291.141	84.12
291.371	93.12
291.602	68.12
291.833	91.12
292.064	87.12
292.295	71.12
292.526	81.12
292.757	78.12
292.987	84.12
293.218	84.12
293.449	94.12
293.68	87.12
293.91	89.12
294.141	86.12
294.372	82.12
294.603	84.12
294.833	87.12
295.064	82.12
295.295	90.12
295.525	86.12
295.756	101.12
295.987	91.12
296.217	82.12
296.448	90.12
296.679	84.12
296.909	96.12
297.14	87.12
297.37	83.12
297.601	83.12
297.831	102.12
298.062	88.12
298.292	75.12
298.523	77.12
298.753	84.12
298.984	85.12
299.214	93.12
299.445	90.12
299.675	97.12
299.905	83.12
300.136	101.12
300.366	84.12
300.597	69.12
300.827	99.12
301.057	101.12
301.288	78.12
301.518	92.12
301.748	87.12
301.979	103.12
302.209	95.12
302.439	98.12
302.669	90.12
302.9	90.12
303.13	97.12
303.36	99.12
303.59	104.12
303.82	86.12
304.051	91.12
304.281	92.12
304.511	90.12
304.741	89.12
304.971	86.12
305.201	88.12
305.431	91.12
305.661	88.12
305.891	76.12
306.121	83.12
306.352	78.12
306.582	86.12
306.812	94.12
307.042	73.12
307.272	91.12
307.502	90.12
307.731	91.12
307.961	90.12
308.191	92.12
308.421	114.12
308.651	94.12
308.881	91.12
309.111	97.12
309.341	106.12
309.571	105.12
309.8	90.12
310.03	90.12
310.26	81.12
310.49	73.12
310.72	75.12
310.949	93.12
311.179	81.12
311.409	89.12
311.639	80.12
311.868	84.12
312.098	84.12
312.328	86.12
312.557	98.12
312.787	100.12
313.017	77.12
313.246	82.12
313.476	79.12
313.706	74.12
313.935	90.12
314.165	102.12
314.394	80.12
314.624	80.12
314.853	99.12
315.083	84.12
315.312	86.12
315.542	97.12
315.771	88.12
316.001	92.12
316.23	93.12
316.46	87.12
316.689	85.12
316.919	89.12
317.148	100.12
317.377	82.12
317.607	84.12
317.836	83.12
318.065	100.12
318.295	108.12
318.524	85.12
318.753	83.12
318.983	77.12
319.212	97.12
319.441	100.12
319.67	81.12
319.9	93.12
320.129	92.12
320.358	78.12
320.587	102.12
320.816	84.12
321.046	95.12
321.275	81.12
321.504	90.12
321.733	68.12
321.962	90.12
322.191	93.12
322.42	90.12
322.649	84.12
322.878	84.12
323.108	92.12
323.337	94.12
323.566	92.12
323.795	98.12
324.024	73.12
324.253	91.12
324.482	86.12
324.71	81.12
324.939	82.12
325.168	76.12
325.397	83.12
325.626	80.12
325.855	96.12
326.084	87.12
326.313	85.12
326.542	102.12
326.77	87.12
326.999	84.12
327.228	78.12
327.457	86.12
327.686	91.12
327.914	82.12
328.143	90.12
328.372	80.12
328.6	75.12
328.829	86.12
329.058	88.12
329.287	85.12
329.515	89.12
329.744	90.12
329.972	81.12
330.201	108.12
330.43	100.12
330.658	91.12
330.887	91.12
331.115	89.12
331.344	86.12
331.572	74.12
331.801	77.12
332.03	88.12
332.258	83.12
332.486	90.12
332.715	86.12
332.943	89.12
333.172	92.12
333.4	105.12
333.629	104.12
333.857	82.12
334.085	94.12
334.314	82.12
334.542	75.12
334.771	84.12
334.999	96.12
335.227	89.12
335.455	93.12
335.684	82.12
335.912	87.12
336.14	96.12
336.369	81.12
336.597	79.12
336.825	88.12
337.053	81.12
337.281	91.12
337.51	85.12
337.738	98.12
337.966	97.12
338.194	98.12
338.422	77.12
338.65	80.12
338.878	83.12
339.106	94.12
339.334	80.12
339.562	90.12
339.79	78.12
340.018	87.12
340.246	79.12
340.474	85.12
340.702	88.12
340.93	92.12
341.158	100.12
341.386	93.12
341.614	86.12
341.842	90.12
342.07	90.12
342.298	81.12
342.526	81.12
342.754	85.12
342.981	71.12
343.209	91.12
343.437	99.12
343.665	84.12
343.893	77.12
344.12	107.12
344.348	105.12
344.576	97.12
344.804	85.12
345.031	76.12
345.259	71.12
345.487	83.12
345.714	83.12
345.942	102.12
346.17	84.12
346.397	90.12
346.625	87.12
346.853	86.12
347.08	97.12
347.308	88.12
347.535	78.12
347.763	86.12
347.99	93.12
348.218	92.12
348.445	86.12
348.673	93.12
348.9	93.12
349.128	85.12
349.355	87.12
349.583	77.12
349.81	77.12
350.037	83.12
350.265	92.12
350.492	78.12
350.72	88.12
350.947	86.12
351.174	88.12
351.402	90.12
351.629	95.12
351.856	91.12
352.083	79.12
352.311	94.12
352.538	85.12
352.765	88.12
352.992	85.12
353.22	86.12
353.447	87.12
353.674	95.12
353.901	75.12
354.128	81.12
354.355	70.12
354.583	86.12
354.81	80.12
355.037	92.12
355.264	82.12
355.491	106.12
355.718	79.12
355.945	94.12
356.172	80.12
356.399	86.12
356.626	93.12
356.853	95.12
357.08	96.12
357.307	98.12
357.534	86.12
357.761	93.12
357.988	88.12
358.215	104.12
358.441	95.12
358.668	96.12
358.895	98.12
359.122	102.12
359.349	92.12
359.576	91.12
359.802	83.12
360.029	87.12
360.256	72.12
360.483	95.12
360.709	86.12
360.936	76.12
361.163	84.12
361.39	75.12
361.616	85.12
361.843	86.12
362.07	95.12
362.296	92.12
362.523	94.12
362.749	86.12
362.976	98.12
363.203	109.12
363.429	88.12
363.656	75.12
363.882	97.12
364.109	103.12
364.335	119.12
364.562	108.12
364.788	114.12
365.015	91.12
365.241	92.12
365.468	92.12
365.694	87.12
365.92	90.12
366.147	85.12
366.373	91.12
366.599	84.12
366.826	90.12
367.052	89.12
367.278	85.12
367.505	75.12
367.731	90.12
367.957	92.12
368.184	94.12
368.41	69.12
368.636	86.12
368.862	80.12
369.089	83.12
369.315	83.12
369.541	95.12
369.767	86.12
369.993	72.12
370.219	95.12
370.445	83.12
370.672	88.12
370.898	95.12
371.124	83.12
371.35	82.12
371.576	79.12
371.802	68.12
372.028	77.12
372.254	98.12
372.48	87.12
372.706	82.12
372.932	86.12
373.158	91.12
373.384	96.12
373.61	114.12
373.835	92.12
374.061	99.12
374.287	102.12
374.513	92.12
374.739	90.12
374.965	93.12
375.191	88.12
375.416	75.12
375.642	100.12
375.868	96.12
376.094	88.12
376.319	88.12
376.545	99.12
376.771	99.12
376.997	86.12
377.222	98.12
377.448	87.12
377.674	93.12
377.899	81.12
378.125	88.12
378.35	81.12
378.576	93.12
378.802	88.12
379.027	88.12
379.253	83.12
379.478	79.12
379.704	81.12
379.929	70.12
380.155	74.12
380.38	70.12
380.606	98.12
380.831	80.12
381.057	96.12
381.282	82.12
381.507	94.12
381.733	90.12
381.958	83.12
382.184	102.12
382.409	82.12
382.634	93.12
382.86	88.12
383.085	98.12
383.31	96.12
383.535	95.12
383.761	90.12
383.986	81.12
384.211	87.12
384.436	80.12
384.662	94.12
384.887	77.12
385.112	84.12
385.337	94.12
385.562	87.12
385.787	86.12
386.013	93.12
386.238	98.12
386.463	94.12
386.688	106.12
386.913	101.12
387.138	77.12
387.363	99.12
387.588	85.12
387.813	100.12
388.038	91.12
388.263	96.12
388.488	88.12
388.713	89.12
388.938	94.12
389.163	90.12
389.387	100.12
389.612	81.12
389.837	90.12
390.062	89.12
390.287	89.12
390.512	81.12
390.736	90.12
390.961	98.12
391.186	91.12
391.411	69.12
391.636	86.12
391.86	95.12
392.085	95.12
392.31	98.12
392.534	104.12
392.759	109.12
392.984	140.12
393.208	246.12
393.433	328.12
393.658	262.12
393.882	134.12
394.107	101.12
394.331	112.12
394.556	142.12
394.78	104.12
395.005	96.12
395.229	103.12
395.454	94.12
395.678	115.12
395.903	118.12
396.127	136.12
396.352	160.12
396.576	166.12
396.801	242.12
397.025	285.12
397.249	167.12
397.474	103.12
397.698	94.12
397.922	95.12
398.147	75.12
398.371	75.12
398.595	86.12
398.82	99.12
399.044	89.12
399.268	80.12
399.492	87.12
399.717	90.12
399.941	103.12
400.165	86.12
400.389	94.12
400.613	99.12
400.837	88.12
401.062	92.12
401.286	71.12
401.51	79.12
401.734	81.12
401.958	76.12
402.182	91.12
402.406	90.12
402.63	89.12
402.854	79.12
403.078	79.12
403.302	76.12
403.526	91.12
403.75	95.12
403.974	89.12
404.198	110.12
404.422	126.12
404.645	126.12
404.869	109.12
405.093	97.12
405.317	90.12
405.541	80.12
405.765	89.12
405.988	98.12
406.212	78.12
406.436	106.12
406.66	88.12
406.883	84.12
407.107	87.12
407.331	83.12
407.555	106.12
407.778	116.12
408.002	106.12
408.226	81.12
408.449	79.12
408.673	74.12
408.896	86.12
409.12	90.12
409.344	88.12
409.567	83.12
409.791	92.12
410.014	96.12
410.238	86.12
410.461	95.12
410.685	77.12
410.908	87.12
411.132	100.12
411.355	91.12
411.578	80.12
411.802	87.12
412.025	87.12
412.249	92.12
412.472	79.12
412.695	78.12
412.919	91.12
413.142	89.12
413.365	86.12
413.589	83.12
413.812	96.12
414.035	109.12
414.258	108.12
414.482	90.12
414.705	67.12
414.928	79.12
415.151	91.12
415.374	78.12
415.597	90.12
415.821	87.12
416.044	78.12
416.267	85.12
416.49	76.12
416.713	76.12
416.936	85.12
417.159	88.12
417.382	81.12
417.605	84.12
417.828	91.12
418.051	84.12
418.274	81.12
418.497	99.12
418.72	80.12
418.943	96.12
419.166	88.12
419.389	64.12
419.611	83.12
419.834	78.12
420.057	88.12
420.28	87.12
420.503	93.12
420.726	85.12
420.948	83.12
421.171	81.12
421.394	90.12
421.617	117.12
421.839	120.12
422.062	118.12
422.285	152.12
422.507	268.12
422.73	426.12
422.953	378.12
423.175	175.12
423.398	119.12
423.621	104.12
423.843	90.12
424.066	84.12
424.288	95.12
424.511	96.12
424.733	86.12
424.956	98.12
425.178	93.12
425.401	92.12
425.623	86.12
425.846	80.12
426.068	82.12
426.291	88.12
426.513	99.12
426.735	81.12
426.958	75.12
427.18	93.12
427.402	96.12
427.625	93.12
427.847	96.12
428.069	96.12
428.292	112.12
428.514	131.12
428.736	106.12
428.958	134.12
429.181	120.12
429.403	104.12
429.625	102.12
429.847	120.12
430.069	178.12
430.292	203.12
430.514	180.12
430.736	138.12
430.958	138.12
431.18	87.12
431.402	82.12
431.624	86.12
431.846	125.12
432.068	136.12
432.29	98.12
432.512	83.12
432.734	86.12
432.956	84.12
433.178	94.12
433.4	84.12
433.622	82.12
433.844	91.12
434.066	89.12
434.287	94.12
434.509	83.12
434.731	84.12
434.953	87.12
435.175	79.12
435.397	87.12
435.618	84.12
435.84	91.12
436.062	83.12
436.284	83.12
436.505	94.12
436.727	84.12
436.949	77.12
437.17	96.12
437.392	84.12
437.614	70.12
437.835	86.12
438.057	85.12
438.278	86.12
438.5	84.12
438.721	94.12
438.943	89.12
439.165	76.12
439.386	90.12
439.608	82.12
439.829	83.12
440.05	88.12
440.272	91.12
440.493	87.12
440.715	89.12
440.936	95.12
441.158	83.12
441.379	83.12
441.6	82.12
441.822	88.12
442.043	86.12
442.264	92.12
442.486	126.12
442.707	153.12
442.928	124.12
443.149	103.12
443.371	143.12
443.592	237.12
443.813	205.12
444.034	91.12
444.255	97.12
444.476	103.12
444.698	87.12
444.919	102.12
445.14	201.12
445.361	211.12
445.582	308.12
445.803	236.12
446.024	122.12
446.245	95.12
446.466	87.12
446.687	88.12
446.908	75.12
447.129	93.12
447.35	90.12
447.571	72.12
447.792	87.12
448.013	106.12
448.234	87.12
448.455	84.12
448.675	78.12
448.896	83.12
449.117	83.12
449.338	97.12
449.559	79.12
449.779	88.12
450	97.12
450.221	90.12
450.442	88.12
450.662	77.12
450.883	82.12
451.104	100.12
451.324	88.12
451.545	98.12
451.766	82.12
451.986	87.12
452.207	88.12
452.428	105.12
452.648	108.12
452.869	89.12
453.089	100.12
453.31	98.12
453.53	100.12
453.751	73.12
453.971	78.12
454.192	84.12
454.412	86.12
454.633	85.12
454.853	76.12
455.073	77.12
455.294	92.12
455.514	93.12
455.734	94.12
455.955	105.12
456.175	102.12
456.395	77.12
456.616	79.12
456.836	88.12
457.056	71.12
457.276	80.12
457.497	83.12
457.717	85.12
457.937	104.12
458.157	118.12
458.377	107.12
458.598	113.12
458.818	114.12
459.038	103.12
459.258	82.12
459.478	90.12
459.698	73.12
459.918	79.12
460.138	78.12
460.358	79.12
460.578	89.12
460.798	105.12
461.018	99.12
461.238	88.12
461.458	94.12
461.678	80.12
461.898	99.12
462.118	88.12
462.338	92.12
462.558	100.12
462.777	76.12
462.997	95.12
463.217	85.12
463.437	84.12
463.657	79.12
463.876	82.12
464.096	70.12
464.316	91.12
464.536	90.12
464.755	87.12
464.975	85.12
465.195	85.12
465.414	78.12
465.634	87.12
465.854	79.12
466.073	78.12
466.293	80.12
466.512	85.12
466.732	89.12
466.951	99.12
467.171	74.12
467.391	91.12
467.61	77.12
467.829	89.12
468.049	81.12
468.268	99.12
468.488	89.12
468.707	84.12
468.927	83.12
469.146	91.12
469.365	79.12
469.585	92.12
469.804	91.12
470.023	81.12
470.243	96.12
470.462	93.12
470.681	81.12
470.901	94.12
471.12	89.12
471.339	76.12
471.558	74.12
471.777	86.12
471.997	96.12
472.216	80.12
472.435	83.12
472.654	85.12
472.873	86.12
473.092	82.12
473.311	85.12
473.53	86.12
473.749	106.12
473.968	93.12
474.187	95.12
474.406	103.12
474.625	89.12
474.844	102.12
475.063	86.12
475.282	69.12
475.501	91.12
475.72	92.12
475.939	81.12
476.158	93.12
476.377	90.12
476.596	98.12
476.814	94.12
477.033	79.12
477.252	86.12
477.471	78.12
477.69	71.12
477.908	95.12
478.127	99.12
478.346	76.12
478.564	83.12
478.783	91.12
479.002	88.12
479.22	78.12
479.439	79.12
479.658	93.12
479.876	82.12
480.095	93.12
480.313	88.12
480.532	78.12
480.751	88.12
480.969	86.12
481.188	87.12
481.406	90.12
481.624	93.12
481.843	94.12
482.061	91.12
482.28	93.12
482.498	94.12
482.717	93.12
482.935	95.12
483.153	100.12
483.372	81.12
483.59	77.12
483.808	92.12
484.027	95.12
484.245	89.12
484.463	88.12
484.681	93.12
484.9	90.12
485.118	88.12
485.336	87.12
485.554	91.12
485.772	88.12
485.99	93.12
486.209	87.12
486.427	97.12
486.645	92.12
486.863	86.12
487.081	82.12
487.299	90.12
487.517	87.12
487.735	99.12
487.953	142.12
488.171	118.12
488.389	83.12
488.607	80.12
488.825	85.12
489.043	88.12
489.261	94.12
489.479	81.12
489.696	77.12
489.914	89.12
490.132	77.12
490.35	94.12
490.568	81.12
490.786	79.12
491.003	80.12
491.221	101.12
491.439	78.12
491.657	85.12
491.874	77.12
492.092	89.12
492.31	96.12
492.527	92.12
492.745	95.12
492.963	86.12
493.18	82.12
493.398	89.12
493.615	83.12
493.833	99.12
494.05	84.12
494.268	83.12
494.485	87.12
494.703	85.12
494.92	81.12
495.138	88.12
495.355	81.12
495.573	89.12
495.79	95.12
496.008	85.12
496.225	97.12
496.442	88.12
496.66	94.12
496.877	91.12
497.094	88.12
497.312	81.12
497.529	94.12
497.746	93.12
497.963	87.12
498.181	92.12
498.398	113.12
498.615	108.12
498.832	94.12
499.049	88.12
499.267	97.12
499.484	93.12
499.701	80.12
499.918	90.12
500.135	97.12
500.352	87.12
500.569	82.12
500.786	93.12
501.003	93.12
501.22	68.12
501.437	86.12
501.654	89.12
501.871	71.12
502.088	79.12
502.305	99.12
502.522	91.12
502.739	78.12
502.956	82.12
503.172	84.12
503.389	102.12
503.606	94.12
503.823	102.12
504.04	118.12
504.256	115.12
504.473	129.12
504.69	108.12
504.907	103.12
505.123	92.12
505.34	90.12
505.557	98.12
505.773	84.12
505.99	94.12
506.207	102.12
506.423	74.12
506.64	102.12
506.856	94.12
507.073	89.12
507.289	86.12
507.506	81.12
507.722	88.12
507.939	99.12
508.155	100.12
508.372	85.12
508.588	99.12
508.805	86.12
509.021	86.12
509.238	100.12
509.454	93.12
509.67	88.12
509.887	104.12
510.103	92.12
510.319	82.12
510.536	79.12
510.752	84.12
510.968	89.12
511.184	95.12
511.401	86.12
511.617	88.12
511.833	81.12
512.049	92.12
512.265	88.12
512.481	85.12
512.698	88.12
512.914	79.12
513.13	88.12
513.346	80.12
513.562	85.12
513.778	83.12
513.994	76.12
514.21	78.12
514.426	91.12
514.642	87.12
514.858	99.12
515.074	93.12
515.29	107.12
515.506	95.12
515.721	83.12
515.937	93.12
516.153	76.12
516.369	88.12
516.585	94.12
516.801	86.12
517.016	88.12
517.232	99.12
517.448	83.12
517.664	99.12
517.879	100.12
518.095	75.12
