Data from 15780_1_HRD10591_00010.txt Node
Date: Mon Jan 19 14:18:15 EST 2026
User: Yrep
Spectrometer: HR+D1059
Trigger mode: 1
Integration Time (sec): 1.000000E-1
Scans to average: 1
Electric dark correction enabled: true
Nonlinearity correction enabled: false
Boxcar width: 0
XAxis mode: Wavelengths
Number of Pixels in Spectrum: 2048
>>>>>Begin Spectral Data<<<<<
223.165	-13.5
223.4	-13.5
223.635	-13.5
223.869	-15.5
224.104	-11.5
224.338	-10.5
224.573	-10.5
224.808	-7.5
225.042	-7.5
225.277	-7.5
225.511	-11.5
225.746	-2.5
225.98	0.5
226.215	18.5
226.449	12.5
226.683	18.5
226.918	27.5
227.152	20.5
227.387	39.5
227.621	37.5
227.856	43.5
228.09	50.5
228.324	45.5
228.559	60.5
228.793	61.5
229.027	76.5
229.262	64.5
229.496	68.5
229.73	69.5
229.964	78.5
230.199	70.5
230.433	75.5
230.667	65.5
230.901	84.5
231.136	68.5
231.37	69.5
231.604	93.5
231.838	76.5
232.072	76.5
232.306	72.5
232.541	87.5
232.775	67.5
233.009	81.5
233.243	81.5
233.477	84.5
233.711	83.5
233.945	76.5
234.179	67.5
234.413	65.5
234.647	71.5
234.881	79.5
235.115	70.5
235.349	82.5
235.583	76.5
235.817	70.5
236.051	70.5
236.285	76.5
236.519	81.5
236.753	84.5
236.987	82.5
237.221	83.5
237.455	69.5
237.689	71.5
237.922	71.5
238.156	76.5
238.39	75.5
238.624	73.5
238.858	83.5
239.091	63.5
239.325	65.5
239.559	82.5
239.793	70.5
240.027	66.5
240.26	68.5
240.494	77.5
240.728	76.5
240.961	70.5
241.195	84.5
241.429	87.5
241.662	81.5
241.896	81.5
242.13	73.5
242.363	76.5
242.597	59.5
242.83	76.5
243.064	81.5
243.298	83.5
243.531	90.5
243.765	61.5
243.998	85.5
244.232	77.5
244.465	67.5
244.699	83.5
244.932	72.5
245.166	85.5
245.399	77.5
245.633	88.5
245.866	89.5
246.099	63.5
246.333	81.5
246.566	69.5
246.8	71.5
247.033	76.5
247.266	77.5
247.5	74.5
247.733	51.5
247.966	73.5
248.2	75.5
248.433	82.5
248.666	68.5
248.899	75.5
249.133	74.5
249.366	92.5
249.599	90.5
249.832	74.5
250.066	81.5
250.299	76.5
250.532	81.5
250.765	73.5
250.998	65.5
251.231	76.5
251.465	75.5
251.698	81.5
251.931	75.5
252.164	78.5
252.397	96.5
252.63	84.5
252.863	83.5
253.096	80.5
253.329	74.5
253.562	85.5
253.795	73.5
254.028	83.5
254.261	81.5
254.494	77.5
254.727	81.5
254.96	83.5
255.193	83.5
255.426	82.5
255.659	73.5
255.892	79.5
256.124	70.5
256.357	81.5
256.59	71.5
256.823	69.5
257.056	60.5
257.289	76.5
257.521	81.5
257.754	69.5
257.987	79.5
258.22	74.5
258.452	87.5
258.685	87.5
258.918	84.5
259.151	75.5
259.383	85.5
259.616	87.5
259.849	79.5
260.081	80.5
260.314	66.5
260.547	79.5
260.779	81.5
261.012	71.5
261.244	83.5
261.477	84.5
261.71	88.5
261.942	89.5
262.175	80.5
262.407	81.5
262.64	71.5
262.872	88.5
263.105	72.5
263.337	71.5
263.57	88.5
263.802	86.5
264.035	82.5
264.267	88.5
264.499	75.5
264.732	80.5
264.964	89.5
265.197	92.5
265.429	73.5
265.661	79.5
265.894	97.5
266.126	74.5
266.358	77.5
266.591	85.5
266.823	66.5
267.055	81.5
267.287	93.5
267.52	79.5
267.752	87.5
267.984	88.5
268.216	74.5
268.448	78.5
268.681	84.5
268.913	74.5
269.145	76.5
269.377	93.5
269.609	91.5
269.841	77.5
270.073	81.5
270.306	75.5
270.538	76.5
270.77	72.5
271.002	77.5
271.234	91.5
271.466	79.5
271.698	95.5
271.93	79.5
272.162	75.5
272.394	87.5
272.626	92.5
272.858	80.5
273.09	78.5
273.322	90.5
273.553	85.5
273.785	90.5
274.017	84.5
274.249	85.5
274.481	76.5
274.713	84.5
274.945	78.5
275.176	85.5
275.408	78.5
275.64	76.5
275.872	87.5
276.104	72.5
276.335	75.5
276.567	73.5
276.799	88.5
277.031	77.5
277.262	82.5
277.494	93.5
277.726	87.5
277.957	83.5
278.189	92.5
278.421	77.5
278.652	78.5
278.884	78.5
279.115	83.5
279.347	77.5
279.579	75.5
279.81	81.5
280.042	83.5
280.273	77.5
280.505	87.5
280.736	90.5
280.968	80.5
281.199	84.5
281.431	86.5
281.662	90.5
281.894	83.5
282.125	99.5
282.356	86.5
282.588	74.5
282.819	88.5
283.051	95.5
283.282	68.5
283.513	77.5
283.745	92.5
283.976	81.5
284.207	90.5
284.439	97.5
284.67	84.5
284.901	80.5
285.132	87.5
285.364	91.5
285.595	94.5
285.826	69.5
286.057	86.5
286.288	69.5
286.52	77.5
286.751	74.5
286.982	79.5
287.213	80.5
287.444	76.5
287.675	87.5
287.906	95.5
288.138	96.5
288.369	81.5
288.6	88.5
288.831	82.5
289.062	80.5
289.293	97.5
289.524	78.5
289.755	83.5
289.986	88.5
290.217	88.5
290.448	88.5
290.679	82.5
290.91	87.5
291.141	85.5
291.371	90.5
291.602	78.5
291.833	90.5
292.064	87.5
292.295	72.5
292.526	75.5
292.757	81.5
292.987	87.5
293.218	84.5
293.449	79.5
293.68	75.5
293.91	87.5
294.141	81.5
294.372	83.5
294.603	74.5
294.833	82.5
295.064	99.5
295.295	90.5
295.525	75.5
295.756	83.5
295.987	72.5
296.217	87.5
296.448	77.5
296.679	81.5
296.909	85.5
297.14	92.5
297.37	96.5
297.601	71.5
297.831	73.5
298.062	81.5
298.292	87.5
298.523	71.5
298.753	85.5
298.984	81.5
299.214	80.5
299.445	79.5
299.675	90.5
299.905	82.5
300.136	88.5
300.366	89.5
300.597	74.5
300.827	79.5
301.057	85.5
301.288	90.5
301.518	85.5
301.748	90.5
301.979	88.5
302.209	81.5
302.439	100.5
302.669	90.5
302.9	87.5
303.13	80.5
303.36	81.5
303.59	91.5
303.82	93.5
304.051	71.5
304.281	100.5
304.511	88.5
304.741	85.5
304.971	81.5
305.201	81.5
305.431	83.5
305.661	90.5
305.891	85.5
306.121	88.5
306.352	85.5
306.582	83.5
306.812	87.5
307.042	91.5
307.272	93.5
307.502	89.5
307.731	97.5
307.961	95.5
308.191	95.5
308.421	83.5
308.651	94.5
308.881	89.5
309.111	92.5
309.341	105.5
309.571	92.5
309.8	89.5
310.03	100.5
310.26	85.5
310.49	86.5
310.72	84.5
310.949	81.5
311.179	85.5
311.409	87.5
311.639	80.5
311.868	83.5
312.098	85.5
312.328	79.5
312.557	76.5
312.787	89.5
313.017	88.5
313.246	98.5
313.476	75.5
313.706	92.5
313.935	77.5
314.165	89.5
314.394	89.5
314.624	84.5
314.853	81.5
315.083	84.5
315.312	94.5
315.542	85.5
315.771	75.5
316.001	88.5
316.23	81.5
316.46	96.5
316.689	94.5
316.919	82.5
317.148	84.5
317.377	90.5
317.607	84.5
317.836	79.5
318.065	98.5
318.295	97.5
318.524	92.5
318.753	95.5
318.983	98.5
319.212	87.5
319.441	92.5
319.67	86.5
319.9	80.5
320.129	90.5
320.358	83.5
320.587	84.5
320.816	101.5
321.046	78.5
321.275	89.5
321.504	80.5
321.733	93.5
321.962	93.5
322.191	90.5
322.42	108.5
322.649	90.5
322.878	93.5
323.108	89.5
323.337	93.5
323.566	85.5
323.795	94.5
324.024	76.5
324.253	79.5
324.482	83.5
324.71	98.5
324.939	93.5
325.168	83.5
325.397	88.5
325.626	92.5
325.855	89.5
326.084	77.5
326.313	68.5
326.542	88.5
326.77	92.5
326.999	95.5
327.228	89.5
327.457	83.5
327.686	90.5
327.914	83.5
328.143	76.5
328.372	94.5
328.6	91.5
328.829	81.5
329.058	96.5
329.287	71.5
329.515	83.5
329.744	85.5
329.972	83.5
330.201	97.5
330.43	87.5
330.658	86.5
330.887	104.5
331.115	95.5
331.344	78.5
331.572	93.5
331.801	90.5
332.03	91.5
332.258	89.5
332.486	87.5
332.715	95.5
332.943	96.5
333.172	84.5
333.4	79.5
333.629	85.5
333.857	96.5
334.085	83.5
334.314	76.5
334.542	101.5
334.771	95.5
334.999	97.5
335.227	110.5
335.455	100.5
335.684	97.5
335.912	107.5
336.14	85.5
336.369	82.5
336.597	81.5
336.825	85.5
337.053	93.5
337.281	96.5
337.51	100.5
337.738	89.5
337.966	83.5
338.194	91.5
338.422	99.5
338.65	98.5
338.878	90.5
339.106	67.5
339.334	85.5
339.562	77.5
339.79	83.5
340.018	81.5
340.246	83.5
340.474	98.5
340.702	93.5
340.93	99.5
341.158	94.5
341.386	94.5
341.614	74.5
341.842	96.5
342.07	96.5
342.298	85.5
342.526	81.5
342.754	85.5
342.981	82.5
343.209	90.5
343.437	102.5
343.665	84.5
343.893	89.5
344.12	89.5
344.348	92.5
344.576	104.5
344.804	83.5
345.031	76.5
345.259	88.5
345.487	88.5
345.714	93.5
345.942	96.5
346.17	90.5
346.397	77.5
346.625	77.5
346.853	80.5
347.08	89.5
347.308	87.5
347.535	85.5
347.763	92.5
347.99	84.5
348.218	82.5
348.445	92.5
348.673	83.5
348.9	82.5
349.128	79.5
349.355	104.5
349.583	81.5
349.81	78.5
350.037	77.5
350.265	77.5
350.492	84.5
350.72	84.5
350.947	87.5
351.174	75.5
351.402	83.5
351.629	87.5
351.856	95.5
352.083	83.5
352.311	97.5
352.538	84.5
352.765	83.5
352.992	96.5
353.22	77.5
353.447	85.5
353.674	77.5
353.901	91.5
354.128	103.5
354.355	88.5
354.583	91.5
354.81	92.5
355.037	81.5
355.264	91.5
355.491	83.5
355.718	103.5
355.945	86.5
356.172	85.5
356.399	82.5
356.626	100.5
356.853	91.5
357.08	95.5
357.307	96.5
357.534	85.5
357.761	92.5
357.988	88.5
358.215	93.5
358.441	91.5
358.668	96.5
358.895	98.5
359.122	90.5
359.349	97.5
359.576	84.5
359.802	94.5
360.029	78.5
360.256	84.5
360.483	66.5
360.709	91.5
360.936	87.5
361.163	87.5
361.39	87.5
361.616	99.5
361.843	85.5
362.07	99.5
362.296	101.5
362.523	103.5
362.749	95.5
362.976	96.5
363.203	121.5
363.429	112.5
363.656	94.5
363.882	98.5
364.109	107.5
364.335	130.5
364.562	112.5
364.788	92.5
365.015	107.5
365.241	104.5
365.468	104.5
365.694	90.5
365.92	100.5
366.147	90.5
366.373	72.5
366.599	76.5
366.826	85.5
367.052	83.5
367.278	95.5
367.505	98.5
367.731	92.5
367.957	93.5
368.184	82.5
368.41	89.5
368.636	95.5
368.862	92.5
369.089	97.5
369.315	96.5
369.541	95.5
369.767	96.5
369.993	87.5
370.219	91.5
370.445	89.5
370.672	100.5
370.898	99.5
371.124	99.5
371.35	86.5
371.576	93.5
371.802	91.5
372.028	88.5
372.254	104.5
372.48	89.5
372.706	84.5
372.932	98.5
373.158	99.5
373.384	101.5
373.61	118.5
373.835	106.5
374.061	86.5
374.287	95.5
374.513	101.5
374.739	106.5
374.965	108.5
375.191	103.5
375.416	82.5
375.642	96.5
375.868	104.5
376.094	104.5
376.319	96.5
376.545	102.5
376.771	89.5
376.997	81.5
377.222	94.5
377.448	83.5
377.674	84.5
377.899	86.5
378.125	86.5
378.35	92.5
378.576	82.5
378.802	89.5
379.027	96.5
379.253	93.5
379.478	83.5
379.704	104.5
379.929	95.5
380.155	89.5
380.38	88.5
380.606	85.5
380.831	80.5
381.057	95.5
381.282	82.5
381.507	85.5
381.733	90.5
381.958	93.5
382.184	95.5
382.409	96.5
382.634	105.5
382.86	116.5
383.085	112.5
383.31	85.5
383.535	99.5
383.761	111.5
383.986	104.5
384.211	111.5
384.436	96.5
384.662	86.5
384.887	109.5
385.112	96.5
385.337	86.5
385.562	87.5
385.787	80.5
386.013	100.5
386.238	102.5
386.463	87.5
386.688	111.5
386.913	90.5
387.138	101.5
387.363	86.5
387.588	107.5
387.813	108.5
388.038	99.5
388.263	97.5
388.488	96.5
388.713	88.5
388.938	83.5
389.163	86.5
389.387	87.5
389.612	78.5
389.837	91.5
390.062	106.5
390.287	88.5
390.512	93.5
390.736	90.5
390.961	84.5
391.186	87.5
391.411	81.5
391.636	95.5
391.86	99.5
392.085	102.5
392.31	96.5
392.534	105.5
392.759	127.5
392.984	149.5
393.208	261.5
393.433	377.5
393.658	283.5
393.882	143.5
394.107	123.5
394.331	137.5
394.556	124.5
394.78	123.5
395.005	100.5
395.229	100.5
395.454	96.5
395.678	97.5
395.903	115.5
396.127	160.5
396.352	166.5
396.576	193.5
396.801	261.5
397.025	301.5
397.249	165.5
397.474	116.5
397.698	93.5
397.922	87.5
398.147	89.5
398.371	102.5
398.595	93.5
398.82	91.5
399.044	96.5
399.268	84.5
399.492	96.5
399.717	98.5
399.941	101.5
400.165	101.5
400.389	79.5
400.613	85.5
400.837	97.5
401.062	95.5
401.286	82.5
401.51	84.5
401.734	90.5
401.958	84.5
402.182	96.5
402.406	91.5
402.63	82.5
402.854	86.5
403.078	91.5
403.302	78.5
403.526	80.5
403.75	88.5
403.974	84.5
404.198	100.5
404.422	95.5
404.645	94.5
404.869	101.5
405.093	81.5
405.317	74.5
405.541	89.5
405.765	85.5
405.988	91.5
406.212	81.5
406.436	81.5
406.66	116.5
406.883	85.5
407.107	94.5
407.331	89.5
407.555	87.5
407.778	122.5
408.002	113.5
408.226	100.5
408.449	79.5
408.673	77.5
408.896	92.5
409.12	89.5
409.344	100.5
409.567	93.5
409.791	94.5
410.014	98.5
410.238	96.5
410.461	103.5
410.685	93.5
410.908	94.5
411.132	95.5
411.355	79.5
411.578	76.5
411.802	75.5
412.025	100.5
412.249	98.5
412.472	96.5
412.695	87.5
412.919	69.5
413.142	88.5
413.365	81.5
413.589	74.5
413.812	88.5
414.035	88.5
414.258	89.5
414.482	74.5
414.705	102.5
414.928	99.5
415.151	89.5
415.374	83.5
415.597	71.5
415.821	77.5
416.044	70.5
416.267	95.5
416.49	90.5
416.713	85.5
416.936	85.5
417.159	88.5
417.382	90.5
417.605	82.5
417.828	82.5
418.051	90.5
418.274	98.5
418.497	89.5
418.72	91.5
418.943	98.5
419.166	86.5
419.389	99.5
419.611	88.5
419.834	87.5
420.057	90.5
420.28	92.5
420.503	97.5
420.726	77.5
420.948	92.5
421.171	98.5
421.394	105.5
421.617	122.5
421.839	131.5
422.062	107.5
422.285	159.5
422.507	273.5
422.73	432.5
422.953	401.5
423.175	207.5
423.398	124.5
423.621	117.5
423.843	87.5
424.066	97.5
424.288	84.5
424.511	84.5
424.733	103.5
424.956	85.5
425.178	105.5
425.401	91.5
425.623	92.5
425.846	85.5
426.068	82.5
426.291	88.5
426.513	88.5
426.735	75.5
426.958	87.5
427.18	85.5
427.402	100.5
427.625	101.5
427.847	101.5
428.069	105.5
428.292	131.5
428.514	133.5
428.736	127.5
428.958	132.5
429.181	135.5
429.403	111.5
429.625	103.5
429.847	134.5
430.069	169.5
430.292	179.5
430.514	157.5
430.736	132.5
430.958	143.5
431.18	113.5
431.402	100.5
431.624	95.5
431.846	111.5
432.068	143.5
432.29	92.5
432.512	100.5
432.734	87.5
432.956	94.5
433.178	93.5
433.4	98.5
433.622	90.5
433.844	88.5
434.066	68.5
434.287	92.5
434.509	89.5
434.731	80.5
434.953	76.5
435.175	78.5
435.397	83.5
435.618	114.5
435.84	88.5
436.062	81.5
436.284	79.5
436.505	88.5
436.727	93.5
436.949	103.5
437.17	87.5
437.392	96.5
437.614	100.5
437.835	79.5
438.057	87.5
438.278	97.5
438.5	107.5
438.721	97.5
438.943	79.5
439.165	91.5
439.386	80.5
439.608	86.5
439.829	96.5
440.05	87.5
440.272	89.5
440.493	82.5
440.715	91.5
440.936	91.5
441.158	79.5
441.379	73.5
441.6	85.5
441.822	92.5
442.043	89.5
442.264	96.5
442.486	130.5
442.707	155.5
442.928	124.5
443.149	104.5
443.371	140.5
443.592	249.5
443.813	205.5
444.034	107.5
444.255	102.5
444.476	73.5
444.698	85.5
444.919	92.5
445.14	188.5
445.361	199.5
445.582	285.5
445.803	233.5
446.024	118.5
446.245	85.5
446.466	87.5
446.687	91.5
446.908	90.5
447.129	89.5
447.35	96.5
447.571	83.5
447.792	83.5
448.013	76.5
448.234	83.5
448.455	69.5
448.675	84.5
448.896	98.5
449.117	90.5
449.338	91.5
449.559	87.5
449.779	72.5
450	79.5
450.221	75.5
450.442	84.5
450.662	79.5
450.883	83.5
451.104	86.5
451.324	78.5
451.545	86.5
451.766	84.5
451.986	88.5
452.207	87.5
452.428	91.5
452.648	90.5
452.869	93.5
453.089	98.5
453.31	90.5
453.53	84.5
453.751	84.5
453.971	85.5
454.192	96.5
454.412	87.5
454.633	81.5
454.853	90.5
455.073	77.5
455.294	83.5
455.514	97.5
455.734	92.5
455.955	91.5
456.175	80.5
456.395	77.5
456.616	73.5
456.836	97.5
457.056	75.5
457.276	99.5
457.497	89.5
457.717	105.5
457.937	97.5
458.157	113.5
458.377	120.5
458.598	104.5
458.818	116.5
459.038	99.5
459.258	83.5
459.478	98.5
459.698	88.5
459.918	92.5
460.138	80.5
460.358	89.5
460.578	93.5
460.798	116.5
461.018	119.5
461.238	104.5
461.458	95.5
461.678	89.5
461.898	85.5
462.118	89.5
462.338	79.5
462.558	95.5
462.777	80.5
462.997	85.5
463.217	87.5
463.437	81.5
463.657	89.5
463.876	99.5
464.096	93.5
464.316	72.5
464.536	77.5
464.755	84.5
464.975	76.5
465.195	85.5
465.414	89.5
465.634	75.5
465.854	95.5
466.073	89.5
466.293	87.5
466.512	88.5
466.732	97.5
466.951	108.5
467.171	91.5
467.391	88.5
467.61	92.5
467.829	101.5
468.049	88.5
468.268	92.5
468.488	82.5
468.707	82.5
468.927	100.5
469.146	85.5
469.365	83.5
469.585	92.5
469.804	89.5
470.023	103.5
470.243	101.5
470.462	91.5
470.681	84.5
470.901	88.5
471.12	97.5
471.339	93.5
471.558	81.5
471.777	80.5
471.997	93.5
472.216	85.5
472.435	102.5
472.654	67.5
472.873	92.5
473.092	84.5
473.311	74.5
473.53	98.5
473.749	93.5
473.968	106.5
474.187	93.5
474.406	100.5
474.625	90.5
474.844	78.5
475.063	88.5
475.282	83.5
475.501	95.5
475.72	97.5
475.939	81.5
476.158	92.5
476.377	90.5
476.596	70.5
476.814	81.5
477.033	99.5
477.252	86.5
477.471	94.5
477.69	103.5
477.908	89.5
478.127	84.5
478.346	93.5
478.564	81.5
478.783	90.5
479.002	85.5
479.22	94.5
479.439	86.5
479.658	99.5
479.876	77.5
480.095	89.5
480.313	76.5
480.532	76.5
480.751	104.5
480.969	101.5
481.188	79.5
481.406	89.5
481.624	96.5
481.843	91.5
482.061	87.5
482.28	89.5
482.498	83.5
482.717	73.5
482.935	99.5
483.153	100.5
483.372	101.5
483.59	91.5
483.808	87.5
484.027	91.5
484.245	104.5
484.463	96.5
484.681	108.5
484.9	96.5
485.118	97.5
485.336	88.5
485.554	96.5
485.772	99.5
485.99	90.5
486.209	90.5
486.427	80.5
486.645	91.5
486.863	101.5
487.081	79.5
487.299	107.5
487.517	97.5
487.735	110.5
487.953	151.5
488.171	134.5
488.389	100.5
488.607	90.5
488.825	100.5
489.043	99.5
489.261	108.5
489.479	96.5
489.696	102.5
489.914	97.5
490.132	101.5
490.35	92.5
490.568	93.5
490.786	92.5
491.003	98.5
491.221	107.5
491.439	86.5
491.657	78.5
491.874	102.5
492.092	112.5
492.31	93.5
492.527	104.5
492.745	72.5
492.963	101.5
493.18	89.5
493.398	107.5
493.615	103.5
493.833	116.5
494.05	86.5
494.268	96.5
494.485	90.5
494.703	77.5
494.92	89.5
495.138	92.5
495.355	107.5
495.573	94.5
495.79	89.5
496.008	97.5
496.225	94.5
496.442	102.5
496.66	91.5
496.877	94.5
497.094	102.5
497.312	87.5
497.529	95.5
497.746	96.5
497.963	100.5
498.181	106.5
498.398	114.5
498.615	87.5
498.832	99.5
499.049	104.5
499.267	121.5
499.484	95.5
499.701	105.5
499.918	90.5
500.135	104.5
500.352	95.5
500.569	107.5
500.786	115.5
501.003	108.5
501.22	89.5
501.437	98.5
501.654	100.5
501.871	112.5
502.088	101.5
502.305	100.5
502.522	89.5
502.739	95.5
502.956	90.5
503.172	102.5
503.389	103.5
503.606	104.5
503.823	111.5
504.04	95.5
504.256	140.5
504.473	132.5
504.69	98.5
504.907	88.5
505.123	103.5
505.34	96.5
505.557	95.5
505.773	93.5
505.99	100.5
506.207	94.5
506.423	90.5
506.64	96.5
506.856	95.5
507.073	91.5
507.289	103.5
507.506	87.5
507.722	87.5
507.939	81.5
508.155	103.5
508.372	92.5
508.588	98.5
508.805	99.5
509.021	100.5
509.238	101.5
509.454	107.5
509.67	99.5
509.887	101.5
510.103	85.5
510.319	97.5
510.536	118.5
510.752	100.5
510.968	99.5
511.184	91.5
511.401	68.5
511.617	93.5
511.833	103.5
512.049	100.5
512.265	77.5
512.481	106.5
512.698	89.5
512.914	88.5
513.13	102.5
513.346	91.5
513.562	106.5
513.778	96.5
513.994	90.5
514.21	88.5
514.426	98.5
514.642	103.5
514.858	87.5
515.074	98.5
515.29	104.5
515.506	95.5
515.721	103.5
515.937	88.5
516.153	92.5
516.369	93.5
516.585	84.5
516.801	96.5
517.016	107.5
517.232	88.5
517.448	113.5
517.664	97.5
517.879	115.5
518.095	91.5
518.311	107.5
518.527	126.5
518.742	102.5
518.958	148.5
519.173	157.5
519.389	111.5
519.605	87.5
519.82	88.5
520.036	91.5
520.251	102.5
520.467	89.5
520.682	115.5
520.898	95.5
521.113	103.5
521.329	103.5
521.544	106.5
521.76	101.5
521.975	92.5
522.19	92.5
522.406	111.5
522.621	99.5
522.836	106.5
523.052	103.5
523.267	108.5
523.482	93.5
523.698	106.5
523.913	92.5
524.128	101.5
524.343	91.5
524.559	109.5
524.774	107.5
524.989	95.5
525.204	101.5
525.419	103.5
525.634	97.5
525.849	116.5
526.064	129.5
526.28	216.5
526.495	270.5
526.71	283.5
526.925	175.5
527.14	271.5
527.355	241.5
527.57	119.5
527.785	89.5
527.999	100.5
528.214	81.5
528.429	86.5
528.644	104.5
528.859	97.5
529.074	99.5
529.289	106.5
529.503	91.5
529.718	111.5
529.933	107.5
530.148	99.5
530.363	86.5
530.577	107.5
530.792	122.5
531.007	107.5
531.221	113.5
531.436	100.5
531.651	97.5
531.865	97.5
532.08	113.5
532.295	115.5
532.509	114.5
532.724	117.5
532.938	115.5
533.153	120.5
533.367	106.5
533.582	101.5
533.796	97.5
534.011	118.5
534.225	104.5
534.44	121.5
534.654	119.5
534.868	118.5
535.083	158.5
535.297	154.5
535.511	117.5
535.726	91.5
535.94	101.5
536.154	108.5
