Data from 15780_1_HRD10591_00011.txt Node
Date: Mon Jan 19 14:18:15 EST 2026
User: Yrep
Spectrometer: HR+D1059
Trigger mode: 1
Integration Time (sec): 1.000000E-1
Scans to average: 1
Electric dark correction enabled: true
Nonlinearity correction enabled: false
Boxcar width: 0
XAxis mode: Wavelengths
Number of Pixels in Spectrum: 2048
>>>>>Begin Spectral Data<<<<<
223.165	-1.88
223.4	-1.88
223.635	-1.88
223.869	-13.88
224.104	-24.88
224.338	-21.88
224.573	-20.88
224.808	-6.88
225.042	-8.88
225.277	-18.88
225.511	-2.88
225.746	1.12
225.98	20.12
226.215	14.12
226.449	0.12
226.683	24.12
226.918	25.12
227.152	36.12
227.387	35.12
227.621	27.12
227.856	40.12
228.09	56.12
228.324	61.12
228.559	62.12
228.793	60.12
229.027	61.12
229.262	61.12
229.496	77.12
229.73	67.12
229.964	65.12
230.199	55.12
230.433	79.12
230.667	81.12
230.901	85.12
231.136	87.12
231.37	80.12
231.604	69.12
231.838	73.12
232.072	88.12
232.306	91.12
232.541	79.12
232.775	70.12
233.009	80.12
233.243	85.12
233.477	87.12
233.711	92.12
233.945	76.12
234.179	71.12
234.413	83.12
234.647	73.12
234.881	77.12
235.115	83.12
235.349	84.12
235.583	77.12
235.817	87.12
236.051	84.12
236.285	75.12
236.519	59.12
236.753	83.12
236.987	83.12
237.221	69.12
237.455	83.12
237.689	70.12
237.922	82.12
238.156	63.12
238.39	77.12
238.624	77.12
238.858	76.12
239.091	69.12
239.325	71.12
239.559	98.12
239.793	81.12
240.027	71.12
240.26	78.12
240.494	79.12
240.728	83.12
240.961	60.12
241.195	75.12
241.429	90.12
241.662	88.12
241.896	74.12
242.13	71.12
242.363	74.12
242.597	76.12
242.83	82.12
243.064	68.12
243.298	82.12
243.531	92.12
243.765	73.12
243.998	80.12
244.232	74.12
244.465	75.12
244.699	75.12
244.932	77.12
245.166	76.12
245.399	82.12
245.633	76.12
245.866	70.12
246.099	79.12
246.333	66.12
246.566	82.12
246.8	75.12
247.033	71.12
247.266	74.12
247.5	76.12
247.733	78.12
247.966	89.12
248.2	69.12
248.433	84.12
248.666	66.12
248.899	90.12
249.133	76.12
249.366	71.12
249.599	78.12
249.832	64.12
250.066	83.12
250.299	77.12
250.532	56.12
250.765	72.12
250.998	73.12
251.231	88.12
251.465	83.12
251.698	77.12
251.931	77.12
252.164	91.12
252.397	83.12
252.63	84.12
252.863	75.12
253.096	67.12
253.329	78.12
253.562	78.12
253.795	72.12
254.028	90.12
254.261	73.12
254.494	87.12
254.727	89.12
254.96	82.12
255.193	81.12
255.426	82.12
255.659	81.12
255.892	86.12
256.124	86.12
256.357	88.12
256.59	68.12
256.823	80.12
257.056	79.12
257.289	67.12
257.521	99.12
257.754	76.12
257.987	79.12
258.22	89.12
258.452	63.12
258.685	75.12
258.918	76.12
259.151	78.12
259.383	74.12
259.616	100.12
259.849	78.12
260.081	91.12
260.314	81.12
260.547	71.12
260.779	83.12
261.012	95.12
261.244	64.12
261.477	85.12
261.71	85.12
261.942	87.12
262.175	85.12
262.407	91.12
262.64	85.12
262.872	83.12
263.105	73.12
263.337	84.12
263.57	75.12
263.802	77.12
264.035	82.12
264.267	81.12
264.499	66.12
264.732	94.12
264.964	77.12
265.197	68.12
265.429	87.12
265.661	74.12
265.894	93.12
266.126	82.12
266.358	80.12
266.591	80.12
266.823	91.12
267.055	80.12
267.287	82.12
267.52	89.12
267.752	74.12
267.984	81.12
268.216	79.12
268.448	90.12
268.681	87.12
268.913	88.12
269.145	67.12
269.377	73.12
269.609	83.12
269.841	88.12
270.073	80.12
270.306	87.12
270.538	83.12
270.77	70.12
271.002	87.12
271.234	81.12
271.466	86.12
271.698	82.12
271.93	74.12
272.162	84.12
272.394	85.12
272.626	75.12
272.858	81.12
273.09	95.12
273.322	80.12
273.553	100.12
273.785	86.12
274.017	84.12
274.249	79.12
274.481	75.12
274.713	78.12
274.945	76.12
275.176	88.12
275.408	87.12
275.64	75.12
275.872	84.12
276.104	89.12
276.335	79.12
276.567	78.12
276.799	89.12
277.031	71.12
277.262	97.12
277.494	88.12
277.726	93.12
277.957	94.12
278.189	81.12
278.421	76.12
278.652	74.12
278.884	84.12
279.115	93.12
279.347	64.12
279.579	74.12
279.81	83.12
280.042	87.12
280.273	95.12
280.505	75.12
280.736	77.12
280.968	87.12
281.199	76.12
281.431	76.12
281.662	74.12
281.894	72.12
282.125	81.12
282.356	84.12
282.588	80.12
282.819	92.12
283.051	87.12
283.282	81.12
283.513	82.12
283.745	79.12
283.976	77.12
284.207	96.12
284.439	93.12
284.67	81.12
284.901	89.12
285.132	69.12
285.364	75.12
285.595	91.12
285.826	86.12
286.057	82.12
286.288	83.12
286.52	86.12
286.751	70.12
286.982	79.12
287.213	76.12
287.444	77.12
287.675	84.12
287.906	77.12
288.138	79.12
288.369	95.12
288.6	92.12
288.831	72.12
289.062	69.12
289.293	79.12
289.524	81.12
289.755	78.12
289.986	71.12
290.217	83.12
290.448	88.12
290.679	63.12
290.91	82.12
291.141	83.12
291.371	90.12
291.602	86.12
291.833	93.12
292.064	73.12
292.295	85.12
292.526	76.12
292.757	78.12
292.987	83.12
293.218	71.12
293.449	82.12
293.68	77.12
293.91	94.12
294.141	83.12
294.372	92.12
294.603	84.12
294.833	94.12
295.064	95.12
295.295	84.12
295.525	80.12
295.756	80.12
295.987	77.12
296.217	88.12
296.448	79.12
296.679	104.12
296.909	87.12
297.14	89.12
297.37	91.12
297.601	77.12
297.831	78.12
298.062	83.12
298.292	93.12
298.523	86.12
298.753	73.12
298.984	97.12
299.214	93.12
299.445	86.12
299.675	77.12
299.905	107.12
300.136	85.12
300.366	79.12
300.597	85.12
300.827	81.12
301.057	78.12
301.288	81.12
301.518	89.12
301.748	76.12
301.979	85.12
302.209	85.12
302.439	77.12
302.669	69.12
302.9	95.12
303.13	74.12
303.36	75.12
303.59	77.12
303.82	80.12
304.051	85.12
304.281	91.12
304.511	90.12
304.741	91.12
304.971	85.12
305.201	90.12
305.431	83.12
305.661	81.12
305.891	82.12
306.121	82.12
306.352	97.12
306.582	89.12
306.812	92.12
307.042	82.12
307.272	78.12
307.502	81.12
307.731	86.12
307.961	91.12
308.191	95.12
308.421	99.12
308.651	80.12
308.881	78.12
309.111	92.12
309.341	107.12
309.571	98.12
309.8	98.12
310.03	84.12
310.26	81.12
310.49	81.12
310.72	72.12
310.949	89.12
311.179	92.12
311.409	66.12
311.639	81.12
311.868	78.12
312.098	81.12
312.328	80.12
312.557	85.12
312.787	74.12
313.017	67.12
313.246	90.12
313.476	71.12
313.706	91.12
313.935	69.12
314.165	89.12
314.394	89.12
314.624	92.12
314.853	91.12
315.083	91.12
315.312	80.12
315.542	92.12
315.771	84.12
316.001	88.12
316.23	72.12
316.46	81.12
316.689	74.12
316.919	80.12
317.148	76.12
317.377	107.12
317.607	97.12
317.836	87.12
318.065	79.12
318.295	94.12
318.524	97.12
318.753	80.12
318.983	81.12
319.212	83.12
319.441	83.12
319.67	83.12
319.9	81.12
320.129	96.12
320.358	78.12
320.587	83.12
320.816	83.12
321.046	74.12
321.275	80.12
321.504	81.12
321.733	95.12
321.962	85.12
322.191	99.12
322.42	85.12
322.649	93.12
322.878	85.12
323.108	89.12
323.337	86.12
323.566	90.12
323.795	80.12
324.024	84.12
324.253	80.12
324.482	89.12
324.71	90.12
324.939	79.12
325.168	84.12
325.397	82.12
325.626	85.12
325.855	92.12
326.084	83.12
326.313	78.12
326.542	87.12
326.77	78.12
326.999	92.12
327.228	86.12
327.457	71.12
327.686	86.12
327.914	89.12
328.143	88.12
328.372	80.12
328.6	83.12
328.829	74.12
329.058	85.12
329.287	90.12
329.515	83.12
329.744	81.12
329.972	78.12
330.201	77.12
330.43	90.12
330.658	85.12
330.887	77.12
331.115	87.12
331.344	80.12
331.572	102.12
331.801	90.12
332.03	73.12
332.258	95.12
332.486	86.12
332.715	85.12
332.943	91.12
333.172	88.12
333.4	78.12
333.629	77.12
333.857	79.12
334.085	89.12
334.314	99.12
334.542	90.12
334.771	94.12
334.999	90.12
335.227	89.12
335.455	83.12
335.684	80.12
335.912	73.12
336.14	101.12
336.369	82.12
336.597	70.12
336.825	82.12
337.053	81.12
337.281	87.12
337.51	84.12
337.738	73.12
337.966	85.12
338.194	81.12
338.422	93.12
338.65	83.12
338.878	87.12
339.106	86.12
339.334	104.12
339.562	90.12
339.79	88.12
340.018	82.12
340.246	82.12
340.474	95.12
340.702	77.12
340.93	96.12
341.158	82.12
341.386	90.12
341.614	96.12
341.842	67.12
342.07	75.12
342.298	87.12
342.526	93.12
342.754	90.12
342.981	81.12
343.209	90.12
343.437	90.12
343.665	78.12
343.893	88.12
344.12	77.12
344.348	91.12
344.576	99.12
344.804	88.12
345.031	99.12
345.259	78.12
345.487	80.12
345.714	68.12
345.942	83.12
346.17	93.12
346.397	84.12
346.625	74.12
346.853	70.12
347.08	84.12
347.308	94.12
347.535	84.12
347.763	81.12
347.99	88.12
348.218	84.12
348.445	77.12
348.673	87.12
348.9	88.12
349.128	91.12
349.355	82.12
349.583	90.12
349.81	87.12
350.037	91.12
350.265	99.12
350.492	75.12
350.72	83.12
350.947	86.12
351.174	97.12
351.402	81.12
351.629	78.12
351.856	75.12
352.083	87.12
352.311	90.12
352.538	84.12
352.765	75.12
352.992	83.12
353.22	83.12
353.447	85.12
353.674	94.12
353.901	93.12
354.128	81.12
354.355	78.12
354.583	76.12
354.81	77.12
355.037	86.12
355.264	93.12
355.491	89.12
355.718	87.12
355.945	91.12
356.172	68.12
356.399	88.12
356.626	87.12
356.853	94.12
357.08	73.12
357.307	95.12
357.534	91.12
357.761	81.12
357.988	90.12
358.215	102.12
358.441	91.12
358.668	88.12
358.895	71.12
359.122	88.12
359.349	85.12
359.576	82.12
359.802	73.12
360.029	75.12
360.256	72.12
360.483	97.12
360.709	89.12
360.936	93.12
361.163	89.12
361.39	96.12
361.616	75.12
361.843	91.12
362.07	99.12
362.296	94.12
362.523	90.12
362.749	81.12
362.976	81.12
363.203	110.12
363.429	76.12
363.656	85.12
363.882	87.12
364.109	93.12
364.335	74.12
364.562	93.12
364.788	79.12
365.015	92.12
365.241	85.12
365.468	84.12
365.694	89.12
365.92	65.12
366.147	81.12
366.373	86.12
366.599	83.12
366.826	83.12
367.052	90.12
367.278	81.12
367.505	80.12
367.731	90.12
367.957	83.12
368.184	85.12
368.41	81.12
368.636	92.12
368.862	89.12
369.089	93.12
369.315	87.12
369.541	85.12
369.767	85.12
369.993	88.12
370.219	69.12
370.445	92.12
370.672	83.12
370.898	100.12
371.124	76.12
371.35	89.12
371.576	103.12
371.802	88.12
372.028	87.12
372.254	83.12
372.48	78.12
372.706	82.12
372.932	79.12
373.158	83.12
373.384	93.12
373.61	91.12
373.835	92.12
374.061	84.12
374.287	75.12
374.513	103.12
374.739	87.12
374.965	97.12
375.191	86.12
375.416	91.12
375.642	99.12
375.868	96.12
376.094	88.12
376.319	97.12
376.545	81.12
376.771	84.12
376.997	85.12
377.222	79.12
377.448	74.12
377.674	83.12
377.899	71.12
378.125	68.12
378.35	90.12
378.576	83.12
378.802	88.12
379.027	77.12
379.253	83.12
379.478	88.12
379.704	76.12
379.929	75.12
380.155	89.12
380.38	86.12
380.606	73.12
380.831	78.12
381.057	71.12
381.282	87.12
381.507	80.12
381.733	102.12
381.958	95.12
382.184	86.12
382.409	85.12
382.634	105.12
382.86	99.12
383.085	83.12
383.31	82.12
383.535	100.12
383.761	84.12
383.986	88.12
384.211	78.12
384.436	70.12
384.662	89.12
384.887	94.12
385.112	77.12
385.337	85.12
385.562	77.12
385.787	88.12
386.013	90.12
386.238	69.12
386.463	79.12
386.688	95.12
386.913	93.12
387.138	91.12
387.363	100.12
387.588	75.12
387.813	76.12
388.038	91.12
388.263	93.12
388.488	95.12
388.713	84.12
388.938	88.12
389.163	92.12
389.387	86.12
389.612	86.12
389.837	88.12
390.062	77.12
390.287	72.12
390.512	82.12
390.736	106.12
390.961	95.12
391.186	83.12
391.411	78.12
391.636	92.12
391.86	103.12
392.085	81.12
392.31	81.12
392.534	103.12
392.759	120.12
392.984	115.12
393.208	183.12
393.433	227.12
393.658	172.12
393.882	101.12
394.107	101.12
394.331	110.12
394.556	105.12
394.78	87.12
395.005	77.12
395.229	83.12
395.454	95.12
395.678	80.12
395.903	99.12
396.127	117.12
396.352	122.12
396.576	125.12
396.801	171.12
397.025	185.12
397.249	141.12
397.474	102.12
397.698	103.12
397.922	91.12
398.147	101.12
398.371	89.12
398.595	87.12
398.82	92.12
399.044	88.12
399.268	77.12
399.492	69.12
399.717	88.12
399.941	93.12
400.165	81.12
400.389	78.12
400.613	71.12
400.837	91.12
401.062	82.12
401.286	77.12
401.51	84.12
401.734	86.12
401.958	83.12
402.182	82.12
402.406	88.12
402.63	90.12
402.854	80.12
403.078	73.12
403.302	95.12
403.526	85.12
403.75	91.12
403.974	81.12
404.198	86.12
404.422	79.12
404.645	88.12
404.869	72.12
405.093	83.12
405.317	80.12
405.541	83.12
405.765	85.12
405.988	70.12
406.212	82.12
406.436	89.12
406.66	83.12
406.883	91.12
407.107	81.12
407.331	87.12
407.555	96.12
407.778	87.12
408.002	106.12
408.226	95.12
408.449	88.12
408.673	80.12
408.896	80.12
409.12	66.12
409.344	90.12
409.567	88.12
409.791	83.12
410.014	87.12
410.238	73.12
410.461	76.12
410.685	68.12
410.908	90.12
411.132	89.12
411.355	82.12
411.578	84.12
411.802	86.12
412.025	73.12
412.249	78.12
412.472	95.12
412.695	78.12
412.919	83.12
413.142	90.12
413.365	89.12
413.589	85.12
413.812	95.12
414.035	102.12
414.258	76.12
414.482	80.12
414.705	73.12
414.928	102.12
415.151	95.12
415.374	80.12
415.597	81.12
415.821	74.12
416.044	75.12
416.267	87.12
416.49	82.12
416.713	76.12
416.936	89.12
417.159	80.12
417.382	81.12
417.605	88.12
417.828	90.12
418.051	95.12
418.274	85.12
418.497	81.12
418.72	85.12
418.943	86.12
419.166	91.12
419.389	88.12
419.611	87.12
419.834	90.12
420.057	84.12
420.28	80.12
420.503	76.12
420.726	85.12
420.948	99.12
421.171	96.12
421.394	82.12
421.617	108.12
421.839	105.12
422.062	99.12
422.285	128.12
422.507	212.12
422.73	323.12
422.953	281.12
423.175	144.12
423.398	95.12
423.621	96.12
423.843	93.12
424.066	83.12
424.288	91.12
424.511	87.12
424.733	97.12
424.956	89.12
425.178	83.12
425.401	89.12
425.623	85.12
425.846	80.12
426.068	89.12
426.291	88.12
426.513	76.12
426.735	84.12
426.958	74.12
427.18	94.12
427.402	96.12
427.625	83.12
427.847	78.12
428.069	102.12
428.292	111.12
428.514	112.12
428.736	96.12
428.958	101.12
429.181	108.12
429.403	83.12
429.625	87.12
429.847	109.12
430.069	121.12
430.292	138.12
430.514	129.12
430.736	107.12
430.958	119.12
431.18	93.12
431.402	88.12
431.624	94.12
431.846	96.12
432.068	122.12
432.29	93.12
432.512	88.12
432.734	81.12
432.956	66.12
433.178	75.12
433.4	90.12
433.622	84.12
433.844	96.12
434.066	77.12
434.287	79.12
434.509	69.12
434.731	91.12
434.953	88.12
435.175	84.12
435.397	94.12
435.618	82.12
435.84	84.12
436.062	90.12
436.284	89.12
436.505	86.12
436.727	95.12
436.949	98.12
437.17	83.12
437.392	88.12
437.614	75.12
437.835	81.12
438.057	76.12
438.278	71.12
438.5	85.12
438.721	96.12
438.943	102.12
439.165	77.12
439.386	94.12
439.608	77.12
439.829	99.12
440.05	87.12
440.272	69.12
440.493	80.12
440.715	91.12
440.936	89.12
441.158	77.12
441.379	77.12
441.6	76.12
441.822	101.12
442.043	83.12
442.264	91.12
442.486	106.12
442.707	128.12
442.928	93.12
443.149	101.12
443.371	131.12
443.592	181.12
443.813	157.12
444.034	81.12
444.255	100.12
444.476	89.12
444.698	71.12
444.919	91.12
445.14	183.12
445.361	154.12
445.582	210.12
445.803	152.12
446.024	113.12
446.245	96.12
446.466	88.12
446.687	74.12
446.908	71.12
447.129	68.12
447.35	77.12
447.571	82.12
447.792	97.12
448.013	78.12
448.234	73.12
448.455	83.12
448.675	88.12
448.896	80.12
449.117	92.12
449.338	75.12
449.559	83.12
449.779	74.12
450	79.12
450.221	86.12
450.442	96.12
450.662	95.12
450.883	75.12
451.104	95.12
451.324	81.12
451.545	95.12
451.766	93.12
451.986	88.12
452.207	80.12
452.428	87.12
452.648	90.12
452.869	97.12
453.089	92.12
453.31	87.12
453.53	97.12
453.751	88.12
453.971	70.12
454.192	65.12
454.412	70.12
454.633	81.12
454.853	89.12
455.073	91.12
455.294	95.12
455.514	87.12
455.734	89.12
455.955	76.12
456.175	79.12
456.395	92.12
456.616	85.12
456.836	83.12
457.056	97.12
457.276	93.12
457.497	83.12
457.717	95.12
457.937	89.12
458.157	91.12
458.377	119.12
458.598	103.12
458.818	107.12
459.038	82.12
459.258	88.12
459.478	76.12
459.698	85.12
459.918	82.12
460.138	70.12
460.358	89.12
460.578	95.12
460.798	107.12
461.018	100.12
461.238	91.12
461.458	77.12
461.678	89.12
461.898	72.12
462.118	75.12
462.338	95.12
462.558	79.12
462.777	69.12
462.997	71.12
463.217	78.12
463.437	98.12
463.657	91.12
463.876	87.12
464.096	74.12
464.316	88.12
464.536	73.12
464.755	81.12
464.975	77.12
465.195	79.12
465.414	71.12
465.634	82.12
465.854	87.12
466.073	82.12
466.293	83.12
466.512	76.12
466.732	79.12
466.951	95.12
467.171	81.12
467.391	88.12
467.61	95.12
467.829	91.12
468.049	85.12
468.268	88.12
468.488	91.12
468.707	79.12
468.927	89.12
469.146	80.12
469.365	69.12
469.585	85.12
469.804	89.12
470.023	68.12
470.243	87.12
470.462	86.12
470.681	75.12
470.901	78.12
471.12	87.12
471.339	86.12
471.558	87.12
471.777	74.12
471.997	84.12
472.216	78.12
472.435	80.12
472.654	88.12
472.873	87.12
473.092	67.12
473.311	74.12
473.53	90.12
473.749	76.12
473.968	95.12
474.187	94.12
474.406	81.12
474.625	84.12
474.844	74.12
475.063	87.12
475.282	104.12
475.501	89.12
475.72	77.12
475.939	63.12
476.158	90.12
476.377	91.12
476.596	90.12
476.814	81.12
477.033	92.12
477.252	81.12
477.471	80.12
477.69	91.12
477.908	87.12
478.127	81.12
478.346	80.12
478.564	77.12
478.783	98.12
479.002	83.12
479.22	77.12
479.439	88.12
479.658	68.12
479.876	87.12
480.095	87.12
480.313	90.12
480.532	82.12
480.751	80.12
480.969	88.12
481.188	77.12
481.406	81.12
481.624	89.12
481.843	101.12
482.061	85.12
482.28	75.12
482.498	84.12
482.717	76.12
482.935	83.12
483.153	91.12
483.372	91.12
483.59	64.12
483.808	74.12
484.027	84.12
484.245	91.12
484.463	77.12
484.681	90.12
484.9	97.12
485.118	83.12
485.336	88.12
485.554	79.12
485.772	89.12
485.99	78.12
486.209	80.12
486.427	73.12
486.645	89.12
486.863	83.12
487.081	84.12
487.299	87.12
487.517	99.12
487.735	105.12
487.953	126.12
488.171	109.12
488.389	99.12
488.607	88.12
488.825	87.12
489.043	93.12
489.261	92.12
489.479	76.12
489.696	93.12
489.914	83.12
490.132	65.12
490.35	96.12
490.568	85.12
490.786	86.12
491.003	77.12
491.221	85.12
491.439	93.12
491.657	87.12
491.874	81.12
492.092	86.12
492.31	91.12
492.527	92.12
492.745	75.12
492.963	98.12
493.18	93.12
493.398	93.12
493.615	104.12
493.833	87.12
494.05	82.12
494.268	89.12
494.485	91.12
494.703	75.12
494.92	103.12
495.138	89.12
495.355	86.12
495.573	101.12
495.79	89.12
496.008	83.12
496.225	83.12
496.442	86.12
496.66	92.12
496.877	99.12
497.094	88.12
497.312	96.12
497.529	86.12
497.746	85.12
497.963	93.12
498.181	99.12
498.398	100.12
498.615	86.12
498.832	88.12
499.049	84.12
499.267	93.12
499.484	101.12
499.701	96.12
499.918	97.12
500.135	91.12
500.352	88.12
500.569	94.12
500.786	99.12
501.003	95.12
501.22	87.12
501.437	102.12
501.654	96.12
501.871	89.12
502.088	76.12
502.305	82.12
502.522	84.12
502.739	106.12
502.956	87.12
503.172	68.12
503.389	97.12
503.606	87.12
503.823	92.12
504.04	96.12
504.256	130.12
504.473	127.12
504.69	94.12
504.907	89.12
505.123	93.12
505.34	95.12
505.557	95.12
505.773	83.12
505.99	78.12
506.207	82.12
506.423	81.12
506.64	89.12
506.856	83.12
507.073	83.12
507.289	92.12
507.506	92.12
507.722	86.12
507.939	81.12
508.155	85.12
508.372	81.12
508.588	88.12
508.805	80.12
509.021	84.12
509.238	79.12
509.454	82.12
509.67	76.12
509.887	87.12
510.103	90.12
510.319	101.12
510.536	87.12
510.752	81.12
510.968	97.12
511.184	99.12
511.401	103.12
511.617	73.12
511.833	88.12
512.049	77.12
512.265	85.12
512.481	88.12
512.698	85.12
512.914	106.12
513.13	97.12
513.346	92.12
513.562	81.12
513.778	88.12
513.994	70.12
514.21	76.12
514.426	91.12
514.642	86.12
514.858	92.12
515.074	102.12
515.29	85.12
515.506	102.12
515.721	91.12
515.937	81.12
516.153	88.12
516.369	91.12
516.585	83.12
516.801	86.12
517.016	102.12
517.232	98.12
517.448	94.12
517.664	88.12
517.879	86.12
518.095	97.12
518.311	84.12
518.527	94.12
518.742	104.12
518.958	129.12
