Data from 15780_1_HRD10591_00016.txt Node
Date: Mon Jan 19 14:18:18 EST 2026
User: Yrep
Spectrometer: HR+D1059
Trigger mode: 1
Integration Time (sec): 1.000000E-1
Scans to average: 1
Electric dark correction enabled: true
Nonlinearity correction enabled: false
Boxcar width: 0
XAxis mode: Wavelengths
Number of Pixels in Spectrum: 2048
>>>>>Begin Spectral Data<<<<<
223.165	-10.94
223.4	-10.94
223.635	-10.94
223.869	-14.94
224.104	-16.94
224.338	-10.94
224.573	-14.94
224.808	-17.94
225.042	-14.94
225.277	0.06
225.511	-1.94
225.746	12.06
225.98	9.06
226.215	9.06
226.449	6.06
226.683	16.06
226.918	17.06
227.152	34.06
227.387	37.06
227.621	45.06
227.856	50.06
228.09	54.06
228.324	52.06
228.559	68.06
228.793	62.06
229.027	64.06
229.262	69.06
229.496	71.06
229.73	78.06
229.964	75.06
230.199	64.06
230.433	63.06
230.667	75.06
230.901	71.06
231.136	72.06
231.37	66.06
231.604	96.06
231.838	79.06
232.072	72.06
232.306	88.06
232.541	73.06
232.775	71.06
233.009	78.06
233.243	86.06
233.477	79.06
233.711	70.06
233.945	85.06
234.179	85.06
234.413	85.06
234.647	74.06
234.881	73.06
235.115	71.06
235.349	75.06
235.583	79.06
235.817	73.06
236.051	63.06
236.285	84.06
236.519	75.06
236.753	73.06
236.987	77.06
237.221	78.06
237.455	78.06
237.689	74.06
237.922	66.06
238.156	67.06
238.39	65.06
238.624	60.06
238.858	78.06
239.091	78.06
239.325	72.06
239.559	71.06
239.793	72.06
240.027	64.06
240.26	78.06
240.494	67.06
240.728	74.06
240.961	69.06
241.195	84.06
241.429	64.06
241.662	74.06
241.896	82.06
242.13	60.06
242.363	75.06
242.597	85.06
242.83	77.06
243.064	80.06
243.298	78.06
243.531	69.06
243.765	66.06
243.998	82.06
244.232	60.06
244.465	92.06
244.699	69.06
244.932	86.06
245.166	72.06
245.399	79.06
245.633	73.06
245.866	88.06
246.099	55.06
246.333	65.06
246.566	79.06
246.8	72.06
247.033	68.06
247.266	76.06
247.5	86.06
247.733	69.06
247.966	65.06
248.2	82.06
248.433	65.06
248.666	73.06
248.899	75.06
249.133	57.06
249.366	78.06
249.599	89.06
249.832	69.06
250.066	83.06
250.299	73.06
250.532	64.06
250.765	84.06
250.998	72.06
251.231	85.06
251.465	83.06
251.698	70.06
251.931	69.06
252.164	88.06
252.397	71.06
252.63	71.06
252.863	82.06
253.096	70.06
253.329	76.06
253.562	78.06
253.795	90.06
254.028	68.06
254.261	72.06
254.494	77.06
254.727	77.06
254.96	79.06
255.193	64.06
255.426	84.06
255.659	82.06
255.892	78.06
256.124	84.06
256.357	90.06
256.59	83.06
256.823	74.06
257.056	74.06
257.289	68.06
257.521	89.06
257.754	102.06
257.987	78.06
258.22	80.06
258.452	90.06
258.685	72.06
258.918	75.06
259.151	83.06
259.383	67.06
259.616	96.06
259.849	84.06
260.081	67.06
260.314	74.06
260.547	75.06
260.779	80.06
261.012	87.06
261.244	88.06
261.477	88.06
261.71	87.06
261.942	87.06
262.175	79.06
262.407	78.06
262.64	92.06
262.872	76.06
263.105	81.06
263.337	81.06
263.57	83.06
263.802	79.06
264.035	82.06
264.267	84.06
264.499	75.06
264.732	78.06
264.964	66.06
265.197	68.06
265.429	71.06
265.661	66.06
265.894	84.06
266.126	74.06
266.358	94.06
266.591	85.06
266.823	74.06
267.055	81.06
267.287	72.06
267.52	65.06
267.752	73.06
267.984	84.06
268.216	77.06
268.448	82.06
268.681	73.06
268.913	82.06
269.145	74.06
269.377	72.06
269.609	85.06
269.841	74.06
270.073	82.06
270.306	84.06
270.538	84.06
270.77	90.06
271.002	71.06
271.234	75.06
271.466	94.06
271.698	75.06
271.93	74.06
272.162	75.06
272.394	74.06
272.626	94.06
272.858	85.06
273.09	90.06
273.322	88.06
273.553	78.06
273.785	73.06
274.017	75.06
274.249	81.06
274.481	73.06
274.713	67.06
274.945	88.06
275.176	94.06
275.408	94.06
275.64	82.06
275.872	83.06
276.104	73.06
276.335	89.06
276.567	62.06
276.799	71.06
277.031	85.06
277.262	81.06
277.494	93.06
277.726	77.06
277.957	86.06
278.189	82.06
278.421	84.06
278.652	84.06
278.884	76.06
279.115	90.06
279.347	81.06
279.579	95.06
279.81	79.06
280.042	72.06
280.273	58.06
280.505	73.06
280.736	76.06
280.968	80.06
281.199	98.06
281.431	90.06
281.662	80.06
281.894	87.06
282.125	87.06
282.356	75.06
282.588	64.06
282.819	79.06
283.051	87.06
283.282	78.06
283.513	85.06
283.745	99.06
283.976	87.06
284.207	72.06
284.439	79.06
284.67	83.06
284.901	81.06
285.132	85.06
285.364	93.06
285.595	93.06
285.826	99.06
286.057	81.06
286.288	81.06
286.52	69.06
286.751	67.06
286.982	78.06
287.213	72.06
287.444	60.06
287.675	80.06
287.906	69.06
288.138	95.06
288.369	87.06
288.6	64.06
288.831	80.06
289.062	80.06
289.293	92.06
289.524	80.06
289.755	81.06
289.986	67.06
290.217	70.06
290.448	84.06
290.679	90.06
290.91	78.06
291.141	64.06
291.371	92.06
291.602	76.06
291.833	83.06
292.064	92.06
292.295	78.06
292.526	68.06
292.757	82.06
292.987	91.06
293.218	74.06
293.449	97.06
293.68	84.06
293.91	76.06
294.141	78.06
294.372	82.06
294.603	82.06
294.833	76.06
295.064	79.06
295.295	80.06
295.525	70.06
295.756	78.06
295.987	84.06
296.217	62.06
296.448	91.06
296.679	81.06
296.909	78.06
297.14	81.06
297.37	82.06
297.601	75.06
297.831	70.06
298.062	84.06
298.292	73.06
298.523	79.06
298.753	78.06
298.984	84.06
299.214	73.06
299.445	88.06
299.675	74.06
299.905	76.06
300.136	76.06
300.366	74.06
300.597	83.06
300.827	87.06
301.057	82.06
301.288	70.06
301.518	68.06
301.748	82.06
301.979	106.06
302.209	82.06
302.439	88.06
302.669	79.06
302.9	72.06
303.13	78.06
303.36	78.06
303.59	77.06
303.82	81.06
304.051	73.06
304.281	80.06
304.511	82.06
304.741	81.06
304.971	86.06
305.201	81.06
305.431	79.06
305.661	85.06
305.891	73.06
306.121	80.06
306.352	73.06
306.582	79.06
306.812	84.06
307.042	69.06
307.272	75.06
307.502	80.06
307.731	87.06
307.961	77.06
308.191	81.06
308.421	83.06
308.651	94.06
308.881	86.06
309.111	87.06
309.341	91.06
309.571	84.06
309.8	80.06
310.03	71.06
310.26	77.06
310.49	80.06
310.72	84.06
310.949	81.06
311.179	86.06
311.409	70.06
311.639	82.06
311.868	84.06
312.098	68.06
312.328	73.06
312.557	88.06
312.787	75.06
313.017	83.06
313.246	73.06
313.476	87.06
313.706	83.06
313.935	72.06
314.165	85.06
314.394	78.06
314.624	88.06
314.853	87.06
315.083	70.06
315.312	86.06
315.542	84.06
315.771	87.06
316.001	80.06
316.23	70.06
316.46	78.06
316.689	76.06
316.919	90.06
317.148	95.06
317.377	82.06
317.607	70.06
317.836	93.06
318.065	81.06
318.295	79.06
318.524	86.06
318.753	78.06
318.983	89.06
319.212	91.06
319.441	95.06
319.67	88.06
319.9	88.06
320.129	81.06
320.358	82.06
320.587	90.06
320.816	74.06
321.046	74.06
321.275	81.06
321.504	80.06
321.733	88.06
321.962	80.06
322.191	64.06
322.42	87.06
322.649	87.06
322.878	84.06
323.108	93.06
323.337	89.06
323.566	83.06
323.795	86.06
324.024	84.06
324.253	70.06
324.482	92.06
324.71	81.06
324.939	70.06
325.168	79.06
325.397	93.06
325.626	88.06
325.855	81.06
326.084	77.06
326.313	85.06
326.542	85.06
326.77	78.06
326.999	75.06
327.228	78.06
327.457	69.06
327.686	78.06
327.914	95.06
328.143	81.06
328.372	82.06
328.6	92.06
328.829	78.06
329.058	78.06
329.287	79.06
329.515	75.06
329.744	86.06
329.972	86.06
330.201	81.06
330.43	72.06
330.658	68.06
330.887	73.06
331.115	78.06
331.344	78.06
331.572	84.06
331.801	73.06
332.03	89.06
332.258	84.06
332.486	83.06
332.715	81.06
332.943	73.06
333.172	83.06
333.4	78.06
333.629	73.06
333.857	85.06
334.085	91.06
334.314	71.06
334.542	80.06
334.771	95.06
334.999	83.06
335.227	74.06
335.455	85.06
335.684	82.06
335.912	86.06
336.14	84.06
336.369	102.06
336.597	81.06
336.825	72.06
337.053	88.06
337.281	86.06
337.51	89.06
337.738	89.06
337.966	80.06
338.194	84.06
338.422	88.06
338.65	77.06
338.878	82.06
339.106	83.06
339.334	84.06
339.562	79.06
339.79	78.06
340.018	74.06
340.246	76.06
340.474	76.06
340.702	68.06
340.93	73.06
341.158	71.06
341.386	91.06
341.614	68.06
341.842	85.06
342.07	78.06
342.298	85.06
342.526	82.06
342.754	82.06
342.981	96.06
343.209	80.06
343.437	89.06
343.665	86.06
343.893	81.06
344.12	79.06
344.348	90.06
344.576	79.06
344.804	67.06
345.031	82.06
345.259	89.06
345.487	78.06
345.714	75.06
345.942	80.06
346.17	88.06
346.397	68.06
346.625	84.06
346.853	86.06
347.08	68.06
347.308	84.06
347.535	86.06
347.763	84.06
347.99	80.06
348.218	89.06
348.445	79.06
348.673	76.06
348.9	91.06
349.128	86.06
349.355	79.06
349.583	94.06
349.81	68.06
350.037	82.06
350.265	97.06
350.492	89.06
350.72	80.06
350.947	77.06
351.174	79.06
351.402	84.06
351.629	89.06
351.856	80.06
352.083	74.06
352.311	70.06
352.538	79.06
352.765	72.06
352.992	89.06
353.22	80.06
353.447	80.06
353.674	89.06
353.901	86.06
354.128	84.06
354.355	84.06
354.583	78.06
354.81	78.06
355.037	78.06
355.264	74.06
355.491	93.06
355.718	84.06
355.945	89.06
356.172	88.06
356.399	96.06
356.626	74.06
356.853	90.06
357.08	97.06
357.307	78.06
357.534	81.06
357.761	82.06
357.988	80.06
358.215	84.06
358.441	77.06
358.668	92.06
358.895	78.06
359.122	80.06
359.349	86.06
359.576	85.06
359.802	75.06
360.029	94.06
360.256	85.06
360.483	78.06
360.709	83.06
360.936	81.06
361.163	93.06
361.39	84.06
361.616	92.06
361.843	74.06
362.07	88.06
362.296	103.06
362.523	81.06
362.749	81.06
362.976	97.06
363.203	96.06
363.429	94.06
363.656	88.06
363.882	80.06
364.109	68.06
364.335	86.06
364.562	91.06
364.788	96.06
365.015	93.06
365.241	85.06
365.468	87.06
365.694	75.06
365.92	89.06
366.147	80.06
366.373	69.06
366.599	74.06
366.826	79.06
367.052	72.06
367.278	83.06
367.505	84.06
367.731	74.06
367.957	88.06
368.184	78.06
368.41	90.06
368.636	89.06
368.862	75.06
369.089	70.06
369.315	84.06
369.541	96.06
369.767	93.06
369.993	78.06
370.219	79.06
370.445	89.06
370.672	74.06
370.898	80.06
371.124	94.06
371.35	78.06
371.576	76.06
371.802	81.06
372.028	95.06
372.254	85.06
372.48	83.06
372.706	81.06
372.932	72.06
373.158	78.06
373.384	86.06
373.61	93.06
373.835	76.06
374.061	85.06
374.287	97.06
374.513	92.06
374.739	83.06
374.965	85.06
375.191	81.06
375.416	89.06
375.642	93.06
375.868	73.06
376.094	84.06
376.319	67.06
376.545	72.06
376.771	63.06
376.997	79.06
377.222	78.06
377.448	89.06
377.674	77.06
377.899	80.06
378.125	84.06
378.35	70.06
378.576	85.06
378.802	76.06
379.027	76.06
379.253	91.06
379.478	87.06
379.704	74.06
379.929	89.06
380.155	71.06
380.38	86.06
380.606	80.06
380.831	95.06
381.057	76.06
381.282	82.06
381.507	73.06
381.733	85.06
381.958	86.06
382.184	90.06
382.409	73.06
382.634	96.06
382.86	80.06
383.085	93.06
383.31	74.06
383.535	66.06
383.761	79.06
383.986	87.06
384.211	79.06
384.436	79.06
384.662	77.06
384.887	73.06
385.112	72.06
385.337	74.06
385.562	79.06
385.787	82.06
386.013	103.06
386.238	75.06
386.463	73.06
386.688	98.06
386.913	78.06
387.138	84.06
387.363	80.06
387.588	83.06
387.813	73.06
388.038	74.06
388.263	80.06
388.488	79.06
388.713	86.06
388.938	64.06
389.163	66.06
389.387	86.06
389.612	69.06
389.837	79.06
390.062	85.06
390.287	83.06
390.512	72.06
390.736	81.06
390.961	84.06
391.186	74.06
391.411	72.06
391.636	92.06
391.86	94.06
392.085	89.06
392.31	86.06
392.534	89.06
392.759	81.06
392.984	105.06
393.208	129.06
393.433	165.06
393.658	133.06
393.882	88.06
394.107	88.06
394.331	87.06
394.556	96.06
394.78	92.06
395.005	100.06
395.229	77.06
395.454	75.06
395.678	88.06
395.903	80.06
396.127	104.06
396.352	85.06
396.576	109.06
396.801	129.06
397.025	140.06
397.249	95.06
397.474	85.06
397.698	79.06
397.922	80.06
398.147	80.06
398.371	98.06
398.595	79.06
398.82	79.06
399.044	80.06
399.268	81.06
399.492	84.06
399.717	85.06
399.941	82.06
400.165	81.06
400.389	75.06
400.613	81.06
400.837	83.06
401.062	83.06
401.286	83.06
401.51	84.06
401.734	83.06
401.958	74.06
402.182	73.06
402.406	76.06
402.63	88.06
402.854	88.06
403.078	74.06
403.302	88.06
403.526	80.06
403.75	85.06
403.974	69.06
404.198	78.06
404.422	82.06
404.645	90.06
404.869	86.06
405.093	81.06
405.317	80.06
405.541	88.06
405.765	77.06
405.988	75.06
406.212	79.06
406.436	84.06
406.66	76.06
406.883	87.06
407.107	85.06
407.331	73.06
407.555	74.06
407.778	81.06
408.002	87.06
408.226	70.06
408.449	79.06
408.673	74.06
408.896	78.06
409.12	79.06
409.344	65.06
409.567	89.06
409.791	92.06
410.014	84.06
410.238	74.06
410.461	80.06
410.685	78.06
410.908	66.06
411.132	86.06
411.355	80.06
411.578	80.06
411.802	64.06
412.025	75.06
412.249	72.06
412.472	82.06
412.695	94.06
412.919	67.06
413.142	79.06
413.365	75.06
413.589	78.06
413.812	70.06
414.035	82.06
414.258	80.06
414.482	89.06
414.705	90.06
414.928	73.06
415.151	84.06
415.374	80.06
415.597	74.06
415.821	76.06
416.044	93.06
416.267	90.06
416.49	97.06
416.713	67.06
416.936	87.06
417.159	83.06
417.382	76.06
417.605	89.06
417.828	82.06
418.051	77.06
418.274	86.06
418.497	87.06
418.72	80.06
418.943	80.06
419.166	70.06
419.389	76.06
419.611	69.06
419.834	78.06
420.057	86.06
420.28	83.06
420.503	85.06
420.726	92.06
420.948	86.06
421.171	87.06
421.394	77.06
421.617	92.06
421.839	82.06
422.062	87.06
422.285	92.06
422.507	128.06
422.73	201.06
422.953	188.06
423.175	100.06
423.398	93.06
423.621	90.06
423.843	96.06
424.066	73.06
424.288	78.06
424.511	77.06
424.733	77.06
424.956	70.06
425.178	78.06
425.401	74.06
425.623	75.06
425.846	71.06
426.068	89.06
426.291	92.06
426.513	85.06
426.735	74.06
426.958	82.06
427.18	78.06
427.402	74.06
427.625	69.06
427.847	71.06
428.069	75.06
428.292	83.06
428.514	101.06
428.736	88.06
428.958	87.06
429.181	88.06
429.403	90.06
429.625	79.06
429.847	80.06
430.069	101.06
430.292	97.06
430.514	99.06
430.736	95.06
430.958	100.06
431.18	74.06
431.402	96.06
431.624	75.06
431.846	97.06
432.068	102.06
432.29	92.06
432.512	75.06
432.734	80.06
432.956	78.06
433.178	82.06
433.4	80.06
433.622	71.06
433.844	70.06
434.066	82.06
434.287	70.06
434.509	68.06
434.731	79.06
434.953	58.06
435.175	64.06
435.397	82.06
435.618	79.06
435.84	88.06
436.062	70.06
436.284	90.06
436.505	86.06
436.727	81.06
436.949	92.06
437.17	83.06
437.392	69.06
437.614	61.06
437.835	73.06
438.057	78.06
438.278	84.06
438.5	89.06
438.721	105.06
438.943	85.06
439.165	78.06
439.386	77.06
439.608	89.06
439.829	75.06
440.05	72.06
440.272	85.06
440.493	92.06
440.715	71.06
440.936	64.06
441.158	74.06
441.379	79.06
441.6	72.06
441.822	78.06
442.043	92.06
442.264	81.06
442.486	94.06
442.707	92.06
442.928	94.06
443.149	82.06
443.371	101.06
443.592	116.06
443.813	96.06
444.034	82.06
444.255	81.06
444.476	82.06
444.698	74.06
444.919	72.06
445.14	171.06
445.361	144.06
445.582	137.06
445.803	134.06
446.024	83.06
446.245	96.06
446.466	78.06
446.687	83.06
446.908	85.06
447.129	88.06
447.35	78.06
447.571	66.06
447.792	80.06
448.013	85.06
448.234	78.06
448.455	96.06
448.675	88.06
448.896	78.06
449.117	79.06
449.338	78.06
449.559	87.06
449.779	79.06
450	79.06
450.221	80.06
450.442	71.06
450.662	74.06
450.883	80.06
451.104	76.06
451.324	72.06
451.545	81.06
451.766	80.06
451.986	75.06
452.207	97.06
452.428	81.06
452.648	76.06
452.869	64.06
453.089	73.06
453.31	81.06
453.53	86.06
453.751	92.06
453.971	81.06
454.192	72.06
454.412	78.06
454.633	74.06
454.853	69.06
455.073	79.06
455.294	66.06
455.514	84.06
455.734	78.06
455.955	82.06
456.175	82.06
456.395	81.06
456.616	68.06
456.836	76.06
457.056	85.06
457.276	75.06
457.497	88.06
457.717	84.06
457.937	69.06
458.157	80.06
458.377	85.06
458.598	82.06
458.818	93.06
459.038	85.06
459.258	72.06
459.478	80.06
459.698	81.06
459.918	76.06
460.138	75.06
460.358	90.06
460.578	99.06
460.798	84.06
461.018	91.06
461.238	93.06
461.458	86.06
461.678	82.06
461.898	62.06
462.118	82.06
462.338	86.06
462.558	80.06
462.777	66.06
462.997	77.06
463.217	70.06
463.437	73.06
463.657	80.06
463.876	78.06
464.096	70.06
464.316	76.06
464.536	80.06
464.755	83.06
464.975	65.06
465.195	80.06
465.414	87.06
465.634	81.06
465.854	66.06
466.073	77.06
466.293	72.06
466.512	85.06
466.732	80.06
466.951	86.06
467.171	84.06
467.391	90.06
467.61	72.06
467.829	72.06
468.049	93.06
468.268	81.06
468.488	88.06
468.707	79.06
468.927	79.06
469.146	82.06
469.365	89.06
469.585	82.06
469.804	86.06
470.023	70.06
470.243	90.06
470.462	75.06
470.681	88.06
470.901	96.06
471.12	80.06
471.339	86.06
471.558	90.06
471.777	70.06
471.997	80.06
472.216	85.06
472.435	73.06
472.654	83.06
472.873	81.06
473.092	76.06
473.311	78.06
473.53	85.06
473.749	74.06
473.968	83.06
474.187	72.06
474.406	88.06
474.625	89.06
474.844	90.06
475.063	81.06
475.282	80.06
475.501	96.06
475.72	89.06
475.939	87.06
476.158	72.06
476.377	84.06
476.596	73.06
476.814	79.06
477.033	72.06
477.252	84.06
477.471	67.06
477.69	80.06
477.908	76.06
478.127	79.06
478.346	78.06
478.564	82.06
478.783	86.06
479.002	77.06
479.22	92.06
479.439	80.06
479.658	70.06
479.876	82.06
480.095	92.06
480.313	89.06
480.532	80.06
480.751	87.06
480.969	80.06
481.188	80.06
481.406	78.06
481.624	91.06
481.843	90.06
482.061	74.06
482.28	84.06
482.498	85.06
482.717	89.06
482.935	78.06
483.153	77.06
483.372	82.06
483.59	89.06
483.808	79.06
484.027	94.06
484.245	78.06
484.463	86.06
484.681	100.06
484.9	80.06
485.118	94.06
485.336	72.06
485.554	78.06
485.772	96.06
485.99	78.06
486.209	76.06
486.427	81.06
486.645	75.06
486.863	77.06
487.081	72.06
487.299	82.06
487.517	94.06
487.735	86.06
487.953	81.06
488.171	80.06
488.389	84.06
488.607	96.06
488.825	82.06
489.043	93.06
489.261	91.06
489.479	81.06
489.696	82.06
489.914	83.06
490.132	81.06
490.35	85.06
490.568	72.06
490.786	81.06
491.003	81.06
491.221	87.06
491.439	80.06
491.657	87.06
491.874	97.06
492.092	84.06
492.31	68.06
492.527	85.06
492.745	99.06
492.963	77.06
493.18	76.06
493.398	96.06
493.615	74.06
493.833	90.06
494.05	79.06
494.268	90.06
494.485	89.06
494.703	84.06
494.92	84.06
495.138	88.06
495.355	81.06
495.573	78.06
495.79	77.06
496.008	87.06
496.225	82.06
496.442	82.06
496.66	86.06
496.877	88.06
497.094	88.06
497.312	72.06
497.529	69.06
497.746	79.06
497.963	96.06
498.181	74.06
498.398	86.06
498.615	94.06
498.832	80.06
499.049	83.06
499.267	90.06
499.484	72.06
499.701	84.06
499.918	83.06
500.135	74.06
500.352	80.06
500.569	96.06
500.786	80.06
501.003	82.06
501.22	87.06
501.437	89.06
501.654	78.06
501.871	100.06
502.088	82.06
502.305	77.06
502.522	79.06
502.739	84.06
502.956	86.06
503.172	90.06
503.389	89.06
503.606	94.06
503.823	74.06
504.04	78.06
504.256	87.06
504.473	93.06
504.69	73.06
504.907	84.06
505.123	79.06
505.34	72.06
505.557	74.06
505.773	75.06
505.99	79.06
506.207	83.06
506.423	82.06
506.64	86.06
506.856	90.06
507.073	103.06
507.289	84.06
507.506	78.06
507.722	81.06
507.939	93.06
508.155	84.06
508.372	76.06
508.588	86.06
508.805	90.06
509.021	89.06
509.238	67.06
509.454	72.06
509.67	78.06
509.887	80.06
510.103	71.06
510.319	74.06
510.536	84.06
510.752	80.06
510.968	93.06
511.184	92.06
511.401	92.06
511.617	82.06
511.833	87.06
512.049	72.06
512.265	66.06
512.481	71.06
512.698	74.06
512.914	81.06
513.13	99.06
513.346	72.06
513.562	90.06
513.778	80.06
513.994	74.06
514.21	74.06
514.426	92.06
514.642	79.06
514.858	81.06
515.074	67.06
515.29	72.06
515.506	78.06
515.721	80.06
515.937	79.06
516.153	80.06
516.369	78.06
516.585	88.06
516.801	90.06
517.016	94.06
517.232	75.06
517.448	97.06
517.664	86.06
517.879	85.06
518.095	80.06
518.311	93.06
518.527	96.06
518.742	84.06
518.958	110.06
519.173	94.06
519.389	87.06
519.605	84.06
519.82	105.06
