Data from 15780_1_HRD10591_00048.txt Node
Date: Mon Jan 19 14:18:34 EST 2026
User: Yrep
Spectrometer: HR+D1059
Trigger mode: 1
Integration Time (sec): 1.000000E-1
Scans to average: 1
Electric dark correction enabled: true
Nonlinearity correction enabled: false
Boxcar width: 0
XAxis mode: Wavelengths
Number of Pixels in Spectrum: 2048
>>>>>Begin Spectral Data<<<<<
223.165	-16.81
223.4	-16.81
223.635	-16.81
223.869	-18.81
224.104	-23.81
224.338	-11.81
224.573	-2.81
224.808	-11.81
225.042	-18.81
225.277	-8.81
225.511	-6.81
225.746	8.19
225.98	3.19
226.215	5.19
226.449	16.19
226.683	24.19
226.918	28.19
227.152	35.19
227.387	41.19
227.621	28.19
227.856	43.19
228.09	49.19
228.324	51.19
228.559	68.19
228.793	73.19
229.027	67.19
229.262	63.19
229.496	82.19
229.73	72.19
229.964	71.19
230.199	71.19
230.433	63.19
230.667	60.19
230.901	68.19
231.136	74.19
231.37	74.19
231.604	88.19
231.838	82.19
232.072	86.19
232.306	93.19
232.541	85.19
232.775	85.19
233.009	81.19
233.243	84.19
233.477	82.19
233.711	90.19
233.945	92.19
234.179	77.19
234.413	72.19
234.647	63.19
234.881	72.19
235.115	83.19
235.349	79.19
235.583	77.19
235.817	89.19
236.051	82.19
236.285	76.19
236.519	79.19
236.753	65.19
236.987	73.19
237.221	88.19
237.455	78.19
237.689	77.19
237.922	95.19
238.156	71.19
238.39	73.19
238.624	65.19
238.858	67.19
239.091	83.19
239.325	71.19
239.559	80.19
239.793	75.19
240.027	66.19
240.26	79.19
240.494	72.19
240.728	74.19
240.961	85.19
241.195	84.19
241.429	70.19
241.662	83.19
241.896	85.19
242.13	81.19
242.363	84.19
242.597	77.19
242.83	77.19
243.064	58.19
243.298	72.19
243.531	71.19
243.765	76.19
243.998	79.19
244.232	83.19
244.465	72.19
244.699	78.19
244.932	82.19
245.166	83.19
245.399	72.19
245.633	85.19
245.866	81.19
246.099	71.19
246.333	92.19
246.566	73.19
246.8	71.19
247.033	88.19
247.266	81.19
247.5	75.19
247.733	74.19
247.966	72.19
248.2	84.19
248.433	84.19
248.666	94.19
248.899	87.19
249.133	79.19
249.366	87.19
249.599	85.19
249.832	92.19
250.066	77.19
250.299	95.19
250.532	85.19
250.765	92.19
250.998	72.19
251.231	82.19
251.465	78.19
251.698	86.19
251.931	81.19
252.164	65.19
252.397	64.19
252.63	85.19
252.863	76.19
253.096	79.19
253.329	96.19
253.562	91.19
253.795	74.19
254.028	78.19
254.261	71.19
254.494	71.19
254.727	85.19
254.96	83.19
255.193	80.19
255.426	87.19
255.659	83.19
255.892	95.19
256.124	69.19
256.357	81.19
256.59	77.19
256.823	78.19
257.056	81.19
257.289	79.19
257.521	85.19
257.754	100.19
257.987	84.19
258.22	67.19
258.452	68.19
258.685	77.19
258.918	82.19
259.151	75.19
259.383	83.19
259.616	91.19
259.849	78.19
260.081	77.19
260.314	71.19
260.547	90.19
260.779	81.19
261.012	71.19
261.244	65.19
261.477	88.19
261.71	67.19
261.942	71.19
262.175	83.19
262.407	84.19
262.64	83.19
262.872	84.19
263.105	70.19
263.337	84.19
263.57	103.19
263.802	78.19
264.035	80.19
264.267	89.19
264.499	63.19
264.732	81.19
264.964	99.19
265.197	75.19
265.429	87.19
265.661	71.19
265.894	83.19
266.126	83.19
266.358	78.19
266.591	66.19
266.823	80.19
267.055	80.19
267.287	77.19
267.52	83.19
267.752	89.19
267.984	86.19
268.216	85.19
268.448	83.19
268.681	98.19
268.913	97.19
269.145	82.19
269.377	76.19
269.609	63.19
269.841	85.19
270.073	74.19
270.306	89.19
270.538	91.19
270.77	80.19
271.002	87.19
271.234	92.19
271.466	81.19
271.698	93.19
271.93	86.19
272.162	92.19
272.394	83.19
272.626	89.19
272.858	92.19
273.09	80.19
273.322	72.19
273.553	67.19
273.785	74.19
274.017	83.19
274.249	85.19
274.481	84.19
274.713	87.19
274.945	92.19
275.176	83.19
275.408	80.19
275.64	82.19
275.872	85.19
276.104	82.19
276.335	86.19
276.567	79.19
276.799	82.19
277.031	80.19
277.262	88.19
277.494	72.19
277.726	84.19
277.957	81.19
278.189	81.19
278.421	90.19
278.652	85.19
278.884	66.19
279.115	93.19
279.347	84.19
279.579	84.19
279.81	103.19
280.042	93.19
280.273	97.19
280.505	82.19
280.736	81.19
280.968	66.19
281.199	75.19
281.431	85.19
281.662	82.19
281.894	84.19
282.125	80.19
282.356	86.19
282.588	82.19
282.819	73.19
283.051	79.19
283.282	85.19
283.513	91.19
283.745	97.19
283.976	94.19
284.207	72.19
284.439	77.19
284.67	86.19
284.901	87.19
285.132	89.19
285.364	94.19
285.595	82.19
285.826	80.19
286.057	81.19
286.288	84.19
286.52	91.19
286.751	88.19
286.982	84.19
287.213	85.19
287.444	98.19
287.675	82.19
287.906	92.19
288.138	83.19
288.369	101.19
288.6	89.19
288.831	84.19
289.062	84.19
289.293	64.19
289.524	73.19
289.755	96.19
289.986	86.19
290.217	74.19
290.448	85.19
290.679	75.19
290.91	75.19
291.141	82.19
291.371	91.19
291.602	77.19
291.833	83.19
292.064	87.19
292.295	72.19
292.526	85.19
292.757	93.19
292.987	89.19
293.218	82.19
293.449	79.19
293.68	91.19
293.91	76.19
294.141	87.19
294.372	85.19
294.603	72.19
294.833	85.19
295.064	87.19
295.295	100.19
295.525	89.19
295.756	97.19
295.987	78.19
296.217	78.19
296.448	88.19
296.679	99.19
296.909	86.19
297.14	91.19
297.37	88.19
297.601	84.19
297.831	98.19
298.062	95.19
298.292	83.19
298.523	91.19
298.753	87.19
298.984	92.19
299.214	68.19
299.445	76.19
299.675	97.19
299.905	82.19
300.136	78.19
300.366	88.19
300.597	78.19
300.827	64.19
301.057	71.19
301.288	64.19
301.518	90.19
301.748	92.19
301.979	102.19
302.209	91.19
302.439	77.19
302.669	82.19
302.9	89.19
303.13	83.19
303.36	95.19
303.59	84.19
303.82	79.19
304.051	97.19
304.281	100.19
304.511	89.19
304.741	95.19
304.971	82.19
305.201	84.19
305.431	58.19
305.661	87.19
305.891	83.19
306.121	86.19
306.352	87.19
306.582	88.19
306.812	85.19
307.042	73.19
307.272	85.19
307.502	91.19
307.731	83.19
307.961	96.19
308.191	91.19
308.421	100.19
308.651	97.19
308.881	88.19
309.111	85.19
309.341	107.19
309.571	96.19
309.8	81.19
310.03	81.19
310.26	88.19
310.49	91.19
310.72	94.19
310.949	93.19
311.179	88.19
311.409	98.19
311.639	77.19
311.868	81.19
312.098	82.19
312.328	93.19
312.557	72.19
312.787	95.19
313.017	84.19
313.246	78.19
313.476	71.19
313.706	90.19
313.935	95.19
314.165	77.19
314.394	98.19
314.624	85.19
314.853	78.19
315.083	87.19
315.312	88.19
315.542	90.19
315.771	99.19
316.001	92.19
316.23	93.19
316.46	71.19
316.689	92.19
316.919	71.19
317.148	91.19
317.377	92.19
317.607	87.19
317.836	115.19
318.065	106.19
318.295	98.19
318.524	77.19
318.753	83.19
318.983	74.19
319.212	94.19
319.441	101.19
319.67	101.19
319.9	81.19
320.129	93.19
320.358	88.19
320.587	91.19
320.816	76.19
321.046	71.19
321.275	85.19
321.504	77.19
321.733	81.19
321.962	79.19
322.191	90.19
322.42	78.19
322.649	97.19
322.878	99.19
323.108	89.19
323.337	86.19
323.566	76.19
323.795	93.19
324.024	99.19
324.253	92.19
324.482	96.19
324.71	108.19
324.939	92.19
325.168	89.19
325.397	87.19
325.626	73.19
325.855	85.19
326.084	77.19
326.313	85.19
326.542	72.19
326.77	81.19
326.999	93.19
327.228	85.19
327.457	97.19
327.686	90.19
327.914	85.19
328.143	94.19
328.372	84.19
328.6	89.19
328.829	95.19
329.058	95.19
329.287	67.19
329.515	85.19
329.744	93.19
329.972	90.19
330.201	91.19
330.43	81.19
330.658	78.19
330.887	83.19
331.115	71.19
331.344	84.19
331.572	85.19
331.801	92.19
332.03	92.19
332.258	92.19
332.486	75.19
332.715	87.19
332.943	75.19
333.172	91.19
333.4	76.19
333.629	81.19
333.857	68.19
334.085	106.19
334.314	79.19
334.542	83.19
334.771	83.19
334.999	83.19
335.227	90.19
335.455	92.19
335.684	91.19
335.912	94.19
336.14	101.19
336.369	90.19
336.597	83.19
336.825	86.19
337.053	93.19
337.281	80.19
337.51	103.19
337.738	80.19
337.966	63.19
338.194	80.19
338.422	89.19
338.65	89.19
338.878	99.19
339.106	85.19
339.334	84.19
339.562	73.19
339.79	87.19
340.018	89.19
340.246	82.19
340.474	75.19
340.702	96.19
340.93	85.19
341.158	90.19
341.386	91.19
341.614	81.19
341.842	71.19
342.07	74.19
342.298	86.19
342.526	79.19
342.754	91.19
342.981	76.19
343.209	82.19
343.437	87.19
343.665	88.19
343.893	89.19
344.12	86.19
344.348	80.19
344.576	75.19
344.804	89.19
345.031	83.19
345.259	85.19
345.487	79.19
345.714	75.19
345.942	75.19
346.17	80.19
346.397	90.19
346.625	102.19
346.853	86.19
347.08	85.19
347.308	95.19
347.535	100.19
347.763	86.19
347.99	89.19
348.218	92.19
348.445	92.19
348.673	82.19
348.9	82.19
349.128	90.19
349.355	93.19
349.583	82.19
349.81	83.19
350.037	79.19
350.265	88.19
350.492	73.19
350.72	86.19
350.947	71.19
351.174	74.19
351.402	93.19
351.629	80.19
351.856	83.19
352.083	94.19
352.311	95.19
352.538	84.19
352.765	83.19
352.992	104.19
353.22	85.19
353.447	83.19
353.674	80.19
353.901	85.19
354.128	81.19
354.355	82.19
354.583	83.19
354.81	86.19
355.037	88.19
355.264	90.19
355.491	84.19
355.718	83.19
355.945	89.19
356.172	86.19
356.399	92.19
356.626	88.19
356.853	88.19
357.08	89.19
357.307	94.19
357.534	86.19
357.761	92.19
357.988	88.19
358.215	97.19
358.441	95.19
358.668	89.19
358.895	87.19
359.122	92.19
359.349	92.19
359.576	83.19
359.802	90.19
360.029	79.19
360.256	79.19
360.483	82.19
360.709	92.19
360.936	78.19
361.163	95.19
361.39	93.19
361.616	91.19
361.843	99.19
362.07	119.19
362.296	87.19
362.523	86.19
362.749	100.19
362.976	100.19
363.203	105.19
363.429	92.19
363.656	92.19
363.882	87.19
364.109	98.19
364.335	93.19
364.562	127.19
364.788	105.19
365.015	87.19
365.241	93.19
365.468	78.19
365.694	84.19
365.92	82.19
366.147	83.19
366.373	70.19
366.599	83.19
366.826	89.19
367.052	80.19
367.278	92.19
367.505	93.19
367.731	90.19
367.957	75.19
368.184	80.19
368.41	82.19
368.636	105.19
368.862	83.19
369.089	88.19
369.315	81.19
369.541	75.19
369.767	83.19
369.993	85.19
370.219	79.19
370.445	79.19
370.672	103.19
370.898	92.19
371.124	84.19
371.35	66.19
371.576	84.19
371.802	80.19
372.028	106.19
372.254	95.19
372.48	92.19
372.706	97.19
372.932	76.19
373.158	97.19
373.384	108.19
373.61	125.19
373.835	118.19
374.061	109.19
374.287	95.19
374.513	109.19
374.739	99.19
374.965	97.19
375.191	92.19
375.416	97.19
375.642	93.19
375.868	90.19
376.094	91.19
376.319	92.19
376.545	91.19
376.771	99.19
376.997	91.19
377.222	77.19
377.448	89.19
377.674	91.19
377.899	79.19
378.125	67.19
378.35	87.19
378.576	73.19
378.802	96.19
379.027	88.19
379.253	99.19
379.478	84.19
379.704	86.19
379.929	85.19
380.155	83.19
380.38	84.19
380.606	90.19
380.831	100.19
381.057	98.19
381.282	92.19
381.507	100.19
381.733	97.19
381.958	90.19
382.184	101.19
382.409	88.19
382.634	101.19
382.86	94.19
383.085	96.19
383.31	98.19
383.535	90.19
383.761	107.19
383.986	96.19
384.211	99.19
384.436	103.19
384.662	100.19
384.887	103.19
385.112	82.19
385.337	99.19
385.562	108.19
385.787	101.19
386.013	114.19
386.238	111.19
386.463	100.19
386.688	106.19
386.913	95.19
387.138	100.19
387.363	95.19
387.588	101.19
387.813	93.19
388.038	104.19
388.263	98.19
388.488	91.19
388.713	89.19
388.938	84.19
389.163	71.19
389.387	95.19
389.612	88.19
389.837	79.19
390.062	93.19
390.287	89.19
390.512	100.19
390.736	79.19
390.961	98.19
391.186	96.19
391.411	82.19
391.636	92.19
391.86	97.19
392.085	112.19
392.31	98.19
392.534	102.19
392.759	132.19
392.984	193.19
393.208	390.19
393.433	598.19
393.658	444.19
393.882	169.19
394.107	111.19
394.331	122.19
394.556	131.19
394.78	112.19
395.005	97.19
395.229	91.19
395.454	107.19
395.678	109.19
395.903	105.19
396.127	162.19
396.352	185.19
396.576	225.19
396.801	401.19
397.025	475.19
397.249	218.19
397.474	121.19
397.698	101.19
397.922	104.19
398.147	92.19
398.371	94.19
398.595	65.19
398.82	83.19
399.044	88.19
399.268	94.19
399.492	94.19
399.717	100.19
399.941	95.19
400.165	83.19
400.389	73.19
400.613	89.19
400.837	90.19
401.062	95.19
401.286	61.19
401.51	85.19
401.734	83.19
401.958	81.19
402.182	72.19
402.406	76.19
402.63	95.19
402.854	77.19
403.078	87.19
403.302	91.19
403.526	89.19
403.75	89.19
403.974	83.19
404.198	101.19
404.422	111.19
404.645	125.19
404.869	104.19
405.093	83.19
405.317	75.19
405.541	83.19
405.765	72.19
405.988	84.19
406.212	97.19
406.436	97.19
406.66	80.19
406.883	89.19
407.107	98.19
407.331	92.19
407.555	117.19
407.778	127.19
408.002	137.19
408.226	107.19
408.449	93.19
408.673	77.19
408.896	81.19
409.12	95.19
409.344	93.19
409.567	92.19
409.791	90.19
410.014	97.19
410.238	81.19
410.461	83.19
410.685	64.19
410.908	82.19
411.132	95.19
411.355	87.19
411.578	92.19
411.802	91.19
412.025	84.19
412.249	82.19
412.472	90.19
412.695	82.19
412.919	81.19
413.142	69.19
413.365	84.19
413.589	83.19
413.812	69.19
414.035	75.19
414.258	73.19
414.482	86.19
414.705	91.19
414.928	80.19
415.151	90.19
415.374	84.19
415.597	82.19
415.821	85.19
416.044	72.19
416.267	95.19
416.49	91.19
416.713	83.19
416.936	75.19
417.159	111.19
417.382	87.19
417.605	91.19
417.828	89.19
418.051	91.19
418.274	85.19
418.497	87.19
418.72	80.19
418.943	85.19
419.166	92.19
419.389	96.19
419.611	86.19
419.834	82.19
420.057	83.19
420.28	84.19
420.503	87.19
420.726	82.19
420.948	89.19
421.171	90.19
421.394	86.19
421.617	125.19
421.839	108.19
422.062	114.19
422.285	133.19
422.507	234.19
422.73	426.19
422.953	361.19
423.175	159.19
423.398	112.19
423.621	96.19
423.843	90.19
424.066	92.19
424.288	92.19
424.511	89.19
424.733	79.19
424.956	85.19
425.178	81.19
425.401	95.19
425.623	76.19
425.846	93.19
426.068	96.19
426.291	85.19
426.513	80.19
426.735	86.19
426.958	83.19
427.18	84.19
427.402	91.19
427.625	80.19
427.847	91.19
428.069	97.19
428.292	119.19
428.514	126.19
428.736	115.19
428.958	112.19
429.181	115.19
429.403	76.19
429.625	91.19
429.847	118.19
430.069	154.19
430.292	187.19
430.514	160.19
430.736	129.19
430.958	142.19
431.18	121.19
431.402	101.19
431.624	95.19
431.846	125.19
432.068	131.19
432.29	100.19
432.512	88.19
432.734	90.19
432.956	90.19
433.178	97.19
433.4	96.19
433.622	80.19
433.844	91.19
434.066	83.19
434.287	90.19
434.509	93.19
434.731	76.19
434.953	77.19
435.175	82.19
435.397	81.19
435.618	75.19
435.84	95.19
436.062	96.19
436.284	72.19
436.505	88.19
436.727	92.19
436.949	90.19
437.17	66.19
437.392	78.19
437.614	91.19
437.835	92.19
438.057	90.19
438.278	81.19
438.5	96.19
438.721	75.19
438.943	85.19
439.165	90.19
439.386	94.19
439.608	91.19
439.829	76.19
440.05	84.19
440.272	84.19
440.493	91.19
440.715	76.19
440.936	85.19
441.158	84.19
441.379	75.19
441.6	75.19
441.822	84.19
442.043	89.19
442.264	83.19
442.486	117.19
442.707	127.19
442.928	103.19
443.149	102.19
443.371	137.19
443.592	215.19
443.813	184.19
444.034	100.19
444.255	87.19
444.476	87.19
444.698	92.19
444.919	84.19
445.14	191.19
445.361	187.19
445.582	273.19
445.803	221.19
446.024	117.19
446.245	93.19
446.466	94.19
446.687	89.19
446.908	89.19
447.129	87.19
447.35	77.19
447.571	95.19
447.792	75.19
448.013	95.19
448.234	74.19
448.455	81.19
448.675	90.19
448.896	81.19
449.117	67.19
449.338	74.19
449.559	83.19
449.779	80.19
450	75.19
450.221	91.19
450.442	81.19
450.662	92.19
450.883	87.19
451.104	89.19
451.324	87.19
451.545	86.19
451.766	87.19
451.986	81.19
452.207	95.19
452.428	85.19
452.648	84.19
452.869	75.19
453.089	81.19
453.31	96.19
453.53	100.19
453.751	89.19
453.971	69.19
454.192	75.19
454.412	84.19
454.633	80.19
454.853	82.19
455.073	81.19
455.294	99.19
455.514	91.19
455.734	98.19
455.955	87.19
456.175	83.19
456.395	75.19
456.616	65.19
456.836	79.19
457.056	67.19
457.276	80.19
457.497	86.19
457.717	73.19
457.937	91.19
458.157	99.19
458.377	86.19
458.598	100.19
458.818	96.19
459.038	84.19
459.258	87.19
459.478	79.19
459.698	81.19
459.918	76.19
460.138	95.19
460.358	86.19
460.578	88.19
460.798	100.19
461.018	116.19
461.238	84.19
461.458	71.19
461.678	89.19
461.898	89.19
462.118	82.19
462.338	72.19
462.558	72.19
462.777	77.19
462.997	80.19
463.217	88.19
463.437	80.19
463.657	84.19
463.876	88.19
464.096	92.19
464.316	70.19
464.536	83.19
464.755	76.19
464.975	88.19
465.195	82.19
465.414	87.19
465.634	77.19
465.854	86.19
466.073	59.19
466.293	82.19
466.512	77.19
466.732	67.19
466.951	85.19
467.171	88.19
467.391	77.19
467.61	91.19
467.829	91.19
468.049	83.19
468.268	89.19
468.488	73.19
468.707	77.19
468.927	91.19
469.146	80.19
469.365	82.19
469.585	83.19
469.804	75.19
470.023	80.19
470.243	83.19
470.462	92.19
470.681	80.19
470.901	85.19
471.12	80.19
471.339	90.19
471.558	82.19
471.777	99.19
471.997	70.19
472.216	73.19
472.435	83.19
472.654	85.19
472.873	86.19
473.092	86.19
473.311	92.19
473.53	84.19
473.749	81.19
473.968	80.19
474.187	81.19
474.406	75.19
474.625	89.19
474.844	83.19
475.063	75.19
475.282	77.19
475.501	82.19
475.72	96.19
475.939	94.19
476.158	81.19
476.377	76.19
476.596	71.19
476.814	84.19
477.033	87.19
477.252	79.19
477.471	91.19
477.69	81.19
477.908	70.19
478.127	85.19
478.346	83.19
478.564	80.19
478.783	70.19
479.002	83.19
479.22	79.19
479.439	90.19
479.658	105.19
479.876	75.19
480.095	91.19
480.313	85.19
480.532	89.19
480.751	90.19
480.969	98.19
481.188	83.19
481.406	91.19
481.624	87.19
481.843	89.19
482.061	75.19
482.28	80.19
482.498	95.19
482.717	93.19
482.935	91.19
483.153	97.19
483.372	103.19
483.59	78.19
483.808	84.19
484.027	89.19
484.245	67.19
484.463	76.19
484.681	85.19
484.9	67.19
485.118	88.19
485.336	85.19
485.554	85.19
485.772	74.19
485.99	87.19
486.209	78.19
486.427	69.19
486.645	80.19
486.863	75.19
487.081	86.19
487.299	86.19
487.517	87.19
487.735	100.19
487.953	121.19
488.171	99.19
488.389	87.19
488.607	95.19
488.825	85.19
489.043	92.19
489.261	95.19
489.479	91.19
489.696	89.19
489.914	84.19
490.132	83.19
490.35	107.19
490.568	96.19
490.786	72.19
491.003	101.19
491.221	84.19
491.439	85.19
491.657	82.19
491.874	94.19
492.092	76.19
492.31	92.19
492.527	89.19
492.745	70.19
492.963	82.19
493.18	86.19
493.398	86.19
493.615	86.19
493.833	91.19
494.05	88.19
494.268	88.19
494.485	96.19
494.703	83.19
494.92	76.19
495.138	77.19
495.355	94.19
495.573	91.19
495.79	85.19
496.008	91.19
496.225	85.19
496.442	83.19
496.66	86.19
496.877	96.19
497.094	91.19
497.312	74.19
497.529	63.19
497.746	77.19
497.963	90.19
498.181	99.19
498.398	91.19
498.615	97.19
498.832	91.19
499.049	75.19
499.267	115.19
499.484	84.19
499.701	91.19
499.918	84.19
500.135	95.19
500.352	104.19
500.569	86.19
500.786	80.19
501.003	84.19
501.22	79.19
501.437	91.19
501.654	93.19
501.871	87.19
502.088	83.19
502.305	93.19
502.522	84.19
502.739	74.19
502.956	81.19
503.172	102.19
503.389	78.19
503.606	82.19
503.823	97.19
504.04	98.19
504.256	122.19
504.473	104.19
504.69	101.19
504.907	82.19
505.123	83.19
505.34	77.19
505.557	80.19
505.773	85.19
505.99	84.19
506.207	75.19
506.423	98.19
506.64	97.19
506.856	73.19
507.073	87.19
507.289	81.19
507.506	80.19
507.722	92.19
507.939	83.19
508.155	92.19
508.372	73.19
508.588	78.19
508.805	71.19
509.021	71.19
509.238	92.19
509.454	91.19
509.67	86.19
509.887	84.19
510.103	82.19
510.319	83.19
510.536	90.19
510.752	80.19
510.968	83.19
511.184	88.19
511.401	86.19
511.617	95.19
511.833	92.19
512.049	77.19
512.265	85.19
512.481	85.19
512.698	91.19
512.914	83.19
513.13	96.19
513.346	77.19
513.562	75.19
513.778	90.19
513.994	90.19
514.21	106.19
514.426	100.19
514.642	91.19
514.858	81.19
515.074	77.19
515.29	103.19
515.506	95.19
515.721	95.19
515.937	91.19
516.153	85.19
516.369	88.19
516.585	91.19
516.801	82.19
517.016	81.19
517.232	93.19
517.448	107.19
517.664	86.19
517.879	76.19
518.095	87.19
518.311	91.19
