Data from 15780_1_HRD10591_00040.txt Node
Date: Mon Jan 19 14:18:30 EST 2026
User: Yrep
Spectrometer: HR+D1059
Trigger mode: 1
Integration Time (sec): 1.000000E-1
Scans to average: 1
Electric dark correction enabled: true
Nonlinearity correction enabled: false
Boxcar width: 0
XAxis mode: Wavelengths
Number of Pixels in Spectrum: 2048
>>>>>Begin Spectral Data<<<<<
223.165	-6.5
223.4	-6.5
223.635	-6.5
223.869	-19.5
224.104	-11.5
224.338	0.5
224.573	-29.5
224.808	-16.5
225.042	-5.5
225.277	-6.5
225.511	-5.5
225.746	7.5
225.98	5.5
226.215	9.5
226.449	10.5
226.683	18.5
226.918	17.5
227.152	31.5
227.387	46.5
227.621	38.5
227.856	50.5
228.09	31.5
228.324	42.5
228.559	47.5
228.793	49.5
229.027	65.5
229.262	60.5
229.496	74.5
229.73	70.5
229.964	92.5
230.199	82.5
230.433	82.5
230.667	66.5
230.901	88.5
231.136	74.5
231.37	75.5
231.604	60.5
231.838	78.5
232.072	90.5
232.306	78.5
232.541	95.5
232.775	88.5
233.009	77.5
233.243	86.5
233.477	77.5
233.711	73.5
233.945	73.5
234.179	86.5
234.413	98.5
234.647	80.5
234.881	68.5
235.115	73.5
235.349	89.5
235.583	75.5
235.817	84.5
236.051	83.5
236.285	90.5
236.519	70.5
236.753	73.5
236.987	72.5
237.221	71.5
237.455	75.5
237.689	67.5
237.922	78.5
238.156	70.5
238.39	63.5
238.624	74.5
238.858	84.5
239.091	67.5
239.325	77.5
239.559	83.5
239.793	74.5
240.027	74.5
240.26	68.5
240.494	76.5
240.728	76.5
240.961	85.5
241.195	83.5
241.429	94.5
241.662	80.5
241.896	72.5
242.13	71.5
242.363	80.5
242.597	84.5
242.83	71.5
243.064	71.5
243.298	88.5
243.531	70.5
243.765	75.5
243.998	74.5
244.232	74.5
244.465	81.5
244.699	78.5
244.932	90.5
245.166	80.5
245.399	90.5
245.633	69.5
245.866	78.5
246.099	83.5
246.333	70.5
246.566	66.5
246.8	70.5
247.033	74.5
247.266	79.5
247.5	72.5
247.733	85.5
247.966	81.5
248.2	75.5
248.433	86.5
248.666	75.5
248.899	89.5
249.133	84.5
249.366	97.5
249.599	78.5
249.832	81.5
250.066	82.5
250.299	84.5
250.532	84.5
250.765	75.5
250.998	82.5
251.231	74.5
251.465	83.5
251.698	66.5
251.931	73.5
252.164	89.5
252.397	70.5
252.63	71.5
252.863	73.5
253.096	86.5
253.329	80.5
253.562	76.5
253.795	74.5
254.028	76.5
254.261	74.5
254.494	75.5
254.727	68.5
254.96	87.5
255.193	80.5
255.426	89.5
255.659	83.5
255.892	82.5
256.124	86.5
256.357	69.5
256.59	84.5
256.823	69.5
257.056	67.5
257.289	76.5
257.521	88.5
257.754	85.5
257.987	71.5
258.22	86.5
258.452	88.5
258.685	80.5
258.918	84.5
259.151	87.5
259.383	77.5
259.616	82.5
259.849	85.5
260.081	66.5
260.314	76.5
260.547	80.5
260.779	73.5
261.012	71.5
261.244	82.5
261.477	76.5
261.71	71.5
261.942	85.5
262.175	92.5
262.407	82.5
262.64	83.5
262.872	78.5
263.105	76.5
263.337	86.5
263.57	73.5
263.802	76.5
264.035	90.5
264.267	77.5
264.499	90.5
264.732	94.5
264.964	86.5
265.197	76.5
265.429	94.5
265.661	83.5
265.894	80.5
266.126	85.5
266.358	94.5
266.591	87.5
266.823	83.5
267.055	66.5
267.287	88.5
267.52	84.5
267.752	58.5
267.984	81.5
268.216	86.5
268.448	77.5
268.681	94.5
268.913	82.5
269.145	89.5
269.377	69.5
269.609	86.5
269.841	70.5
270.073	87.5
270.306	85.5
270.538	91.5
270.77	74.5
271.002	89.5
271.234	80.5
271.466	95.5
271.698	84.5
271.93	75.5
272.162	76.5
272.394	81.5
272.626	72.5
272.858	86.5
273.09	84.5
273.322	84.5
273.553	80.5
273.785	66.5
274.017	69.5
274.249	90.5
274.481	82.5
274.713	65.5
274.945	87.5
275.176	80.5
275.408	78.5
275.64	88.5
275.872	80.5
276.104	70.5
276.335	86.5
276.567	67.5
276.799	84.5
277.031	84.5
277.262	73.5
277.494	93.5
277.726	89.5
277.957	96.5
278.189	82.5
278.421	88.5
278.652	87.5
278.884	81.5
279.115	94.5
279.347	79.5
279.579	79.5
279.81	96.5
280.042	89.5
280.273	66.5
280.505	95.5
280.736	78.5
280.968	80.5
281.199	77.5
281.431	81.5
281.662	88.5
281.894	90.5
282.125	90.5
282.356	84.5
282.588	86.5
282.819	91.5
283.051	81.5
283.282	82.5
283.513	85.5
283.745	74.5
283.976	82.5
284.207	82.5
284.439	84.5
284.67	74.5
284.901	84.5
285.132	90.5
285.364	83.5
285.595	85.5
285.826	87.5
286.057	89.5
286.288	74.5
286.52	91.5
286.751	90.5
286.982	83.5
287.213	77.5
287.444	80.5
287.675	84.5
287.906	83.5
288.138	89.5
288.369	80.5
288.6	77.5
288.831	76.5
289.062	82.5
289.293	78.5
289.524	80.5
289.755	78.5
289.986	86.5
290.217	72.5
290.448	80.5
290.679	82.5
290.91	95.5
291.141	84.5
291.371	94.5
291.602	90.5
291.833	88.5
292.064	91.5
292.295	74.5
292.526	94.5
292.757	88.5
292.987	89.5
293.218	78.5
293.449	83.5
293.68	84.5
293.91	85.5
294.141	88.5
294.372	85.5
294.603	87.5
294.833	90.5
295.064	80.5
295.295	87.5
295.525	83.5
295.756	76.5
295.987	95.5
296.217	88.5
296.448	89.5
296.679	90.5
296.909	75.5
297.14	74.5
297.37	71.5
297.601	91.5
297.831	88.5
298.062	76.5
298.292	81.5
298.523	84.5
298.753	64.5
298.984	82.5
299.214	92.5
299.445	82.5
299.675	84.5
299.905	85.5
300.136	72.5
300.366	80.5
300.597	88.5
300.827	77.5
301.057	90.5
301.288	88.5
301.518	89.5
301.748	94.5
301.979	94.5
302.209	73.5
302.439	80.5
302.669	98.5
302.9	88.5
303.13	77.5
303.36	79.5
303.59	82.5
303.82	89.5
304.051	79.5
304.281	83.5
304.511	89.5
304.741	90.5
304.971	81.5
305.201	99.5
305.431	84.5
305.661	87.5
305.891	74.5
306.121	90.5
306.352	90.5
306.582	70.5
306.812	78.5
307.042	62.5
307.272	94.5
307.502	87.5
307.731	91.5
307.961	76.5
308.191	88.5
308.421	108.5
308.651	98.5
308.881	84.5
309.111	89.5
309.341	90.5
309.571	76.5
309.8	86.5
310.03	76.5
310.26	91.5
310.49	82.5
310.72	91.5
310.949	81.5
311.179	82.5
311.409	71.5
311.639	82.5
311.868	82.5
312.098	77.5
312.328	81.5
312.557	91.5
312.787	91.5
313.017	77.5
313.246	76.5
313.476	74.5
313.706	76.5
313.935	80.5
314.165	80.5
314.394	82.5
314.624	84.5
314.853	77.5
315.083	93.5
315.312	90.5
315.542	82.5
315.771	80.5
316.001	86.5
316.23	88.5
316.46	75.5
316.689	94.5
316.919	96.5
317.148	90.5
317.377	90.5
317.607	96.5
317.836	95.5
318.065	90.5
318.295	83.5
318.524	82.5
318.753	76.5
318.983	86.5
319.212	66.5
319.441	87.5
319.67	87.5
319.9	91.5
320.129	90.5
320.358	90.5
320.587	95.5
320.816	72.5
321.046	85.5
321.275	86.5
321.504	72.5
321.733	78.5
321.962	87.5
322.191	82.5
322.42	88.5
322.649	81.5
322.878	88.5
323.108	76.5
323.337	78.5
323.566	78.5
323.795	80.5
324.024	81.5
324.253	80.5
324.482	81.5
324.71	87.5
324.939	84.5
325.168	78.5
325.397	82.5
325.626	97.5
325.855	97.5
326.084	89.5
326.313	74.5
326.542	88.5
326.77	84.5
326.999	80.5
327.228	74.5
327.457	91.5
327.686	84.5
327.914	84.5
328.143	97.5
328.372	82.5
328.6	74.5
328.829	86.5
329.058	88.5
329.287	81.5
329.515	86.5
329.744	82.5
329.972	76.5
330.201	94.5
330.43	80.5
330.658	76.5
330.887	78.5
331.115	92.5
331.344	89.5
331.572	84.5
331.801	87.5
332.03	82.5
332.258	88.5
332.486	70.5
332.715	98.5
332.943	79.5
333.172	78.5
333.4	67.5
333.629	92.5
333.857	88.5
334.085	91.5
334.314	88.5
334.542	90.5
334.771	83.5
334.999	90.5
335.227	90.5
335.455	84.5
335.684	90.5
335.912	86.5
336.14	75.5
336.369	86.5
336.597	82.5
336.825	77.5
337.053	77.5
337.281	95.5
337.51	95.5
337.738	97.5
337.966	72.5
338.194	84.5
338.422	84.5
338.65	86.5
338.878	75.5
339.106	82.5
339.334	92.5
339.562	103.5
339.79	92.5
340.018	100.5
340.246	79.5
340.474	67.5
340.702	86.5
340.93	78.5
341.158	81.5
341.386	89.5
341.614	82.5
341.842	90.5
342.07	75.5
342.298	94.5
342.526	90.5
342.754	97.5
342.981	88.5
343.209	84.5
343.437	103.5
343.665	87.5
343.893	86.5
344.12	89.5
344.348	83.5
344.576	88.5
344.804	91.5
345.031	84.5
345.259	99.5
345.487	84.5
345.714	85.5
345.942	99.5
346.17	99.5
346.397	91.5
346.625	78.5
346.853	80.5
347.08	77.5
347.308	82.5
347.535	79.5
347.763	89.5
347.99	94.5
348.218	83.5
348.445	76.5
348.673	84.5
348.9	110.5
349.128	80.5
349.355	85.5
349.583	86.5
349.81	88.5
350.037	85.5
350.265	90.5
350.492	62.5
350.72	82.5
350.947	90.5
351.174	79.5
351.402	84.5
351.629	95.5
351.856	78.5
352.083	83.5
352.311	78.5
352.538	74.5
352.765	85.5
352.992	89.5
353.22	88.5
353.447	87.5
353.674	81.5
353.901	82.5
354.128	80.5
354.355	89.5
354.583	82.5
354.81	81.5
355.037	84.5
355.264	85.5
355.491	86.5
355.718	92.5
355.945	76.5
356.172	79.5
356.399	88.5
356.626	76.5
356.853	98.5
357.08	91.5
357.307	87.5
357.534	94.5
357.761	82.5
357.988	79.5
358.215	76.5
358.441	86.5
358.668	72.5
358.895	88.5
359.122	96.5
359.349	82.5
359.576	91.5
359.802	99.5
360.029	82.5
360.256	88.5
360.483	79.5
360.709	94.5
360.936	91.5
361.163	93.5
361.39	84.5
361.616	85.5
361.843	86.5
362.07	79.5
362.296	97.5
362.523	94.5
362.749	89.5
362.976	85.5
363.203	107.5
363.429	92.5
363.656	95.5
363.882	92.5
364.109	75.5
364.335	95.5
364.562	103.5
364.788	92.5
365.015	88.5
365.241	84.5
365.468	81.5
365.694	86.5
365.92	86.5
366.147	83.5
366.373	78.5
366.599	68.5
366.826	94.5
367.052	102.5
367.278	84.5
367.505	74.5
367.731	83.5
367.957	89.5
368.184	76.5
368.41	74.5
368.636	75.5
368.862	80.5
369.089	80.5
369.315	94.5
369.541	83.5
369.767	84.5
369.993	88.5
370.219	83.5
370.445	89.5
370.672	98.5
370.898	69.5
371.124	82.5
371.35	92.5
371.576	89.5
371.802	82.5
372.028	80.5
372.254	87.5
372.48	82.5
372.706	74.5
372.932	70.5
373.158	86.5
373.384	91.5
373.61	96.5
373.835	99.5
374.061	82.5
374.287	82.5
374.513	94.5
374.739	103.5
374.965	89.5
375.191	86.5
375.416	91.5
375.642	81.5
375.868	94.5
376.094	98.5
376.319	84.5
376.545	98.5
376.771	91.5
376.997	84.5
377.222	96.5
377.448	79.5
377.674	79.5
377.899	83.5
378.125	73.5
378.35	80.5
378.576	87.5
378.802	88.5
379.027	83.5
379.253	92.5
379.478	92.5
379.704	91.5
379.929	86.5
380.155	83.5
380.38	89.5
380.606	94.5
380.831	66.5
381.057	84.5
381.282	81.5
381.507	76.5
381.733	88.5
381.958	95.5
382.184	85.5
382.409	97.5
382.634	92.5
382.86	74.5
383.085	92.5
383.31	86.5
383.535	89.5
383.761	79.5
383.986	89.5
384.211	97.5
384.436	79.5
384.662	77.5
384.887	83.5
385.112	86.5
385.337	82.5
385.562	104.5
385.787	67.5
386.013	82.5
386.238	93.5
386.463	84.5
386.688	90.5
386.913	80.5
387.138	96.5
387.363	92.5
387.588	76.5
387.813	82.5
388.038	84.5
388.263	97.5
388.488	84.5
388.713	90.5
388.938	83.5
389.163	79.5
389.387	87.5
389.612	93.5
389.837	91.5
390.062	95.5
390.287	84.5
390.512	82.5
390.736	84.5
390.961	73.5
391.186	88.5
391.411	79.5
391.636	84.5
391.86	91.5
392.085	84.5
392.31	86.5
392.534	100.5
392.759	110.5
392.984	131.5
393.208	194.5
393.433	284.5
393.658	218.5
393.882	114.5
394.107	86.5
394.331	101.5
394.556	97.5
394.78	101.5
395.005	69.5
395.229	82.5
395.454	105.5
395.678	99.5
395.903	107.5
396.127	121.5
396.352	133.5
396.576	150.5
396.801	195.5
397.025	233.5
397.249	127.5
397.474	126.5
397.698	98.5
397.922	80.5
398.147	81.5
398.371	89.5
398.595	96.5
398.82	90.5
399.044	82.5
399.268	81.5
399.492	78.5
399.717	82.5
399.941	75.5
400.165	98.5
400.389	90.5
400.613	84.5
400.837	94.5
401.062	82.5
401.286	87.5
401.51	90.5
401.734	74.5
401.958	85.5
402.182	75.5
402.406	74.5
402.63	86.5
402.854	91.5
403.078	77.5
403.302	84.5
403.526	82.5
403.75	74.5
403.974	95.5
404.198	96.5
404.422	120.5
404.645	125.5
404.869	114.5
405.093	96.5
405.317	82.5
405.541	71.5
405.765	72.5
405.988	87.5
406.212	78.5
406.436	90.5
406.66	75.5
406.883	78.5
407.107	68.5
407.331	90.5
407.555	86.5
407.778	116.5
408.002	105.5
408.226	87.5
408.449	86.5
408.673	82.5
408.896	74.5
409.12	80.5
409.344	81.5
409.567	84.5
409.791	75.5
410.014	88.5
410.238	92.5
410.461	91.5
410.685	94.5
410.908	68.5
411.132	77.5
411.355	86.5
411.578	87.5
411.802	82.5
412.025	71.5
412.249	90.5
412.472	85.5
412.695	82.5
412.919	81.5
413.142	85.5
413.365	86.5
413.589	83.5
413.812	85.5
414.035	86.5
414.258	64.5
414.482	85.5
414.705	77.5
414.928	73.5
415.151	64.5
415.374	76.5
415.597	72.5
415.821	77.5
416.044	77.5
416.267	76.5
416.49	72.5
416.713	90.5
416.936	84.5
417.159	85.5
417.382	82.5
417.605	84.5
417.828	97.5
418.051	76.5
418.274	73.5
418.497	67.5
418.72	95.5
418.943	104.5
419.166	87.5
419.389	76.5
419.611	85.5
419.834	87.5
420.057	86.5
420.28	83.5
420.503	91.5
420.726	71.5
420.948	86.5
421.171	96.5
421.394	98.5
421.617	87.5
421.839	94.5
422.062	84.5
422.285	126.5
422.507	201.5
422.73	309.5
422.953	282.5
423.175	140.5
423.398	100.5
423.621	90.5
423.843	81.5
424.066	95.5
424.288	81.5
424.511	84.5
424.733	83.5
424.956	86.5
425.178	75.5
425.401	89.5
425.623	79.5
425.846	78.5
426.068	78.5
426.291	82.5
426.513	94.5
426.735	84.5
426.958	82.5
427.18	88.5
427.402	80.5
427.625	73.5
427.847	86.5
428.069	87.5
428.292	118.5
428.514	114.5
428.736	100.5
428.958	114.5
429.181	134.5
429.403	96.5
429.625	92.5
429.847	101.5
430.069	126.5
430.292	155.5
430.514	140.5
430.736	90.5
430.958	117.5
431.18	114.5
431.402	84.5
431.624	83.5
431.846	94.5
432.068	118.5
432.29	83.5
432.512	92.5
432.734	74.5
432.956	95.5
433.178	88.5
433.4	77.5
433.622	87.5
433.844	88.5
434.066	95.5
434.287	82.5
434.509	66.5
434.731	99.5
434.953	75.5
435.175	79.5
435.397	78.5
435.618	94.5
435.84	86.5
436.062	73.5
436.284	84.5
436.505	77.5
436.727	78.5
436.949	83.5
437.17	86.5
437.392	86.5
437.614	74.5
437.835	86.5
438.057	76.5
438.278	83.5
438.5	93.5
438.721	91.5
438.943	86.5
439.165	75.5
439.386	105.5
439.608	90.5
439.829	86.5
440.05	71.5
440.272	75.5
440.493	91.5
440.715	77.5
440.936	87.5
441.158	89.5
441.379	76.5
441.6	82.5
441.822	82.5
442.043	88.5
442.264	76.5
442.486	110.5
442.707	130.5
442.928	90.5
443.149	91.5
443.371	121.5
443.592	177.5
443.813	166.5
444.034	89.5
444.255	76.5
444.476	95.5
444.698	92.5
444.919	87.5
445.14	196.5
445.361	169.5
445.582	198.5
445.803	176.5
446.024	92.5
446.245	92.5
446.466	89.5
446.687	73.5
446.908	83.5
447.129	74.5
447.35	84.5
447.571	87.5
447.792	85.5
448.013	70.5
448.234	87.5
448.455	94.5
448.675	76.5
448.896	88.5
449.117	91.5
449.338	76.5
449.559	86.5
449.779	91.5
450	85.5
450.221	78.5
450.442	81.5
450.662	85.5
450.883	80.5
451.104	87.5
451.324	66.5
451.545	83.5
451.766	75.5
451.986	81.5
452.207	82.5
452.428	76.5
452.648	89.5
452.869	84.5
453.089	87.5
453.31	80.5
453.53	86.5
453.751	102.5
453.971	75.5
454.192	80.5
454.412	83.5
454.633	76.5
454.853	97.5
455.073	79.5
455.294	85.5
455.514	86.5
455.734	72.5
455.955	80.5
456.175	96.5
456.395	72.5
456.616	86.5
456.836	84.5
457.056	85.5
457.276	89.5
457.497	76.5
457.717	84.5
457.937	89.5
458.157	95.5
458.377	90.5
458.598	97.5
458.818	89.5
459.038	80.5
459.258	86.5
459.478	91.5
459.698	83.5
459.918	89.5
460.138	93.5
460.358	91.5
460.578	80.5
460.798	109.5
461.018	112.5
461.238	76.5
461.458	85.5
461.678	79.5
461.898	90.5
462.118	82.5
462.338	76.5
462.558	94.5
462.777	77.5
462.997	90.5
463.217	75.5
463.437	81.5
463.657	91.5
463.876	86.5
464.096	78.5
464.316	86.5
464.536	73.5
464.755	85.5
464.975	70.5
465.195	87.5
465.414	94.5
465.634	88.5
465.854	90.5
466.073	73.5
466.293	77.5
466.512	82.5
466.732	89.5
466.951	70.5
467.171	89.5
467.391	93.5
467.61	80.5
467.829	86.5
468.049	87.5
468.268	74.5
468.488	81.5
468.707	77.5
468.927	88.5
469.146	68.5
469.365	86.5
469.585	88.5
469.804	77.5
470.023	67.5
470.243	82.5
470.462	91.5
470.681	85.5
470.901	103.5
471.12	83.5
471.339	84.5
471.558	80.5
471.777	82.5
471.997	89.5
472.216	84.5
472.435	82.5
472.654	76.5
472.873	73.5
473.092	82.5
473.311	79.5
473.53	90.5
473.749	72.5
473.968	92.5
474.187	77.5
474.406	84.5
474.625	85.5
474.844	89.5
475.063	87.5
475.282	73.5
475.501	81.5
475.72	90.5
475.939	78.5
476.158	90.5
476.377	90.5
476.596	74.5
476.814	71.5
477.033	88.5
477.252	94.5
477.471	68.5
477.69	86.5
477.908	84.5
478.127	57.5
478.346	78.5
478.564	84.5
478.783	82.5
479.002	92.5
479.22	85.5
479.439	77.5
479.658	79.5
479.876	89.5
480.095	81.5
480.313	75.5
480.532	83.5
480.751	91.5
480.969	88.5
481.188	83.5
481.406	85.5
481.624	85.5
481.843	86.5
482.061	71.5
482.28	75.5
482.498	62.5
482.717	84.5
482.935	82.5
483.153	69.5
483.372	73.5
483.59	99.5
483.808	72.5
484.027	111.5
484.245	86.5
484.463	93.5
484.681	88.5
484.9	86.5
485.118	97.5
485.336	96.5
485.554	84.5
485.772	76.5
485.99	78.5
486.209	78.5
486.427	85.5
486.645	85.5
486.863	80.5
487.081	83.5
487.299	90.5
487.517	82.5
487.735	97.5
487.953	114.5
488.171	96.5
488.389	82.5
488.607	76.5
488.825	70.5
489.043	84.5
489.261	76.5
489.479	91.5
489.696	74.5
489.914	78.5
490.132	87.5
490.35	93.5
490.568	83.5
490.786	80.5
491.003	96.5
491.221	96.5
491.439	96.5
491.657	86.5
491.874	82.5
492.092	75.5
492.31	78.5
492.527	75.5
492.745	86.5
492.963	93.5
493.18	76.5
493.398	85.5
493.615	82.5
493.833	99.5
494.05	89.5
494.268	89.5
494.485	90.5
494.703	77.5
494.92	90.5
495.138	76.5
495.355	105.5
495.573	84.5
495.79	71.5
496.008	88.5
496.225	85.5
496.442	93.5
496.66	88.5
496.877	90.5
497.094	71.5
497.312	74.5
497.529	86.5
497.746	84.5
497.963	78.5
498.181	91.5
498.398	92.5
498.615	84.5
498.832	98.5
499.049	88.5
499.267	91.5
499.484	86.5
499.701	86.5
499.918	83.5
500.135	82.5
500.352	88.5
500.569	76.5
500.786	80.5
501.003	86.5
501.22	81.5
501.437	91.5
501.654	88.5
501.871	90.5
502.088	105.5
502.305	87.5
502.522	67.5
502.739	83.5
502.956	74.5
503.172	88.5
503.389	80.5
503.606	99.5
503.823	93.5
504.04	66.5
504.256	95.5
504.473	94.5
504.69	87.5
504.907	90.5
505.123	84.5
505.34	82.5
505.557	95.5
505.773	90.5
505.99	84.5
506.207	86.5
506.423	82.5
506.64	95.5
506.856	82.5
507.073	79.5
507.289	83.5
507.506	79.5
507.722	75.5
507.939	80.5
508.155	73.5
508.372	75.5
508.588	88.5
508.805	92.5
509.021	85.5
509.238	106.5
509.454	102.5
509.67	81.5
509.887	89.5
510.103	90.5
510.319	86.5
510.536	101.5
510.752	90.5
510.968	75.5
511.184	85.5
511.401	90.5
511.617	87.5
511.833	78.5
512.049	81.5
512.265	88.5
512.481	82.5
512.698	87.5
512.914	84.5
513.13	75.5
513.346	85.5
513.562	88.5
513.778	78.5
513.994	84.5
514.21	76.5
514.426	98.5
514.642	102.5
514.858	98.5
515.074	94.5
515.29	95.5
515.506	82.5
515.721	76.5
515.937	86.5
516.153	77.5
516.369	84.5
516.585	84.5
516.801	71.5
517.016	66.5
517.232	88.5
517.448	86.5
517.664	86.5
517.879	103.5
518.095	87.5
518.311	91.5
518.527	102.5
518.742	92.5
518.958	102.5
519.173	111.5
519.389	102.5
519.605	94.5
519.82	98.5
520.036	85.5
520.251	72.5
520.467	89.5
520.682	75.5
520.898	91.5
521.113	68.5
521.329	100.5
521.544	90.5
521.76	88.5
521.975	92.5
522.19	86.5
522.406	84.5
522.621	76.5
522.836	70.5
523.052	82.5
523.267	80.5
523.482	92.5
523.698	94.5
523.913	89.5
524.128	87.5
524.343	96.5
524.559	87.5
524.774	94.5
524.989	96.5
525.204	89.5
525.419	93.5
525.634	82.5
525.849	87.5
526.064	91.5
526.28	129.5
526.495	149.5
526.71	188.5
526.925	150.5
527.14	173.5
527.355	180.5
527.57	100.5
527.785	81.5
527.999	89.5
528.214	94.5
528.429	76.5
528.644	96.5
528.859	94.5
529.074	81.5
529.289	60.5
529.503	89.5
529.718	75.5
529.933	72.5
530.148	91.5
530.363	78.5
530.577	87.5
530.792	92.5
531.007	82.5
531.221	77.5
531.436	72.5
531.651	94.5
531.865	98.5
532.08	90.5
532.295	96.5
532.509	93.5
532.724	78.5
532.938	90.5
533.153	87.5
533.367	100.5
533.582	75.5
533.796	82.5
534.011	82.5
534.225	99.5
534.44	84.5
534.654	89.5
534.868	92.5
535.083	113.5
535.297	118.5
535.511	97.5
535.726	78.5
535.94	92.5
536.154	97.5
536.369	101.5
536.583	83.5
536.797	80.5
537.011	70.5
537.225	84.5
537.44	83.5
537.654	84.5
537.868	71.5
538.082	83.5
538.296	84.5
538.51	84.5
538.724	97.5
538.938	85.5
539.153	85.5
539.367	99.5
