Data from 15780_1_HRD10591_00001.txt Node
Date: Mon Jan 19 14:18:10 EST 2026
User: Yrep
Spectrometer: HR+D1059
Trigger mode: 1
Integration Time (sec): 1.000000E-1
Scans to average: 1
Electric dark correction enabled: true
Nonlinearity correction enabled: false
Boxcar width: 0
XAxis mode: Wavelengths
Number of Pixels in Spectrum: 2048
>>>>>Begin Spectral Data<<<<<
223.165	-26.62
223.4	-26.62
223.635	-26.62
223.869	-25.62
224.104	-25.62
224.338	-20.62
224.573	-13.62
224.808	-5.62
225.042	1.38
225.277	-0.62
225.511	-3.62
225.746	5.38
225.98	15.38
226.215	4.38
226.449	12.38
226.683	24.38
226.918	30.38
227.152	28.38
227.387	42.38
227.621	41.38
227.856	48.38
228.09	61.38
228.324	45.38
228.559	56.38
228.793	59.38
229.027	62.38
229.262	68.38
229.496	68.38
229.73	85.38
229.964	76.38
230.199	70.38
230.433	68.38
230.667	77.38
230.901	84.38
231.136	67.38
231.37	82.38
231.604	79.38
231.838	83.38
232.072	79.38
232.306	88.38
232.541	73.38
232.775	98.38
233.009	96.38
233.243	82.38
233.477	83.38
233.711	70.38
233.945	90.38
234.179	90.38
234.413	83.38
234.647	72.38
234.881	73.38
235.115	76.38
235.349	84.38
235.583	76.38
235.817	76.38
236.051	71.38
236.285	80.38
236.519	77.38
236.753	77.38
236.987	79.38
237.221	84.38
237.455	64.38
237.689	87.38
237.922	77.38
238.156	80.38
238.39	74.38
238.624	85.38
238.858	72.38
239.091	83.38
239.325	80.38
239.559	76.38
239.793	84.38
240.027	90.38
240.26	79.38
240.494	78.38
240.728	84.38
240.961	78.38
241.195	82.38
241.429	84.38
241.662	71.38
241.896	73.38
242.13	88.38
242.363	78.38
242.597	83.38
242.83	88.38
243.064	85.38
243.298	92.38
243.531	83.38
243.765	74.38
243.998	76.38
244.232	94.38
244.465	80.38
244.699	78.38
244.932	82.38
245.166	89.38
245.399	84.38
245.633	74.38
245.866	84.38
246.099	89.38
246.333	74.38
246.566	84.38
246.8	100.38
247.033	77.38
247.266	60.38
247.5	68.38
247.733	56.38
247.966	93.38
248.2	88.38
248.433	76.38
248.666	86.38
248.899	78.38
249.133	90.38
249.366	85.38
249.599	75.38
249.832	89.38
250.066	59.38
250.299	79.38
250.532	85.38
250.765	81.38
250.998	75.38
251.231	73.38
251.465	76.38
251.698	82.38
251.931	78.38
252.164	77.38
252.397	68.38
252.63	72.38
252.863	82.38
253.096	74.38
253.329	94.38
253.562	70.38
253.795	82.38
254.028	77.38
254.261	73.38
254.494	91.38
254.727	66.38
254.96	82.38
255.193	85.38
255.426	80.38
255.659	75.38
255.892	78.38
256.124	84.38
256.357	72.38
256.59	98.38
256.823	97.38
257.056	88.38
257.289	72.38
257.521	82.38
257.754	53.38
257.987	81.38
258.22	91.38
258.452	77.38
258.685	87.38
258.918	78.38
259.151	90.38
259.383	72.38
259.616	71.38
259.849	81.38
260.081	70.38
260.314	87.38
260.547	75.38
260.779	68.38
261.012	86.38
261.244	78.38
261.477	81.38
261.71	75.38
261.942	79.38
262.175	80.38
262.407	83.38
262.64	86.38
262.872	65.38
263.105	76.38
263.337	95.38
263.57	82.38
263.802	83.38
264.035	80.38
264.267	81.38
264.499	80.38
264.732	77.38
264.964	103.38
265.197	84.38
265.429	82.38
265.661	84.38
265.894	91.38
266.126	90.38
266.358	76.38
266.591	82.38
266.823	80.38
267.055	68.38
267.287	79.38
267.52	85.38
267.752	77.38
267.984	78.38
268.216	74.38
268.448	76.38
268.681	80.38
268.913	64.38
269.145	84.38
269.377	91.38
269.609	90.38
269.841	77.38
270.073	103.38
270.306	105.38
270.538	82.38
270.77	84.38
271.002	86.38
271.234	93.38
271.466	81.38
271.698	94.38
271.93	74.38
272.162	79.38
272.394	66.38
272.626	88.38
272.858	74.38
273.09	68.38
273.322	71.38
273.553	93.38
273.785	77.38
274.017	90.38
274.249	81.38
274.481	77.38
274.713	88.38
274.945	90.38
275.176	89.38
275.408	82.38
275.64	90.38
275.872	79.38
276.104	75.38
276.335	81.38
276.567	74.38
276.799	78.38
277.031	75.38
277.262	89.38
277.494	93.38
277.726	71.38
277.957	84.38
278.189	81.38
278.421	85.38
278.652	84.38
278.884	82.38
279.115	82.38
279.347	94.38
279.579	88.38
279.81	96.38
280.042	81.38
280.273	90.38
280.505	90.38
280.736	88.38
280.968	85.38
281.199	82.38
281.431	70.38
281.662	78.38
281.894	89.38
282.125	86.38
282.356	83.38
282.588	94.38
282.819	80.38
283.051	78.38
283.282	74.38
283.513	98.38
283.745	88.38
283.976	80.38
284.207	74.38
284.439	98.38
284.67	87.38
284.901	95.38
285.132	92.38
285.364	83.38
285.595	85.38
285.826	88.38
286.057	88.38
286.288	70.38
286.52	86.38
286.751	84.38
286.982	77.38
287.213	81.38
287.444	77.38
287.675	85.38
287.906	100.38
288.138	84.38
288.369	86.38
288.6	84.38
288.831	89.38
289.062	114.38
289.293	86.38
289.524	102.38
289.755	88.38
289.986	84.38
290.217	86.38
290.448	97.38
290.679	80.38
290.91	90.38
291.141	86.38
291.371	83.38
291.602	83.38
291.833	85.38
292.064	85.38
292.295	82.38
292.526	77.38
292.757	93.38
292.987	81.38
293.218	74.38
293.449	82.38
293.68	92.38
293.91	79.38
294.141	83.38
294.372	91.38
294.603	73.38
294.833	82.38
295.064	91.38
295.295	98.38
295.525	88.38
295.756	90.38
295.987	83.38
296.217	83.38
296.448	83.38
296.679	76.38
296.909	78.38
297.14	84.38
297.37	109.38
297.601	86.38
297.831	82.38
298.062	94.38
298.292	82.38
298.523	88.38
298.753	81.38
298.984	95.38
299.214	86.38
299.445	86.38
299.675	86.38
299.905	105.38
300.136	102.38
300.366	99.38
300.597	96.38
300.827	84.38
301.057	91.38
301.288	91.38
301.518	90.38
301.748	86.38
301.979	114.38
302.209	81.38
302.439	73.38
302.669	87.38
302.9	96.38
303.13	76.38
303.36	83.38
303.59	96.38
303.82	90.38
304.051	89.38
304.281	94.38
304.511	97.38
304.741	95.38
304.971	79.38
305.201	94.38
305.431	89.38
305.661	95.38
305.891	87.38
306.121	83.38
306.352	78.38
306.582	73.38
306.812	89.38
307.042	85.38
307.272	90.38
307.502	87.38
307.731	98.38
307.961	100.38
308.191	101.38
308.421	90.38
308.651	96.38
308.881	91.38
309.111	104.38
309.341	98.38
309.571	96.38
309.8	81.38
310.03	88.38
310.26	74.38
310.49	86.38
310.72	77.38
310.949	74.38
311.179	84.38
311.409	85.38
311.639	100.38
311.868	86.38
312.098	89.38
312.328	79.38
312.557	97.38
312.787	85.38
313.017	85.38
313.246	82.38
313.476	81.38
313.706	78.38
313.935	86.38
314.165	92.38
314.394	88.38
314.624	95.38
314.853	72.38
315.083	91.38
315.312	96.38
315.542	100.38
315.771	95.38
316.001	97.38
316.23	97.38
316.46	84.38
316.689	92.38
316.919	90.38
317.148	99.38
317.377	84.38
317.607	84.38
317.836	97.38
318.065	102.38
318.295	92.38
318.524	100.38
318.753	88.38
318.983	68.38
319.212	81.38
319.441	70.38
319.67	94.38
319.9	88.38
320.129	86.38
320.358	98.38
320.587	92.38
320.816	87.38
321.046	92.38
321.275	93.38
321.504	86.38
321.733	90.38
321.962	94.38
322.191	98.38
322.42	102.38
322.649	80.38
322.878	82.38
323.108	92.38
323.337	97.38
323.566	97.38
323.795	86.38
324.024	90.38
324.253	87.38
324.482	84.38
324.71	84.38
324.939	104.38
325.168	89.38
325.397	88.38
325.626	82.38
325.855	82.38
326.084	88.38
326.313	92.38
326.542	82.38
326.77	79.38
326.999	97.38
327.228	87.38
327.457	93.38
327.686	86.38
327.914	77.38
328.143	100.38
328.372	82.38
328.6	87.38
328.829	102.38
329.058	97.38
329.287	83.38
329.515	91.38
329.744	83.38
329.972	79.38
330.201	102.38
330.43	93.38
330.658	85.38
330.887	96.38
331.115	76.38
331.344	80.38
331.572	94.38
331.801	87.38
332.03	83.38
332.258	89.38
332.486	88.38
332.715	97.38
332.943	84.38
333.172	98.38
333.4	81.38
333.629	91.38
333.857	89.38
334.085	97.38
334.314	99.38
334.542	104.38
334.771	107.38
334.999	115.38
335.227	105.38
335.455	95.38
335.684	113.38
335.912	99.38
336.14	116.38
336.369	99.38
336.597	96.38
336.825	93.38
337.053	104.38
337.281	97.38
337.51	100.38
337.738	88.38
337.966	100.38
338.194	106.38
338.422	94.38
338.65	97.38
338.878	82.38
339.106	106.38
339.334	95.38
339.562	98.38
339.79	89.38
340.018	76.38
340.246	86.38
340.474	94.38
340.702	94.38
340.93	100.38
341.158	83.38
341.386	83.38
341.614	71.38
341.842	82.38
342.07	89.38
342.298	93.38
342.526	88.38
342.754	79.38
342.981	72.38
343.209	84.38
343.437	92.38
343.665	101.38
343.893	103.38
344.12	107.38
344.348	94.38
344.576	99.38
344.804	94.38
345.031	88.38
345.259	75.38
345.487	98.38
345.714	89.38
345.942	93.38
346.17	71.38
346.397	76.38
346.625	93.38
346.853	91.38
347.08	91.38
347.308	102.38
347.535	96.38
347.763	84.38
347.99	79.38
348.218	90.38
348.445	92.38
348.673	92.38
348.9	85.38
349.128	100.38
349.355	102.38
349.583	101.38
349.81	86.38
350.037	90.38
350.265	97.38
350.492	97.38
350.72	86.38
350.947	92.38
351.174	99.38
351.402	90.38
351.629	86.38
351.856	80.38
352.083	105.38
352.311	106.38
352.538	86.38
352.765	96.38
352.992	98.38
353.22	104.38
353.447	89.38
353.674	105.38
353.901	95.38
354.128	88.38
354.355	93.38
354.583	90.38
354.81	96.38
355.037	90.38
355.264	90.38
355.491	84.38
355.718	91.38
355.945	97.38
356.172	86.38
356.399	96.38
356.626	109.38
356.853	101.38
357.08	104.38
357.307	99.38
357.534	93.38
357.761	99.38
357.988	107.38
358.215	118.38
358.441	105.38
358.668	108.38
358.895	96.38
359.122	104.38
359.349	96.38
359.576	98.38
359.802	79.38
360.029	96.38
360.256	79.38
360.483	89.38
360.709	89.38
360.936	106.38
361.163	100.38
361.39	87.38
361.616	104.38
361.843	109.38
362.07	101.38
362.296	113.38
362.523	124.38
362.749	128.38
362.976	147.38
363.203	141.38
363.429	132.38
363.656	107.38
363.882	106.38
364.109	146.38
364.335	165.38
364.562	177.38
364.788	133.38
365.015	106.38
365.241	108.38
365.468	106.38
365.694	93.38
365.92	100.38
366.147	97.38
366.373	80.38
366.599	82.38
366.826	92.38
367.052	92.38
367.278	83.38
367.505	95.38
367.731	102.38
367.957	97.38
368.184	96.38
368.41	90.38
368.636	96.38
368.862	96.38
369.089	88.38
369.315	102.38
369.541	92.38
369.767	93.38
369.993	79.38
370.219	79.38
370.445	87.38
370.672	104.38
370.898	106.38
371.124	94.38
371.35	99.38
371.576	101.38
371.802	116.38
372.028	102.38
372.254	109.38
372.48	113.38
372.706	104.38
372.932	85.38
373.158	96.38
373.384	127.38
373.61	132.38
373.835	119.38
374.061	126.38
374.287	122.38
374.513	110.38
374.739	114.38
374.965	114.38
375.191	108.38
375.416	98.38
375.642	104.38
375.868	108.38
376.094	104.38
376.319	95.38
376.545	102.38
376.771	112.38
376.997	102.38
377.222	110.38
377.448	77.38
377.674	79.38
377.899	87.38
378.125	85.38
378.35	98.38
378.576	88.38
378.802	96.38
379.027	101.38
379.253	102.38
379.478	98.38
379.704	91.38
379.929	96.38
380.155	99.38
380.38	105.38
380.606	85.38
380.831	106.38
381.057	100.38
381.282	91.38
381.507	101.38
381.733	90.38
381.958	100.38
382.184	117.38
382.409	110.38
382.634	126.38
382.86	117.38
383.085	105.38
383.31	110.38
383.535	115.38
383.761	122.38
383.986	107.38
384.211	112.38
384.436	103.38
384.662	88.38
384.887	103.38
385.112	113.38
385.337	102.38
385.562	112.38
385.787	104.38
386.013	123.38
386.238	118.38
386.463	116.38
386.688	108.38
386.913	94.38
387.138	98.38
387.363	109.38
387.588	113.38
387.813	124.38
388.038	122.38
388.263	120.38
388.488	106.38
388.713	118.38
388.938	110.38
389.163	107.38
389.387	107.38
389.612	102.38
389.837	100.38
390.062	103.38
390.287	89.38
390.512	90.38
390.736	96.38
390.961	99.38
391.186	95.38
391.411	111.38
391.636	102.38
391.86	92.38
392.085	117.38
392.31	116.38
392.534	134.38
392.759	141.38
392.984	197.38
393.208	347.38
393.433	477.38
393.658	364.38
393.882	188.38
394.107	144.38
394.331	154.38
394.556	178.38
394.78	130.38
395.005	121.38
395.229	119.38
395.454	105.38
395.678	125.38
395.903	163.38
396.127	193.38
396.352	214.38
396.576	244.38
396.801	337.38
397.025	396.38
397.249	206.38
397.474	148.38
397.698	130.38
397.922	105.38
398.147	109.38
398.371	101.38
398.595	88.38
398.82	101.38
399.044	89.38
399.268	102.38
399.492	96.38
399.717	93.38
399.941	90.38
400.165	83.38
400.389	84.38
400.613	85.38
400.837	98.38
401.062	87.38
401.286	96.38
401.51	97.38
401.734	90.38
401.958	83.38
402.182	92.38
402.406	94.38
402.63	100.38
402.854	103.38
403.078	114.38
403.302	106.38
403.526	103.38
403.75	92.38
403.974	86.38
404.198	119.38
404.422	162.38
404.645	175.38
404.869	156.38
405.093	112.38
405.317	109.38
405.541	90.38
405.765	88.38
405.988	89.38
406.212	105.38
406.436	99.38
406.66	104.38
406.883	117.38
407.107	100.38
407.331	106.38
407.555	119.38
407.778	137.38
408.002	129.38
408.226	104.38
408.449	88.38
408.673	97.38
408.896	97.38
409.12	98.38
409.344	117.38
409.567	116.38
409.791	125.38
410.014	121.38
410.238	101.38
410.461	117.38
410.685	106.38
410.908	90.38
411.132	106.38
411.355	99.38
411.578	109.38
411.802	100.38
412.025	93.38
412.249	97.38
412.472	92.38
412.695	96.38
412.919	102.38
413.142	77.38
413.365	97.38
413.589	90.38
413.812	77.38
414.035	113.38
414.258	114.38
414.482	113.38
414.705	88.38
414.928	76.38
415.151	96.38
415.374	100.38
415.597	101.38
415.821	99.38
416.044	100.38
416.267	101.38
416.49	90.38
416.713	82.38
416.936	102.38
417.159	78.38
417.382	90.38
417.605	92.38
417.828	99.38
418.051	96.38
418.274	105.38
418.497	98.38
418.72	97.38
418.943	99.38
419.166	102.38
419.389	89.38
419.611	88.38
419.834	90.38
420.057	94.38
420.28	105.38
420.503	100.38
420.726	91.38
420.948	109.38
421.171	104.38
421.394	114.38
421.617	160.38
421.839	152.38
422.062	167.38
422.285	254.38
422.507	423.38
422.73	604.38
422.953	542.38
423.175	334.38
423.398	214.38
423.621	156.38
423.843	124.38
424.066	101.38
424.288	120.38
424.511	96.38
424.733	90.38
424.956	103.38
425.178	101.38
425.401	98.38
425.623	101.38
425.846	101.38
426.068	104.38
426.291	102.38
426.513	91.38
426.735	92.38
426.958	108.38
427.18	105.38
427.402	106.38
427.625	117.38
427.847	112.38
428.069	123.38
428.292	169.38
428.514	187.38
428.736	148.38
428.958	170.38
429.181	171.38
429.403	120.38
429.625	123.38
429.847	182.38
430.069	236.38
430.292	271.38
430.514	235.38
430.736	168.38
430.958	204.38
431.18	121.38
431.402	100.38
431.624	122.38
431.846	141.38
432.068	180.38
432.29	124.38
432.512	103.38
432.734	99.38
432.956	104.38
433.178	88.38
433.4	88.38
433.622	95.38
433.844	94.38
434.066	98.38
434.287	88.38
434.509	96.38
434.731	93.38
434.953	85.38
435.175	90.38
435.397	102.38
435.618	122.38
435.84	109.38
436.062	93.38
436.284	94.38
436.505	92.38
436.727	93.38
436.949	104.38
437.17	80.38
437.392	105.38
437.614	97.38
437.835	83.38
438.057	71.38
438.278	107.38
438.5	97.38
438.721	112.38
438.943	97.38
439.165	97.38
439.386	97.38
439.608	95.38
439.829	101.38
440.05	101.38
440.272	76.38
440.493	97.38
440.715	96.38
440.936	110.38
441.158	103.38
441.379	83.38
441.6	105.38
441.822	117.38
442.043	121.38
442.264	120.38
442.486	185.38
442.707	255.38
442.928	150.38
443.149	142.38
443.371	212.38
443.592	380.38
443.813	313.38
444.034	161.38
444.255	107.38
444.476	116.38
444.698	99.38
444.919	110.38
445.14	202.38
445.361	251.38
445.582	460.38
445.803	379.38
446.024	168.38
446.245	116.38
446.466	98.38
446.687	92.38
446.908	100.38
447.129	90.38
447.35	90.38
447.571	78.38
447.792	108.38
448.013	92.38
448.234	97.38
448.455	95.38
448.675	100.38
448.896	98.38
449.117	86.38
449.338	88.38
449.559	110.38
449.779	97.38
450	105.38
450.221	82.38
450.442	81.38
450.662	91.38
450.883	84.38
451.104	101.38
451.324	98.38
451.545	85.38
451.766	86.38
451.986	88.38
452.207	92.38
452.428	99.38
452.648	122.38
452.869	116.38
453.089	110.38
453.31	113.38
453.53	118.38
453.751	117.38
453.971	92.38
454.192	86.38
454.412	97.38
454.633	82.38
454.853	81.38
455.073	99.38
455.294	96.38
455.514	101.38
455.734	100.38
455.955	91.38
456.175	93.38
456.395	93.38
456.616	89.38
456.836	74.38
457.056	90.38
457.276	92.38
457.497	91.38
457.717	124.38
457.937	139.38
458.157	164.38
458.377	154.38
458.598	172.38
458.818	171.38
459.038	129.38
459.258	98.38
459.478	102.38
459.698	90.38
459.918	100.38
460.138	91.38
460.358	109.38
460.578	126.38
460.798	155.38
461.018	150.38
461.238	101.38
461.458	98.38
461.678	95.38
461.898	95.38
462.118	103.38
462.338	94.38
462.558	106.38
462.777	94.38
462.997	90.38
463.217	90.38
463.437	89.38
463.657	93.38
463.876	83.38
464.096	91.38
464.316	89.38
464.536	69.38
464.755	98.38
464.975	91.38
465.195	97.38
465.414	93.38
465.634	88.38
465.854	92.38
466.073	96.38
466.293	103.38
466.512	92.38
466.732	88.38
466.951	94.38
467.171	93.38
467.391	97.38
467.61	97.38
467.829	104.38
468.049	95.38
468.268	90.38
468.488	104.38
468.707	99.38
468.927	99.38
469.146	93.38
469.365	96.38
469.585	86.38
469.804	92.38
470.023	90.38
470.243	90.38
470.462	99.38
470.681	82.38
470.901	84.38
471.12	97.38
471.339	108.38
471.558	104.38
471.777	95.38
471.997	99.38
472.216	95.38
472.435	109.38
472.654	87.38
472.873	84.38
473.092	97.38
473.311	87.38
473.53	91.38
473.749	108.38
473.968	101.38
474.187	99.38
474.406	94.38
474.625	103.38
474.844	92.38
475.063	84.38
475.282	87.38
475.501	99.38
475.72	101.38
475.939	98.38
476.158	91.38
476.377	89.38
476.596	96.38
476.814	83.38
477.033	91.38
477.252	96.38
477.471	92.38
477.69	99.38
477.908	82.38
478.127	114.38
478.346	96.38
478.564	90.38
478.783	85.38
479.002	93.38
479.22	89.38
479.439	98.38
479.658	84.38
479.876	113.38
480.095	102.38
480.313	104.38
480.532	102.38
480.751	86.38
480.969	89.38
481.188	102.38
481.406	110.38
481.624	100.38
481.843	91.38
482.061	96.38
482.28	92.38
482.498	88.38
482.717	79.38
482.935	100.38
483.153	87.38
483.372	97.38
483.59	109.38
483.808	98.38
484.027	98.38
484.245	100.38
484.463	114.38
484.681	110.38
484.9	102.38
485.118	101.38
485.336	104.38
485.554	97.38
485.772	109.38
485.99	118.38
486.209	96.38
486.427	84.38
486.645	91.38
486.863	105.38
487.081	122.38
487.299	118.38
487.517	124.38
487.735	139.38
487.953	257.38
488.171	204.38
488.389	112.38
488.607	118.38
488.825	100.38
489.043	110.38
489.261	108.38
489.479	104.38
489.696	109.38
489.914	97.38
490.132	116.38
490.35	108.38
490.568	90.38
490.786	92.38
491.003	101.38
491.221	101.38
491.439	96.38
491.657	90.38
491.874	93.38
492.092	100.38
492.31	114.38
492.527	108.38
492.745	90.38
492.963	98.38
493.18	101.38
493.398	106.38
493.615	108.38
493.833	102.38
494.05	94.38
494.268	107.38
494.485	118.38
494.703	105.38
494.92	93.38
495.138	106.38
495.355	108.38
495.573	109.38
495.79	98.38
496.008	104.38
496.225	92.38
496.442	112.38
496.66	97.38
496.877	103.38
497.094	104.38
497.312	112.38
497.529	100.38
497.746	101.38
497.963	114.38
498.181	133.38
498.398	155.38
498.615	101.38
498.832	107.38
499.049	107.38
499.267	131.38
499.484	116.38
499.701	88.38
499.918	94.38
500.135	117.38
500.352	100.38
500.569	103.38
500.786	117.38
501.003	112.38
501.22	88.38
501.437	106.38
501.654	122.38
501.871	93.38
502.088	101.38
502.305	110.38
502.522	97.38
502.739	110.38
502.956	85.38
503.172	107.38
503.389	104.38
503.606	112.38
503.823	120.38
504.04	141.38
504.256	184.38
504.473	169.38
504.69	128.38
504.907	86.38
505.123	94.38
505.34	97.38
505.557	100.38
505.773	86.38
505.99	104.38
506.207	96.38
506.423	103.38
506.64	107.38
506.856	89.38
507.073	109.38
507.289	86.38
507.506	92.38
507.722	118.38
507.939	102.38
508.155	91.38
508.372	109.38
508.588	119.38
508.805	110.38
509.021	97.38
509.238	104.38
509.454	98.38
509.67	95.38
509.887	101.38
510.103	107.38
510.319	92.38
510.536	102.38
510.752	99.38
510.968	92.38
511.184	115.38
511.401	100.38
511.617	98.38
511.833	98.38
512.049	88.38
512.265	114.38
512.481	100.38
512.698	92.38
512.914	108.38
513.13	114.38
513.346	94.38
513.562	104.38
513.778	110.38
513.994	98.38
