Data from 15780_1_HRD10591_00020.txt Node
Date: Mon Jan 19 14:18:20 EST 2026
User: Yrep
Spectrometer: HR+D1059
Trigger mode: 1
Integration Time (sec): 1.000000E-1
Scans to average: 1
Electric dark correction enabled: true
Nonlinearity correction enabled: false
Boxcar width: 0
XAxis mode: Wavelengths
Number of Pixels in Spectrum: 2048
>>>>>Begin Spectral Data<<<<<
223.165	-8.88
223.4	-8.88
223.635	-8.88
223.869	-27.88
224.104	-9.88
224.338	-10.88
224.573	-12.88
224.808	-19.88
225.042	0.12
225.277	-12.88
225.511	-0.88
225.746	-3.88
225.98	0.12
226.215	15.12
226.449	21.12
226.683	27.12
226.918	28.12
227.152	16.12
227.387	40.12
227.621	36.12
227.856	40.12
228.09	60.12
228.324	57.12
228.559	68.12
228.793	50.12
229.027	61.12
229.262	71.12
229.496	60.12
229.73	58.12
229.964	68.12
230.199	82.12
230.433	65.12
230.667	83.12
230.901	67.12
231.136	74.12
231.37	75.12
231.604	77.12
231.838	95.12
232.072	86.12
232.306	95.12
232.541	76.12
232.775	84.12
233.009	79.12
233.243	81.12
233.477	85.12
233.711	92.12
233.945	87.12
234.179	83.12
234.413	75.12
234.647	94.12
234.881	93.12
235.115	89.12
235.349	80.12
235.583	78.12
235.817	72.12
236.051	77.12
236.285	66.12
236.519	74.12
236.753	83.12
236.987	95.12
237.221	81.12
237.455	83.12
237.689	66.12
237.922	76.12
238.156	85.12
238.39	80.12
238.624	84.12
238.858	67.12
239.091	77.12
239.325	71.12
239.559	76.12
239.793	77.12
240.027	81.12
240.26	71.12
240.494	79.12
240.728	71.12
240.961	77.12
241.195	89.12
241.429	76.12
241.662	61.12
241.896	81.12
242.13	87.12
242.363	88.12
242.597	87.12
242.83	89.12
243.064	69.12
243.298	68.12
243.531	87.12
243.765	81.12
243.998	75.12
244.232	84.12
244.465	81.12
244.699	75.12
244.932	61.12
245.166	79.12
245.399	70.12
245.633	79.12
245.866	85.12
246.099	74.12
246.333	77.12
246.566	80.12
246.8	78.12
247.033	78.12
247.266	65.12
247.5	89.12
247.733	81.12
247.966	72.12
248.2	67.12
248.433	78.12
248.666	78.12
248.899	67.12
249.133	88.12
249.366	75.12
249.599	87.12
249.832	63.12
250.066	91.12
250.299	85.12
250.532	76.12
250.765	81.12
250.998	71.12
251.231	88.12
251.465	71.12
251.698	69.12
251.931	91.12
252.164	89.12
252.397	85.12
252.63	69.12
252.863	81.12
253.096	97.12
253.329	81.12
253.562	75.12
253.795	75.12
254.028	82.12
254.261	79.12
254.494	73.12
254.727	78.12
254.96	76.12
255.193	91.12
255.426	83.12
255.659	66.12
255.892	90.12
256.124	93.12
256.357	83.12
256.59	81.12
256.823	76.12
257.056	84.12
257.289	74.12
257.521	68.12
257.754	79.12
257.987	85.12
258.22	93.12
258.452	73.12
258.685	74.12
258.918	83.12
259.151	85.12
259.383	84.12
259.616	72.12
259.849	59.12
260.081	90.12
260.314	74.12
260.547	73.12
260.779	83.12
261.012	81.12
261.244	78.12
261.477	74.12
261.71	79.12
261.942	77.12
262.175	85.12
262.407	85.12
262.64	89.12
262.872	97.12
263.105	89.12
263.337	92.12
263.57	79.12
263.802	85.12
264.035	78.12
264.267	69.12
264.499	71.12
264.732	81.12
264.964	92.12
265.197	84.12
265.429	65.12
265.661	90.12
265.894	85.12
266.126	91.12
266.358	84.12
266.591	77.12
266.823	98.12
267.055	84.12
267.287	82.12
267.52	86.12
267.752	86.12
267.984	86.12
268.216	84.12
268.448	95.12
268.681	77.12
268.913	89.12
269.145	91.12
269.377	76.12
269.609	91.12
269.841	88.12
270.073	79.12
270.306	64.12
270.538	78.12
270.77	73.12
271.002	77.12
271.234	99.12
271.466	94.12
271.698	77.12
271.93	77.12
272.162	77.12
272.394	84.12
272.626	68.12
272.858	77.12
273.09	84.12
273.322	81.12
273.553	89.12
273.785	93.12
274.017	87.12
274.249	78.12
274.481	77.12
274.713	69.12
274.945	83.12
275.176	89.12
275.408	99.12
275.64	85.12
275.872	82.12
276.104	80.12
276.335	94.12
276.567	83.12
276.799	77.12
277.031	87.12
277.262	76.12
277.494	88.12
277.726	87.12
277.957	83.12
278.189	81.12
278.421	72.12
278.652	74.12
278.884	81.12
279.115	78.12
279.347	76.12
279.579	79.12
279.81	89.12
280.042	78.12
280.273	76.12
280.505	89.12
280.736	78.12
280.968	90.12
281.199	84.12
281.431	83.12
281.662	84.12
281.894	75.12
282.125	90.12
282.356	89.12
282.588	92.12
282.819	91.12
283.051	89.12
283.282	80.12
283.513	86.12
283.745	75.12
283.976	74.12
284.207	83.12
284.439	92.12
284.67	71.12
284.901	77.12
285.132	86.12
285.364	75.12
285.595	77.12
285.826	87.12
286.057	87.12
286.288	85.12
286.52	88.12
286.751	75.12
286.982	85.12
287.213	75.12
287.444	80.12
287.675	85.12
287.906	87.12
288.138	95.12
288.369	94.12
288.6	61.12
288.831	71.12
289.062	88.12
289.293	83.12
289.524	75.12
289.755	86.12
289.986	88.12
290.217	80.12
290.448	92.12
290.679	94.12
290.91	97.12
291.141	90.12
291.371	97.12
291.602	83.12
291.833	81.12
292.064	96.12
292.295	69.12
292.526	93.12
292.757	91.12
292.987	75.12
293.218	90.12
293.449	89.12
293.68	87.12
293.91	85.12
294.141	88.12
294.372	93.12
294.603	81.12
294.833	83.12
295.064	84.12
295.295	84.12
295.525	86.12
295.756	81.12
295.987	83.12
296.217	72.12
296.448	89.12
296.679	80.12
296.909	80.12
297.14	80.12
297.37	81.12
297.601	88.12
297.831	96.12
298.062	86.12
298.292	75.12
298.523	83.12
298.753	88.12
298.984	91.12
299.214	81.12
299.445	87.12
299.675	68.12
299.905	77.12
300.136	82.12
300.366	88.12
300.597	94.12
300.827	85.12
301.057	100.12
301.288	76.12
301.518	94.12
301.748	72.12
301.979	99.12
302.209	66.12
302.439	83.12
302.669	85.12
302.9	77.12
303.13	91.12
303.36	97.12
303.59	77.12
303.82	93.12
304.051	90.12
304.281	80.12
304.511	86.12
304.741	92.12
304.971	80.12
305.201	95.12
305.431	93.12
305.661	91.12
305.891	74.12
306.121	90.12
306.352	81.12
306.582	79.12
306.812	77.12
307.042	87.12
307.272	85.12
307.502	91.12
307.731	91.12
307.961	83.12
308.191	91.12
308.421	86.12
308.651	79.12
308.881	85.12
309.111	96.12
309.341	88.12
309.571	80.12
309.8	86.12
310.03	100.12
310.26	86.12
310.49	101.12
310.72	83.12
310.949	77.12
311.179	82.12
311.409	83.12
311.639	89.12
311.868	87.12
312.098	83.12
312.328	79.12
312.557	89.12
312.787	77.12
313.017	89.12
313.246	85.12
313.476	83.12
313.706	96.12
313.935	86.12
314.165	93.12
314.394	81.12
314.624	90.12
314.853	80.12
315.083	73.12
315.312	90.12
315.542	92.12
315.771	86.12
316.001	92.12
316.23	77.12
316.46	85.12
316.689	77.12
316.919	97.12
317.148	84.12
317.377	75.12
317.607	75.12
317.836	81.12
318.065	78.12
318.295	83.12
318.524	91.12
318.753	85.12
318.983	92.12
319.212	84.12
319.441	83.12
319.67	85.12
319.9	94.12
320.129	86.12
320.358	68.12
320.587	99.12
320.816	75.12
321.046	82.12
321.275	86.12
321.504	82.12
321.733	81.12
321.962	99.12
322.191	83.12
322.42	91.12
322.649	98.12
322.878	83.12
323.108	84.12
323.337	71.12
323.566	89.12
323.795	75.12
324.024	78.12
324.253	95.12
324.482	89.12
324.71	97.12
324.939	92.12
325.168	79.12
325.397	79.12
325.626	86.12
325.855	85.12
326.084	94.12
326.313	80.12
326.542	96.12
326.77	77.12
326.999	93.12
327.228	76.12
327.457	91.12
327.686	82.12
327.914	73.12
328.143	85.12
328.372	73.12
328.6	80.12
328.829	96.12
329.058	90.12
329.287	77.12
329.515	79.12
329.744	97.12
329.972	69.12
330.201	81.12
330.43	87.12
330.658	91.12
330.887	90.12
331.115	84.12
331.344	80.12
331.572	90.12
331.801	82.12
332.03	92.12
332.258	87.12
332.486	83.12
332.715	88.12
332.943	86.12
333.172	83.12
333.4	71.12
333.629	77.12
333.857	87.12
334.085	85.12
334.314	80.12
334.542	84.12
334.771	81.12
334.999	91.12
335.227	85.12
335.455	82.12
335.684	97.12
335.912	94.12
336.14	74.12
336.369	71.12
336.597	84.12
336.825	82.12
337.053	80.12
337.281	75.12
337.51	79.12
337.738	84.12
337.966	80.12
338.194	92.12
338.422	82.12
338.65	76.12
338.878	89.12
339.106	71.12
339.334	91.12
339.562	91.12
339.79	90.12
340.018	80.12
340.246	81.12
340.474	87.12
340.702	68.12
340.93	81.12
341.158	86.12
341.386	80.12
341.614	82.12
341.842	90.12
342.07	71.12
342.298	98.12
342.526	76.12
342.754	85.12
342.981	67.12
343.209	68.12
343.437	93.12
343.665	95.12
343.893	85.12
344.12	86.12
344.348	79.12
344.576	86.12
344.804	89.12
345.031	89.12
345.259	95.12
345.487	83.12
345.714	83.12
345.942	81.12
346.17	80.12
346.397	83.12
346.625	82.12
346.853	83.12
347.08	89.12
347.308	90.12
347.535	77.12
347.763	78.12
347.99	85.12
348.218	101.12
348.445	71.12
348.673	71.12
348.9	76.12
349.128	78.12
349.355	91.12
349.583	76.12
349.81	83.12
350.037	75.12
350.265	67.12
350.492	71.12
350.72	98.12
350.947	75.12
351.174	74.12
351.402	107.12
351.629	87.12
351.856	95.12
352.083	79.12
352.311	83.12
352.538	80.12
352.765	81.12
352.992	87.12
353.22	83.12
353.447	88.12
353.674	81.12
353.901	97.12
354.128	71.12
354.355	83.12
354.583	80.12
354.81	89.12
355.037	87.12
355.264	68.12
355.491	98.12
355.718	86.12
355.945	89.12
356.172	77.12
356.399	78.12
356.626	72.12
356.853	82.12
357.08	72.12
357.307	78.12
357.534	82.12
357.761	96.12
357.988	99.12
358.215	85.12
358.441	82.12
358.668	92.12
358.895	81.12
359.122	86.12
359.349	78.12
359.576	84.12
359.802	71.12
360.029	87.12
360.256	84.12
360.483	84.12
360.709	70.12
360.936	87.12
361.163	87.12
361.39	96.12
361.616	95.12
361.843	98.12
362.07	88.12
362.296	81.12
362.523	84.12
362.749	91.12
362.976	87.12
363.203	99.12
363.429	97.12
363.656	82.12
363.882	88.12
364.109	82.12
364.335	92.12
364.562	97.12
364.788	72.12
365.015	84.12
365.241	78.12
365.468	84.12
365.694	75.12
365.92	81.12
366.147	73.12
366.373	74.12
366.599	89.12
366.826	65.12
367.052	73.12
367.278	95.12
367.505	88.12
367.731	94.12
367.957	85.12
368.184	87.12
368.41	70.12
368.636	91.12
368.862	89.12
369.089	79.12
369.315	88.12
369.541	74.12
369.767	76.12
369.993	76.12
370.219	84.12
370.445	86.12
370.672	77.12
370.898	84.12
371.124	84.12
371.35	83.12
371.576	84.12
371.802	84.12
372.028	88.12
372.254	81.12
372.48	77.12
372.706	80.12
372.932	87.12
373.158	63.12
373.384	102.12
373.61	85.12
373.835	81.12
374.061	70.12
374.287	75.12
374.513	88.12
374.739	96.12
374.965	95.12
375.191	93.12
375.416	83.12
375.642	79.12
375.868	69.12
376.094	80.12
376.319	98.12
376.545	87.12
376.771	81.12
376.997	84.12
377.222	79.12
377.448	77.12
377.674	88.12
377.899	87.12
378.125	92.12
378.35	93.12
378.576	90.12
378.802	93.12
379.027	84.12
379.253	83.12
379.478	93.12
379.704	86.12
379.929	77.12
380.155	81.12
380.38	87.12
380.606	86.12
380.831	101.12
381.057	81.12
381.282	90.12
381.507	93.12
381.733	83.12
381.958	86.12
382.184	95.12
382.409	77.12
382.634	82.12
382.86	91.12
383.085	88.12
383.31	90.12
383.535	96.12
383.761	93.12
383.986	99.12
384.211	90.12
384.436	93.12
384.662	84.12
384.887	89.12
385.112	69.12
385.337	83.12
385.562	91.12
385.787	76.12
386.013	87.12
386.238	92.12
386.463	99.12
386.688	97.12
386.913	83.12
387.138	89.12
387.363	85.12
387.588	76.12
387.813	91.12
388.038	91.12
388.263	82.12
388.488	82.12
388.713	88.12
388.938	91.12
389.163	89.12
389.387	96.12
389.612	78.12
389.837	67.12
390.062	83.12
390.287	77.12
390.512	85.12
390.736	90.12
390.961	94.12
391.186	81.12
391.411	81.12
391.636	86.12
391.86	83.12
392.085	92.12
392.31	80.12
392.534	79.12
392.759	100.12
392.984	95.12
393.208	127.12
393.433	157.12
393.658	132.12
393.882	92.12
394.107	89.12
394.331	92.12
394.556	99.12
394.78	95.12
395.005	92.12
395.229	88.12
395.454	81.12
395.678	88.12
395.903	97.12
396.127	116.12
396.352	103.12
396.576	108.12
396.801	124.12
397.025	144.12
397.249	101.12
397.474	90.12
397.698	83.12
397.922	73.12
398.147	83.12
398.371	80.12
398.595	91.12
398.82	68.12
399.044	83.12
399.268	81.12
399.492	83.12
399.717	84.12
399.941	76.12
400.165	77.12
400.389	83.12
400.613	101.12
400.837	86.12
401.062	83.12
401.286	79.12
401.51	91.12
401.734	75.12
401.958	87.12
402.182	83.12
402.406	83.12
402.63	88.12
402.854	76.12
403.078	83.12
403.302	82.12
403.526	96.12
403.75	70.12
403.974	61.12
404.198	91.12
404.422	82.12
404.645	85.12
404.869	95.12
405.093	76.12
405.317	81.12
405.541	79.12
405.765	79.12
405.988	76.12
406.212	66.12
406.436	87.12
406.66	92.12
406.883	93.12
407.107	80.12
407.331	87.12
407.555	77.12
407.778	79.12
408.002	81.12
408.226	82.12
408.449	80.12
408.673	81.12
408.896	82.12
409.12	88.12
409.344	73.12
409.567	83.12
409.791	94.12
410.014	73.12
410.238	72.12
410.461	84.12
410.685	87.12
410.908	86.12
411.132	81.12
411.355	73.12
411.578	71.12
411.802	77.12
412.025	78.12
412.249	93.12
412.472	74.12
412.695	78.12
412.919	75.12
413.142	91.12
413.365	85.12
413.589	79.12
413.812	76.12
414.035	83.12
414.258	82.12
414.482	77.12
414.705	74.12
414.928	95.12
415.151	91.12
415.374	73.12
415.597	83.12
415.821	88.12
416.044	83.12
416.267	91.12
416.49	68.12
416.713	79.12
416.936	95.12
417.159	80.12
417.382	87.12
417.605	73.12
417.828	83.12
418.051	74.12
418.274	67.12
418.497	75.12
418.72	77.12
418.943	81.12
419.166	77.12
419.389	89.12
419.611	72.12
419.834	70.12
420.057	85.12
420.28	84.12
420.503	74.12
420.726	73.12
420.948	85.12
421.171	72.12
421.394	82.12
421.617	91.12
421.839	88.12
422.062	84.12
422.285	91.12
422.507	136.12
422.73	193.12
422.953	152.12
423.175	119.12
423.398	106.12
423.621	82.12
423.843	79.12
424.066	96.12
424.288	93.12
424.511	61.12
424.733	89.12
424.956	91.12
425.178	83.12
425.401	75.12
425.623	74.12
425.846	92.12
426.068	84.12
426.291	89.12
426.513	86.12
426.735	83.12
426.958	89.12
427.18	70.12
427.402	81.12
427.625	81.12
427.847	86.12
428.069	90.12
428.292	93.12
428.514	95.12
428.736	99.12
428.958	99.12
429.181	91.12
429.403	84.12
429.625	85.12
429.847	86.12
430.069	111.12
430.292	119.12
430.514	109.12
430.736	95.12
430.958	92.12
431.18	82.12
431.402	76.12
431.624	97.12
431.846	102.12
432.068	89.12
432.29	68.12
432.512	85.12
432.734	89.12
432.956	95.12
433.178	87.12
433.4	95.12
433.622	90.12
433.844	84.12
434.066	80.12
434.287	70.12
434.509	67.12
434.731	76.12
434.953	86.12
435.175	88.12
435.397	80.12
435.618	88.12
435.84	86.12
436.062	74.12
436.284	84.12
436.505	73.12
436.727	81.12
436.949	70.12
437.17	80.12
437.392	92.12
437.614	73.12
437.835	82.12
438.057	85.12
438.278	78.12
438.5	89.12
438.721	85.12
438.943	65.12
439.165	102.12
439.386	93.12
439.608	81.12
439.829	95.12
440.05	75.12
440.272	67.12
440.493	92.12
440.715	92.12
440.936	74.12
441.158	63.12
441.379	87.12
441.6	65.12
441.822	79.12
442.043	78.12
442.264	90.12
442.486	99.12
442.707	104.12
442.928	91.12
443.149	89.12
443.371	97.12
443.592	125.12
443.813	127.12
444.034	79.12
444.255	67.12
444.476	92.12
444.698	86.12
444.919	71.12
445.14	163.12
445.361	131.12
445.582	126.12
445.803	126.12
446.024	92.12
446.245	82.12
446.466	81.12
446.687	70.12
446.908	88.12
447.129	84.12
447.35	85.12
447.571	90.12
447.792	89.12
448.013	93.12
448.234	98.12
448.455	87.12
448.675	83.12
448.896	82.12
449.117	84.12
449.338	69.12
449.559	82.12
449.779	95.12
450	70.12
450.221	84.12
450.442	76.12
450.662	75.12
450.883	86.12
451.104	79.12
451.324	74.12
451.545	84.12
451.766	76.12
451.986	80.12
452.207	81.12
452.428	84.12
452.648	91.12
452.869	97.12
453.089	70.12
453.31	81.12
453.53	90.12
453.751	99.12
453.971	86.12
454.192	74.12
454.412	84.12
454.633	87.12
454.853	83.12
455.073	81.12
455.294	84.12
455.514	75.12
455.734	89.12
455.955	98.12
456.175	83.12
456.395	88.12
456.616	87.12
456.836	69.12
457.056	78.12
457.276	90.12
457.497	75.12
457.717	86.12
457.937	94.12
458.157	99.12
458.377	94.12
458.598	100.12
458.818	91.12
459.038	91.12
459.258	85.12
459.478	83.12
459.698	74.12
459.918	81.12
460.138	88.12
460.358	86.12
460.578	87.12
460.798	99.12
461.018	91.12
461.238	73.12
461.458	91.12
461.678	95.12
461.898	73.12
462.118	92.12
462.338	85.12
462.558	96.12
462.777	75.12
462.997	75.12
463.217	78.12
463.437	87.12
463.657	76.12
463.876	77.12
464.096	82.12
464.316	85.12
464.536	89.12
464.755	70.12
464.975	86.12
465.195	80.12
465.414	67.12
465.634	77.12
465.854	80.12
466.073	80.12
466.293	83.12
466.512	84.12
466.732	84.12
466.951	77.12
467.171	83.12
467.391	71.12
467.61	72.12
467.829	95.12
468.049	80.12
468.268	79.12
468.488	77.12
468.707	79.12
468.927	83.12
469.146	87.12
469.365	83.12
469.585	85.12
469.804	86.12
470.023	90.12
470.243	79.12
470.462	74.12
470.681	74.12
470.901	83.12
471.12	71.12
471.339	89.12
471.558	95.12
471.777	87.12
471.997	92.12
472.216	91.12
472.435	90.12
472.654	84.12
472.873	74.12
473.092	77.12
473.311	91.12
473.53	77.12
473.749	89.12
473.968	80.12
474.187	85.12
474.406	87.12
474.625	81.12
474.844	83.12
475.063	82.12
475.282	83.12
475.501	88.12
475.72	94.12
475.939	67.12
476.158	79.12
476.377	74.12
476.596	86.12
476.814	83.12
477.033	86.12
477.252	77.12
477.471	81.12
477.69	88.12
477.908	78.12
478.127	86.12
478.346	83.12
478.564	84.12
478.783	72.12
479.002	77.12
479.22	72.12
479.439	78.12
479.658	80.12
479.876	74.12
480.095	91.12
480.313	87.12
480.532	91.12
480.751	81.12
480.969	90.12
481.188	77.12
481.406	85.12
481.624	85.12
481.843	85.12
482.061	87.12
482.28	91.12
482.498	73.12
482.717	88.12
482.935	79.12
483.153	87.12
483.372	81.12
483.59	89.12
483.808	87.12
484.027	86.12
484.245	87.12
484.463	93.12
484.681	90.12
484.9	90.12
485.118	82.12
485.336	83.12
485.554	77.12
485.772	77.12
485.99	66.12
486.209	75.12
486.427	93.12
486.645	83.12
486.863	84.12
487.081	82.12
487.299	90.12
487.517	82.12
487.735	103.12
487.953	111.12
488.171	105.12
488.389	75.12
488.607	83.12
488.825	69.12
489.043	81.12
489.261	85.12
489.479	73.12
489.696	74.12
489.914	87.12
490.132	77.12
490.35	88.12
490.568	87.12
490.786	77.12
491.003	73.12
491.221	79.12
491.439	89.12
491.657	89.12
491.874	80.12
492.092	89.12
492.31	87.12
492.527	89.12
492.745	88.12
492.963	82.12
493.18	85.12
493.398	84.12
493.615	77.12
493.833	83.12
494.05	83.12
494.268	83.12
494.485	94.12
494.703	65.12
494.92	91.12
495.138	86.12
495.355	73.12
495.573	92.12
495.79	71.12
496.008	89.12
496.225	88.12
496.442	91.12
496.66	111.12
496.877	97.12
497.094	86.12
497.312	84.12
497.529	77.12
497.746	89.12
497.963	84.12
498.181	93.12
498.398	81.12
498.615	67.12
498.832	80.12
499.049	88.12
499.267	86.12
499.484	88.12
499.701	96.12
499.918	76.12
500.135	88.12
500.352	97.12
500.569	95.12
500.786	89.12
501.003	88.12
501.22	91.12
501.437	97.12
501.654	89.12
501.871	95.12
502.088	83.12
502.305	95.12
502.522	77.12
502.739	91.12
502.956	77.12
503.172	92.12
503.389	89.12
503.606	95.12
503.823	94.12
504.04	87.12
504.256	95.12
504.473	97.12
504.69	83.12
504.907	75.12
505.123	82.12
505.34	94.12
505.557	83.12
505.773	91.12
505.99	86.12
506.207	95.12
506.423	83.12
506.64	90.12
506.856	85.12
507.073	91.12
507.289	83.12
507.506	96.12
507.722	74.12
507.939	88.12
508.155	93.12
508.372	81.12
508.588	93.12
508.805	92.12
509.021	90.12
509.238	87.12
509.454	84.12
509.67	83.12
509.887	73.12
510.103	77.12
510.319	83.12
510.536	79.12
510.752	73.12
510.968	81.12
511.184	79.12
511.401	80.12
511.617	77.12
511.833	90.12
512.049	91.12
512.265	82.12
512.481	104.12
512.698	87.12
512.914	92.12
513.13	75.12
513.346	86.12
513.562	71.12
513.778	88.12
513.994	93.12
514.21	98.12
514.426	87.12
514.642	85.12
514.858	71.12
515.074	87.12
515.29	90.12
515.506	87.12
515.721	87.12
515.937	96.12
516.153	77.12
516.369	74.12
516.585	87.12
516.801	90.12
517.016	81.12
517.232	88.12
517.448	88.12
517.664	80.12
517.879	77.12
518.095	88.12
518.311	75.12
518.527	85.12
518.742	103.12
518.958	101.12
519.173	106.12
519.389	83.12
519.605	86.12
519.82	83.12
