Data from 15780_1_HRD10591_00028.txt Node
Date: Mon Jan 19 14:18:24 EST 2026
User: Yrep
Spectrometer: HR+D1059
Trigger mode: 1
Integration Time (sec): 1.000000E-1
Scans to average: 1
Electric dark correction enabled: true
Nonlinearity correction enabled: false
Boxcar width: 0
XAxis mode: Wavelengths
Number of Pixels in Spectrum: 2048
>>>>>Begin Spectral Data<<<<<
223.165	-24.56
223.4	-24.56
223.635	-24.56
223.869	-25.56
224.104	-31.56
224.338	-14.56
224.573	-30.56
224.808	-14.56
225.042	-0.56
225.277	-7.56
225.511	-2.56
225.746	13.44
225.98	0.44
226.215	19.44
226.449	18.44
226.683	20.44
226.918	34.44
227.152	45.44
227.387	25.44
227.621	31.44
227.856	37.44
228.09	54.44
228.324	49.44
228.559	73.44
228.793	50.44
229.027	50.44
229.262	52.44
229.496	56.44
229.73	70.44
229.964	74.44
230.199	60.44
230.433	70.44
230.667	67.44
230.901	86.44
231.136	67.44
231.37	75.44
231.604	74.44
231.838	86.44
232.072	78.44
232.306	87.44
232.541	73.44
232.775	71.44
233.009	79.44
233.243	82.44
233.477	82.44
233.711	88.44
233.945	78.44
234.179	84.44
234.413	79.44
234.647	79.44
234.881	75.44
235.115	82.44
235.349	75.44
235.583	65.44
235.817	83.44
236.051	83.44
236.285	83.44
236.519	73.44
236.753	70.44
236.987	78.44
237.221	82.44
237.455	78.44
237.689	61.44
237.922	79.44
238.156	76.44
238.39	75.44
238.624	69.44
238.858	85.44
239.091	87.44
239.325	71.44
239.559	75.44
239.793	67.44
240.027	72.44
240.26	75.44
240.494	80.44
240.728	83.44
240.961	68.44
241.195	74.44
241.429	85.44
241.662	68.44
241.896	65.44
242.13	62.44
242.363	60.44
242.597	82.44
242.83	75.44
243.064	93.44
243.298	77.44
243.531	69.44
243.765	68.44
243.998	78.44
244.232	75.44
244.465	91.44
244.699	61.44
244.932	70.44
245.166	87.44
245.399	74.44
245.633	83.44
245.866	88.44
246.099	68.44
246.333	83.44
246.566	77.44
246.8	83.44
247.033	81.44
247.266	75.44
247.5	81.44
247.733	73.44
247.966	66.44
248.2	66.44
248.433	81.44
248.666	81.44
248.899	76.44
249.133	81.44
249.366	85.44
249.599	71.44
249.832	74.44
250.066	90.44
250.299	76.44
250.532	73.44
250.765	77.44
250.998	77.44
251.231	79.44
251.465	81.44
251.698	84.44
251.931	84.44
252.164	72.44
252.397	70.44
252.63	90.44
252.863	76.44
253.096	83.44
253.329	77.44
253.562	82.44
253.795	67.44
254.028	86.44
254.261	84.44
254.494	82.44
254.727	75.44
254.96	80.44
255.193	69.44
255.426	64.44
255.659	68.44
255.892	81.44
256.124	82.44
256.357	89.44
256.59	57.44
256.823	68.44
257.056	84.44
257.289	66.44
257.521	77.44
257.754	85.44
257.987	81.44
258.22	86.44
258.452	79.44
258.685	71.44
258.918	79.44
259.151	73.44
259.383	76.44
259.616	78.44
259.849	94.44
260.081	83.44
260.314	89.44
260.547	70.44
260.779	77.44
261.012	91.44
261.244	70.44
261.477	86.44
261.71	84.44
261.942	86.44
262.175	75.44
262.407	81.44
262.64	90.44
262.872	78.44
263.105	87.44
263.337	82.44
263.57	68.44
263.802	61.44
264.035	68.44
264.267	88.44
264.499	87.44
264.732	85.44
264.964	70.44
265.197	76.44
265.429	69.44
265.661	97.44
265.894	84.44
266.126	87.44
266.358	77.44
266.591	70.44
266.823	84.44
267.055	81.44
267.287	77.44
267.52	74.44
267.752	73.44
267.984	81.44
268.216	75.44
268.448	75.44
268.681	79.44
268.913	85.44
269.145	66.44
269.377	79.44
269.609	83.44
269.841	86.44
270.073	88.44
270.306	85.44
270.538	72.44
270.77	77.44
271.002	68.44
271.234	85.44
271.466	75.44
271.698	86.44
271.93	85.44
272.162	100.44
272.394	84.44
272.626	83.44
272.858	80.44
273.09	82.44
273.322	79.44
273.553	93.44
273.785	90.44
274.017	73.44
274.249	74.44
274.481	74.44
274.713	87.44
274.945	90.44
275.176	87.44
275.408	78.44
275.64	94.44
275.872	94.44
276.104	80.44
276.335	86.44
276.567	74.44
276.799	80.44
277.031	90.44
277.262	87.44
277.494	71.44
277.726	84.44
277.957	83.44
278.189	86.44
278.421	74.44
278.652	78.44
278.884	70.44
279.115	85.44
279.347	82.44
279.579	101.44
279.81	88.44
280.042	85.44
280.273	82.44
280.505	87.44
280.736	95.44
280.968	70.44
281.199	75.44
281.431	89.44
281.662	93.44
281.894	72.44
282.125	75.44
282.356	101.44
282.588	80.44
282.819	91.44
283.051	74.44
283.282	94.44
283.513	89.44
283.745	76.44
283.976	91.44
284.207	67.44
284.439	80.44
284.67	90.44
284.901	85.44
285.132	87.44
285.364	102.44
285.595	90.44
285.826	82.44
286.057	74.44
286.288	88.44
286.52	85.44
286.751	75.44
286.982	75.44
287.213	90.44
287.444	73.44
287.675	82.44
287.906	85.44
288.138	96.44
288.369	68.44
288.6	83.44
288.831	81.44
289.062	82.44
289.293	72.44
289.524	83.44
289.755	71.44
289.986	79.44
290.217	77.44
290.448	88.44
290.679	79.44
290.91	73.44
291.141	81.44
291.371	86.44
291.602	72.44
291.833	79.44
292.064	73.44
292.295	72.44
292.526	78.44
292.757	85.44
292.987	81.44
293.218	86.44
293.449	88.44
293.68	74.44
293.91	76.44
294.141	89.44
294.372	81.44
294.603	86.44
294.833	85.44
295.064	90.44
295.295	84.44
295.525	80.44
295.756	88.44
295.987	81.44
296.217	85.44
296.448	83.44
296.679	74.44
296.909	97.44
297.14	75.44
297.37	94.44
297.601	82.44
297.831	101.44
298.062	93.44
298.292	91.44
298.523	84.44
298.753	87.44
298.984	92.44
299.214	91.44
299.445	85.44
299.675	85.44
299.905	88.44
300.136	92.44
300.366	97.44
300.597	87.44
300.827	91.44
301.057	101.44
301.288	85.44
301.518	72.44
301.748	81.44
301.979	109.44
302.209	106.44
302.439	102.44
302.669	91.44
302.9	80.44
303.13	73.44
303.36	88.44
303.59	75.44
303.82	79.44
304.051	86.44
304.281	93.44
304.511	94.44
304.741	83.44
304.971	85.44
305.201	99.44
305.431	86.44
305.661	97.44
305.891	87.44
306.121	79.44
306.352	72.44
306.582	83.44
306.812	94.44
307.042	79.44
307.272	99.44
307.502	90.44
307.731	86.44
307.961	94.44
308.191	109.44
308.421	110.44
308.651	114.44
308.881	91.44
309.111	102.44
309.341	115.44
309.571	104.44
309.8	83.44
310.03	81.44
310.26	83.44
310.49	91.44
310.72	81.44
310.949	89.44
311.179	86.44
311.409	84.44
311.639	73.44
311.868	83.44
312.098	74.44
312.328	83.44
312.557	87.44
312.787	83.44
313.017	81.44
313.246	89.44
313.476	86.44
313.706	80.44
313.935	79.44
314.165	83.44
314.394	83.44
314.624	85.44
314.853	88.44
315.083	84.44
315.312	94.44
315.542	94.44
315.771	91.44
316.001	114.44
316.23	95.44
316.46	82.44
316.689	91.44
316.919	82.44
317.148	71.44
317.377	91.44
317.607	103.44
317.836	108.44
318.065	131.44
318.295	111.44
318.524	80.44
318.753	88.44
318.983	80.44
319.212	88.44
319.441	92.44
319.67	81.44
319.9	77.44
320.129	81.44
320.358	81.44
320.587	73.44
320.816	90.44
321.046	90.44
321.275	82.44
321.504	78.44
321.733	88.44
321.962	94.44
322.191	89.44
322.42	87.44
322.649	102.44
322.878	99.44
323.108	83.44
323.337	96.44
323.566	105.44
323.795	93.44
324.024	76.44
324.253	89.44
324.482	80.44
324.71	110.44
324.939	110.44
325.168	87.44
325.397	81.44
325.626	88.44
325.855	86.44
326.084	78.44
326.313	89.44
326.542	87.44
326.77	75.44
326.999	85.44
327.228	91.44
327.457	89.44
327.686	94.44
327.914	92.44
328.143	85.44
328.372	85.44
328.6	77.44
328.829	67.44
329.058	79.44
329.287	93.44
329.515	88.44
329.744	87.44
329.972	75.44
330.201	99.44
330.43	94.44
330.658	84.44
330.887	84.44
331.115	102.44
331.344	74.44
331.572	87.44
331.801	92.44
332.03	96.44
332.258	95.44
332.486	83.44
332.715	88.44
332.943	95.44
333.172	94.44
333.4	87.44
333.629	75.44
333.857	80.44
334.085	90.44
334.314	88.44
334.542	77.44
334.771	101.44
334.999	92.44
335.227	109.44
335.455	91.44
335.684	95.44
335.912	94.44
336.14	99.44
336.369	93.44
336.597	86.44
336.825	92.44
337.053	96.44
337.281	96.44
337.51	94.44
337.738	69.44
337.966	96.44
338.194	81.44
338.422	93.44
338.65	90.44
338.878	81.44
339.106	85.44
339.334	69.44
339.562	79.44
339.79	83.44
340.018	92.44
340.246	83.44
340.474	86.44
340.702	88.44
340.93	84.44
341.158	82.44
341.386	90.44
341.614	82.44
341.842	79.44
342.07	93.44
342.298	74.44
342.526	96.44
342.754	84.44
342.981	79.44
343.209	93.44
343.437	97.44
343.665	88.44
343.893	90.44
344.12	95.44
344.348	100.44
344.576	93.44
344.804	92.44
345.031	85.44
345.259	84.44
345.487	97.44
345.714	73.44
345.942	80.44
346.17	89.44
346.397	89.44
346.625	79.44
346.853	80.44
347.08	68.44
347.308	102.44
347.535	81.44
347.763	96.44
347.99	81.44
348.218	86.44
348.445	87.44
348.673	89.44
348.9	79.44
349.128	89.44
349.355	101.44
349.583	82.44
349.81	74.44
350.037	77.44
350.265	85.44
350.492	80.44
350.72	90.44
350.947	82.44
351.174	73.44
351.402	84.44
351.629	84.44
351.856	95.44
352.083	88.44
352.311	95.44
352.538	81.44
352.765	85.44
352.992	93.44
353.22	89.44
353.447	76.44
353.674	82.44
353.901	89.44
354.128	78.44
354.355	90.44
354.583	83.44
354.81	81.44
355.037	95.44
355.264	81.44
355.491	82.44
355.718	77.44
355.945	93.44
356.172	88.44
356.399	93.44
356.626	101.44
356.853	105.44
357.08	102.44
357.307	82.44
357.534	93.44
357.761	104.44
357.988	104.44
358.215	116.44
358.441	97.44
358.668	88.44
358.895	85.44
359.122	87.44
359.349	98.44
359.576	94.44
359.802	92.44
360.029	90.44
360.256	79.44
360.483	86.44
360.709	84.44
360.936	98.44
361.163	81.44
361.39	102.44
361.616	96.44
361.843	98.44
362.07	102.44
362.296	100.44
362.523	109.44
362.749	108.44
362.976	129.44
363.203	131.44
363.429	102.44
363.656	112.44
363.882	113.44
364.109	119.44
364.335	158.44
364.562	165.44
364.788	121.44
365.015	101.44
365.241	86.44
365.468	82.44
365.694	88.44
365.92	67.44
366.147	81.44
366.373	93.44
366.599	98.44
366.826	88.44
367.052	93.44
367.278	89.44
367.505	82.44
367.731	90.44
367.957	93.44
368.184	87.44
368.41	78.44
368.636	98.44
368.862	107.44
369.089	85.44
369.315	83.44
369.541	85.44
369.767	103.44
369.993	91.44
370.219	93.44
370.445	95.44
370.672	98.44
370.898	96.44
371.124	101.44
371.35	103.44
371.576	79.44
371.802	102.44
372.028	110.44
372.254	103.44
372.48	104.44
372.706	90.44
372.932	88.44
373.158	107.44
373.384	125.44
373.61	154.44
373.835	145.44
374.061	117.44
374.287	92.44
374.513	100.44
374.739	120.44
374.965	121.44
375.191	121.44
375.416	99.44
375.642	89.44
375.868	119.44
376.094	117.44
376.319	93.44
376.545	103.44
376.771	91.44
376.997	90.44
377.222	69.44
377.448	83.44
377.674	83.44
377.899	90.44
378.125	84.44
378.35	68.44
378.576	92.44
378.802	93.44
379.027	86.44
379.253	101.44
379.478	97.44
379.704	78.44
379.929	94.44
380.155	85.44
380.38	93.44
380.606	91.44
380.831	97.44
381.057	91.44
381.282	95.44
381.507	118.44
381.733	115.44
381.958	112.44
382.184	103.44
382.409	115.44
382.634	118.44
382.86	111.44
383.085	121.44
383.31	115.44
383.535	127.44
383.761	112.44
383.986	114.44
384.211	96.44
384.436	111.44
384.662	98.44
384.887	87.44
385.112	103.44
385.337	114.44
385.562	117.44
385.787	117.44
386.013	105.44
386.238	105.44
386.463	101.44
386.688	98.44
386.913	93.44
387.138	98.44
387.363	104.44
387.588	110.44
387.813	106.44
388.038	106.44
388.263	114.44
388.488	111.44
388.713	98.44
388.938	101.44
389.163	95.44
389.387	79.44
389.612	78.44
389.837	94.44
390.062	86.44
390.287	90.44
390.512	89.44
390.736	89.44
390.961	95.44
391.186	85.44
391.411	85.44
391.636	94.44
391.86	101.44
392.085	105.44
392.31	119.44
392.534	137.44
392.759	153.44
392.984	293.44
393.208	551.44
393.433	866.44
393.658	650.44
393.882	240.44
394.107	146.44
394.331	163.44
394.556	198.44
394.78	130.44
395.005	110.44
395.229	101.44
395.454	97.44
395.678	128.44
395.903	169.44
396.127	226.44
396.352	283.44
396.576	325.44
396.801	559.44
397.025	655.44
397.249	289.44
397.474	161.44
397.698	131.44
397.922	91.44
398.147	104.44
398.371	96.44
398.595	88.44
398.82	89.44
399.044	84.44
399.268	88.44
399.492	86.44
399.717	107.44
399.941	86.44
400.165	83.44
400.389	92.44
400.613	88.44
400.837	84.44
401.062	82.44
401.286	67.44
401.51	89.44
401.734	80.44
401.958	75.44
402.182	85.44
402.406	84.44
402.63	85.44
402.854	96.44
403.078	97.44
403.302	104.44
403.526	84.44
403.75	99.44
403.974	93.44
404.198	107.44
404.422	128.44
404.645	155.44
404.869	115.44
405.093	97.44
405.317	91.44
405.541	76.44
405.765	89.44
405.988	85.44
406.212	92.44
406.436	95.44
406.66	72.44
406.883	98.44
407.107	97.44
407.331	104.44
407.555	134.44
407.778	161.44
408.002	150.44
408.226	103.44
408.449	84.44
408.673	72.44
408.896	75.44
409.12	88.44
409.344	85.44
409.567	97.44
409.791	106.44
410.014	111.44
410.238	95.44
410.461	90.44
410.685	98.44
410.908	70.44
411.132	95.44
411.355	82.44
411.578	87.44
411.802	82.44
412.025	85.44
412.249	97.44
412.472	86.44
412.695	87.44
412.919	96.44
413.142	87.44
413.365	83.44
413.589	89.44
413.812	87.44
414.035	88.44
414.258	67.44
414.482	88.44
414.705	79.44
414.928	73.44
415.151	66.44
415.374	73.44
415.597	80.44
415.821	96.44
416.044	80.44
416.267	72.44
416.49	86.44
416.713	81.44
416.936	85.44
417.159	91.44
417.382	79.44
417.605	84.44
417.828	83.44
418.051	80.44
418.274	79.44
418.497	102.44
418.72	79.44
418.943	83.44
419.166	95.44
419.389	93.44
419.611	81.44
419.834	79.44
420.057	85.44
420.28	95.44
420.503	89.44
420.726	85.44
420.948	92.44
421.171	111.44
421.394	125.44
421.617	151.44
421.839	165.44
422.062	147.44
422.285	204.44
422.507	445.44
422.73	771.44
422.953	655.44
423.175	289.44
423.398	143.44
423.621	127.44
423.843	106.44
424.066	105.44
424.288	101.44
424.511	97.44
424.733	74.44
424.956	86.44
425.178	97.44
425.401	88.44
425.623	85.44
425.846	101.44
426.068	88.44
426.291	82.44
426.513	93.44
426.735	83.44
426.958	87.44
427.18	81.44
427.402	107.44
427.625	92.44
427.847	91.44
428.069	106.44
428.292	165.44
428.514	190.44
428.736	145.44
428.958	167.44
429.181	192.44
429.403	113.44
429.625	121.44
429.847	147.44
430.069	240.44
430.292	286.44
430.514	266.44
430.736	182.44
430.958	201.44
431.18	117.44
431.402	90.44
431.624	109.44
431.846	169.44
432.068	185.44
432.29	106.44
432.512	104.44
432.734	87.44
432.956	87.44
433.178	81.44
433.4	83.44
433.622	75.44
433.844	104.44
434.066	81.44
434.287	85.44
434.509	75.44
434.731	92.44
434.953	82.44
435.175	87.44
435.397	105.44
435.618	93.44
435.84	90.44
436.062	81.44
436.284	84.44
436.505	83.44
436.727	77.44
436.949	95.44
437.17	77.44
437.392	84.44
437.614	91.44
437.835	94.44
438.057	87.44
438.278	100.44
438.5	104.44
438.721	84.44
438.943	74.44
439.165	82.44
439.386	77.44
439.608	79.44
439.829	75.44
440.05	82.44
440.272	90.44
440.493	95.44
440.715	92.44
440.936	85.44
441.158	99.44
441.379	73.44
441.6	91.44
441.822	86.44
442.043	102.44
442.264	117.44
442.486	180.44
442.707	254.44
442.928	154.44
443.149	133.44
443.371	205.44
443.592	402.44
443.813	330.44
444.034	125.44
444.255	99.44
444.476	90.44
444.698	99.44
444.919	101.44
445.14	205.44
445.361	301.44
445.582	493.44
445.803	412.44
446.024	152.44
446.245	105.44
446.466	87.44
446.687	87.44
446.908	88.44
447.129	80.44
447.35	83.44
447.571	81.44
447.792	75.44
448.013	96.44
448.234	91.44
448.455	81.44
448.675	73.44
448.896	87.44
449.117	97.44
449.338	80.44
449.559	90.44
449.779	73.44
450	76.44
450.221	82.44
450.442	88.44
450.662	87.44
450.883	86.44
451.104	91.44
451.324	79.44
451.545	93.44
451.766	83.44
451.986	79.44
452.207	77.44
452.428	92.44
452.648	95.44
452.869	111.44
453.089	106.44
453.31	99.44
453.53	100.44
453.751	93.44
453.971	76.44
454.192	95.44
454.412	75.44
454.633	88.44
454.853	95.44
455.073	97.44
455.294	95.44
455.514	97.44
455.734	84.44
455.955	73.44
456.175	95.44
456.395	77.44
456.616	70.44
456.836	93.44
457.056	87.44
457.276	80.44
457.497	82.44
457.717	90.44
457.937	114.44
458.157	140.44
458.377	135.44
458.598	134.44
458.818	135.44
459.038	104.44
459.258	92.44
459.478	88.44
459.698	81.44
459.918	80.44
460.138	99.44
460.358	90.44
460.578	120.44
460.798	142.44
461.018	139.44
461.238	83.44
461.458	76.44
461.678	79.44
461.898	83.44
462.118	92.44
462.338	79.44
462.558	83.44
462.777	107.44
462.997	78.44
463.217	92.44
463.437	86.44
463.657	72.44
463.876	81.44
464.096	72.44
464.316	86.44
464.536	82.44
464.755	84.44
464.975	83.44
465.195	72.44
465.414	88.44
465.634	74.44
465.854	95.44
466.073	91.44
466.293	83.44
466.512	90.44
466.732	85.44
466.951	101.44
467.171	91.44
467.391	90.44
467.61	75.44
467.829	78.44
468.049	78.44
468.268	78.44
468.488	89.44
468.707	77.44
468.927	73.44
469.146	74.44
469.365	91.44
469.585	81.44
469.804	62.44
470.023	85.44
470.243	89.44
470.462	81.44
470.681	94.44
470.901	73.44
471.12	75.44
471.339	77.44
471.558	74.44
471.777	90.44
471.997	82.44
472.216	83.44
472.435	85.44
472.654	93.44
472.873	85.44
473.092	83.44
473.311	98.44
473.53	77.44
473.749	91.44
473.968	94.44
474.187	97.44
474.406	75.44
474.625	93.44
474.844	88.44
475.063	81.44
475.282	89.44
475.501	81.44
475.72	80.44
475.939	93.44
476.158	93.44
476.377	88.44
476.596	97.44
476.814	78.44
477.033	85.44
477.252	88.44
477.471	84.44
477.69	82.44
477.908	85.44
478.127	85.44
478.346	91.44
478.564	88.44
478.783	86.44
479.002	93.44
479.22	89.44
479.439	78.44
479.658	82.44
479.876	90.44
480.095	88.44
480.313	111.44
480.532	82.44
480.751	83.44
480.969	93.44
481.188	97.44
481.406	95.44
481.624	77.44
481.843	73.44
482.061	93.44
482.28	89.44
482.498	99.44
482.717	80.44
482.935	98.44
483.153	90.44
483.372	85.44
483.59	91.44
483.808	80.44
484.027	92.44
484.245	100.44
484.463	100.44
484.681	82.44
484.9	93.44
485.118	77.44
485.336	97.44
485.554	73.44
485.772	82.44
485.99	91.44
486.209	90.44
486.427	102.44
486.645	103.44
486.863	86.44
487.081	104.44
487.299	98.44
487.517	99.44
487.735	121.44
487.953	228.44
488.171	168.44
488.389	114.44
488.607	102.44
488.825	93.44
489.043	78.44
489.261	103.44
489.479	91.44
489.696	86.44
489.914	90.44
490.132	86.44
490.35	93.44
490.568	82.44
490.786	88.44
491.003	79.44
491.221	81.44
491.439	93.44
491.657	91.44
491.874	90.44
492.092	81.44
492.31	99.44
492.527	97.44
492.745	83.44
492.963	85.44
493.18	72.44
493.398	97.44
493.615	92.44
493.833	85.44
494.05	76.44
494.268	62.44
494.485	88.44
494.703	84.44
494.92	90.44
495.138	84.44
495.355	97.44
495.573	95.44
495.79	106.44
496.008	99.44
496.225	78.44
496.442	93.44
496.66	90.44
496.877	95.44
497.094	85.44
497.312	86.44
497.529	84.44
497.746	83.44
497.963	99.44
498.181	121.44
498.398	114.44
498.615	111.44
498.832	98.44
499.049	72.44
499.267	121.44
499.484	77.44
499.701	81.44
499.918	111.44
500.135	109.44
500.352	98.44
500.569	104.44
500.786	91.44
501.003	105.44
501.22	88.44
501.437	98.44
501.654	106.44
501.871	95.44
502.088	77.44
502.305	96.44
502.522	99.44
502.739	102.44
502.956	95.44
503.172	82.44
503.389	98.44
503.606	86.44
503.823	113.44
504.04	116.44
504.256	152.44
504.473	144.44
504.69	96.44
504.907	109.44
505.123	94.44
505.34	88.44
505.557	86.44
505.773	86.44
505.99	89.44
506.207	90.44
506.423	75.44
506.64	75.44
506.856	84.44
507.073	75.44
507.289	104.44
507.506	90.44
507.722	97.44
507.939	89.44
508.155	84.44
508.372	92.44
508.588	90.44
508.805	103.44
509.021	83.44
509.238	76.44
509.454	88.44
509.67	81.44
509.887	96.44
510.103	102.44
510.319	91.44
510.536	94.44
510.752	97.44
510.968	75.44
511.184	81.44
511.401	90.44
511.617	81.44
511.833	94.44
512.049	92.44
512.265	93.44
512.481	86.44
512.698	83.44
512.914	97.44
513.13	88.44
513.346	71.44
513.562	85.44
513.778	89.44
513.994	82.44
514.21	81.44
514.426	83.44
514.642	94.44
514.858	99.44
515.074	92.44
515.29	88.44
515.506	101.44
515.721	88.44
515.937	83.44
516.153	94.44
516.369	77.44
516.585	95.44
516.801	94.44
