Data from 15780_1_HRD10591_00036.txt Node
Date: Mon Jan 19 14:18:28 EST 2026
User: Yrep
Spectrometer: HR+D1059
Trigger mode: 1
Integration Time (sec): 1.000000E-1
Scans to average: 1
Electric dark correction enabled: true
Nonlinearity correction enabled: false
Boxcar width: 0
XAxis mode: Wavelengths
Number of Pixels in Spectrum: 2048
>>>>>Begin Spectral Data<<<<<
223.165	-25.56
223.4	-25.56
223.635	-25.56
223.869	-19.56
224.104	-24.56
224.338	-24.56
224.573	-0.56
224.808	-16.56
225.042	-14.56
225.277	0.44
225.511	4.44
225.746	14.44
225.98	13.44
226.215	28.44
226.449	7.44
226.683	14.44
226.918	15.44
227.152	27.44
227.387	36.44
227.621	31.44
227.856	48.44
228.09	48.44
228.324	46.44
228.559	63.44
228.793	49.44
229.027	60.44
229.262	64.44
229.496	65.44
229.73	57.44
229.964	65.44
230.199	60.44
230.433	69.44
230.667	70.44
230.901	68.44
231.136	87.44
231.37	73.44
231.604	78.44
231.838	74.44
232.072	80.44
232.306	83.44
232.541	65.44
232.775	75.44
233.009	74.44
233.243	79.44
233.477	88.44
233.711	78.44
233.945	79.44
234.179	72.44
234.413	84.44
234.647	78.44
234.881	76.44
235.115	69.44
235.349	70.44
235.583	76.44
235.817	78.44
236.051	83.44
236.285	74.44
236.519	87.44
236.753	81.44
236.987	60.44
237.221	76.44
237.455	86.44
237.689	63.44
237.922	56.44
238.156	56.44
238.39	68.44
238.624	71.44
238.858	68.44
239.091	75.44
239.325	77.44
239.559	67.44
239.793	84.44
240.027	72.44
240.26	83.44
240.494	87.44
240.728	56.44
240.961	77.44
241.195	68.44
241.429	71.44
241.662	76.44
241.896	58.44
242.13	67.44
242.363	83.44
242.597	68.44
242.83	73.44
243.064	66.44
243.298	67.44
243.531	50.44
243.765	71.44
243.998	65.44
244.232	85.44
244.465	78.44
244.699	53.44
244.932	72.44
245.166	76.44
245.399	71.44
245.633	97.44
245.866	80.44
246.099	71.44
246.333	62.44
246.566	68.44
246.8	69.44
247.033	61.44
247.266	65.44
247.5	72.44
247.733	66.44
247.966	80.44
248.2	71.44
248.433	77.44
248.666	76.44
248.899	68.44
249.133	76.44
249.366	69.44
249.599	68.44
249.832	65.44
250.066	83.44
250.299	71.44
250.532	70.44
250.765	77.44
250.998	78.44
251.231	76.44
251.465	83.44
251.698	84.44
251.931	75.44
252.164	72.44
252.397	85.44
252.63	68.44
252.863	80.44
253.096	82.44
253.329	78.44
253.562	64.44
253.795	74.44
254.028	72.44
254.261	74.44
254.494	75.44
254.727	64.44
254.96	78.44
255.193	75.44
255.426	70.44
255.659	69.44
255.892	79.44
256.124	84.44
256.357	95.44
256.59	68.44
256.823	77.44
257.056	73.44
257.289	73.44
257.521	76.44
257.754	72.44
257.987	69.44
258.22	72.44
258.452	77.44
258.685	78.44
258.918	72.44
259.151	82.44
259.383	82.44
259.616	79.44
259.849	78.44
260.081	59.44
260.314	80.44
260.547	94.44
260.779	70.44
261.012	78.44
261.244	82.44
261.477	72.44
261.71	67.44
261.942	93.44
262.175	79.44
262.407	70.44
262.64	73.44
262.872	64.44
263.105	64.44
263.337	75.44
263.57	72.44
263.802	90.44
264.035	81.44
264.267	76.44
264.499	66.44
264.732	63.44
264.964	78.44
265.197	66.44
265.429	68.44
265.661	71.44
265.894	73.44
266.126	75.44
266.358	82.44
266.591	74.44
266.823	72.44
267.055	64.44
267.287	75.44
267.52	80.44
267.752	72.44
267.984	72.44
268.216	87.44
268.448	83.44
268.681	72.44
268.913	73.44
269.145	77.44
269.377	80.44
269.609	71.44
269.841	65.44
270.073	74.44
270.306	85.44
270.538	75.44
270.77	82.44
271.002	88.44
271.234	80.44
271.466	75.44
271.698	87.44
271.93	93.44
272.162	86.44
272.394	87.44
272.626	77.44
272.858	78.44
273.09	79.44
273.322	68.44
273.553	67.44
273.785	67.44
274.017	87.44
274.249	83.44
274.481	70.44
274.713	82.44
274.945	68.44
275.176	102.44
275.408	84.44
275.64	87.44
275.872	68.44
276.104	75.44
276.335	78.44
276.567	63.44
276.799	74.44
277.031	78.44
277.262	69.44
277.494	84.44
277.726	84.44
277.957	70.44
278.189	74.44
278.421	76.44
278.652	89.44
278.884	86.44
279.115	91.44
279.347	58.44
279.579	76.44
279.81	76.44
280.042	85.44
280.273	81.44
280.505	73.44
280.736	74.44
280.968	79.44
281.199	72.44
281.431	83.44
281.662	80.44
281.894	86.44
282.125	76.44
282.356	62.44
282.588	79.44
282.819	65.44
283.051	80.44
283.282	75.44
283.513	93.44
283.745	72.44
283.976	84.44
284.207	70.44
284.439	68.44
284.67	89.44
284.901	72.44
285.132	78.44
285.364	77.44
285.595	79.44
285.826	70.44
286.057	71.44
286.288	73.44
286.52	90.44
286.751	76.44
286.982	71.44
287.213	83.44
287.444	85.44
287.675	82.44
287.906	87.44
288.138	80.44
288.369	76.44
288.6	73.44
288.831	67.44
289.062	84.44
289.293	76.44
289.524	71.44
289.755	68.44
289.986	85.44
290.217	73.44
290.448	65.44
290.679	73.44
290.91	90.44
291.141	73.44
291.371	87.44
291.602	66.44
291.833	72.44
292.064	78.44
292.295	81.44
292.526	82.44
292.757	75.44
292.987	89.44
293.218	76.44
293.449	80.44
293.68	79.44
293.91	71.44
294.141	82.44
294.372	87.44
294.603	81.44
294.833	75.44
295.064	72.44
295.295	64.44
295.525	79.44
295.756	86.44
295.987	65.44
296.217	64.44
296.448	92.44
296.679	85.44
296.909	73.44
297.14	73.44
297.37	69.44
297.601	69.44
297.831	80.44
298.062	74.44
298.292	75.44
298.523	76.44
298.753	68.44
298.984	70.44
299.214	78.44
299.445	81.44
299.675	91.44
299.905	86.44
300.136	79.44
300.366	80.44
300.597	75.44
300.827	87.44
301.057	81.44
301.288	85.44
301.518	54.44
301.748	68.44
301.979	95.44
302.209	81.44
302.439	83.44
302.669	90.44
302.9	66.44
303.13	69.44
303.36	87.44
303.59	64.44
303.82	65.44
304.051	86.44
304.281	84.44
304.511	73.44
304.741	78.44
304.971	80.44
305.201	70.44
305.431	78.44
305.661	80.44
305.891	81.44
306.121	86.44
306.352	70.44
306.582	73.44
306.812	82.44
307.042	63.44
307.272	86.44
307.502	69.44
307.731	84.44
307.961	75.44
308.191	72.44
308.421	74.44
308.651	87.44
308.881	85.44
309.111	87.44
309.341	79.44
309.571	91.44
309.8	77.44
310.03	87.44
310.26	76.44
310.49	80.44
310.72	78.44
310.949	81.44
311.179	66.44
311.409	76.44
311.639	79.44
311.868	72.44
312.098	76.44
312.328	92.44
312.557	84.44
312.787	85.44
313.017	73.44
313.246	74.44
313.476	83.44
313.706	68.44
313.935	68.44
314.165	75.44
314.394	79.44
314.624	86.44
314.853	89.44
315.083	91.44
315.312	77.44
315.542	76.44
315.771	82.44
316.001	79.44
316.23	76.44
316.46	91.44
316.689	76.44
316.919	76.44
317.148	63.44
317.377	78.44
317.607	68.44
317.836	88.44
318.065	88.44
318.295	76.44
318.524	82.44
318.753	69.44
318.983	80.44
319.212	73.44
319.441	79.44
319.67	90.44
319.9	80.44
320.129	81.44
320.358	65.44
320.587	78.44
320.816	83.44
321.046	87.44
321.275	75.44
321.504	82.44
321.733	80.44
321.962	76.44
322.191	82.44
322.42	87.44
322.649	82.44
322.878	84.44
323.108	79.44
323.337	73.44
323.566	79.44
323.795	92.44
324.024	75.44
324.253	75.44
324.482	83.44
324.71	82.44
324.939	86.44
325.168	83.44
325.397	70.44
325.626	86.44
325.855	94.44
326.084	88.44
326.313	88.44
326.542	93.44
326.77	76.44
326.999	84.44
327.228	86.44
327.457	76.44
327.686	76.44
327.914	83.44
328.143	89.44
328.372	75.44
328.6	72.44
328.829	78.44
329.058	85.44
329.287	75.44
329.515	86.44
329.744	83.44
329.972	92.44
330.201	82.44
330.43	72.44
330.658	93.44
330.887	80.44
331.115	64.44
331.344	84.44
331.572	91.44
331.801	83.44
332.03	90.44
332.258	82.44
332.486	61.44
332.715	92.44
332.943	68.44
333.172	84.44
333.4	84.44
333.629	70.44
333.857	72.44
334.085	87.44
334.314	78.44
334.542	72.44
334.771	72.44
334.999	64.44
335.227	57.44
335.455	74.44
335.684	72.44
335.912	80.44
336.14	76.44
336.369	77.44
336.597	75.44
336.825	87.44
337.053	83.44
337.281	87.44
337.51	77.44
337.738	80.44
337.966	82.44
338.194	82.44
338.422	81.44
338.65	86.44
338.878	76.44
339.106	77.44
339.334	80.44
339.562	83.44
339.79	73.44
340.018	78.44
340.246	77.44
340.474	86.44
340.702	82.44
340.93	64.44
341.158	70.44
341.386	70.44
341.614	70.44
341.842	82.44
342.07	89.44
342.298	82.44
342.526	62.44
342.754	78.44
342.981	78.44
343.209	73.44
343.437	94.44
343.665	68.44
343.893	74.44
344.12	67.44
344.348	86.44
344.576	70.44
344.804	81.44
345.031	86.44
345.259	79.44
345.487	80.44
345.714	78.44
345.942	92.44
346.17	76.44
346.397	88.44
346.625	71.44
346.853	78.44
347.08	74.44
347.308	83.44
347.535	68.44
347.763	77.44
347.99	67.44
348.218	78.44
348.445	78.44
348.673	67.44
348.9	76.44
349.128	81.44
349.355	89.44
349.583	74.44
349.81	73.44
350.037	72.44
350.265	72.44
350.492	69.44
350.72	76.44
350.947	78.44
351.174	94.44
351.402	88.44
351.629	66.44
351.856	77.44
352.083	70.44
352.311	74.44
352.538	76.44
352.765	79.44
352.992	95.44
353.22	79.44
353.447	96.44
353.674	67.44
353.901	84.44
354.128	84.44
354.355	79.44
354.583	88.44
354.81	72.44
355.037	77.44
355.264	80.44
355.491	84.44
355.718	75.44
355.945	70.44
356.172	70.44
356.399	75.44
356.626	80.44
356.853	78.44
357.08	72.44
357.307	71.44
357.534	85.44
357.761	74.44
357.988	68.44
358.215	67.44
358.441	88.44
358.668	81.44
358.895	84.44
359.122	80.44
359.349	80.44
359.576	81.44
359.802	72.44
360.029	69.44
360.256	63.44
360.483	83.44
360.709	80.44
360.936	76.44
361.163	77.44
361.39	74.44
361.616	72.44
361.843	86.44
362.07	90.44
362.296	72.44
362.523	77.44
362.749	68.44
362.976	76.44
363.203	98.44
363.429	75.44
363.656	83.44
363.882	73.44
364.109	77.44
364.335	79.44
364.562	93.44
364.788	82.44
365.015	90.44
365.241	85.44
365.468	83.44
365.694	69.44
365.92	67.44
366.147	80.44
366.373	80.44
366.599	70.44
366.826	80.44
367.052	75.44
367.278	88.44
367.505	82.44
367.731	101.44
367.957	68.44
368.184	68.44
368.41	64.44
368.636	72.44
368.862	95.44
369.089	78.44
369.315	66.44
369.541	82.44
369.767	71.44
369.993	68.44
370.219	84.44
370.445	78.44
370.672	64.44
370.898	84.44
371.124	79.44
371.35	82.44
371.576	75.44
371.802	80.44
372.028	72.44
372.254	72.44
372.48	68.44
372.706	76.44
372.932	69.44
373.158	84.44
373.384	80.44
373.61	82.44
373.835	86.44
374.061	88.44
374.287	82.44
374.513	71.44
374.739	80.44
374.965	86.44
375.191	69.44
375.416	75.44
375.642	72.44
375.868	85.44
376.094	72.44
376.319	73.44
376.545	72.44
376.771	65.44
376.997	67.44
377.222	75.44
377.448	74.44
377.674	76.44
377.899	84.44
378.125	79.44
378.35	76.44
378.576	86.44
378.802	82.44
379.027	78.44
379.253	65.44
379.478	70.44
379.704	63.44
379.929	80.44
380.155	72.44
380.38	78.44
380.606	73.44
380.831	69.44
381.057	90.44
381.282	78.44
381.507	89.44
381.733	80.44
381.958	86.44
382.184	73.44
382.409	76.44
382.634	81.44
382.86	80.44
383.085	76.44
383.31	70.44
383.535	81.44
383.761	80.44
383.986	67.44
384.211	80.44
384.436	83.44
384.662	79.44
384.887	83.44
385.112	89.44
385.337	79.44
385.562	82.44
385.787	78.44
386.013	79.44
386.238	74.44
386.463	66.44
386.688	91.44
386.913	71.44
387.138	73.44
387.363	72.44
387.588	71.44
387.813	73.44
388.038	80.44
388.263	78.44
388.488	74.44
388.713	75.44
388.938	74.44
389.163	90.44
389.387	79.44
389.612	86.44
389.837	70.44
390.062	80.44
390.287	70.44
390.512	77.44
390.736	80.44
390.961	77.44
391.186	82.44
391.411	68.44
391.636	81.44
391.86	86.44
392.085	67.44
392.31	86.44
392.534	72.44
392.759	77.44
392.984	78.44
393.208	104.44
393.433	133.44
393.658	106.44
393.882	96.44
394.107	80.44
394.331	85.44
394.556	82.44
394.78	79.44
395.005	79.44
395.229	77.44
395.454	74.44
395.678	78.44
395.903	103.44
396.127	80.44
396.352	92.44
396.576	107.44
396.801	102.44
397.025	108.44
397.249	96.44
397.474	76.44
397.698	91.44
397.922	78.44
398.147	74.44
398.371	70.44
398.595	86.44
398.82	86.44
399.044	85.44
399.268	67.44
399.492	74.44
399.717	83.44
399.941	73.44
400.165	72.44
400.389	74.44
400.613	85.44
400.837	88.44
401.062	83.44
401.286	71.44
401.51	71.44
401.734	79.44
401.958	71.44
402.182	86.44
402.406	81.44
402.63	68.44
402.854	64.44
403.078	80.44
403.302	81.44
403.526	68.44
403.75	86.44
403.974	81.44
404.198	80.44
404.422	88.44
404.645	100.44
404.869	100.44
405.093	80.44
405.317	81.44
405.541	78.44
405.765	72.44
405.988	82.44
406.212	82.44
406.436	81.44
406.66	86.44
406.883	74.44
407.107	61.44
407.331	82.44
407.555	80.44
407.778	90.44
408.002	92.44
408.226	68.44
408.449	67.44
408.673	84.44
408.896	78.44
409.12	94.44
409.344	81.44
409.567	78.44
409.791	80.44
410.014	72.44
410.238	73.44
410.461	74.44
410.685	77.44
410.908	75.44
411.132	85.44
411.355	74.44
411.578	70.44
411.802	71.44
412.025	79.44
412.249	66.44
412.472	70.44
412.695	87.44
412.919	74.44
413.142	80.44
413.365	92.44
413.589	69.44
413.812	84.44
414.035	85.44
414.258	78.44
414.482	92.44
414.705	72.44
414.928	71.44
415.151	84.44
415.374	66.44
415.597	68.44
415.821	80.44
416.044	87.44
416.267	71.44
416.49	85.44
416.713	82.44
416.936	84.44
417.159	74.44
417.382	73.44
417.605	72.44
417.828	74.44
418.051	80.44
418.274	67.44
418.497	85.44
418.72	78.44
418.943	71.44
419.166	76.44
419.389	74.44
419.611	87.44
419.834	71.44
420.057	85.44
420.28	74.44
420.503	84.44
420.726	72.44
420.948	95.44
421.171	85.44
421.394	94.44
421.617	88.44
421.839	81.44
422.062	89.44
422.285	94.44
422.507	117.44
422.73	150.44
422.953	135.44
423.175	100.44
423.398	94.44
423.621	97.44
423.843	80.44
424.066	75.44
424.288	67.44
424.511	78.44
424.733	67.44
424.956	76.44
425.178	67.44
425.401	71.44
425.623	83.44
425.846	78.44
426.068	75.44
426.291	79.44
426.513	75.44
426.735	84.44
426.958	73.44
427.18	79.44
427.402	99.44
427.625	77.44
427.847	70.44
428.069	80.44
428.292	84.44
428.514	72.44
428.736	88.44
428.958	86.44
429.181	92.44
429.403	86.44
429.625	88.44
429.847	100.44
430.069	102.44
430.292	88.44
430.514	93.44
430.736	99.44
430.958	88.44
431.18	89.44
431.402	76.44
431.624	81.44
431.846	92.44
432.068	79.44
432.29	83.44
432.512	71.44
432.734	84.44
432.956	85.44
433.178	62.44
433.4	80.44
433.622	82.44
433.844	82.44
434.066	72.44
434.287	71.44
434.509	83.44
434.731	79.44
434.953	79.44
435.175	75.44
435.397	70.44
435.618	70.44
435.84	67.44
436.062	78.44
436.284	74.44
436.505	77.44
436.727	74.44
436.949	75.44
437.17	71.44
437.392	79.44
437.614	74.44
437.835	72.44
438.057	70.44
438.278	74.44
438.5	79.44
438.721	61.44
438.943	80.44
439.165	68.44
439.386	76.44
439.608	60.44
439.829	68.44
440.05	58.44
440.272	87.44
440.493	71.44
440.715	75.44
440.936	79.44
441.158	72.44
441.379	73.44
441.6	69.44
441.822	82.44
442.043	85.44
442.264	74.44
442.486	73.44
442.707	88.44
442.928	85.44
443.149	84.44
443.371	92.44
443.592	106.44
443.813	100.44
444.034	83.44
444.255	77.44
444.476	75.44
444.698	83.44
444.919	87.44
445.14	159.44
445.361	121.44
445.582	135.44
445.803	106.44
446.024	71.44
446.245	88.44
446.466	77.44
446.687	76.44
446.908	76.44
447.129	71.44
447.35	68.44
447.571	76.44
447.792	78.44
448.013	48.44
448.234	86.44
448.455	81.44
448.675	77.44
448.896	81.44
449.117	86.44
449.338	78.44
449.559	92.44
449.779	84.44
450	85.44
450.221	77.44
450.442	88.44
450.662	89.44
450.883	86.44
451.104	85.44
451.324	78.44
451.545	75.44
451.766	71.44
451.986	78.44
452.207	82.44
452.428	72.44
452.648	84.44
452.869	81.44
453.089	86.44
453.31	73.44
453.53	87.44
453.751	84.44
453.971	75.44
454.192	83.44
454.412	99.44
454.633	62.44
454.853	82.44
455.073	81.44
455.294	73.44
455.514	77.44
455.734	70.44
455.955	74.44
456.175	64.44
456.395	86.44
456.616	78.44
456.836	80.44
457.056	85.44
457.276	79.44
457.497	75.44
457.717	83.44
457.937	79.44
458.157	72.44
458.377	84.44
458.598	90.44
458.818	79.44
459.038	84.44
459.258	86.44
459.478	74.44
459.698	67.44
459.918	73.44
460.138	73.44
460.358	72.44
460.578	78.44
460.798	91.44
461.018	89.44
461.238	75.44
461.458	77.44
461.678	82.44
461.898	79.44
462.118	83.44
462.338	81.44
462.558	78.44
462.777	67.44
462.997	78.44
463.217	80.44
463.437	71.44
463.657	72.44
463.876	84.44
464.096	83.44
464.316	80.44
464.536	92.44
464.755	76.44
464.975	68.44
465.195	79.44
465.414	80.44
465.634	80.44
465.854	75.44
466.073	67.44
466.293	71.44
466.512	82.44
466.732	70.44
466.951	86.44
467.171	86.44
467.391	81.44
467.61	69.44
467.829	79.44
468.049	77.44
468.268	76.44
468.488	89.44
468.707	76.44
468.927	76.44
469.146	78.44
469.365	82.44
469.585	81.44
469.804	61.44
470.023	70.44
470.243	72.44
470.462	68.44
470.681	67.44
470.901	72.44
471.12	94.44
471.339	83.44
471.558	75.44
471.777	82.44
471.997	90.44
472.216	78.44
472.435	72.44
472.654	75.44
472.873	68.44
473.092	84.44
473.311	95.44
473.53	73.44
473.749	62.44
473.968	80.44
474.187	59.44
474.406	72.44
474.625	84.44
474.844	84.44
475.063	85.44
475.282	100.44
475.501	76.44
475.72	96.44
475.939	75.44
476.158	81.44
476.377	83.44
476.596	76.44
476.814	77.44
477.033	68.44
477.252	74.44
477.471	91.44
477.69	82.44
477.908	88.44
478.127	94.44
478.346	71.44
478.564	79.44
478.783	81.44
479.002	83.44
479.22	75.44
479.439	75.44
479.658	72.44
479.876	68.44
480.095	92.44
480.313	90.44
480.532	82.44
480.751	71.44
480.969	74.44
481.188	77.44
481.406	79.44
481.624	73.44
481.843	70.44
482.061	79.44
482.28	68.44
482.498	68.44
482.717	73.44
482.935	86.44
483.153	88.44
483.372	93.44
483.59	80.44
483.808	74.44
484.027	68.44
484.245	71.44
484.463	68.44
484.681	88.44
484.9	89.44
485.118	90.44
485.336	82.44
485.554	90.44
485.772	73.44
485.99	87.44
486.209	84.44
486.427	71.44
486.645	79.44
486.863	74.44
487.081	74.44
487.299	89.44
487.517	73.44
487.735	96.44
487.953	75.44
488.171	94.44
488.389	84.44
488.607	82.44
488.825	75.44
489.043	66.44
489.261	80.44
489.479	76.44
489.696	84.44
489.914	70.44
490.132	71.44
490.35	74.44
490.568	86.44
490.786	77.44
491.003	77.44
491.221	78.44
491.439	72.44
491.657	85.44
491.874	88.44
492.092	75.44
492.31	76.44
492.527	56.44
492.745	86.44
492.963	75.44
493.18	69.44
493.398	94.44
493.615	75.44
493.833	78.44
494.05	77.44
494.268	79.44
494.485	82.44
494.703	80.44
494.92	74.44
495.138	67.44
495.355	83.44
495.573	77.44
495.79	84.44
496.008	78.44
496.225	66.44
496.442	85.44
496.66	74.44
496.877	88.44
497.094	75.44
497.312	73.44
497.529	72.44
497.746	76.44
497.963	80.44
498.181	84.44
498.398	82.44
498.615	59.44
498.832	78.44
499.049	87.44
499.267	75.44
499.484	91.44
499.701	60.44
499.918	78.44
500.135	70.44
500.352	66.44
500.569	79.44
500.786	84.44
501.003	86.44
501.22	87.44
501.437	82.44
501.654	82.44
501.871	81.44
502.088	72.44
502.305	76.44
502.522	67.44
502.739	76.44
502.956	79.44
503.172	72.44
503.389	82.44
503.606	91.44
503.823	88.44
504.04	64.44
504.256	91.44
504.473	72.44
504.69	71.44
504.907	102.44
505.123	96.44
505.34	85.44
505.557	85.44
505.773	94.44
505.99	82.44
506.207	86.44
506.423	87.44
506.64	65.44
506.856	89.44
507.073	91.44
507.289	78.44
507.506	79.44
507.722	88.44
507.939	72.44
508.155	77.44
508.372	80.44
508.588	80.44
508.805	79.44
509.021	62.44
509.238	75.44
509.454	85.44
509.67	81.44
509.887	86.44
510.103	80.44
510.319	67.44
510.536	68.44
510.752	91.44
510.968	86.44
511.184	82.44
511.401	76.44
511.617	82.44
511.833	82.44
512.049	75.44
512.265	70.44
512.481	95.44
512.698	91.44
512.914	89.44
513.13	76.44
513.346	84.44
513.562	82.44
513.778	85.44
513.994	83.44
514.21	85.44
514.426	83.44
514.642	75.44
514.858	77.44
515.074	87.44
515.29	80.44
515.506	85.44
515.721	85.44
515.937	80.44
516.153	87.44
516.369	81.44
516.585	70.44
516.801	70.44
517.016	68.44
517.232	80.44
517.448	79.44
517.664	83.44
517.879	71.44
518.095	79.44
518.311	83.44
518.527	79.44
518.742	78.44
518.958	94.44
519.173	96.44
519.389	75.44
519.605	73.44
519.82	76.44
520.036	80.44
