Data from 15780_1_HRD10591_00046.txt Node
Date: Mon Jan 19 14:18:33 EST 2026
User: Yrep
Spectrometer: HR+D1059
Trigger mode: 1
Integration Time (sec): 1.000000E-1
Scans to average: 1
Electric dark correction enabled: true
Nonlinearity correction enabled: false
Boxcar width: 0
XAxis mode: Wavelengths
Number of Pixels in Spectrum: 2048
>>>>>Begin Spectral Data<<<<<
223.165	-21.5
223.4	-21.5
223.635	-21.5
223.869	-30.5
224.104	-14.5
224.338	-4.5
224.573	-17.5
224.808	-12.5
225.042	-5.5
225.277	-13.5
225.511	-1.5
225.746	7.5
225.98	8.5
226.215	10.5
226.449	15.5
226.683	12.5
226.918	28.5
227.152	38.5
227.387	45.5
227.621	42.5
227.856	46.5
228.09	34.5
228.324	53.5
228.559	48.5
228.793	80.5
229.027	61.5
229.262	62.5
229.496	83.5
229.73	76.5
229.964	80.5
230.199	74.5
230.433	85.5
230.667	71.5
230.901	71.5
231.136	71.5
231.37	81.5
231.604	69.5
231.838	79.5
232.072	87.5
232.306	89.5
232.541	84.5
232.775	89.5
233.009	93.5
233.243	77.5
233.477	93.5
233.711	85.5
233.945	90.5
234.179	71.5
234.413	85.5
234.647	76.5
234.881	67.5
235.115	100.5
235.349	88.5
235.583	81.5
235.817	81.5
236.051	82.5
236.285	87.5
236.519	83.5
236.753	70.5
236.987	76.5
237.221	82.5
237.455	81.5
237.689	81.5
237.922	75.5
238.156	74.5
238.39	76.5
238.624	78.5
238.858	73.5
239.091	84.5
239.325	88.5
239.559	79.5
239.793	69.5
240.027	93.5
240.26	68.5
240.494	76.5
240.728	73.5
240.961	73.5
241.195	66.5
241.429	73.5
241.662	73.5
241.896	77.5
242.13	91.5
242.363	78.5
242.597	83.5
242.83	86.5
243.064	82.5
243.298	72.5
243.531	92.5
243.765	77.5
243.998	79.5
244.232	89.5
244.465	76.5
244.699	74.5
244.932	61.5
245.166	64.5
245.399	92.5
245.633	82.5
245.866	82.5
246.099	78.5
246.333	86.5
246.566	88.5
246.8	85.5
247.033	101.5
247.266	89.5
247.5	72.5
247.733	77.5
247.966	72.5
248.2	89.5
248.433	76.5
248.666	78.5
248.899	66.5
249.133	75.5
249.366	80.5
249.599	73.5
249.832	83.5
250.066	83.5
250.299	79.5
250.532	77.5
250.765	85.5
250.998	78.5
251.231	76.5
251.465	91.5
251.698	82.5
251.931	70.5
252.164	80.5
252.397	76.5
252.63	93.5
252.863	68.5
253.096	86.5
253.329	85.5
253.562	86.5
253.795	78.5
254.028	68.5
254.261	78.5
254.494	75.5
254.727	72.5
254.96	77.5
255.193	97.5
255.426	78.5
255.659	76.5
255.892	85.5
256.124	78.5
256.357	66.5
256.59	79.5
256.823	96.5
257.056	93.5
257.289	76.5
257.521	77.5
257.754	88.5
257.987	92.5
258.22	75.5
258.452	68.5
258.685	77.5
258.918	84.5
259.151	77.5
259.383	87.5
259.616	75.5
259.849	78.5
260.081	82.5
260.314	87.5
260.547	90.5
260.779	83.5
261.012	77.5
261.244	92.5
261.477	77.5
261.71	75.5
261.942	85.5
262.175	73.5
262.407	80.5
262.64	77.5
262.872	68.5
263.105	84.5
263.337	87.5
263.57	78.5
263.802	88.5
264.035	76.5
264.267	71.5
264.499	77.5
264.732	93.5
264.964	65.5
265.197	101.5
265.429	81.5
265.661	77.5
265.894	91.5
266.126	89.5
266.358	82.5
266.591	69.5
266.823	77.5
267.055	88.5
267.287	72.5
267.52	79.5
267.752	85.5
267.984	90.5
268.216	75.5
268.448	88.5
268.681	80.5
268.913	66.5
269.145	88.5
269.377	87.5
269.609	79.5
269.841	81.5
270.073	80.5
270.306	88.5
270.538	85.5
270.77	97.5
271.002	67.5
271.234	64.5
271.466	81.5
271.698	78.5
271.93	85.5
272.162	92.5
272.394	93.5
272.626	85.5
272.858	79.5
273.09	90.5
273.322	89.5
273.553	83.5
273.785	89.5
274.017	84.5
274.249	88.5
274.481	77.5
274.713	96.5
274.945	83.5
275.176	94.5
275.408	73.5
275.64	95.5
275.872	87.5
276.104	76.5
276.335	83.5
276.567	74.5
276.799	78.5
277.031	75.5
277.262	73.5
277.494	84.5
277.726	84.5
277.957	91.5
278.189	84.5
278.421	91.5
278.652	92.5
278.884	96.5
279.115	93.5
279.347	87.5
279.579	97.5
279.81	86.5
280.042	82.5
280.273	78.5
280.505	92.5
280.736	91.5
280.968	87.5
281.199	83.5
281.431	81.5
281.662	77.5
281.894	86.5
282.125	88.5
282.356	92.5
282.588	95.5
282.819	75.5
283.051	86.5
283.282	86.5
283.513	102.5
283.745	81.5
283.976	89.5
284.207	92.5
284.439	79.5
284.67	87.5
284.901	81.5
285.132	107.5
285.364	94.5
285.595	91.5
285.826	81.5
286.057	91.5
286.288	84.5
286.52	87.5
286.751	68.5
286.982	73.5
287.213	83.5
287.444	95.5
287.675	93.5
287.906	90.5
288.138	89.5
288.369	87.5
288.6	92.5
288.831	76.5
289.062	89.5
289.293	79.5
289.524	78.5
289.755	94.5
289.986	79.5
290.217	73.5
290.448	85.5
290.679	72.5
290.91	89.5
291.141	100.5
291.371	96.5
291.602	75.5
291.833	83.5
292.064	89.5
292.295	76.5
292.526	83.5
292.757	85.5
292.987	78.5
293.218	79.5
293.449	78.5
293.68	84.5
293.91	90.5
294.141	81.5
294.372	81.5
294.603	89.5
294.833	86.5
295.064	87.5
295.295	70.5
295.525	72.5
295.756	75.5
295.987	88.5
296.217	76.5
296.448	87.5
296.679	84.5
296.909	84.5
297.14	98.5
297.37	104.5
297.601	88.5
297.831	88.5
298.062	89.5
298.292	86.5
298.523	80.5
298.753	92.5
298.984	89.5
299.214	73.5
299.445	100.5
299.675	83.5
299.905	93.5
300.136	92.5
300.366	79.5
300.597	87.5
300.827	88.5
301.057	96.5
301.288	77.5
301.518	96.5
301.748	82.5
301.979	99.5
302.209	98.5
302.439	81.5
302.669	68.5
302.9	82.5
303.13	76.5
303.36	66.5
303.59	84.5
303.82	84.5
304.051	84.5
304.281	81.5
304.511	91.5
304.741	92.5
304.971	98.5
305.201	104.5
305.431	82.5
305.661	92.5
305.891	81.5
306.121	88.5
306.352	88.5
306.582	91.5
306.812	75.5
307.042	93.5
307.272	78.5
307.502	91.5
307.731	80.5
307.961	92.5
308.191	106.5
308.421	96.5
308.651	89.5
308.881	97.5
309.111	86.5
309.341	81.5
309.571	84.5
309.8	88.5
310.03	89.5
310.26	98.5
310.49	87.5
310.72	101.5
310.949	77.5
311.179	87.5
311.409	84.5
311.639	92.5
311.868	91.5
312.098	83.5
312.328	76.5
312.557	92.5
312.787	85.5
313.017	101.5
313.246	96.5
313.476	100.5
313.706	83.5
313.935	92.5
314.165	83.5
314.394	88.5
314.624	84.5
314.853	84.5
315.083	73.5
315.312	94.5
315.542	82.5
315.771	90.5
316.001	113.5
316.23	92.5
316.46	82.5
316.689	91.5
316.919	84.5
317.148	76.5
317.377	82.5
317.607	87.5
317.836	105.5
318.065	114.5
318.295	104.5
318.524	94.5
318.753	99.5
318.983	77.5
319.212	88.5
319.441	84.5
319.67	74.5
319.9	86.5
320.129	84.5
320.358	73.5
320.587	92.5
320.816	99.5
321.046	79.5
321.275	91.5
321.504	83.5
321.733	81.5
321.962	86.5
322.191	91.5
322.42	80.5
322.649	78.5
322.878	88.5
323.108	86.5
323.337	84.5
323.566	103.5
323.795	92.5
324.024	91.5
324.253	94.5
324.482	96.5
324.71	96.5
324.939	74.5
325.168	79.5
325.397	77.5
325.626	88.5
325.855	84.5
326.084	77.5
326.313	86.5
326.542	100.5
326.77	87.5
326.999	78.5
327.228	95.5
327.457	84.5
327.686	94.5
327.914	88.5
328.143	90.5
328.372	90.5
328.6	75.5
328.829	85.5
329.058	92.5
329.287	90.5
329.515	86.5
329.744	91.5
329.972	73.5
330.201	78.5
330.43	83.5
330.658	82.5
330.887	90.5
331.115	80.5
331.344	77.5
331.572	84.5
331.801	88.5
332.03	80.5
332.258	105.5
332.486	92.5
332.715	80.5
332.943	100.5
333.172	80.5
333.4	80.5
333.629	89.5
333.857	88.5
334.085	82.5
334.314	77.5
334.542	86.5
334.771	93.5
334.999	86.5
335.227	90.5
335.455	76.5
335.684	75.5
335.912	89.5
336.14	86.5
336.369	89.5
336.597	99.5
336.825	91.5
337.053	88.5
337.281	84.5
337.51	113.5
337.738	94.5
337.966	90.5
338.194	85.5
338.422	107.5
338.65	83.5
338.878	81.5
339.106	81.5
339.334	89.5
339.562	89.5
339.79	78.5
340.018	87.5
340.246	75.5
340.474	90.5
340.702	79.5
340.93	78.5
341.158	78.5
341.386	88.5
341.614	76.5
341.842	87.5
342.07	80.5
342.298	82.5
342.526	92.5
342.754	71.5
342.981	87.5
343.209	100.5
343.437	99.5
343.665	76.5
343.893	89.5
344.12	105.5
344.348	88.5
344.576	100.5
344.804	87.5
345.031	78.5
345.259	88.5
345.487	86.5
345.714	95.5
345.942	92.5
346.17	88.5
346.397	76.5
346.625	91.5
346.853	94.5
347.08	83.5
347.308	95.5
347.535	91.5
347.763	80.5
347.99	96.5
348.218	95.5
348.445	99.5
348.673	95.5
348.9	84.5
349.128	94.5
349.355	82.5
349.583	72.5
349.81	68.5
350.037	86.5
350.265	78.5
350.492	78.5
350.72	77.5
350.947	83.5
351.174	88.5
351.402	85.5
351.629	88.5
351.856	88.5
352.083	74.5
352.311	98.5
352.538	73.5
352.765	93.5
352.992	88.5
353.22	81.5
353.447	83.5
353.674	84.5
353.901	87.5
354.128	84.5
354.355	83.5
354.583	68.5
354.81	85.5
355.037	91.5
355.264	98.5
355.491	84.5
355.718	81.5
355.945	96.5
356.172	91.5
356.399	85.5
356.626	87.5
356.853	79.5
357.08	80.5
357.307	89.5
357.534	78.5
357.761	69.5
357.988	90.5
358.215	104.5
358.441	78.5
358.668	89.5
358.895	88.5
359.122	81.5
359.349	74.5
359.576	85.5
359.802	89.5
360.029	77.5
360.256	84.5
360.483	84.5
360.709	102.5
360.936	97.5
361.163	71.5
361.39	87.5
361.616	92.5
361.843	89.5
362.07	87.5
362.296	93.5
362.523	100.5
362.749	105.5
362.976	89.5
363.203	99.5
363.429	98.5
363.656	92.5
363.882	90.5
364.109	101.5
364.335	100.5
364.562	104.5
364.788	109.5
365.015	98.5
365.241	89.5
365.468	76.5
365.694	80.5
365.92	88.5
366.147	78.5
366.373	88.5
366.599	98.5
366.826	83.5
367.052	87.5
367.278	81.5
367.505	91.5
367.731	91.5
367.957	90.5
368.184	88.5
368.41	79.5
368.636	94.5
368.862	105.5
369.089	82.5
369.315	100.5
369.541	89.5
369.767	84.5
369.993	90.5
370.219	99.5
370.445	87.5
370.672	105.5
370.898	97.5
371.124	85.5
371.35	82.5
371.576	77.5
371.802	88.5
372.028	92.5
372.254	93.5
372.48	85.5
372.706	76.5
372.932	84.5
373.158	89.5
373.384	90.5
373.61	115.5
373.835	132.5
374.061	89.5
374.287	90.5
374.513	92.5
374.739	90.5
374.965	102.5
375.191	87.5
375.416	90.5
375.642	96.5
375.868	86.5
376.094	97.5
376.319	75.5
376.545	96.5
376.771	91.5
376.997	82.5
377.222	98.5
377.448	89.5
377.674	83.5
377.899	85.5
378.125	88.5
378.35	96.5
378.576	89.5
378.802	79.5
379.027	66.5
379.253	90.5
379.478	67.5
379.704	92.5
379.929	78.5
380.155	76.5
380.38	78.5
380.606	94.5
380.831	99.5
381.057	108.5
381.282	90.5
381.507	87.5
381.733	97.5
381.958	91.5
382.184	107.5
382.409	88.5
382.634	91.5
382.86	104.5
383.085	94.5
383.31	83.5
383.535	90.5
383.761	96.5
383.986	91.5
384.211	108.5
384.436	97.5
384.662	98.5
384.887	103.5
385.112	88.5
385.337	94.5
385.562	104.5
385.787	95.5
386.013	89.5
386.238	93.5
386.463	79.5
386.688	114.5
386.913	90.5
387.138	96.5
387.363	99.5
387.588	93.5
387.813	104.5
388.038	78.5
388.263	104.5
388.488	98.5
388.713	86.5
388.938	102.5
389.163	91.5
389.387	88.5
389.612	82.5
389.837	93.5
390.062	82.5
390.287	101.5
390.512	106.5
390.736	90.5
390.961	75.5
391.186	86.5
391.411	101.5
391.636	102.5
391.86	105.5
392.085	89.5
392.31	98.5
392.534	108.5
392.759	130.5
392.984	216.5
393.208	402.5
393.433	600.5
393.658	452.5
393.882	162.5
394.107	112.5
394.331	125.5
394.556	132.5
394.78	106.5
395.005	99.5
395.229	101.5
395.454	108.5
395.678	96.5
395.903	126.5
396.127	149.5
396.352	167.5
396.576	230.5
396.801	396.5
397.025	480.5
397.249	230.5
397.474	122.5
397.698	116.5
397.922	77.5
398.147	86.5
398.371	76.5
398.595	77.5
398.82	84.5
399.044	90.5
399.268	92.5
399.492	101.5
399.717	99.5
399.941	97.5
400.165	81.5
400.389	83.5
400.613	88.5
400.837	78.5
401.062	85.5
401.286	90.5
401.51	94.5
401.734	98.5
401.958	88.5
402.182	77.5
402.406	70.5
402.63	86.5
402.854	81.5
403.078	93.5
403.302	90.5
403.526	85.5
403.75	88.5
403.974	98.5
404.198	97.5
404.422	136.5
404.645	147.5
404.869	117.5
405.093	102.5
405.317	90.5
405.541	94.5
405.765	81.5
405.988	87.5
406.212	89.5
406.436	88.5
406.66	89.5
406.883	82.5
407.107	92.5
407.331	83.5
407.555	88.5
407.778	124.5
408.002	116.5
408.226	96.5
408.449	104.5
408.673	79.5
408.896	81.5
409.12	80.5
409.344	88.5
409.567	100.5
409.791	91.5
410.014	110.5
410.238	92.5
410.461	95.5
410.685	83.5
410.908	75.5
411.132	88.5
411.355	74.5
411.578	89.5
411.802	76.5
412.025	87.5
412.249	90.5
412.472	97.5
412.695	81.5
412.919	87.5
413.142	88.5
413.365	97.5
413.589	76.5
413.812	94.5
414.035	80.5
414.258	73.5
414.482	85.5
414.705	77.5
414.928	87.5
415.151	78.5
415.374	80.5
415.597	87.5
415.821	79.5
416.044	83.5
416.267	84.5
416.49	79.5
416.713	98.5
416.936	90.5
417.159	69.5
417.382	86.5
417.605	80.5
417.828	77.5
418.051	77.5
418.274	94.5
418.497	94.5
418.72	67.5
418.943	82.5
419.166	80.5
419.389	88.5
419.611	100.5
419.834	90.5
420.057	86.5
420.28	88.5
420.503	84.5
420.726	84.5
420.948	76.5
421.171	95.5
421.394	89.5
421.617	126.5
421.839	116.5
422.062	119.5
422.285	149.5
422.507	287.5
422.73	474.5
422.953	410.5
423.175	170.5
423.398	99.5
423.621	101.5
423.843	99.5
424.066	90.5
424.288	97.5
424.511	89.5
424.733	91.5
424.956	76.5
425.178	93.5
425.401	80.5
425.623	85.5
425.846	87.5
426.068	90.5
426.291	97.5
426.513	81.5
426.735	84.5
426.958	101.5
427.18	80.5
427.402	92.5
427.625	84.5
427.847	74.5
428.069	96.5
428.292	131.5
428.514	154.5
428.736	116.5
428.958	133.5
429.181	144.5
429.403	104.5
429.625	93.5
429.847	131.5
430.069	169.5
430.292	207.5
430.514	185.5
430.736	130.5
430.958	139.5
431.18	95.5
431.402	86.5
431.624	88.5
431.846	114.5
432.068	143.5
432.29	100.5
432.512	89.5
432.734	74.5
432.956	83.5
433.178	95.5
433.4	90.5
433.622	79.5
433.844	86.5
434.066	86.5
434.287	99.5
434.509	76.5
434.731	88.5
434.953	81.5
435.175	71.5
435.397	92.5
435.618	100.5
435.84	97.5
436.062	92.5
436.284	85.5
436.505	97.5
436.727	73.5
436.949	91.5
437.17	74.5
437.392	70.5
437.614	79.5
437.835	82.5
438.057	89.5
438.278	105.5
438.5	84.5
438.721	82.5
438.943	70.5
439.165	86.5
439.386	89.5
439.608	87.5
439.829	73.5
440.05	82.5
440.272	87.5
440.493	85.5
440.715	81.5
440.936	90.5
441.158	87.5
441.379	70.5
441.6	79.5
441.822	96.5
442.043	82.5
442.264	108.5
442.486	105.5
442.707	160.5
442.928	126.5
443.149	107.5
443.371	152.5
443.592	256.5
443.813	211.5
444.034	108.5
444.255	91.5
444.476	73.5
444.698	99.5
444.919	100.5
445.14	181.5
445.361	202.5
445.582	301.5
445.803	253.5
446.024	114.5
446.245	101.5
446.466	92.5
446.687	92.5
446.908	89.5
447.129	86.5
447.35	97.5
447.571	100.5
447.792	82.5
448.013	81.5
448.234	86.5
448.455	92.5
448.675	87.5
448.896	94.5
449.117	84.5
449.338	93.5
449.559	89.5
449.779	86.5
450	93.5
450.221	76.5
450.442	72.5
450.662	85.5
450.883	68.5
451.104	76.5
451.324	73.5
451.545	92.5
451.766	79.5
451.986	88.5
452.207	81.5
452.428	92.5
452.648	89.5
452.869	99.5
453.089	88.5
453.31	88.5
453.53	90.5
453.751	83.5
453.971	75.5
454.192	68.5
454.412	68.5
454.633	84.5
454.853	80.5
455.073	86.5
455.294	79.5
455.514	96.5
455.734	72.5
455.955	79.5
456.175	84.5
456.395	87.5
456.616	98.5
456.836	96.5
457.056	74.5
457.276	81.5
457.497	93.5
457.717	71.5
457.937	92.5
458.157	116.5
458.377	111.5
458.598	98.5
458.818	122.5
459.038	77.5
459.258	97.5
459.478	79.5
459.698	88.5
459.918	85.5
460.138	90.5
460.358	92.5
460.578	87.5
460.798	131.5
461.018	114.5
461.238	88.5
461.458	70.5
461.678	99.5
461.898	79.5
462.118	78.5
462.338	85.5
462.558	88.5
462.777	88.5
462.997	92.5
463.217	78.5
463.437	83.5
463.657	96.5
463.876	87.5
464.096	92.5
464.316	88.5
464.536	78.5
464.755	74.5
464.975	80.5
465.195	94.5
465.414	82.5
465.634	87.5
465.854	87.5
466.073	84.5
466.293	83.5
466.512	72.5
466.732	80.5
466.951	78.5
467.171	98.5
467.391	89.5
467.61	91.5
467.829	78.5
468.049	91.5
468.268	94.5
468.488	82.5
468.707	91.5
468.927	78.5
469.146	100.5
469.365	94.5
469.585	80.5
469.804	80.5
470.023	92.5
470.243	97.5
470.462	81.5
470.681	76.5
470.901	75.5
471.12	86.5
471.339	71.5
471.558	65.5
471.777	81.5
471.997	80.5
472.216	91.5
472.435	88.5
472.654	77.5
472.873	93.5
473.092	89.5
473.311	84.5
473.53	74.5
473.749	89.5
473.968	93.5
474.187	92.5
474.406	90.5
474.625	78.5
474.844	85.5
475.063	78.5
475.282	71.5
475.501	77.5
475.72	77.5
475.939	81.5
476.158	85.5
476.377	88.5
476.596	83.5
476.814	75.5
477.033	93.5
477.252	85.5
477.471	79.5
477.69	88.5
477.908	92.5
478.127	101.5
478.346	82.5
478.564	96.5
478.783	85.5
479.002	84.5
479.22	87.5
479.439	85.5
479.658	87.5
479.876	80.5
480.095	105.5
480.313	83.5
480.532	75.5
480.751	91.5
480.969	84.5
481.188	85.5
481.406	88.5
481.624	71.5
481.843	84.5
482.061	89.5
482.28	70.5
482.498	86.5
482.717	86.5
482.935	87.5
483.153	79.5
483.372	92.5
483.59	85.5
483.808	83.5
484.027	102.5
484.245	93.5
484.463	88.5
484.681	93.5
484.9	86.5
485.118	76.5
485.336	88.5
485.554	79.5
485.772	85.5
485.99	88.5
486.209	65.5
486.427	92.5
486.645	104.5
486.863	92.5
487.081	78.5
487.299	94.5
487.517	94.5
487.735	95.5
487.953	145.5
488.171	121.5
488.389	77.5
488.607	83.5
488.825	86.5
489.043	74.5
489.261	93.5
489.479	77.5
489.696	72.5
489.914	86.5
490.132	93.5
490.35	86.5
490.568	90.5
490.786	104.5
491.003	69.5
491.221	88.5
491.439	87.5
491.657	103.5
491.874	89.5
492.092	86.5
492.31	86.5
492.527	88.5
492.745	79.5
492.963	82.5
493.18	84.5
493.398	97.5
493.615	107.5
493.833	73.5
494.05	70.5
494.268	92.5
494.485	105.5
494.703	88.5
494.92	92.5
495.138	92.5
495.355	78.5
495.573	109.5
495.79	89.5
496.008	81.5
496.225	89.5
496.442	93.5
496.66	93.5
496.877	100.5
497.094	78.5
497.312	85.5
497.529	83.5
497.746	85.5
497.963	96.5
498.181	93.5
498.398	112.5
498.615	93.5
498.832	80.5
499.049	94.5
499.267	94.5
499.484	96.5
499.701	86.5
499.918	83.5
500.135	98.5
500.352	88.5
500.569	86.5
500.786	80.5
501.003	91.5
501.22	71.5
501.437	90.5
501.654	86.5
501.871	74.5
502.088	96.5
502.305	82.5
502.522	89.5
502.739	90.5
502.956	84.5
503.172	84.5
503.389	97.5
503.606	102.5
503.823	94.5
504.04	103.5
504.256	129.5
504.473	119.5
504.69	92.5
504.907	85.5
505.123	87.5
505.34	90.5
505.557	85.5
505.773	88.5
505.99	80.5
506.207	79.5
506.423	87.5
506.64	87.5
506.856	90.5
507.073	98.5
507.289	86.5
507.506	77.5
507.722	88.5
507.939	87.5
508.155	107.5
508.372	89.5
508.588	87.5
508.805	76.5
509.021	74.5
509.238	100.5
509.454	88.5
509.67	74.5
509.887	84.5
510.103	86.5
510.319	73.5
510.536	77.5
510.752	84.5
510.968	84.5
511.184	85.5
511.401	88.5
511.617	91.5
511.833	87.5
512.049	90.5
512.265	82.5
512.481	88.5
512.698	80.5
512.914	89.5
513.13	107.5
513.346	93.5
513.562	98.5
513.778	88.5
513.994	94.5
514.21	90.5
514.426	89.5
514.642	83.5
514.858	88.5
515.074	78.5
515.29	87.5
515.506	84.5
515.721	90.5
515.937	98.5
516.153	87.5
516.369	93.5
516.585	84.5
516.801	90.5
517.016	89.5
517.232	94.5
517.448	101.5
517.664	94.5
517.879	88.5
518.095	84.5
518.311	92.5
518.527	104.5
518.742	86.5
518.958	120.5
519.173	132.5
519.389	89.5
519.605	88.5
519.82	91.5
520.036	88.5
520.251	94.5
520.467	82.5
520.682	86.5
520.898	94.5
521.113	76.5
521.329	89.5
521.544	90.5
521.76	90.5
521.975	95.5
522.19	90.5
522.406	87.5
522.621	79.5
522.836	77.5
523.052	83.5
523.267	84.5
523.482	93.5
523.698	94.5
523.913	87.5
524.128	84.5
524.343	94.5
524.559	89.5
524.774	83.5
524.989	85.5
525.204	85.5
525.419	86.5
525.634	93.5
525.849	98.5
526.064	111.5
526.28	181.5
526.495	229.5
526.71	257.5
526.925	187.5
527.14	275.5
527.355	247.5
527.57	117.5
527.785	93.5
527.999	95.5
528.214	90.5
528.429	92.5
528.644	102.5
528.859	76.5
529.074	82.5
529.289	77.5
529.503	88.5
529.718	94.5
529.933	75.5
530.148	87.5
530.363	74.5
530.577	86.5
530.792	95.5
531.007	90.5
531.221	72.5
531.436	89.5
531.651	106.5
531.865	101.5
532.08	80.5
532.295	103.5
532.509	92.5
532.724	85.5
532.938	86.5
533.153	88.5
533.367	92.5
533.582	85.5
533.796	84.5
534.011	93.5
534.225	106.5
534.44	100.5
534.654	94.5
534.868	110.5
535.083	161.5
535.297	153.5
535.511	117.5
535.726	104.5
535.94	75.5
536.154	89.5
536.369	96.5
536.583	99.5
536.797	100.5
537.011	92.5
537.225	94.5
537.44	87.5
537.654	88.5
537.868	89.5
