Data from 15780_1_HRD10591_00012.txt Node
Date: Mon Jan 19 14:18:16 EST 2026
User: Yrep
Spectrometer: HR+D1059
Trigger mode: 1
Integration Time (sec): 1.000000E-1
Scans to average: 1
Electric dark correction enabled: true
Nonlinearity correction enabled: false
Boxcar width: 0
XAxis mode: Wavelengths
Number of Pixels in Spectrum: 2048
>>>>>Begin Spectral Data<<<<<
223.165	-17.62
223.4	-17.62
223.635	-17.62
223.869	-21.62
224.104	-13.62
224.338	-17.62
224.573	-13.62
224.808	-18.62
225.042	-22.62
225.277	-10.62
225.511	0.38
225.746	6.38
225.98	20.38
226.215	12.38
226.449	-5.62
226.683	26.38
226.918	30.38
227.152	45.38
227.387	36.38
227.621	46.38
227.856	46.38
228.09	56.38
228.324	51.38
228.559	57.38
228.793	51.38
229.027	56.38
229.262	64.38
229.496	70.38
229.73	60.38
229.964	71.38
230.199	89.38
230.433	79.38
230.667	77.38
230.901	94.38
231.136	75.38
231.37	84.38
231.604	84.38
231.838	79.38
232.072	73.38
232.306	83.38
232.541	78.38
232.775	73.38
233.009	81.38
233.243	80.38
233.477	81.38
233.711	86.38
233.945	98.38
234.179	73.38
234.413	90.38
234.647	63.38
234.881	78.38
235.115	70.38
235.349	84.38
235.583	81.38
235.817	77.38
236.051	91.38
236.285	76.38
236.519	82.38
236.753	76.38
236.987	62.38
237.221	67.38
237.455	75.38
237.689	72.38
237.922	73.38
238.156	80.38
238.39	68.38
238.624	72.38
238.858	73.38
239.091	82.38
239.325	83.38
239.559	76.38
239.793	76.38
240.027	76.38
240.26	65.38
240.494	83.38
240.728	67.38
240.961	78.38
241.195	76.38
241.429	88.38
241.662	61.38
241.896	85.38
242.13	78.38
242.363	70.38
242.597	67.38
242.83	83.38
243.064	79.38
243.298	81.38
243.531	83.38
243.765	93.38
243.998	82.38
244.232	76.38
244.465	69.38
244.699	79.38
244.932	78.38
245.166	77.38
245.399	76.38
245.633	79.38
245.866	87.38
246.099	71.38
246.333	74.38
246.566	87.38
246.8	94.38
247.033	77.38
247.266	71.38
247.5	77.38
247.733	81.38
247.966	80.38
248.2	80.38
248.433	96.38
248.666	84.38
248.899	84.38
249.133	83.38
249.366	66.38
249.599	80.38
249.832	81.38
250.066	85.38
250.299	75.38
250.532	96.38
250.765	74.38
250.998	78.38
251.231	73.38
251.465	72.38
251.698	72.38
251.931	90.38
252.164	78.38
252.397	79.38
252.63	71.38
252.863	68.38
253.096	78.38
253.329	84.38
253.562	67.38
253.795	82.38
254.028	81.38
254.261	80.38
254.494	76.38
254.727	86.38
254.96	91.38
255.193	79.38
255.426	61.38
255.659	74.38
255.892	73.38
256.124	78.38
256.357	90.38
256.59	77.38
256.823	76.38
257.056	84.38
257.289	85.38
257.521	90.38
257.754	83.38
257.987	88.38
258.22	73.38
258.452	70.38
258.685	84.38
258.918	95.38
259.151	79.38
259.383	100.38
259.616	78.38
259.849	86.38
260.081	93.38
260.314	84.38
260.547	88.38
260.779	77.38
261.012	90.38
261.244	75.38
261.477	89.38
261.71	87.38
261.942	78.38
262.175	78.38
262.407	65.38
262.64	73.38
262.872	86.38
263.105	85.38
263.337	82.38
263.57	85.38
263.802	73.38
264.035	69.38
264.267	84.38
264.499	77.38
264.732	80.38
264.964	82.38
265.197	75.38
265.429	77.38
265.661	77.38
265.894	87.38
266.126	89.38
266.358	87.38
266.591	81.38
266.823	81.38
267.055	81.38
267.287	82.38
267.52	78.38
267.752	98.38
267.984	81.38
268.216	83.38
268.448	93.38
268.681	90.38
268.913	83.38
269.145	81.38
269.377	83.38
269.609	83.38
269.841	77.38
270.073	87.38
270.306	79.38
270.538	87.38
270.77	74.38
271.002	88.38
271.234	72.38
271.466	71.38
271.698	83.38
271.93	91.38
272.162	88.38
272.394	78.38
272.626	77.38
272.858	76.38
273.09	84.38
273.322	77.38
273.553	88.38
273.785	92.38
274.017	89.38
274.249	92.38
274.481	80.38
274.713	85.38
274.945	72.38
275.176	68.38
275.408	91.38
275.64	79.38
275.872	90.38
276.104	83.38
276.335	85.38
276.567	74.38
276.799	96.38
277.031	88.38
277.262	85.38
277.494	89.38
277.726	86.38
277.957	90.38
278.189	82.38
278.421	84.38
278.652	70.38
278.884	77.38
279.115	66.38
279.347	99.38
279.579	82.38
279.81	91.38
280.042	73.38
280.273	73.38
280.505	70.38
280.736	76.38
280.968	83.38
281.199	85.38
281.431	84.38
281.662	84.38
281.894	79.38
282.125	86.38
282.356	95.38
282.588	75.38
282.819	73.38
283.051	78.38
283.282	108.38
283.513	91.38
283.745	77.38
283.976	105.38
284.207	83.38
284.439	85.38
284.67	87.38
284.901	82.38
285.132	84.38
285.364	84.38
285.595	92.38
285.826	88.38
286.057	86.38
286.288	82.38
286.52	87.38
286.751	90.38
286.982	94.38
287.213	69.38
287.444	86.38
287.675	77.38
287.906	91.38
288.138	85.38
288.369	86.38
288.6	89.38
288.831	94.38
289.062	92.38
289.293	77.38
289.524	79.38
289.755	98.38
289.986	89.38
290.217	87.38
290.448	93.38
290.679	82.38
290.91	88.38
291.141	98.38
291.371	85.38
291.602	73.38
291.833	84.38
292.064	78.38
292.295	83.38
292.526	84.38
292.757	84.38
292.987	92.38
293.218	98.38
293.449	100.38
293.68	92.38
293.91	82.38
294.141	88.38
294.372	77.38
294.603	84.38
294.833	79.38
295.064	81.38
295.295	93.38
295.525	87.38
295.756	61.38
295.987	69.38
296.217	83.38
296.448	79.38
296.679	87.38
296.909	72.38
297.14	85.38
297.37	91.38
297.601	78.38
297.831	85.38
298.062	85.38
298.292	80.38
298.523	89.38
298.753	74.38
298.984	91.38
299.214	86.38
299.445	88.38
299.675	85.38
299.905	97.38
300.136	70.38
300.366	80.38
300.597	91.38
300.827	78.38
301.057	90.38
301.288	83.38
301.518	69.38
301.748	73.38
301.979	90.38
302.209	92.38
302.439	79.38
302.669	75.38
302.9	76.38
303.13	87.38
303.36	100.38
303.59	82.38
303.82	74.38
304.051	77.38
304.281	98.38
304.511	85.38
304.741	89.38
304.971	78.38
305.201	93.38
305.431	78.38
305.661	81.38
305.891	90.38
306.121	87.38
306.352	83.38
306.582	69.38
306.812	77.38
307.042	83.38
307.272	86.38
307.502	77.38
307.731	102.38
307.961	77.38
308.191	80.38
308.421	89.38
308.651	75.38
308.881	97.38
309.111	93.38
309.341	84.38
309.571	87.38
309.8	78.38
310.03	96.38
310.26	76.38
310.49	94.38
310.72	85.38
310.949	92.38
311.179	92.38
311.409	79.38
311.639	95.38
311.868	99.38
312.098	87.38
312.328	91.38
312.557	81.38
312.787	80.38
313.017	75.38
313.246	89.38
313.476	86.38
313.706	85.38
313.935	86.38
314.165	91.38
314.394	87.38
314.624	85.38
314.853	84.38
315.083	72.38
315.312	91.38
315.542	88.38
315.771	86.38
316.001	69.38
316.23	81.38
316.46	80.38
316.689	74.38
316.919	92.38
317.148	95.38
317.377	90.38
317.607	80.38
317.836	92.38
318.065	99.38
318.295	100.38
318.524	89.38
318.753	84.38
318.983	71.38
319.212	90.38
319.441	77.38
319.67	87.38
319.9	76.38
320.129	93.38
320.358	83.38
320.587	84.38
320.816	77.38
321.046	82.38
321.275	87.38
321.504	89.38
321.733	69.38
321.962	88.38
322.191	76.38
322.42	87.38
322.649	100.38
322.878	88.38
323.108	87.38
323.337	76.38
323.566	79.38
323.795	98.38
324.024	92.38
324.253	88.38
324.482	82.38
324.71	79.38
324.939	91.38
325.168	97.38
325.397	86.38
325.626	91.38
325.855	75.38
326.084	84.38
326.313	104.38
326.542	85.38
326.77	88.38
326.999	92.38
327.228	98.38
327.457	70.38
327.686	89.38
327.914	90.38
328.143	96.38
328.372	86.38
328.6	69.38
328.829	90.38
329.058	90.38
329.287	97.38
329.515	87.38
329.744	75.38
329.972	83.38
330.201	83.38
330.43	90.38
330.658	82.38
330.887	97.38
331.115	85.38
331.344	83.38
331.572	96.38
331.801	88.38
332.03	97.38
332.258	85.38
332.486	88.38
332.715	80.38
332.943	82.38
333.172	83.38
333.4	84.38
333.629	90.38
333.857	81.38
334.085	100.38
334.314	79.38
334.542	91.38
334.771	78.38
334.999	90.38
335.227	85.38
335.455	107.38
335.684	81.38
335.912	80.38
336.14	86.38
336.369	79.38
336.597	104.38
336.825	93.38
337.053	74.38
337.281	82.38
337.51	77.38
337.738	85.38
337.966	73.38
338.194	75.38
338.422	82.38
338.65	84.38
338.878	86.38
339.106	102.38
339.334	81.38
339.562	96.38
339.79	92.38
340.018	89.38
340.246	85.38
340.474	79.38
340.702	75.38
340.93	85.38
341.158	89.38
341.386	82.38
341.614	77.38
341.842	88.38
342.07	92.38
342.298	81.38
342.526	87.38
342.754	103.38
342.981	69.38
343.209	84.38
343.437	100.38
343.665	85.38
343.893	91.38
344.12	96.38
344.348	93.38
344.576	87.38
344.804	94.38
345.031	102.38
345.259	85.38
345.487	98.38
345.714	81.38
345.942	72.38
346.17	84.38
346.397	84.38
346.625	91.38
346.853	86.38
347.08	88.38
347.308	94.38
347.535	86.38
347.763	85.38
347.99	78.38
348.218	89.38
348.445	85.38
348.673	96.38
348.9	77.38
349.128	81.38
349.355	88.38
349.583	106.38
349.81	98.38
350.037	73.38
350.265	84.38
350.492	75.38
350.72	85.38
350.947	64.38
351.174	78.38
351.402	93.38
351.629	86.38
351.856	80.38
352.083	76.38
352.311	94.38
352.538	82.38
352.765	91.38
352.992	96.38
353.22	77.38
353.447	89.38
353.674	76.38
353.901	98.38
354.128	76.38
354.355	82.38
354.583	77.38
354.81	77.38
355.037	92.38
355.264	93.38
355.491	81.38
355.718	83.38
355.945	91.38
356.172	93.38
356.399	80.38
356.626	77.38
356.853	81.38
357.08	91.38
357.307	88.38
357.534	86.38
357.761	83.38
357.988	99.38
358.215	79.38
358.441	85.38
358.668	91.38
358.895	90.38
359.122	92.38
359.349	85.38
359.576	77.38
359.802	68.38
360.029	85.38
360.256	89.38
360.483	80.38
360.709	87.38
360.936	96.38
361.163	88.38
361.39	89.38
361.616	83.38
361.843	82.38
362.07	93.38
362.296	96.38
362.523	78.38
362.749	88.38
362.976	99.38
363.203	102.38
363.429	95.38
363.656	94.38
363.882	78.38
364.109	88.38
364.335	99.38
364.562	103.38
364.788	102.38
365.015	74.38
365.241	84.38
365.468	90.38
365.694	94.38
365.92	87.38
366.147	84.38
366.373	77.38
366.599	84.38
366.826	86.38
367.052	84.38
367.278	97.38
367.505	92.38
367.731	92.38
367.957	88.38
368.184	65.38
368.41	76.38
368.636	83.38
368.862	108.38
369.089	82.38
369.315	79.38
369.541	96.38
369.767	81.38
369.993	102.38
370.219	87.38
370.445	107.38
370.672	85.38
370.898	90.38
371.124	91.38
371.35	78.38
371.576	72.38
371.802	77.38
372.028	87.38
372.254	92.38
372.48	72.38
372.706	92.38
372.932	85.38
373.158	98.38
373.384	95.38
373.61	98.38
373.835	97.38
374.061	84.38
374.287	85.38
374.513	84.38
374.739	100.38
374.965	86.38
375.191	80.38
375.416	81.38
375.642	78.38
375.868	89.38
376.094	76.38
376.319	86.38
376.545	80.38
376.771	92.38
376.997	91.38
377.222	76.38
377.448	80.38
377.674	77.38
377.899	78.38
378.125	84.38
378.35	82.38
378.576	88.38
378.802	73.38
379.027	75.38
379.253	93.38
379.478	84.38
379.704	72.38
379.929	88.38
380.155	86.38
380.38	92.38
380.606	85.38
380.831	70.38
381.057	89.38
381.282	91.38
381.507	84.38
381.733	89.38
381.958	89.38
382.184	85.38
382.409	92.38
382.634	100.38
382.86	83.38
383.085	92.38
383.31	95.38
383.535	93.38
383.761	82.38
383.986	89.38
384.211	80.38
384.436	80.38
384.662	81.38
384.887	96.38
385.112	90.38
385.337	91.38
385.562	73.38
385.787	77.38
386.013	96.38
386.238	83.38
386.463	91.38
386.688	96.38
386.913	101.38
387.138	101.38
387.363	97.38
387.588	91.38
387.813	80.38
388.038	94.38
388.263	82.38
388.488	88.38
388.713	107.38
388.938	95.38
389.163	82.38
389.387	90.38
389.612	82.38
389.837	95.38
390.062	99.38
390.287	95.38
390.512	87.38
390.736	94.38
390.961	84.38
391.186	96.38
391.411	78.38
391.636	97.38
391.86	92.38
392.085	85.38
392.31	79.38
392.534	90.38
392.759	102.38
392.984	113.38
393.208	157.38
393.433	204.38
393.658	168.38
393.882	120.38
394.107	102.38
394.331	99.38
394.556	101.38
394.78	103.38
395.005	86.38
395.229	83.38
395.454	86.38
395.678	82.38
395.903	105.38
396.127	101.38
396.352	121.38
396.576	123.38
396.801	157.38
397.025	172.38
397.249	109.38
397.474	106.38
397.698	79.38
397.922	86.38
398.147	93.38
398.371	84.38
398.595	85.38
398.82	87.38
399.044	87.38
399.268	76.38
399.492	88.38
399.717	79.38
399.941	72.38
400.165	79.38
400.389	73.38
400.613	98.38
400.837	94.38
401.062	77.38
401.286	83.38
401.51	88.38
401.734	100.38
401.958	85.38
402.182	95.38
402.406	79.38
402.63	75.38
402.854	99.38
403.078	98.38
403.302	91.38
403.526	97.38
403.75	79.38
403.974	79.38
404.198	85.38
404.422	90.38
404.645	103.38
404.869	100.38
405.093	83.38
405.317	98.38
405.541	84.38
405.765	82.38
405.988	77.38
406.212	78.38
406.436	97.38
406.66	87.38
406.883	86.38
407.107	72.38
407.331	86.38
407.555	85.38
407.778	104.38
408.002	80.38
408.226	95.38
408.449	84.38
408.673	68.38
408.896	89.38
409.12	92.38
409.344	79.38
409.567	92.38
409.791	89.38
410.014	100.38
410.238	100.38
410.461	88.38
410.685	78.38
410.908	96.38
411.132	84.38
411.355	76.38
411.578	92.38
411.802	93.38
412.025	91.38
412.249	78.38
412.472	83.38
412.695	85.38
412.919	80.38
413.142	89.38
413.365	81.38
413.589	87.38
413.812	87.38
414.035	88.38
414.258	83.38
414.482	77.38
414.705	94.38
414.928	83.38
415.151	88.38
415.374	86.38
415.597	86.38
415.821	89.38
416.044	81.38
416.267	100.38
416.49	89.38
416.713	74.38
416.936	88.38
417.159	92.38
417.382	77.38
417.605	82.38
417.828	91.38
418.051	79.38
418.274	89.38
418.497	78.38
418.72	78.38
418.943	82.38
419.166	80.38
419.389	84.38
419.611	91.38
419.834	89.38
420.057	74.38
420.28	77.38
420.503	77.38
420.726	90.38
420.948	92.38
421.171	86.38
421.394	85.38
421.617	91.38
421.839	96.38
422.062	97.38
422.285	121.38
422.507	155.38
422.73	235.38
422.953	205.38
423.175	139.38
423.398	97.38
423.621	78.38
423.843	84.38
424.066	96.38
424.288	89.38
424.511	93.38
424.733	89.38
424.956	88.38
425.178	77.38
425.401	68.38
425.623	97.38
425.846	78.38
426.068	85.38
426.291	91.38
426.513	86.38
426.735	99.38
426.958	86.38
427.18	87.38
427.402	91.38
427.625	71.38
427.847	87.38
428.069	90.38
428.292	106.38
428.514	99.38
428.736	83.38
428.958	112.38
429.181	116.38
429.403	86.38
429.625	96.38
429.847	109.38
430.069	128.38
430.292	112.38
430.514	114.38
430.736	101.38
430.958	106.38
431.18	82.38
431.402	88.38
431.624	90.38
431.846	104.38
432.068	110.38
432.29	92.38
432.512	98.38
432.734	86.38
432.956	88.38
433.178	75.38
433.4	81.38
433.622	74.38
433.844	94.38
434.066	85.38
434.287	82.38
434.509	90.38
434.731	81.38
434.953	85.38
435.175	78.38
435.397	85.38
435.618	88.38
435.84	94.38
436.062	76.38
436.284	92.38
436.505	83.38
436.727	69.38
436.949	67.38
437.17	82.38
437.392	87.38
437.614	78.38
437.835	87.38
438.057	90.38
438.278	90.38
438.5	93.38
438.721	80.38
438.943	72.38
439.165	98.38
439.386	65.38
439.608	92.38
439.829	88.38
440.05	74.38
440.272	101.38
440.493	95.38
440.715	68.38
440.936	86.38
441.158	94.38
441.379	83.38
441.6	86.38
441.822	81.38
442.043	92.38
442.264	97.38
442.486	103.38
442.707	104.38
442.928	94.38
443.149	95.38
443.371	102.38
443.592	120.38
443.813	121.38
444.034	97.38
444.255	91.38
444.476	85.38
444.698	96.38
444.919	91.38
445.14	171.38
445.361	151.38
445.582	152.38
445.803	138.38
446.024	97.38
446.245	78.38
446.466	77.38
446.687	92.38
446.908	79.38
447.129	75.38
447.35	86.38
447.571	80.38
447.792	77.38
448.013	96.38
448.234	94.38
448.455	85.38
448.675	80.38
448.896	90.38
449.117	85.38
449.338	89.38
449.559	77.38
449.779	82.38
450	75.38
450.221	98.38
450.442	86.38
450.662	82.38
450.883	84.38
451.104	86.38
451.324	95.38
451.545	85.38
451.766	77.38
451.986	86.38
452.207	84.38
452.428	85.38
452.648	80.38
452.869	78.38
453.089	82.38
453.31	78.38
453.53	85.38
453.751	102.38
453.971	88.38
454.192	93.38
454.412	87.38
454.633	91.38
454.853	75.38
455.073	88.38
455.294	100.38
455.514	87.38
455.734	91.38
455.955	91.38
456.175	78.38
456.395	75.38
456.616	93.38
456.836	86.38
457.056	77.38
457.276	82.38
457.497	81.38
457.717	93.38
457.937	81.38
458.157	98.38
458.377	102.38
458.598	95.38
458.818	98.38
459.038	92.38
459.258	89.38
459.478	88.38
459.698	87.38
459.918	79.38
460.138	94.38
460.358	78.38
460.578	86.38
460.798	103.38
461.018	109.38
461.238	83.38
461.458	74.38
461.678	88.38
461.898	93.38
462.118	83.38
462.338	87.38
462.558	104.38
462.777	78.38
462.997	98.38
463.217	76.38
463.437	87.38
463.657	72.38
463.876	89.38
464.096	73.38
464.316	83.38
464.536	90.38
464.755	81.38
464.975	88.38
465.195	85.38
465.414	90.38
465.634	92.38
465.854	87.38
466.073	85.38
466.293	71.38
466.512	92.38
466.732	106.38
466.951	87.38
467.171	87.38
467.391	75.38
467.61	97.38
467.829	89.38
468.049	86.38
468.268	84.38
468.488	90.38
468.707	90.38
468.927	98.38
469.146	83.38
469.365	87.38
469.585	85.38
469.804	75.38
470.023	86.38
470.243	88.38
470.462	85.38
470.681	72.38
470.901	79.38
471.12	94.38
471.339	72.38
471.558	83.38
471.777	78.38
471.997	94.38
472.216	84.38
472.435	74.38
472.654	64.38
472.873	74.38
473.092	89.38
473.311	77.38
473.53	80.38
473.749	92.38
473.968	90.38
474.187	91.38
474.406	75.38
474.625	90.38
474.844	85.38
475.063	75.38
475.282	97.38
475.501	80.38
475.72	90.38
475.939	86.38
476.158	77.38
476.377	78.38
476.596	88.38
476.814	85.38
477.033	88.38
477.252	73.38
477.471	84.38
477.69	79.38
477.908	89.38
478.127	87.38
478.346	92.38
478.564	96.38
478.783	72.38
479.002	75.38
479.22	87.38
479.439	90.38
479.658	93.38
479.876	84.38
480.095	89.38
480.313	88.38
480.532	82.38
480.751	90.38
480.969	80.38
481.188	76.38
481.406	98.38
481.624	86.38
481.843	89.38
482.061	89.38
482.28	88.38
482.498	82.38
482.717	104.38
482.935	72.38
483.153	83.38
483.372	101.38
483.59	89.38
483.808	78.38
484.027	92.38
484.245	94.38
484.463	98.38
484.681	94.38
484.9	106.38
485.118	90.38
485.336	73.38
485.554	93.38
485.772	113.38
485.99	98.38
486.209	86.38
486.427	98.38
486.645	96.38
486.863	82.38
487.081	92.38
487.299	84.38
487.517	95.38
487.735	90.38
487.953	114.38
488.171	105.38
488.389	94.38
488.607	92.38
488.825	83.38
489.043	85.38
489.261	73.38
489.479	92.38
489.696	85.38
489.914	85.38
490.132	91.38
490.35	103.38
490.568	86.38
490.786	92.38
491.003	93.38
491.221	99.38
491.439	71.38
491.657	96.38
491.874	90.38
492.092	86.38
492.31	95.38
492.527	80.38
492.745	95.38
492.963	94.38
493.18	75.38
493.398	91.38
493.615	91.38
493.833	103.38
494.05	105.38
494.268	109.38
494.485	104.38
494.703	102.38
494.92	95.38
495.138	92.38
495.355	93.38
495.573	97.38
495.79	99.38
496.008	86.38
496.225	89.38
496.442	99.38
496.66	98.38
496.877	80.38
497.094	90.38
497.312	77.38
497.529	91.38
497.746	92.38
497.963	92.38
498.181	101.38
498.398	86.38
498.615	98.38
498.832	92.38
499.049	83.38
499.267	93.38
499.484	84.38
499.701	92.38
499.918	97.38
500.135	88.38
500.352	82.38
500.569	88.38
500.786	88.38
501.003	101.38
501.22	76.38
501.437	98.38
501.654	96.38
501.871	93.38
502.088	92.38
502.305	104.38
502.522	91.38
502.739	89.38
502.956	91.38
503.172	89.38
503.389	106.38
503.606	91.38
503.823	88.38
504.04	85.38
504.256	101.38
504.473	96.38
504.69	101.38
504.907	87.38
505.123	84.38
505.34	85.38
505.557	82.38
505.773	92.38
505.99	83.38
506.207	89.38
506.423	90.38
506.64	92.38
506.856	92.38
507.073	83.38
507.289	97.38
507.506	84.38
507.722	93.38
507.939	90.38
508.155	91.38
508.372	98.38
508.588	97.38
508.805	86.38
509.021	77.38
509.238	93.38
509.454	95.38
509.67	91.38
509.887	86.38
510.103	86.38
510.319	91.38
510.536	90.38
510.752	76.38
510.968	93.38
511.184	91.38
511.401	76.38
511.617	92.38
511.833	76.38
512.049	87.38
512.265	86.38
512.481	90.38
512.698	103.38
512.914	76.38
513.13	112.38
513.346	96.38
513.562	83.38
513.778	100.38
513.994	90.38
514.21	96.38
514.426	83.38
514.642	93.38
514.858	89.38
515.074	92.38
515.29	87.38
515.506	92.38
515.721	88.38
515.937	102.38
516.153	107.38
516.369	97.38
516.585	84.38
516.801	97.38
517.016	84.38
517.232	96.38
517.448	102.38
517.664	99.38
517.879	89.38
518.095	89.38
518.311	82.38
518.527	101.38
518.742	99.38
