Data from 15780_1_HRD10591_00043.txt Node
Date: Mon Jan 19 14:18:31 EST 2026
User: Yrep
Spectrometer: HR+D1059
Trigger mode: 1
Integration Time (sec): 1.000000E-1
Scans to average: 1
Electric dark correction enabled: true
Nonlinearity correction enabled: false
Boxcar width: 0
XAxis mode: Wavelengths
Number of Pixels in Spectrum: 2048
>>>>>Begin Spectral Data<<<<<
223.165	-23
223.4	-23
223.635	-23
223.869	-19
224.104	-7
224.338	-35
224.573	-29
224.808	-25
225.042	-2
225.277	7
225.511	4
225.746	-10
225.98	14
226.215	17
226.449	16
226.683	22
226.918	35
227.152	35
227.387	29
227.621	61
227.856	42
228.09	53
228.324	40
228.559	64
228.793	57
229.027	71
229.262	62
229.496	72
229.73	70
229.964	85
230.199	68
230.433	76
230.667	74
230.901	73
231.136	85
231.37	79
231.604	85
231.838	79
232.072	84
232.306	87
232.541	84
232.775	73
233.009	77
233.243	106
233.477	84
233.711	87
233.945	74
234.179	88
234.413	78
234.647	89
234.881	92
235.115	71
235.349	88
235.583	76
235.817	86
236.051	79
236.285	85
236.519	69
236.753	83
236.987	70
237.221	86
237.455	86
237.689	60
237.922	68
238.156	78
238.39	77
238.624	64
238.858	78
239.091	74
239.325	81
239.559	61
239.793	78
240.027	78
240.26	86
240.494	76
240.728	84
240.961	77
241.195	80
241.429	72
241.662	78
241.896	86
242.13	82
242.363	75
242.597	77
242.83	78
243.064	85
243.298	85
243.531	77
243.765	96
243.998	85
244.232	82
244.465	79
244.699	74
244.932	72
245.166	66
245.399	59
245.633	78
245.866	84
246.099	68
246.333	81
246.566	68
246.8	86
247.033	65
247.266	94
247.5	90
247.733	90
247.966	88
248.2	81
248.433	84
248.666	87
248.899	71
249.133	72
249.366	87
249.599	68
249.832	80
250.066	81
250.299	74
250.532	75
250.765	76
250.998	82
251.231	85
251.465	76
251.698	85
251.931	82
252.164	88
252.397	92
252.63	89
252.863	97
253.096	93
253.329	84
253.562	87
253.795	77
254.028	78
254.261	85
254.494	79
254.727	89
254.96	94
255.193	76
255.426	85
255.659	88
255.892	78
256.124	80
256.357	86
256.59	71
256.823	74
257.056	80
257.289	75
257.521	72
257.754	70
257.987	82
258.22	73
258.452	76
258.685	76
258.918	85
259.151	77
259.383	81
259.616	85
259.849	74
260.081	76
260.314	86
260.547	70
260.779	80
261.012	78
261.244	85
261.477	97
261.71	80
261.942	94
262.175	76
262.407	85
262.64	60
262.872	80
263.105	80
263.337	86
263.57	91
263.802	72
264.035	84
264.267	82
264.499	87
264.732	84
264.964	72
265.197	80
265.429	76
265.661	69
265.894	67
266.126	80
266.358	84
266.591	77
266.823	87
267.055	89
267.287	73
267.52	89
267.752	90
267.984	86
268.216	90
268.448	82
268.681	90
268.913	77
269.145	72
269.377	70
269.609	84
269.841	86
270.073	80
270.306	83
270.538	79
270.77	74
271.002	90
271.234	85
271.466	74
271.698	86
271.93	81
272.162	82
272.394	84
272.626	78
272.858	86
273.09	98
273.322	89
273.553	77
273.785	76
274.017	75
274.249	85
274.481	93
274.713	91
274.945	93
275.176	92
275.408	90
275.64	104
275.872	93
276.104	70
276.335	84
276.567	80
276.799	79
277.031	88
277.262	86
277.494	81
277.726	84
277.957	69
278.189	89
278.421	88
278.652	83
278.884	95
279.115	90
279.347	79
279.579	95
279.81	94
280.042	76
280.273	87
280.505	89
280.736	94
280.968	83
281.199	84
281.431	79
281.662	90
281.894	71
282.125	72
282.356	97
282.588	92
282.819	79
283.051	87
283.282	84
283.513	92
283.745	90
283.976	101
284.207	73
284.439	87
284.67	84
284.901	103
285.132	90
285.364	99
285.595	105
285.826	88
286.057	86
286.288	100
286.52	97
286.751	100
286.982	88
287.213	84
287.444	96
287.675	93
287.906	93
288.138	88
288.369	74
288.6	86
288.831	93
289.062	111
289.293	84
289.524	83
289.755	85
289.986	87
290.217	88
290.448	78
290.679	84
290.91	90
291.141	84
291.371	86
291.602	89
291.833	82
292.064	94
292.295	93
292.526	85
292.757	82
292.987	78
293.218	71
293.449	103
293.68	90
293.91	74
294.141	88
294.372	102
294.603	81
294.833	93
295.064	86
295.295	82
295.525	103
295.756	96
295.987	97
296.217	93
296.448	88
296.679	91
296.909	96
297.14	105
297.37	98
297.601	88
297.831	97
298.062	86
298.292	89
298.523	92
298.753	91
298.984	81
299.214	90
299.445	102
299.675	90
299.905	84
300.136	89
300.366	98
300.597	98
300.827	82
301.057	92
301.288	103
301.518	98
301.748	97
301.979	109
302.209	105
302.439	86
302.669	86
302.9	81
303.13	79
303.36	83
303.59	92
303.82	92
304.051	98
304.281	101
304.511	85
304.741	78
304.971	83
305.201	98
305.431	91
305.661	82
305.891	98
306.121	93
306.352	77
306.582	90
306.812	96
307.042	96
307.272	78
307.502	92
307.731	90
307.961	82
308.191	86
308.421	112
308.651	108
308.881	93
309.111	106
309.341	115
309.571	120
309.8	94
310.03	77
310.26	93
310.49	100
310.72	95
310.949	78
311.179	91
311.409	76
311.639	93
311.868	82
312.098	92
312.328	98
312.557	93
312.787	84
313.017	101
313.246	83
313.476	90
313.706	88
313.935	86
314.165	96
314.394	84
314.624	86
314.853	93
315.083	84
315.312	86
315.542	91
315.771	99
316.001	105
316.23	106
316.46	91
316.689	91
316.919	88
317.148	93
317.377	97
317.607	93
317.836	105
318.065	116
318.295	114
318.524	86
318.753	96
318.983	105
319.212	96
319.441	113
319.67	92
319.9	88
320.129	93
320.358	78
320.587	90
320.816	81
321.046	100
321.275	109
321.504	102
321.733	96
321.962	96
322.191	95
322.42	99
322.649	86
322.878	105
323.108	91
323.337	92
323.566	78
323.795	84
324.024	95
324.253	88
324.482	88
324.71	84
324.939	89
325.168	89
325.397	101
325.626	89
325.855	83
326.084	74
326.313	93
326.542	104
326.77	82
326.999	89
327.228	89
327.457	94
327.686	108
327.914	89
328.143	75
328.372	78
328.6	69
328.829	80
329.058	87
329.287	94
329.515	78
329.744	82
329.972	82
330.201	93
330.43	92
330.658	91
330.887	98
331.115	92
331.344	87
331.572	73
331.801	96
332.03	84
332.258	84
332.486	91
332.715	98
332.943	89
333.172	85
333.4	96
333.629	93
333.857	88
334.085	93
334.314	94
334.542	100
334.771	120
334.999	106
335.227	88
335.455	102
335.684	103
335.912	99
336.14	94
336.369	105
336.597	96
336.825	102
337.053	80
337.281	106
337.51	89
337.738	95
337.966	86
338.194	100
338.422	92
338.65	85
338.878	90
339.106	91
339.334	86
339.562	101
339.79	87
340.018	70
340.246	93
340.474	95
340.702	102
340.93	87
341.158	100
341.386	88
341.614	78
341.842	80
342.07	86
342.298	91
342.526	90
342.754	93
342.981	93
343.209	89
343.437	92
343.665	84
343.893	83
344.12	89
344.348	104
344.576	78
344.804	89
345.031	91
345.259	83
345.487	94
345.714	89
345.942	91
346.17	89
346.397	76
346.625	84
346.853	93
347.08	86
347.308	107
347.535	91
347.763	85
347.99	101
348.218	95
348.445	100
348.673	86
348.9	88
349.128	79
349.355	70
349.583	92
349.81	88
350.037	87
350.265	93
350.492	100
350.72	80
350.947	75
351.174	70
351.402	100
351.629	78
351.856	94
352.083	99
352.311	93
352.538	83
352.765	93
352.992	85
353.22	95
353.447	104
353.674	86
353.901	100
354.128	93
354.355	91
354.583	78
354.81	93
355.037	97
355.264	105
355.491	80
355.718	86
355.945	106
356.172	93
356.399	111
356.626	90
356.853	85
357.08	112
357.307	87
357.534	84
357.761	105
357.988	107
358.215	119
358.441	91
358.668	98
358.895	105
359.122	97
359.349	88
359.576	82
359.802	96
360.029	112
360.256	96
360.483	84
360.709	94
360.936	100
361.163	93
361.39	100
361.616	89
361.843	103
362.07	112
362.296	102
362.523	109
362.749	115
362.976	128
363.203	128
363.429	108
363.656	106
363.882	102
364.109	126
364.335	132
364.562	153
364.788	103
365.015	104
365.241	114
365.468	86
365.694	85
365.92	96
366.147	82
366.373	88
366.599	93
366.826	83
367.052	90
367.278	72
367.505	91
367.731	83
367.957	85
368.184	91
368.41	83
368.636	104
368.862	83
369.089	101
369.315	90
369.541	88
369.767	77
369.993	80
370.219	109
370.445	109
370.672	100
370.898	108
371.124	93
371.35	102
371.576	96
371.802	103
372.028	112
372.254	108
372.48	102
372.706	91
372.932	103
373.158	126
373.384	124
373.61	149
373.835	155
374.061	112
374.287	100
374.513	109
374.739	105
374.965	117
375.191	116
375.416	84
375.642	75
375.868	118
376.094	109
376.319	96
376.545	113
376.771	92
376.997	83
377.222	111
377.448	116
377.674	100
377.899	92
378.125	85
378.35	76
378.576	84
378.802	115
379.027	91
379.253	86
379.478	88
379.704	100
379.929	86
380.155	93
380.38	91
380.606	88
380.831	100
381.057	108
381.282	91
381.507	99
381.733	108
381.958	114
382.184	116
382.409	107
382.634	120
382.86	126
383.085	107
383.31	115
383.535	128
383.761	127
383.986	119
384.211	96
384.436	100
384.662	93
384.887	100
385.112	98
385.337	110
385.562	115
385.787	114
386.013	124
386.238	124
386.463	109
386.688	101
386.913	98
387.138	105
387.363	123
387.588	119
387.813	119
388.038	113
388.263	115
388.488	113
388.713	99
388.938	104
389.163	88
389.387	86
389.612	86
389.837	93
390.062	82
390.287	100
390.512	102
390.736	89
390.961	110
391.186	87
391.411	93
391.636	84
391.86	97
392.085	96
392.31	122
392.534	132
392.759	166
392.984	253
393.208	532
393.433	822
393.658	596
393.882	228
394.107	155
394.331	189
394.556	202
394.78	139
395.005	111
395.229	110
395.454	105
395.678	133
395.903	173
396.127	219
396.352	292
396.576	330
396.801	535
397.025	644
397.249	306
397.474	155
397.698	120
397.922	112
398.147	93
398.371	78
398.595	93
398.82	94
399.044	96
399.268	92
399.492	80
399.717	84
399.941	89
400.165	101
400.389	95
400.613	92
400.837	82
401.062	88
401.286	94
401.51	92
401.734	91
401.958	97
402.182	88
402.406	80
402.63	82
402.854	86
403.078	102
403.302	97
403.526	106
403.75	92
403.974	90
404.198	121
404.422	155
404.645	171
404.869	142
405.093	106
405.317	95
405.541	86
405.765	89
405.988	88
406.212	101
406.436	96
406.66	99
406.883	98
407.107	86
407.331	99
407.555	108
407.778	142
408.002	140
408.226	99
408.449	91
408.673	72
408.896	95
409.12	83
409.344	77
409.567	114
409.791	109
410.014	92
410.238	75
410.461	93
410.685	96
410.908	94
411.132	92
411.355	79
411.578	87
411.802	90
412.025	83
412.249	96
412.472	85
412.695	90
412.919	84
413.142	95
413.365	87
413.589	100
413.812	78
414.035	84
414.258	74
414.482	77
414.705	84
414.928	92
415.151	93
415.374	73
415.597	86
415.821	103
416.044	94
416.267	100
416.49	92
416.713	83
416.936	76
417.159	94
417.382	83
417.605	77
417.828	84
418.051	103
418.274	91
418.497	93
418.72	93
418.943	81
419.166	89
419.389	86
419.611	89
419.834	84
420.057	91
420.28	88
420.503	97
420.726	96
420.948	91
421.171	96
421.394	120
421.617	157
421.839	149
422.062	138
422.285	209
422.507	404
422.73	694
422.953	600
423.175	261
423.398	153
423.621	96
423.843	88
424.066	105
424.288	84
424.511	86
424.733	100
424.956	99
425.178	81
425.401	91
425.623	105
425.846	88
426.068	73
426.291	86
426.513	86
426.735	93
426.958	89
427.18	110
427.402	103
427.625	99
427.847	100
428.069	123
428.292	165
428.514	200
428.736	142
428.958	180
429.181	168
429.403	112
429.625	124
429.847	160
430.069	254
430.292	294
430.514	255
430.736	195
430.958	200
431.18	119
431.402	99
431.624	113
431.846	156
432.068	195
432.29	102
432.512	98
432.734	86
432.956	98
433.178	92
433.4	80
433.622	83
433.844	73
434.066	77
434.287	91
434.509	82
434.731	93
434.953	101
435.175	99
435.397	76
435.618	102
435.84	91
436.062	90
436.284	91
436.505	84
436.727	85
436.949	82
437.17	103
437.392	89
437.614	78
437.835	87
438.057	84
438.278	100
438.5	120
438.721	95
438.943	92
439.165	89
439.386	81
439.608	94
439.829	93
440.05	93
440.272	92
440.493	108
440.715	84
440.936	90
441.158	97
441.379	88
441.6	87
441.822	79
442.043	101
442.264	106
442.486	160
442.707	218
442.928	156
443.149	147
443.371	232
443.592	367
443.813	323
444.034	134
444.255	100
444.476	88
444.698	101
444.919	109
445.14	233
445.361	270
445.582	496
445.803	396
446.024	160
446.245	90
446.466	88
446.687	96
446.908	93
447.129	90
447.35	88
447.571	88
447.792	78
448.013	82
448.234	89
448.455	97
448.675	92
448.896	96
449.117	84
449.338	89
449.559	89
449.779	79
450	82
450.221	79
450.442	78
450.662	92
450.883	88
451.104	85
451.324	85
451.545	78
451.766	84
451.986	94
452.207	88
452.428	92
452.648	89
452.869	101
453.089	88
453.31	84
453.53	117
453.751	116
453.971	94
454.192	79
454.412	80
454.633	94
454.853	92
455.073	102
455.294	104
455.514	101
455.734	98
455.955	97
456.175	91
456.395	90
456.616	93
456.836	77
457.056	79
457.276	76
457.497	86
457.717	100
457.937	115
458.157	137
458.377	139
458.598	141
458.818	133
459.038	109
459.258	81
459.478	76
459.698	77
459.918	105
460.138	86
460.358	96
460.578	103
460.798	156
461.018	142
461.238	98
461.458	82
461.678	87
461.898	90
462.118	88
462.338	88
462.558	99
462.777	74
462.997	80
463.217	82
463.437	90
463.657	75
463.876	84
464.096	83
464.316	90
464.536	86
464.755	75
464.975	94
465.195	79
465.414	77
465.634	82
465.854	83
466.073	85
466.293	81
466.512	100
466.732	88
466.951	92
467.171	104
467.391	97
467.61	78
467.829	92
468.049	84
468.268	83
468.488	102
468.707	71
468.927	84
469.146	89
469.365	98
469.585	96
469.804	80
470.023	83
470.243	80
470.462	90
470.681	85
470.901	90
471.12	93
471.339	101
471.558	94
471.777	87
471.997	78
472.216	89
472.435	90
472.654	101
472.873	87
473.092	82
473.311	83
473.53	83
473.749	99
473.968	106
474.187	80
474.406	80
474.625	88
474.844	94
475.063	87
475.282	84
475.501	87
475.72	96
475.939	85
476.158	99
476.377	90
476.596	94
476.814	98
477.033	103
477.252	80
477.471	83
477.69	82
477.908	106
478.127	87
478.346	91
478.564	91
478.783	81
479.002	87
479.22	96
479.439	83
479.658	97
479.876	79
480.095	74
480.313	81
480.532	90
480.751	103
480.969	80
481.188	89
481.406	84
481.624	87
481.843	81
482.061	90
482.28	86
482.498	94
482.717	88
482.935	89
483.153	89
483.372	88
483.59	88
483.808	89
484.027	84
484.245	90
484.463	81
484.681	109
484.9	98
485.118	85
485.336	78
485.554	84
485.772	75
485.99	88
486.209	94
486.427	98
486.645	96
486.863	100
487.081	91
487.299	101
487.517	114
487.735	103
487.953	192
488.171	154
488.389	98
488.607	97
488.825	100
489.043	99
489.261	97
489.479	99
489.696	94
489.914	90
490.132	75
490.35	107
490.568	101
490.786	97
491.003	84
491.221	100
491.439	94
491.657	78
491.874	96
492.092	93
492.31	104
492.527	96
492.745	114
492.963	88
493.18	101
493.398	103
493.615	94
493.833	79
494.05	93
494.268	103
494.485	87
494.703	93
494.92	86
495.138	78
495.355	84
495.573	96
495.79	83
496.008	101
496.225	104
496.442	100
496.66	97
496.877	84
497.094	87
497.312	102
497.529	85
497.746	90
497.963	100
498.181	117
498.398	130
498.615	100
498.832	92
499.049	95
499.267	109
499.484	93
499.701	94
499.918	107
500.135	102
500.352	87
500.569	90
500.786	92
501.003	107
501.22	104
501.437	94
501.654	106
501.871	96
502.088	74
502.305	91
502.522	99
502.739	107
502.956	97
503.172	91
503.389	99
503.606	100
503.823	103
504.04	109
504.256	146
504.473	144
504.69	102
504.907	113
505.123	91
505.34	101
505.557	84
505.773	86
505.99	93
506.207	76
506.423	94
506.64	92
506.856	90
507.073	96
507.289	76
507.506	94
507.722	98
507.939	84
508.155	100
508.372	83
508.588	102
508.805	107
509.021	96
509.238	92
509.454	81
509.67	93
509.887	91
510.103	80
510.319	77
510.536	92
510.752	84
510.968	87
511.184	87
511.401	90
511.617	92
511.833	84
512.049	88
512.265	82
512.481	87
512.698	96
512.914	87
513.13	88
513.346	83
513.562	100
513.778	75
513.994	88
514.21	97
514.426	106
514.642	88
514.858	90
515.074	87
515.29	101
515.506	96
515.721	94
515.937	88
516.153	93
516.369	98
516.585	96
516.801	103
517.016	109
517.232	101
517.448	97
517.664	87
517.879	88
518.095	103
518.311	100
518.527	120
518.742	111
518.958	178
519.173	176
519.389	122
519.605	95
519.82	88
520.036	89
520.251	75
520.467	88
520.682	96
520.898	90
521.113	98
521.329	86
521.544	94
521.76	93
521.975	94
522.19	93
522.406	81
522.621	94
522.836	107
523.052	98
523.267	88
523.482	88
523.698	88
523.913	76
524.128	83
524.343	86
524.559	100
524.774	109
524.989	88
525.204	87
525.419	104
525.634	90
525.849	116
526.064	134
526.28	270
526.495	358
526.71	455
526.925	285
527.14	408
527.355	391
527.57	126
527.785	94
527.999	100
528.214	97
528.429	96
528.644	95
528.859	101
529.074	100
529.289	86
529.503	89
529.718	87
529.933	93
530.148	93
530.363	93
530.577	85
530.792	92
531.007	94
531.221	78
531.436	99
531.651	107
531.865	102
532.08	105
532.295	98
532.509	95
532.724	86
532.938	97
533.153	104
533.367	104
533.582	86
533.796	92
534.011	89
534.225	96
534.44	102
534.654	112
534.868	120
535.083	195
535.297	155
535.511	104
535.726	96
535.94	100
536.154	98
536.369	104
536.583	108
536.797	89
537.011	100
537.225	88
537.44	85
537.654	86
537.868	101
538.082	97
538.296	102
538.51	94
538.724	101
538.938	103
539.153	94
539.367	86
539.581	92
539.795	78
540.009	83
540.222	95
540.436	104
540.65	86
540.864	85
541.078	84
541.292	102
541.506	76
541.72	85
541.934	102
542.147	94
542.361	86
542.575	104
542.789	93
543.002	82
543.216	99
543.43	89
543.644	115
543.857	90
544.071	94
544.285	93
544.498	100
544.712	110
544.925	104
545.139	92
545.352	81
545.566	92
545.779	87
545.993	86
546.206	104
546.42	106
546.633	114
546.847	103
547.06	104
547.274	120
547.487	116
547.7	126
547.914	129
548.127	129
548.34	139
548.554	137
548.767	123
548.98	133
549.193	135
549.407	131
549.62	146
549.833	141
550.046	136
550.259	147
550.473	159
550.686	129
550.899	176
551.112	167
551.325	198
551.538	194
551.751	179
551.964	155
552.177	155
552.39	147
552.603	131
552.816	146
553.029	162
553.242	166
553.455	152
553.667	158
553.88	162
554.093	152
554.306	154
554.519	139
554.732	157
554.944	148
555.157	142
555.37	145
555.583	156
555.795	133
556.008	134
556.221	127
556.433	119
556.646	117
556.859	109
557.071	109
557.284	123
557.496	122
557.709	119
557.921	119
558.134	140
558.346	201
558.559	170
558.771	179
558.984	436
559.196	568
559.409	271
559.621	417
559.833	306
560.046	354
560.258	267
560.47	290
560.683	160
560.895	107
561.107	86
561.32	95
561.532	105
561.744	100
561.956	91
562.168	99
562.381	102
562.593	93
562.805	97
563.017	91
563.229	91
563.441	90
563.653	99
563.865	90
564.077	86
564.289	96
564.501	87
564.713	84
564.925	84
565.137	96
565.349	86
565.561	100
565.773	84
565.985	109
566.197	86
566.408	92
566.62	71
566.832	95
567.044	95
567.255	98
567.467	89
567.679	86
567.891	94
568.102	84
568.314	96
568.526	109
568.737	102
568.949	96
569.161	98
569.372	97
569.584	92
569.795	102
570.007	86
570.218	108
570.43	78
570.641	93
570.853	87
571.064	90
571.276	92
571.487	83
571.698	89
571.91	69
572.121	97
572.333	98
572.544	101
572.755	101
572.966	69
573.178	92
573.389	82
573.6	94
573.811	104
574.023	90
574.234	86
574.445	89
574.656	77
574.867	91
575.078	84
575.289	101
575.501	97
575.712	94
575.923	87
576.134	89
576.345	95
576.556	91
576.767	98
576.978	103
577.188	80
577.399	88
577.61	83
577.821	94
578.032	76
578.243	93
578.454	101
578.665	105
578.875	89
579.086	92
579.297	102
579.508	91
579.718	88
579.929	93
580.14	95
580.35	106
580.561	116
580.772	110
580.982	100
581.193	93
581.403	91
581.614	98
581.825	100
582.035	88
582.246	85
582.456	77
582.667	93
582.877	94
