Data from 15780_1_HRD10591_00032.txt Node
Date: Mon Jan 19 14:18:26 EST 2026
User: Yrep
Spectrometer: HR+D1059
Trigger mode: 1
Integration Time (sec): 1.000000E-1
Scans to average: 1
Electric dark correction enabled: true
Nonlinearity correction enabled: false
Boxcar width: 0
XAxis mode: Wavelengths
Number of Pixels in Spectrum: 2048
>>>>>Begin Spectral Data<<<<<
223.165	-18.69
223.4	-18.69
223.635	-18.69
223.869	-16.69
224.104	-20.69
224.338	-7.69
224.573	-26.69
224.808	-18.69
225.042	-12.69
225.277	-14.69
225.511	2.31
225.746	1.31
225.98	3.31
226.215	35.31
226.449	11.31
226.683	19.31
226.918	32.31
227.152	31.31
227.387	22.31
227.621	31.31
227.856	38.31
228.09	42.31
228.324	51.31
228.559	58.31
228.793	47.31
229.027	67.31
229.262	66.31
229.496	59.31
229.73	66.31
229.964	68.31
230.199	79.31
230.433	74.31
230.667	77.31
230.901	76.31
231.136	84.31
231.37	64.31
231.604	85.31
231.838	76.31
232.072	82.31
232.306	80.31
232.541	69.31
232.775	86.31
233.009	81.31
233.243	84.31
233.477	75.31
233.711	72.31
233.945	79.31
234.179	77.31
234.413	70.31
234.647	93.31
234.881	83.31
235.115	82.31
235.349	90.31
235.583	87.31
235.817	76.31
236.051	79.31
236.285	74.31
236.519	69.31
236.753	68.31
236.987	73.31
237.221	71.31
237.455	74.31
237.689	70.31
237.922	73.31
238.156	73.31
238.39	85.31
238.624	80.31
238.858	71.31
239.091	87.31
239.325	79.31
239.559	80.31
239.793	84.31
240.027	69.31
240.26	71.31
240.494	71.31
240.728	81.31
240.961	83.31
241.195	76.31
241.429	71.31
241.662	79.31
241.896	76.31
242.13	63.31
242.363	74.31
242.597	72.31
242.83	68.31
243.064	77.31
243.298	83.31
243.531	83.31
243.765	75.31
243.998	72.31
244.232	64.31
244.465	64.31
244.699	65.31
244.932	66.31
245.166	75.31
245.399	81.31
245.633	76.31
245.866	67.31
246.099	65.31
246.333	70.31
246.566	83.31
246.8	84.31
247.033	72.31
247.266	67.31
247.5	73.31
247.733	80.31
247.966	85.31
248.2	69.31
248.433	75.31
248.666	66.31
248.899	66.31
249.133	66.31
249.366	88.31
249.599	75.31
249.832	69.31
250.066	72.31
250.299	83.31
250.532	95.31
250.765	74.31
250.998	65.31
251.231	71.31
251.465	74.31
251.698	89.31
251.931	90.31
252.164	86.31
252.397	66.31
252.63	84.31
252.863	69.31
253.096	75.31
253.329	79.31
253.562	83.31
253.795	67.31
254.028	92.31
254.261	93.31
254.494	81.31
254.727	95.31
254.96	85.31
255.193	67.31
255.426	65.31
255.659	58.31
255.892	77.31
256.124	81.31
256.357	79.31
256.59	87.31
256.823	81.31
257.056	71.31
257.289	71.31
257.521	78.31
257.754	83.31
257.987	65.31
258.22	85.31
258.452	79.31
258.685	87.31
258.918	71.31
259.151	71.31
259.383	62.31
259.616	73.31
259.849	70.31
260.081	75.31
260.314	74.31
260.547	78.31
260.779	61.31
261.012	82.31
261.244	86.31
261.477	88.31
261.71	83.31
261.942	81.31
262.175	83.31
262.407	81.31
262.64	79.31
262.872	93.31
263.105	86.31
263.337	85.31
263.57	87.31
263.802	70.31
264.035	74.31
264.267	75.31
264.499	78.31
264.732	81.31
264.964	88.31
265.197	86.31
265.429	91.31
265.661	78.31
265.894	82.31
266.126	75.31
266.358	88.31
266.591	85.31
266.823	86.31
267.055	87.31
267.287	84.31
267.52	72.31
267.752	69.31
267.984	71.31
268.216	81.31
268.448	85.31
268.681	67.31
268.913	66.31
269.145	89.31
269.377	86.31
269.609	76.31
269.841	76.31
270.073	65.31
270.306	83.31
270.538	74.31
270.77	75.31
271.002	82.31
271.234	77.31
271.466	102.31
271.698	71.31
271.93	77.31
272.162	75.31
272.394	86.31
272.626	87.31
272.858	66.31
273.09	77.31
273.322	77.31
273.553	78.31
273.785	79.31
274.017	81.31
274.249	88.31
274.481	75.31
274.713	85.31
274.945	74.31
275.176	84.31
275.408	81.31
275.64	86.31
275.872	85.31
276.104	79.31
276.335	71.31
276.567	87.31
276.799	71.31
277.031	72.31
277.262	80.31
277.494	81.31
277.726	72.31
277.957	85.31
278.189	86.31
278.421	73.31
278.652	79.31
278.884	83.31
279.115	73.31
279.347	80.31
279.579	75.31
279.81	79.31
280.042	75.31
280.273	85.31
280.505	77.31
280.736	82.31
280.968	87.31
281.199	90.31
281.431	80.31
281.662	87.31
281.894	73.31
282.125	87.31
282.356	72.31
282.588	90.31
282.819	87.31
283.051	87.31
283.282	74.31
283.513	75.31
283.745	81.31
283.976	89.31
284.207	93.31
284.439	97.31
284.67	75.31
284.901	79.31
285.132	81.31
285.364	97.31
285.595	83.31
285.826	89.31
286.057	84.31
286.288	83.31
286.52	84.31
286.751	84.31
286.982	67.31
287.213	89.31
287.444	63.31
287.675	80.31
287.906	72.31
288.138	79.31
288.369	64.31
288.6	74.31
288.831	87.31
289.062	85.31
289.293	79.31
289.524	74.31
289.755	88.31
289.986	85.31
290.217	76.31
290.448	86.31
290.679	80.31
290.91	83.31
291.141	76.31
291.371	89.31
291.602	98.31
291.833	90.31
292.064	85.31
292.295	92.31
292.526	104.31
292.757	94.31
292.987	82.31
293.218	87.31
293.449	70.31
293.68	88.31
293.91	81.31
294.141	81.31
294.372	71.31
294.603	84.31
294.833	98.31
295.064	82.31
295.295	81.31
295.525	70.31
295.756	78.31
295.987	85.31
296.217	81.31
296.448	92.31
296.679	95.31
296.909	91.31
297.14	87.31
297.37	84.31
297.601	96.31
297.831	80.31
298.062	73.31
298.292	87.31
298.523	84.31
298.753	87.31
298.984	75.31
299.214	61.31
299.445	88.31
299.675	90.31
299.905	73.31
300.136	86.31
300.366	61.31
300.597	83.31
300.827	79.31
301.057	89.31
301.288	92.31
301.518	95.31
301.748	71.31
301.979	94.31
302.209	75.31
302.439	79.31
302.669	91.31
302.9	85.31
303.13	99.31
303.36	63.31
303.59	84.31
303.82	88.31
304.051	73.31
304.281	86.31
304.511	87.31
304.741	82.31
304.971	73.31
305.201	78.31
305.431	74.31
305.661	89.31
305.891	85.31
306.121	74.31
306.352	85.31
306.582	83.31
306.812	74.31
307.042	90.31
307.272	92.31
307.502	89.31
307.731	79.31
307.961	94.31
308.191	90.31
308.421	88.31
308.651	86.31
308.881	96.31
309.111	80.31
309.341	88.31
309.571	90.31
309.8	93.31
310.03	80.31
310.26	71.31
310.49	86.31
310.72	93.31
310.949	81.31
311.179	77.31
311.409	87.31
311.639	86.31
311.868	82.31
312.098	79.31
312.328	93.31
312.557	95.31
312.787	83.31
313.017	78.31
313.246	76.31
313.476	90.31
313.706	69.31
313.935	75.31
314.165	85.31
314.394	82.31
314.624	90.31
314.853	96.31
315.083	76.31
315.312	83.31
315.542	85.31
315.771	80.31
316.001	93.31
316.23	88.31
316.46	93.31
316.689	94.31
316.919	66.31
317.148	87.31
317.377	93.31
317.607	79.31
317.836	82.31
318.065	83.31
318.295	96.31
318.524	97.31
318.753	92.31
318.983	93.31
319.212	72.31
319.441	83.31
319.67	67.31
319.9	79.31
320.129	94.31
320.358	79.31
320.587	84.31
320.816	82.31
321.046	80.31
321.275	86.31
321.504	90.31
321.733	80.31
321.962	97.31
322.191	87.31
322.42	85.31
322.649	89.31
322.878	81.31
323.108	74.31
323.337	84.31
323.566	80.31
323.795	82.31
324.024	88.31
324.253	86.31
324.482	91.31
324.71	82.31
324.939	99.31
325.168	102.31
325.397	84.31
325.626	79.31
325.855	79.31
326.084	76.31
326.313	86.31
326.542	79.31
326.77	81.31
326.999	89.31
327.228	73.31
327.457	81.31
327.686	89.31
327.914	81.31
328.143	85.31
328.372	90.31
328.6	79.31
328.829	92.31
329.058	83.31
329.287	87.31
329.515	79.31
329.744	75.31
329.972	87.31
330.201	82.31
330.43	87.31
330.658	82.31
330.887	75.31
331.115	85.31
331.344	82.31
331.572	77.31
331.801	60.31
332.03	70.31
332.258	90.31
332.486	97.31
332.715	85.31
332.943	85.31
333.172	73.31
333.4	76.31
333.629	76.31
333.857	78.31
334.085	76.31
334.314	77.31
334.542	88.31
334.771	81.31
334.999	80.31
335.227	78.31
335.455	98.31
335.684	85.31
335.912	74.31
336.14	89.31
336.369	92.31
336.597	97.31
336.825	96.31
337.053	75.31
337.281	85.31
337.51	73.31
337.738	80.31
337.966	85.31
338.194	81.31
338.422	76.31
338.65	87.31
338.878	97.31
339.106	80.31
339.334	90.31
339.562	72.31
339.79	82.31
340.018	87.31
340.246	90.31
340.474	90.31
340.702	74.31
340.93	79.31
341.158	93.31
341.386	87.31
341.614	74.31
341.842	85.31
342.07	77.31
342.298	79.31
342.526	74.31
342.754	86.31
342.981	88.31
343.209	79.31
343.437	82.31
343.665	79.31
343.893	72.31
344.12	79.31
344.348	91.31
344.576	73.31
344.804	86.31
345.031	84.31
345.259	71.31
345.487	81.31
345.714	61.31
345.942	90.31
346.17	76.31
346.397	89.31
346.625	100.31
346.853	78.31
347.08	81.31
347.308	75.31
347.535	86.31
347.763	78.31
347.99	81.31
348.218	87.31
348.445	73.31
348.673	96.31
348.9	93.31
349.128	81.31
349.355	75.31
349.583	69.31
349.81	82.31
350.037	89.31
350.265	79.31
350.492	67.31
350.72	86.31
350.947	82.31
351.174	75.31
351.402	83.31
351.629	86.31
351.856	64.31
352.083	74.31
352.311	90.31
352.538	67.31
352.765	83.31
352.992	92.31
353.22	91.31
353.447	72.31
353.674	86.31
353.901	88.31
354.128	93.31
354.355	85.31
354.583	95.31
354.81	93.31
355.037	85.31
355.264	82.31
355.491	72.31
355.718	82.31
355.945	84.31
356.172	69.31
356.399	75.31
356.626	91.31
356.853	88.31
357.08	79.31
357.307	83.31
357.534	91.31
357.761	85.31
357.988	97.31
358.215	93.31
358.441	86.31
358.668	84.31
358.895	94.31
359.122	90.31
359.349	72.31
359.576	94.31
359.802	76.31
360.029	70.31
360.256	82.31
360.483	84.31
360.709	81.31
360.936	83.31
361.163	81.31
361.39	83.31
361.616	71.31
361.843	89.31
362.07	79.31
362.296	83.31
362.523	87.31
362.749	71.31
362.976	92.31
363.203	85.31
363.429	89.31
363.656	100.31
363.882	78.31
364.109	84.31
364.335	94.31
364.562	94.31
364.788	101.31
365.015	83.31
365.241	79.31
365.468	90.31
365.694	75.31
365.92	76.31
366.147	74.31
366.373	72.31
366.599	79.31
366.826	87.31
367.052	87.31
367.278	77.31
367.505	72.31
367.731	89.31
367.957	98.31
368.184	87.31
368.41	83.31
368.636	86.31
368.862	79.31
369.089	79.31
369.315	73.31
369.541	87.31
369.767	94.31
369.993	74.31
370.219	83.31
370.445	96.31
370.672	77.31
370.898	79.31
371.124	88.31
371.35	70.31
371.576	78.31
371.802	83.31
372.028	76.31
372.254	106.31
372.48	91.31
372.706	70.31
372.932	81.31
373.158	77.31
373.384	100.31
373.61	101.31
373.835	87.31
374.061	94.31
374.287	86.31
374.513	77.31
374.739	90.31
374.965	88.31
375.191	98.31
375.416	89.31
375.642	79.31
375.868	90.31
376.094	82.31
376.319	89.31
376.545	82.31
376.771	67.31
376.997	86.31
377.222	76.31
377.448	91.31
377.674	81.31
377.899	83.31
378.125	88.31
378.35	73.31
378.576	79.31
378.802	74.31
379.027	70.31
379.253	97.31
379.478	89.31
379.704	82.31
379.929	84.31
380.155	85.31
380.38	95.31
380.606	87.31
380.831	74.31
381.057	88.31
381.282	87.31
381.507	81.31
381.733	94.31
381.958	84.31
382.184	85.31
382.409	90.31
382.634	89.31
382.86	90.31
383.085	97.31
383.31	93.31
383.535	69.31
383.761	90.31
383.986	104.31
384.211	83.31
384.436	94.31
384.662	81.31
384.887	81.31
385.112	66.31
385.337	88.31
385.562	81.31
385.787	93.31
386.013	86.31
386.238	83.31
386.463	83.31
386.688	106.31
386.913	102.31
387.138	86.31
387.363	81.31
387.588	95.31
387.813	81.31
388.038	89.31
388.263	82.31
388.488	84.31
388.713	88.31
388.938	71.31
389.163	70.31
389.387	75.31
389.612	82.31
389.837	93.31
390.062	89.31
390.287	83.31
390.512	94.31
390.736	73.31
390.961	76.31
391.186	84.31
391.411	73.31
391.636	89.31
391.86	89.31
392.085	90.31
392.31	82.31
392.534	91.31
392.759	91.31
392.984	112.31
393.208	167.31
393.433	247.31
393.658	205.31
393.882	105.31
394.107	93.31
394.331	101.31
394.556	109.31
394.78	94.31
395.005	99.31
395.229	80.31
395.454	85.31
395.678	95.31
395.903	88.31
396.127	105.31
396.352	119.31
396.576	137.31
396.801	178.31
397.025	208.31
397.249	131.31
397.474	93.31
397.698	83.31
397.922	93.31
398.147	81.31
398.371	87.31
398.595	94.31
398.82	74.31
399.044	83.31
399.268	69.31
399.492	60.31
399.717	99.31
399.941	81.31
400.165	79.31
400.389	79.31
400.613	81.31
400.837	69.31
401.062	77.31
401.286	78.31
401.51	75.31
401.734	83.31
401.958	79.31
402.182	90.31
402.406	82.31
402.63	89.31
402.854	88.31
403.078	75.31
403.302	69.31
403.526	91.31
403.75	83.31
403.974	91.31
404.198	94.31
404.422	103.31
404.645	97.31
404.869	97.31
405.093	83.31
405.317	94.31
405.541	74.31
405.765	88.31
405.988	85.31
406.212	71.31
406.436	70.31
406.66	84.31
406.883	89.31
407.107	83.31
407.331	82.31
407.555	83.31
407.778	96.31
408.002	95.31
408.226	69.31
408.449	76.31
408.673	85.31
408.896	81.31
409.12	66.31
409.344	80.31
409.567	82.31
409.791	88.31
410.014	77.31
410.238	83.31
410.461	101.31
410.685	72.31
410.908	67.31
411.132	85.31
411.355	80.31
411.578	71.31
411.802	75.31
412.025	85.31
412.249	79.31
412.472	81.31
412.695	87.31
412.919	81.31
413.142	83.31
413.365	95.31
413.589	77.31
413.812	99.31
414.035	82.31
414.258	86.31
414.482	76.31
414.705	94.31
414.928	83.31
415.151	87.31
415.374	87.31
415.597	71.31
415.821	79.31
416.044	89.31
416.267	75.31
416.49	81.31
416.713	85.31
416.936	70.31
417.159	89.31
417.382	61.31
417.605	81.31
417.828	82.31
418.051	70.31
418.274	77.31
418.497	76.31
418.72	87.31
418.943	71.31
419.166	77.31
419.389	74.31
419.611	79.31
419.834	81.31
420.057	89.31
420.28	81.31
420.503	86.31
420.726	78.31
420.948	93.31
421.171	75.31
421.394	86.31
421.617	90.31
421.839	90.31
422.062	94.31
422.285	103.31
422.507	158.31
422.73	235.31
422.953	215.31
423.175	114.31
423.398	93.31
423.621	89.31
423.843	79.31
424.066	69.31
424.288	97.31
424.511	72.31
424.733	73.31
424.956	71.31
425.178	79.31
425.401	77.31
425.623	87.31
425.846	81.31
426.068	79.31
426.291	81.31
426.513	86.31
426.735	97.31
426.958	73.31
427.18	75.31
427.402	73.31
427.625	87.31
427.847	93.31
428.069	86.31
428.292	100.31
428.514	111.31
428.736	97.31
428.958	87.31
429.181	89.31
429.403	90.31
429.625	85.31
429.847	88.31
430.069	111.31
430.292	115.31
430.514	112.31
430.736	87.31
430.958	115.31
431.18	96.31
431.402	87.31
431.624	97.31
431.846	99.31
432.068	102.31
432.29	104.31
432.512	93.31
432.734	80.31
432.956	83.31
433.178	79.31
433.4	80.31
433.622	75.31
433.844	81.31
434.066	65.31
434.287	79.31
434.509	67.31
434.731	79.31
434.953	81.31
435.175	77.31
435.397	81.31
435.618	72.31
435.84	77.31
436.062	76.31
436.284	84.31
436.505	87.31
436.727	82.31
436.949	85.31
437.17	91.31
437.392	86.31
437.614	85.31
437.835	92.31
438.057	79.31
438.278	75.31
438.5	82.31
438.721	89.31
438.943	83.31
439.165	76.31
439.386	89.31
439.608	95.31
439.829	75.31
440.05	68.31
440.272	82.31
440.493	69.31
440.715	89.31
440.936	90.31
441.158	98.31
441.379	89.31
441.6	87.31
441.822	87.31
442.043	87.31
442.264	94.31
442.486	104.31
442.707	99.31
442.928	90.31
443.149	97.31
443.371	97.31
443.592	129.31
443.813	117.31
444.034	69.31
444.255	87.31
444.476	91.31
444.698	73.31
444.919	88.31
445.14	177.31
445.361	147.31
445.582	175.31
445.803	141.31
446.024	81.31
446.245	75.31
446.466	74.31
446.687	87.31
446.908	83.31
447.129	87.31
447.35	81.31
447.571	82.31
447.792	80.31
448.013	77.31
448.234	74.31
448.455	75.31
448.675	69.31
448.896	75.31
449.117	76.31
449.338	83.31
449.559	94.31
449.779	77.31
450	81.31
450.221	83.31
450.442	68.31
450.662	85.31
450.883	85.31
451.104	74.31
451.324	100.31
451.545	92.31
451.766	84.31
451.986	79.31
452.207	83.31
452.428	80.31
452.648	78.31
452.869	73.31
453.089	83.31
453.31	74.31
453.53	77.31
453.751	69.31
453.971	77.31
454.192	87.31
454.412	80.31
454.633	72.31
454.853	83.31
455.073	82.31
455.294	83.31
455.514	88.31
455.734	75.31
455.955	70.31
456.175	77.31
456.395	67.31
456.616	83.31
456.836	66.31
457.056	79.31
457.276	71.31
457.497	83.31
457.717	81.31
457.937	86.31
458.157	95.31
458.377	94.31
458.598	94.31
458.818	94.31
459.038	95.31
459.258	87.31
459.478	85.31
459.698	82.31
459.918	84.31
460.138	67.31
460.358	65.31
460.578	81.31
460.798	86.31
461.018	85.31
461.238	93.31
461.458	86.31
461.678	78.31
461.898	80.31
462.118	89.31
462.338	61.31
462.558	83.31
462.777	85.31
462.997	80.31
463.217	76.31
463.437	97.31
463.657	75.31
463.876	82.31
464.096	74.31
464.316	58.31
464.536	79.31
464.755	75.31
464.975	85.31
465.195	68.31
465.414	77.31
465.634	73.31
465.854	76.31
466.073	78.31
466.293	65.31
466.512	83.31
466.732	93.31
466.951	78.31
467.171	75.31
467.391	84.31
467.61	71.31
467.829	73.31
468.049	95.31
468.268	81.31
468.488	78.31
468.707	79.31
468.927	86.31
469.146	86.31
469.365	75.31
469.585	91.31
469.804	86.31
470.023	87.31
470.243	89.31
470.462	94.31
470.681	83.31
470.901	81.31
471.12	97.31
471.339	81.31
471.558	79.31
471.777	89.31
471.997	81.31
472.216	96.31
472.435	86.31
472.654	69.31
472.873	82.31
473.092	63.31
473.311	75.31
473.53	73.31
473.749	85.31
473.968	100.31
474.187	79.31
474.406	73.31
474.625	75.31
474.844	82.31
475.063	82.31
475.282	94.31
475.501	78.31
475.72	93.31
475.939	80.31
476.158	61.31
476.377	65.31
476.596	87.31
476.814	77.31
477.033	89.31
477.252	68.31
477.471	90.31
477.69	90.31
477.908	88.31
478.127	97.31
478.346	79.31
478.564	90.31
478.783	84.31
479.002	73.31
479.22	83.31
479.439	82.31
479.658	81.31
479.876	80.31
480.095	79.31
480.313	98.31
480.532	79.31
480.751	75.31
480.969	81.31
481.188	79.31
481.406	81.31
481.624	97.31
481.843	87.31
482.061	74.31
482.28	88.31
482.498	72.31
482.717	67.31
482.935	66.31
483.153	74.31
483.372	96.31
483.59	72.31
483.808	87.31
484.027	74.31
484.245	85.31
484.463	79.31
484.681	86.31
484.9	83.31
485.118	97.31
485.336	62.31
485.554	83.31
485.772	87.31
485.99	79.31
486.209	87.31
486.427	65.31
486.645	78.31
486.863	81.31
487.081	85.31
487.299	93.31
487.517	94.31
487.735	91.31
487.953	100.31
488.171	85.31
488.389	84.31
488.607	87.31
488.825	89.31
489.043	85.31
489.261	85.31
489.479	84.31
489.696	86.31
489.914	86.31
490.132	83.31
490.35	79.31
490.568	74.31
490.786	83.31
491.003	81.31
491.221	80.31
491.439	83.31
491.657	83.31
491.874	79.31
492.092	71.31
492.31	75.31
492.527	75.31
492.745	75.31
492.963	77.31
493.18	85.31
493.398	94.31
493.615	96.31
493.833	90.31
494.05	83.31
494.268	62.31
494.485	71.31
494.703	72.31
494.92	83.31
495.138	84.31
495.355	83.31
495.573	95.31
495.79	98.31
496.008	98.31
496.225	86.31
496.442	98.31
496.66	83.31
496.877	83.31
497.094	94.31
497.312	80.31
497.529	77.31
497.746	79.31
497.963	61.31
498.181	79.31
498.398	81.31
498.615	78.31
498.832	82.31
499.049	82.31
499.267	94.31
499.484	89.31
499.701	87.31
499.918	90.31
500.135	81.31
500.352	82.31
500.569	84.31
500.786	80.31
501.003	97.31
501.22	87.31
501.437	82.31
501.654	85.31
501.871	81.31
502.088	89.31
502.305	86.31
502.522	77.31
502.739	94.31
502.956	75.31
503.172	73.31
503.389	81.31
503.606	81.31
503.823	95.31
504.04	78.31
504.256	87.31
504.473	82.31
504.69	77.31
504.907	97.31
505.123	72.31
505.34	82.31
505.557	88.31
505.773	90.31
505.99	79.31
506.207	85.31
506.423	85.31
506.64	76.31
506.856	72.31
507.073	88.31
507.289	67.31
507.506	82.31
507.722	73.31
507.939	98.31
508.155	93.31
508.372	66.31
508.588	72.31
508.805	80.31
509.021	82.31
509.238	86.31
509.454	88.31
509.67	71.31
509.887	87.31
510.103	81.31
510.319	83.31
510.536	88.31
510.752	104.31
510.968	79.31
511.184	77.31
511.401	79.31
511.617	79.31
511.833	94.31
512.049	85.31
512.265	83.31
512.481	73.31
512.698	92.31
512.914	77.31
513.13	101.31
513.346	93.31
513.562	82.31
513.778	87.31
513.994	86.31
514.21	82.31
514.426	86.31
514.642	89.31
514.858	72.31
515.074	82.31
515.29	79.31
515.506	85.31
515.721	77.31
515.937	89.31
516.153	84.31
516.369	86.31
516.585	87.31
516.801	95.31
517.016	91.31
517.232	83.31
517.448	86.31
517.664	73.31
517.879	81.31
518.095	90.31
518.311	77.31
518.527	89.31
518.742	83.31
518.958	95.31
519.173	97.31
519.389	83.31
519.605	76.31
