Data from 15780_1_HRD10591_00013.txt Node
Date: Mon Jan 19 14:18:16 EST 2026
User: Yrep
Spectrometer: HR+D1059
Trigger mode: 1
Integration Time (sec): 1.000000E-1
Scans to average: 1
Electric dark correction enabled: true
Nonlinearity correction enabled: false
Boxcar width: 0
XAxis mode: Wavelengths
Number of Pixels in Spectrum: 2048
>>>>>Begin Spectral Data<<<<<
223.165	-12.25
223.4	-12.25
223.635	-12.25
223.869	-14.25
224.104	-28.25
224.338	-19.25
224.573	-23.25
224.808	-7.25
225.042	-14.25
225.277	-14.25
225.511	-15.25
225.746	3.75
225.98	12.75
226.215	20.75
226.449	28.75
226.683	12.75
226.918	38.75
227.152	30.75
227.387	34.75
227.621	36.75
227.856	43.75
228.09	65.75
228.324	64.75
228.559	54.75
228.793	66.75
229.027	56.75
229.262	67.75
229.496	80.75
229.73	67.75
229.964	56.75
230.199	76.75
230.433	81.75
230.667	88.75
230.901	68.75
231.136	73.75
231.37	78.75
231.604	74.75
231.838	85.75
232.072	82.75
232.306	89.75
232.541	71.75
232.775	77.75
233.009	67.75
233.243	73.75
233.477	79.75
233.711	76.75
233.945	77.75
234.179	87.75
234.413	78.75
234.647	76.75
234.881	80.75
235.115	81.75
235.349	73.75
235.583	80.75
235.817	81.75
236.051	72.75
236.285	86.75
236.519	95.75
236.753	73.75
236.987	83.75
237.221	96.75
237.455	83.75
237.689	70.75
237.922	79.75
238.156	76.75
238.39	76.75
238.624	82.75
238.858	88.75
239.091	74.75
239.325	76.75
239.559	84.75
239.793	85.75
240.027	67.75
240.26	78.75
240.494	75.75
240.728	85.75
240.961	83.75
241.195	84.75
241.429	72.75
241.662	85.75
241.896	67.75
242.13	74.75
242.363	69.75
242.597	73.75
242.83	90.75
243.064	79.75
243.298	75.75
243.531	76.75
243.765	83.75
243.998	75.75
244.232	85.75
244.465	76.75
244.699	71.75
244.932	76.75
245.166	87.75
245.399	73.75
245.633	83.75
245.866	79.75
246.099	60.75
246.333	83.75
246.566	71.75
246.8	71.75
247.033	68.75
247.266	76.75
247.5	83.75
247.733	86.75
247.966	88.75
248.2	68.75
248.433	67.75
248.666	86.75
248.899	76.75
249.133	77.75
249.366	80.75
249.599	74.75
249.832	79.75
250.066	89.75
250.299	89.75
250.532	92.75
250.765	59.75
250.998	87.75
251.231	74.75
251.465	81.75
251.698	79.75
251.931	82.75
252.164	92.75
252.397	71.75
252.63	73.75
252.863	84.75
253.096	78.75
253.329	65.75
253.562	81.75
253.795	82.75
254.028	81.75
254.261	80.75
254.494	75.75
254.727	62.75
254.96	85.75
255.193	74.75
255.426	76.75
255.659	67.75
255.892	88.75
256.124	85.75
256.357	91.75
256.59	78.75
256.823	67.75
257.056	65.75
257.289	78.75
257.521	78.75
257.754	70.75
257.987	72.75
258.22	85.75
258.452	92.75
258.685	81.75
258.918	71.75
259.151	74.75
259.383	97.75
259.616	72.75
259.849	77.75
260.081	79.75
260.314	90.75
260.547	85.75
260.779	74.75
261.012	90.75
261.244	81.75
261.477	86.75
261.71	78.75
261.942	70.75
262.175	79.75
262.407	77.75
262.64	85.75
262.872	75.75
263.105	79.75
263.337	73.75
263.57	85.75
263.802	65.75
264.035	79.75
264.267	92.75
264.499	67.75
264.732	87.75
264.964	74.75
265.197	90.75
265.429	87.75
265.661	80.75
265.894	78.75
266.126	74.75
266.358	67.75
266.591	82.75
266.823	75.75
267.055	79.75
267.287	72.75
267.52	73.75
267.752	90.75
267.984	92.75
268.216	79.75
268.448	86.75
268.681	86.75
268.913	88.75
269.145	88.75
269.377	80.75
269.609	85.75
269.841	96.75
270.073	78.75
270.306	74.75
270.538	80.75
270.77	72.75
271.002	80.75
271.234	87.75
271.466	77.75
271.698	77.75
271.93	72.75
272.162	84.75
272.394	81.75
272.626	106.75
272.858	86.75
273.09	84.75
273.322	85.75
273.553	78.75
273.785	82.75
274.017	88.75
274.249	86.75
274.481	80.75
274.713	88.75
274.945	82.75
275.176	81.75
275.408	87.75
275.64	76.75
275.872	85.75
276.104	80.75
276.335	87.75
276.567	76.75
276.799	86.75
277.031	89.75
277.262	93.75
277.494	75.75
277.726	71.75
277.957	76.75
278.189	91.75
278.421	90.75
278.652	85.75
278.884	65.75
279.115	86.75
279.347	83.75
279.579	81.75
279.81	85.75
280.042	67.75
280.273	73.75
280.505	86.75
280.736	95.75
280.968	82.75
281.199	89.75
281.431	87.75
281.662	75.75
281.894	70.75
282.125	71.75
282.356	99.75
282.588	83.75
282.819	79.75
283.051	85.75
283.282	76.75
283.513	83.75
283.745	63.75
283.976	83.75
284.207	83.75
284.439	83.75
284.67	70.75
284.901	89.75
285.132	78.75
285.364	86.75
285.595	73.75
285.826	89.75
286.057	63.75
286.288	71.75
286.52	88.75
286.751	83.75
286.982	84.75
287.213	80.75
287.444	87.75
287.675	89.75
287.906	75.75
288.138	67.75
288.369	74.75
288.6	74.75
288.831	72.75
289.062	76.75
289.293	70.75
289.524	76.75
289.755	81.75
289.986	68.75
290.217	91.75
290.448	74.75
290.679	85.75
290.91	85.75
291.141	91.75
291.371	96.75
291.602	91.75
291.833	78.75
292.064	91.75
292.295	76.75
292.526	77.75
292.757	90.75
292.987	69.75
293.218	88.75
293.449	98.75
293.68	85.75
293.91	93.75
294.141	81.75
294.372	88.75
294.603	84.75
294.833	103.75
295.064	85.75
295.295	77.75
295.525	87.75
295.756	81.75
295.987	73.75
296.217	75.75
296.448	76.75
296.679	88.75
296.909	83.75
297.14	99.75
297.37	96.75
297.601	92.75
297.831	95.75
298.062	81.75
298.292	89.75
298.523	88.75
298.753	77.75
298.984	90.75
299.214	65.75
299.445	95.75
299.675	92.75
299.905	89.75
300.136	87.75
300.366	82.75
300.597	86.75
300.827	70.75
301.057	83.75
301.288	73.75
301.518	92.75
301.748	96.75
301.979	95.75
302.209	94.75
302.439	93.75
302.669	82.75
302.9	72.75
303.13	99.75
303.36	86.75
303.59	70.75
303.82	85.75
304.051	83.75
304.281	85.75
304.511	90.75
304.741	79.75
304.971	83.75
305.201	92.75
305.431	87.75
305.661	85.75
305.891	102.75
306.121	83.75
306.352	96.75
306.582	76.75
306.812	82.75
307.042	79.75
307.272	98.75
307.502	88.75
307.731	84.75
307.961	81.75
308.191	78.75
308.421	87.75
308.651	89.75
308.881	95.75
309.111	90.75
309.341	71.75
309.571	79.75
309.8	67.75
310.03	76.75
310.26	77.75
310.49	74.75
310.72	84.75
310.949	99.75
311.179	87.75
311.409	90.75
311.639	90.75
311.868	85.75
312.098	73.75
312.328	89.75
312.557	88.75
312.787	88.75
313.017	81.75
313.246	87.75
313.476	78.75
313.706	79.75
313.935	83.75
314.165	82.75
314.394	81.75
314.624	82.75
314.853	91.75
315.083	74.75
315.312	87.75
315.542	75.75
315.771	71.75
316.001	85.75
316.23	85.75
316.46	80.75
316.689	90.75
316.919	93.75
317.148	83.75
317.377	91.75
317.607	77.75
317.836	89.75
318.065	76.75
318.295	73.75
318.524	78.75
318.753	83.75
318.983	98.75
319.212	79.75
319.441	84.75
319.67	81.75
319.9	77.75
320.129	83.75
320.358	75.75
320.587	105.75
320.816	82.75
321.046	76.75
321.275	95.75
321.504	83.75
321.733	89.75
321.962	83.75
322.191	91.75
322.42	83.75
322.649	77.75
322.878	86.75
323.108	86.75
323.337	73.75
323.566	88.75
323.795	87.75
324.024	82.75
324.253	72.75
324.482	88.75
324.71	92.75
324.939	82.75
325.168	85.75
325.397	86.75
325.626	79.75
325.855	85.75
326.084	76.75
326.313	86.75
326.542	86.75
326.77	89.75
326.999	83.75
327.228	76.75
327.457	96.75
327.686	97.75
327.914	81.75
328.143	88.75
328.372	61.75
328.6	70.75
328.829	89.75
329.058	88.75
329.287	86.75
329.515	87.75
329.744	83.75
329.972	94.75
330.201	85.75
330.43	80.75
330.658	71.75
330.887	93.75
331.115	78.75
331.344	84.75
331.572	71.75
331.801	86.75
332.03	90.75
332.258	72.75
332.486	83.75
332.715	82.75
332.943	91.75
333.172	91.75
333.4	74.75
333.629	87.75
333.857	95.75
334.085	78.75
334.314	84.75
334.542	83.75
334.771	86.75
334.999	74.75
335.227	93.75
335.455	88.75
335.684	85.75
335.912	95.75
336.14	94.75
336.369	78.75
336.597	89.75
336.825	91.75
337.053	79.75
337.281	81.75
337.51	81.75
337.738	91.75
337.966	78.75
338.194	80.75
338.422	83.75
338.65	85.75
338.878	83.75
339.106	87.75
339.334	95.75
339.562	77.75
339.79	73.75
340.018	84.75
340.246	75.75
340.474	76.75
340.702	82.75
340.93	79.75
341.158	83.75
341.386	74.75
341.614	86.75
341.842	85.75
342.07	81.75
342.298	101.75
342.526	82.75
342.754	91.75
342.981	78.75
343.209	86.75
343.437	99.75
343.665	78.75
343.893	84.75
344.12	87.75
344.348	75.75
344.576	85.75
344.804	89.75
345.031	77.75
345.259	92.75
345.487	88.75
345.714	80.75
345.942	83.75
346.17	80.75
346.397	83.75
346.625	83.75
346.853	90.75
347.08	74.75
347.308	94.75
347.535	91.75
347.763	85.75
347.99	82.75
348.218	86.75
348.445	75.75
348.673	78.75
348.9	82.75
349.128	79.75
349.355	84.75
349.583	87.75
349.81	99.75
350.037	76.75
350.265	90.75
350.492	85.75
350.72	85.75
350.947	81.75
351.174	75.75
351.402	79.75
351.629	84.75
351.856	75.75
352.083	77.75
352.311	84.75
352.538	81.75
352.765	77.75
352.992	84.75
353.22	82.75
353.447	92.75
353.674	84.75
353.901	96.75
354.128	88.75
354.355	77.75
354.583	91.75
354.81	86.75
355.037	73.75
355.264	78.75
355.491	71.75
355.718	74.75
355.945	76.75
356.172	83.75
356.399	71.75
356.626	74.75
356.853	79.75
357.08	91.75
357.307	91.75
357.534	81.75
357.761	77.75
357.988	105.75
358.215	97.75
358.441	103.75
358.668	86.75
358.895	89.75
359.122	90.75
359.349	65.75
359.576	81.75
359.802	75.75
360.029	81.75
360.256	96.75
360.483	87.75
360.709	65.75
360.936	95.75
361.163	79.75
361.39	74.75
361.616	88.75
361.843	78.75
362.07	84.75
362.296	85.75
362.523	87.75
362.749	83.75
362.976	95.75
363.203	98.75
363.429	68.75
363.656	78.75
363.882	78.75
364.109	90.75
364.335	100.75
364.562	93.75
364.788	85.75
365.015	84.75
365.241	80.75
365.468	59.75
365.694	99.75
365.92	73.75
366.147	80.75
366.373	85.75
366.599	81.75
366.826	82.75
367.052	81.75
367.278	81.75
367.505	92.75
367.731	83.75
367.957	77.75
368.184	87.75
368.41	81.75
368.636	72.75
368.862	72.75
369.089	77.75
369.315	98.75
369.541	79.75
369.767	96.75
369.993	84.75
370.219	86.75
370.445	85.75
370.672	79.75
370.898	82.75
371.124	103.75
371.35	83.75
371.576	69.75
371.802	85.75
372.028	69.75
372.254	92.75
372.48	81.75
372.706	77.75
372.932	84.75
373.158	95.75
373.384	95.75
373.61	88.75
373.835	97.75
374.061	81.75
374.287	80.75
374.513	95.75
374.739	98.75
374.965	88.75
375.191	96.75
375.416	91.75
375.642	93.75
375.868	85.75
376.094	78.75
376.319	83.75
376.545	87.75
376.771	77.75
376.997	89.75
377.222	89.75
377.448	93.75
377.674	85.75
377.899	80.75
378.125	79.75
378.35	88.75
378.576	90.75
378.802	80.75
379.027	83.75
379.253	81.75
379.478	85.75
379.704	76.75
379.929	91.75
380.155	89.75
380.38	75.75
380.606	91.75
380.831	82.75
381.057	92.75
381.282	89.75
381.507	78.75
381.733	78.75
381.958	94.75
382.184	75.75
382.409	87.75
382.634	87.75
382.86	92.75
383.085	81.75
383.31	91.75
383.535	95.75
383.761	93.75
383.986	85.75
384.211	89.75
384.436	89.75
384.662	84.75
384.887	71.75
385.112	83.75
385.337	100.75
385.562	86.75
385.787	98.75
386.013	88.75
386.238	79.75
386.463	82.75
386.688	91.75
386.913	78.75
387.138	95.75
387.363	85.75
387.588	99.75
387.813	100.75
388.038	89.75
388.263	86.75
388.488	93.75
388.713	82.75
388.938	79.75
389.163	90.75
389.387	78.75
389.612	70.75
389.837	90.75
390.062	89.75
390.287	75.75
390.512	83.75
390.736	84.75
390.961	73.75
391.186	79.75
391.411	89.75
391.636	81.75
391.86	82.75
392.085	87.75
392.31	79.75
392.534	85.75
392.759	93.75
392.984	98.75
393.208	136.75
393.433	177.75
393.658	162.75
393.882	104.75
394.107	83.75
394.331	95.75
394.556	95.75
394.78	78.75
395.005	92.75
395.229	93.75
395.454	92.75
395.678	82.75
395.903	99.75
396.127	98.75
396.352	113.75
396.576	119.75
396.801	143.75
397.025	159.75
397.249	107.75
397.474	104.75
397.698	77.75
397.922	99.75
398.147	81.75
398.371	84.75
398.595	80.75
398.82	74.75
399.044	81.75
399.268	99.75
399.492	84.75
399.717	76.75
399.941	91.75
400.165	85.75
400.389	82.75
400.613	86.75
400.837	83.75
401.062	81.75
401.286	84.75
401.51	88.75
401.734	70.75
401.958	75.75
402.182	85.75
402.406	85.75
402.63	80.75
402.854	82.75
403.078	83.75
403.302	73.75
403.526	85.75
403.75	80.75
403.974	91.75
404.198	93.75
404.422	91.75
404.645	98.75
404.869	76.75
405.093	93.75
405.317	90.75
405.541	69.75
405.765	94.75
405.988	83.75
406.212	86.75
406.436	88.75
406.66	88.75
406.883	81.75
407.107	83.75
407.331	95.75
407.555	102.75
407.778	73.75
408.002	87.75
408.226	79.75
408.449	87.75
408.673	85.75
408.896	74.75
409.12	77.75
409.344	84.75
409.567	77.75
409.791	90.75
410.014	80.75
410.238	82.75
410.461	86.75
410.685	74.75
410.908	73.75
411.132	85.75
411.355	91.75
411.578	76.75
411.802	95.75
412.025	90.75
412.249	81.75
412.472	93.75
412.695	85.75
412.919	76.75
413.142	92.75
413.365	87.75
413.589	89.75
413.812	83.75
414.035	86.75
414.258	94.75
414.482	83.75
414.705	84.75
414.928	77.75
415.151	87.75
415.374	84.75
415.597	79.75
415.821	87.75
416.044	82.75
416.267	82.75
416.49	82.75
416.713	98.75
416.936	90.75
417.159	76.75
417.382	76.75
417.605	88.75
417.828	88.75
418.051	76.75
418.274	86.75
418.497	75.75
418.72	90.75
418.943	70.75
419.166	92.75
419.389	82.75
419.611	89.75
419.834	81.75
420.057	76.75
420.28	83.75
420.503	85.75
420.726	103.75
420.948	83.75
421.171	89.75
421.394	89.75
421.617	98.75
421.839	103.75
422.062	96.75
422.285	102.75
422.507	170.75
422.73	255.75
422.953	234.75
423.175	137.75
423.398	89.75
423.621	76.75
423.843	87.75
424.066	85.75
424.288	103.75
424.511	75.75
424.733	76.75
424.956	85.75
425.178	95.75
425.401	73.75
425.623	76.75
425.846	72.75
426.068	91.75
426.291	87.75
426.513	97.75
426.735	77.75
426.958	86.75
427.18	73.75
427.402	88.75
427.625	79.75
427.847	81.75
428.069	100.75
428.292	101.75
428.514	93.75
428.736	81.75
428.958	94.75
429.181	96.75
429.403	75.75
429.625	87.75
429.847	92.75
430.069	107.75
430.292	131.75
430.514	113.75
430.736	88.75
430.958	99.75
431.18	80.75
431.402	83.75
431.624	72.75
431.846	95.75
432.068	92.75
432.29	85.75
432.512	84.75
432.734	100.75
432.956	81.75
433.178	89.75
433.4	81.75
433.622	98.75
433.844	94.75
434.066	81.75
434.287	90.75
434.509	80.75
434.731	90.75
434.953	85.75
435.175	79.75
435.397	82.75
435.618	83.75
435.84	77.75
436.062	91.75
436.284	86.75
436.505	74.75
436.727	81.75
436.949	89.75
437.17	83.75
437.392	88.75
437.614	73.75
437.835	83.75
438.057	82.75
438.278	83.75
438.5	90.75
438.721	89.75
438.943	83.75
439.165	72.75
439.386	74.75
439.608	68.75
439.829	91.75
440.05	83.75
440.272	86.75
440.493	79.75
440.715	76.75
440.936	78.75
441.158	69.75
441.379	81.75
441.6	89.75
441.822	80.75
442.043	75.75
442.264	94.75
442.486	97.75
442.707	106.75
442.928	101.75
443.149	76.75
443.371	112.75
443.592	127.75
443.813	109.75
444.034	96.75
444.255	77.75
444.476	75.75
444.698	85.75
444.919	91.75
445.14	164.75
445.361	144.75
445.582	165.75
445.803	152.75
446.024	88.75
446.245	85.75
446.466	96.75
446.687	71.75
446.908	81.75
447.129	87.75
447.35	95.75
447.571	84.75
447.792	89.75
448.013	86.75
448.234	91.75
448.455	88.75
448.675	76.75
448.896	86.75
449.117	91.75
449.338	78.75
449.559	92.75
449.779	86.75
450	83.75
450.221	90.75
450.442	93.75
450.662	85.75
450.883	77.75
451.104	81.75
451.324	80.75
451.545	78.75
451.766	84.75
451.986	81.75
452.207	73.75
452.428	89.75
452.648	76.75
452.869	71.75
453.089	84.75
453.31	88.75
453.53	92.75
453.751	80.75
453.971	69.75
454.192	88.75
454.412	87.75
454.633	89.75
454.853	93.75
455.073	70.75
455.294	83.75
455.514	73.75
455.734	75.75
455.955	70.75
456.175	87.75
456.395	82.75
456.616	75.75
456.836	86.75
457.056	78.75
457.276	77.75
457.497	80.75
457.717	87.75
457.937	86.75
458.157	87.75
458.377	97.75
458.598	117.75
458.818	86.75
459.038	89.75
459.258	80.75
459.478	82.75
459.698	72.75
459.918	103.75
460.138	93.75
460.358	88.75
460.578	97.75
460.798	106.75
461.018	98.75
461.238	87.75
461.458	80.75
461.678	85.75
461.898	82.75
462.118	78.75
462.338	85.75
462.558	84.75
462.777	82.75
462.997	97.75
463.217	87.75
463.437	84.75
463.657	73.75
463.876	85.75
464.096	94.75
464.316	74.75
464.536	94.75
464.755	86.75
464.975	81.75
465.195	74.75
465.414	80.75
465.634	82.75
465.854	77.75
466.073	82.75
466.293	75.75
466.512	86.75
466.732	73.75
466.951	65.75
467.171	91.75
467.391	90.75
467.61	87.75
467.829	76.75
468.049	70.75
468.268	75.75
468.488	91.75
468.707	85.75
468.927	88.75
469.146	82.75
469.365	80.75
469.585	86.75
469.804	84.75
470.023	84.75
470.243	87.75
470.462	67.75
470.681	70.75
470.901	70.75
471.12	90.75
471.339	83.75
471.558	88.75
471.777	80.75
471.997	81.75
472.216	86.75
472.435	74.75
472.654	91.75
472.873	95.75
473.092	95.75
473.311	87.75
473.53	75.75
473.749	88.75
473.968	99.75
474.187	74.75
474.406	97.75
474.625	79.75
474.844	79.75
475.063	75.75
475.282	75.75
475.501	75.75
475.72	77.75
475.939	75.75
476.158	79.75
476.377	88.75
476.596	79.75
476.814	77.75
477.033	84.75
477.252	81.75
477.471	99.75
477.69	87.75
477.908	89.75
478.127	96.75
478.346	97.75
478.564	92.75
478.783	76.75
479.002	93.75
479.22	92.75
479.439	93.75
479.658	89.75
479.876	81.75
480.095	81.75
480.313	71.75
480.532	98.75
480.751	92.75
480.969	92.75
481.188	84.75
481.406	96.75
481.624	88.75
481.843	91.75
482.061	81.75
482.28	95.75
482.498	76.75
482.717	73.75
482.935	84.75
483.153	91.75
483.372	91.75
483.59	98.75
483.808	86.75
484.027	88.75
484.245	87.75
484.463	99.75
484.681	95.75
484.9	87.75
485.118	91.75
485.336	77.75
485.554	86.75
485.772	77.75
485.99	89.75
486.209	83.75
486.427	86.75
486.645	95.75
486.863	87.75
487.081	92.75
487.299	88.75
487.517	98.75
487.735	90.75
487.953	103.75
488.171	97.75
488.389	81.75
488.607	87.75
488.825	92.75
489.043	99.75
489.261	92.75
489.479	83.75
489.696	79.75
489.914	97.75
490.132	82.75
490.35	92.75
490.568	84.75
490.786	85.75
491.003	87.75
491.221	88.75
491.439	84.75
491.657	78.75
491.874	81.75
492.092	95.75
492.31	87.75
492.527	84.75
492.745	60.75
492.963	92.75
493.18	95.75
493.398	89.75
493.615	84.75
493.833	84.75
494.05	103.75
494.268	79.75
494.485	87.75
494.703	91.75
494.92	84.75
495.138	83.75
495.355	100.75
495.573	85.75
495.79	81.75
496.008	101.75
496.225	93.75
496.442	89.75
496.66	88.75
496.877	94.75
497.094	86.75
497.312	82.75
497.529	92.75
497.746	104.75
497.963	96.75
498.181	77.75
498.398	73.75
498.615	76.75
498.832	91.75
499.049	89.75
499.267	90.75
499.484	70.75
499.701	84.75
499.918	81.75
500.135	90.75
500.352	82.75
500.569	89.75
500.786	81.75
501.003	82.75
501.22	95.75
501.437	85.75
501.654	75.75
501.871	85.75
502.088	78.75
502.305	93.75
502.522	96.75
502.739	85.75
502.956	89.75
503.172	91.75
503.389	90.75
503.606	82.75
503.823	91.75
504.04	108.75
504.256	91.75
504.473	97.75
504.69	88.75
504.907	82.75
505.123	80.75
505.34	94.75
505.557	83.75
505.773	102.75
505.99	78.75
506.207	91.75
506.423	102.75
506.64	102.75
506.856	84.75
507.073	95.75
507.289	88.75
507.506	83.75
507.722	83.75
507.939	86.75
508.155	89.75
508.372	97.75
508.588	81.75
508.805	92.75
509.021	92.75
509.238	83.75
509.454	93.75
509.67	93.75
509.887	99.75
510.103	73.75
510.319	97.75
510.536	88.75
510.752	91.75
510.968	76.75
511.184	83.75
511.401	83.75
511.617	91.75
511.833	80.75
512.049	93.75
512.265	79.75
512.481	83.75
512.698	94.75
512.914	74.75
513.13	88.75
513.346	82.75
513.562	87.75
513.778	81.75
513.994	81.75
514.21	100.75
514.426	88.75
514.642	96.75
514.858	78.75
515.074	87.75
515.29	84.75
515.506	80.75
515.721	78.75
515.937	91.75
516.153	80.75
516.369	98.75
516.585	84.75
516.801	90.75
517.016	88.75
517.232	95.75
517.448	96.75
517.664	96.75
517.879	83.75
518.095	93.75
518.311	83.75
518.527	92.75
518.742	78.75
518.958	108.75
519.173	108.75
519.389	86.75
