Data from 15780_1_HRD10591_00027.txt Node
Date: Mon Jan 19 14:18:23 EST 2026
User: Yrep
Spectrometer: HR+D1059
Trigger mode: 1
Integration Time (sec): 1.000000E-1
Scans to average: 1
Electric dark correction enabled: true
Nonlinearity correction enabled: false
Boxcar width: 0
XAxis mode: Wavelengths
Number of Pixels in Spectrum: 2048
>>>>>Begin Spectral Data<<<<<
223.165	-9.75
223.4	-9.75
223.635	-9.75
223.869	-36.75
224.104	-26.75
224.338	-4.75
224.573	-15.75
224.808	-22.75
225.042	-4.75
225.277	-2.75
225.511	7.25
225.746	11.25
225.98	4.25
226.215	10.25
226.449	17.25
226.683	22.25
226.918	32.25
227.152	19.25
227.387	28.25
227.621	31.25
227.856	45.25
228.09	29.25
228.324	48.25
228.559	63.25
228.793	53.25
229.027	61.25
229.262	59.25
229.496	72.25
229.73	73.25
229.964	81.25
230.199	68.25
230.433	61.25
230.667	93.25
230.901	77.25
231.136	90.25
231.37	77.25
231.604	79.25
231.838	80.25
232.072	74.25
232.306	79.25
232.541	76.25
232.775	79.25
233.009	85.25
233.243	79.25
233.477	74.25
233.711	67.25
233.945	76.25
234.179	74.25
234.413	82.25
234.647	64.25
234.881	80.25
235.115	84.25
235.349	79.25
235.583	85.25
235.817	72.25
236.051	67.25
236.285	74.25
236.519	92.25
236.753	76.25
236.987	82.25
237.221	67.25
237.455	84.25
237.689	53.25
237.922	71.25
238.156	76.25
238.39	79.25
238.624	65.25
238.858	79.25
239.091	61.25
239.325	80.25
239.559	76.25
239.793	85.25
240.027	74.25
240.26	87.25
240.494	70.25
240.728	77.25
240.961	67.25
241.195	61.25
241.429	73.25
241.662	79.25
241.896	66.25
242.13	65.25
242.363	64.25
242.597	73.25
242.83	80.25
243.064	73.25
243.298	63.25
243.531	74.25
243.765	70.25
243.998	70.25
244.232	68.25
244.465	67.25
244.699	81.25
244.932	81.25
245.166	77.25
245.399	83.25
245.633	76.25
245.866	71.25
246.099	66.25
246.333	69.25
246.566	82.25
246.8	74.25
247.033	69.25
247.266	68.25
247.5	74.25
247.733	89.25
247.966	73.25
248.2	67.25
248.433	62.25
248.666	71.25
248.899	82.25
249.133	74.25
249.366	73.25
249.599	71.25
249.832	83.25
250.066	78.25
250.299	87.25
250.532	83.25
250.765	80.25
250.998	72.25
251.231	71.25
251.465	81.25
251.698	75.25
251.931	68.25
252.164	90.25
252.397	85.25
252.63	84.25
252.863	93.25
253.096	78.25
253.329	74.25
253.562	88.25
253.795	74.25
254.028	85.25
254.261	74.25
254.494	85.25
254.727	73.25
254.96	77.25
255.193	81.25
255.426	74.25
255.659	83.25
255.892	64.25
256.124	82.25
256.357	69.25
256.59	74.25
256.823	85.25
257.056	77.25
257.289	74.25
257.521	73.25
257.754	82.25
257.987	78.25
258.22	74.25
258.452	85.25
258.685	83.25
258.918	78.25
259.151	81.25
259.383	73.25
259.616	68.25
259.849	75.25
260.081	79.25
260.314	74.25
260.547	83.25
260.779	67.25
261.012	84.25
261.244	69.25
261.477	87.25
261.71	61.25
261.942	81.25
262.175	82.25
262.407	73.25
262.64	89.25
262.872	90.25
263.105	83.25
263.337	75.25
263.57	86.25
263.802	77.25
264.035	92.25
264.267	82.25
264.499	77.25
264.732	77.25
264.964	77.25
265.197	76.25
265.429	74.25
265.661	71.25
265.894	81.25
266.126	87.25
266.358	81.25
266.591	81.25
266.823	70.25
267.055	73.25
267.287	72.25
267.52	76.25
267.752	81.25
267.984	82.25
268.216	88.25
268.448	78.25
268.681	76.25
268.913	86.25
269.145	69.25
269.377	82.25
269.609	74.25
269.841	85.25
270.073	86.25
270.306	80.25
270.538	84.25
270.77	88.25
271.002	74.25
271.234	78.25
271.466	88.25
271.698	78.25
271.93	59.25
272.162	74.25
272.394	78.25
272.626	71.25
272.858	96.25
273.09	75.25
273.322	73.25
273.553	82.25
273.785	81.25
274.017	78.25
274.249	81.25
274.481	89.25
274.713	80.25
274.945	85.25
275.176	73.25
275.408	75.25
275.64	89.25
275.872	80.25
276.104	72.25
276.335	77.25
276.567	63.25
276.799	81.25
277.031	79.25
277.262	78.25
277.494	64.25
277.726	73.25
277.957	76.25
278.189	79.25
278.421	83.25
278.652	77.25
278.884	73.25
279.115	85.25
279.347	69.25
279.579	75.25
279.81	81.25
280.042	77.25
280.273	74.25
280.505	84.25
280.736	72.25
280.968	77.25
281.199	85.25
281.431	100.25
281.662	78.25
281.894	93.25
282.125	83.25
282.356	92.25
282.588	95.25
282.819	83.25
283.051	92.25
283.282	79.25
283.513	95.25
283.745	79.25
283.976	83.25
284.207	75.25
284.439	85.25
284.67	81.25
284.901	84.25
285.132	93.25
285.364	82.25
285.595	91.25
285.826	71.25
286.057	81.25
286.288	77.25
286.52	80.25
286.751	89.25
286.982	95.25
287.213	79.25
287.444	86.25
287.675	85.25
287.906	77.25
288.138	82.25
288.369	79.25
288.6	86.25
288.831	79.25
289.062	83.25
289.293	86.25
289.524	88.25
289.755	75.25
289.986	85.25
290.217	79.25
290.448	85.25
290.679	84.25
290.91	86.25
291.141	83.25
291.371	82.25
291.602	79.25
291.833	82.25
292.064	82.25
292.295	87.25
292.526	78.25
292.757	91.25
292.987	82.25
293.218	90.25
293.449	86.25
293.68	92.25
293.91	77.25
294.141	88.25
294.372	78.25
294.603	84.25
294.833	89.25
295.064	95.25
295.295	85.25
295.525	70.25
295.756	87.25
295.987	89.25
296.217	96.25
296.448	87.25
296.679	82.25
296.909	83.25
297.14	86.25
297.37	85.25
297.601	86.25
297.831	81.25
298.062	79.25
298.292	76.25
298.523	79.25
298.753	87.25
298.984	82.25
299.214	84.25
299.445	84.25
299.675	84.25
299.905	78.25
300.136	78.25
300.366	88.25
300.597	83.25
300.827	84.25
301.057	85.25
301.288	89.25
301.518	89.25
301.748	95.25
301.979	97.25
302.209	82.25
302.439	93.25
302.669	95.25
302.9	78.25
303.13	91.25
303.36	86.25
303.59	77.25
303.82	80.25
304.051	93.25
304.281	79.25
304.511	84.25
304.741	69.25
304.971	77.25
305.201	77.25
305.431	83.25
305.661	65.25
305.891	81.25
306.121	93.25
306.352	88.25
306.582	90.25
306.812	65.25
307.042	71.25
307.272	69.25
307.502	72.25
307.731	96.25
307.961	97.25
308.191	94.25
308.421	86.25
308.651	93.25
308.881	88.25
309.111	79.25
309.341	89.25
309.571	95.25
309.8	90.25
310.03	91.25
310.26	77.25
310.49	91.25
310.72	85.25
310.949	83.25
311.179	78.25
311.409	85.25
311.639	95.25
311.868	83.25
312.098	97.25
312.328	95.25
312.557	73.25
312.787	98.25
313.017	75.25
313.246	79.25
313.476	84.25
313.706	90.25
313.935	73.25
314.165	81.25
314.394	91.25
314.624	94.25
314.853	82.25
315.083	89.25
315.312	74.25
315.542	90.25
315.771	78.25
316.001	76.25
316.23	74.25
316.46	89.25
316.689	91.25
316.919	96.25
317.148	83.25
317.377	86.25
317.607	91.25
317.836	79.25
318.065	82.25
318.295	81.25
318.524	91.25
318.753	96.25
318.983	77.25
319.212	81.25
319.441	91.25
319.67	81.25
319.9	81.25
320.129	92.25
320.358	84.25
320.587	88.25
320.816	78.25
321.046	96.25
321.275	85.25
321.504	68.25
321.733	78.25
321.962	102.25
322.191	70.25
322.42	78.25
322.649	91.25
322.878	88.25
323.108	93.25
323.337	81.25
323.566	79.25
323.795	84.25
324.024	80.25
324.253	85.25
324.482	83.25
324.71	81.25
324.939	70.25
325.168	90.25
325.397	89.25
325.626	87.25
325.855	81.25
326.084	96.25
326.313	81.25
326.542	80.25
326.77	75.25
326.999	79.25
327.228	65.25
327.457	91.25
327.686	73.25
327.914	88.25
328.143	91.25
328.372	81.25
328.6	82.25
328.829	97.25
329.058	75.25
329.287	81.25
329.515	82.25
329.744	75.25
329.972	80.25
330.201	78.25
330.43	80.25
330.658	89.25
330.887	86.25
331.115	95.25
331.344	86.25
331.572	86.25
331.801	70.25
332.03	86.25
332.258	99.25
332.486	74.25
332.715	83.25
332.943	87.25
333.172	82.25
333.4	81.25
333.629	75.25
333.857	90.25
334.085	85.25
334.314	84.25
334.542	85.25
334.771	78.25
334.999	85.25
335.227	73.25
335.455	94.25
335.684	76.25
335.912	92.25
336.14	88.25
336.369	71.25
336.597	89.25
336.825	73.25
337.053	86.25
337.281	95.25
337.51	92.25
337.738	83.25
337.966	95.25
338.194	102.25
338.422	88.25
338.65	93.25
338.878	83.25
339.106	72.25
339.334	73.25
339.562	91.25
339.79	77.25
340.018	79.25
340.246	81.25
340.474	77.25
340.702	94.25
340.93	72.25
341.158	83.25
341.386	79.25
341.614	75.25
341.842	83.25
342.07	81.25
342.298	78.25
342.526	59.25
342.754	81.25
342.981	82.25
343.209	87.25
343.437	101.25
343.665	82.25
343.893	97.25
344.12	84.25
344.348	82.25
344.576	74.25
344.804	82.25
345.031	79.25
345.259	74.25
345.487	83.25
345.714	79.25
345.942	70.25
346.17	81.25
346.397	76.25
346.625	83.25
346.853	90.25
347.08	78.25
347.308	78.25
347.535	92.25
347.763	85.25
347.99	88.25
348.218	83.25
348.445	70.25
348.673	82.25
348.9	95.25
349.128	82.25
349.355	71.25
349.583	89.25
349.81	83.25
350.037	82.25
350.265	84.25
350.492	99.25
350.72	90.25
350.947	89.25
351.174	83.25
351.402	81.25
351.629	83.25
351.856	73.25
352.083	85.25
352.311	85.25
352.538	81.25
352.765	78.25
352.992	79.25
353.22	82.25
353.447	93.25
353.674	90.25
353.901	84.25
354.128	82.25
354.355	88.25
354.583	87.25
354.81	81.25
355.037	74.25
355.264	79.25
355.491	88.25
355.718	87.25
355.945	97.25
356.172	89.25
356.399	94.25
356.626	92.25
356.853	84.25
357.08	93.25
357.307	75.25
357.534	79.25
357.761	77.25
357.988	87.25
358.215	93.25
358.441	91.25
358.668	81.25
358.895	73.25
359.122	81.25
359.349	90.25
359.576	93.25
359.802	88.25
360.029	94.25
360.256	90.25
360.483	93.25
360.709	75.25
360.936	79.25
361.163	85.25
361.39	77.25
361.616	92.25
361.843	85.25
362.07	82.25
362.296	88.25
362.523	97.25
362.749	88.25
362.976	92.25
363.203	91.25
363.429	84.25
363.656	81.25
363.882	79.25
364.109	82.25
364.335	87.25
364.562	106.25
364.788	81.25
365.015	77.25
365.241	72.25
365.468	65.25
365.694	90.25
365.92	87.25
366.147	65.25
366.373	77.25
366.599	97.25
366.826	83.25
367.052	82.25
367.278	91.25
367.505	81.25
367.731	83.25
367.957	77.25
368.184	89.25
368.41	79.25
368.636	83.25
368.862	80.25
369.089	78.25
369.315	86.25
369.541	74.25
369.767	72.25
369.993	95.25
370.219	87.25
370.445	94.25
370.672	83.25
370.898	83.25
371.124	86.25
371.35	94.25
371.576	80.25
371.802	95.25
372.028	98.25
372.254	96.25
372.48	85.25
372.706	91.25
372.932	96.25
373.158	90.25
373.384	96.25
373.61	96.25
373.835	99.25
374.061	78.25
374.287	97.25
374.513	93.25
374.739	100.25
374.965	89.25
375.191	92.25
375.416	93.25
375.642	74.25
375.868	85.25
376.094	99.25
376.319	81.25
376.545	90.25
376.771	88.25
376.997	73.25
377.222	82.25
377.448	84.25
377.674	76.25
377.899	77.25
378.125	64.25
378.35	81.25
378.576	88.25
378.802	74.25
379.027	98.25
379.253	94.25
379.478	89.25
379.704	70.25
379.929	75.25
380.155	89.25
380.38	91.25
380.606	73.25
380.831	94.25
381.057	92.25
381.282	91.25
381.507	89.25
381.733	98.25
381.958	91.25
382.184	95.25
382.409	91.25
382.634	90.25
382.86	101.25
383.085	97.25
383.31	85.25
383.535	88.25
383.761	85.25
383.986	97.25
384.211	89.25
384.436	72.25
384.662	96.25
384.887	80.25
385.112	84.25
385.337	85.25
385.562	88.25
385.787	82.25
386.013	94.25
386.238	81.25
386.463	73.25
386.688	85.25
386.913	87.25
387.138	89.25
387.363	93.25
387.588	97.25
387.813	85.25
388.038	97.25
388.263	81.25
388.488	76.25
388.713	81.25
388.938	71.25
389.163	83.25
389.387	81.25
389.612	82.25
389.837	72.25
390.062	75.25
390.287	76.25
390.512	69.25
390.736	73.25
390.961	69.25
391.186	90.25
391.411	68.25
391.636	90.25
391.86	82.25
392.085	90.25
392.31	102.25
392.534	88.25
392.759	95.25
392.984	137.25
393.208	174.25
393.433	265.25
393.658	201.25
393.882	111.25
394.107	90.25
394.331	83.25
394.556	103.25
394.78	91.25
395.005	87.25
395.229	80.25
395.454	101.25
395.678	91.25
395.903	114.25
396.127	120.25
396.352	126.25
396.576	131.25
396.801	194.25
397.025	216.25
397.249	130.25
397.474	96.25
397.698	88.25
397.922	102.25
398.147	85.25
398.371	71.25
398.595	92.25
398.82	71.25
399.044	87.25
399.268	91.25
399.492	81.25
399.717	87.25
399.941	88.25
400.165	95.25
400.389	85.25
400.613	75.25
400.837	81.25
401.062	85.25
401.286	90.25
401.51	100.25
401.734	88.25
401.958	87.25
402.182	78.25
402.406	80.25
402.63	87.25
402.854	93.25
403.078	93.25
403.302	85.25
403.526	92.25
403.75	80.25
403.974	88.25
404.198	86.25
404.422	95.25
404.645	94.25
404.869	90.25
405.093	69.25
405.317	74.25
405.541	78.25
405.765	83.25
405.988	82.25
406.212	76.25
406.436	79.25
406.66	90.25
406.883	81.25
407.107	87.25
407.331	83.25
407.555	107.25
407.778	104.25
408.002	99.25
408.226	87.25
408.449	76.25
408.673	62.25
408.896	86.25
409.12	80.25
409.344	76.25
409.567	86.25
409.791	83.25
410.014	71.25
410.238	76.25
410.461	79.25
410.685	91.25
410.908	88.25
411.132	86.25
411.355	81.25
411.578	73.25
411.802	77.25
412.025	78.25
412.249	89.25
412.472	95.25
412.695	87.25
412.919	73.25
413.142	73.25
413.365	90.25
413.589	81.25
413.812	74.25
414.035	78.25
414.258	87.25
414.482	81.25
414.705	87.25
414.928	83.25
415.151	81.25
415.374	90.25
415.597	81.25
415.821	77.25
416.044	79.25
416.267	92.25
416.49	93.25
416.713	93.25
416.936	82.25
417.159	93.25
417.382	73.25
417.605	79.25
417.828	79.25
418.051	90.25
418.274	83.25
418.497	76.25
418.72	96.25
418.943	81.25
419.166	71.25
419.389	83.25
419.611	67.25
419.834	69.25
420.057	84.25
420.28	87.25
420.503	89.25
420.726	64.25
420.948	81.25
421.171	96.25
421.394	77.25
421.617	102.25
421.839	101.25
422.062	107.25
422.285	114.25
422.507	185.25
422.73	277.25
422.953	236.25
423.175	131.25
423.398	86.25
423.621	89.25
423.843	91.25
424.066	90.25
424.288	83.25
424.511	62.25
424.733	74.25
424.956	87.25
425.178	84.25
425.401	81.25
425.623	94.25
425.846	81.25
426.068	76.25
426.291	78.25
426.513	99.25
426.735	91.25
426.958	78.25
427.18	83.25
427.402	90.25
427.625	75.25
427.847	81.25
428.069	92.25
428.292	100.25
428.514	99.25
428.736	90.25
428.958	102.25
429.181	96.25
429.403	86.25
429.625	99.25
429.847	103.25
430.069	123.25
430.292	143.25
430.514	117.25
430.736	113.25
430.958	100.25
431.18	83.25
431.402	93.25
431.624	83.25
431.846	107.25
432.068	106.25
432.29	95.25
432.512	95.25
432.734	88.25
432.956	71.25
433.178	90.25
433.4	82.25
433.622	75.25
433.844	74.25
434.066	76.25
434.287	71.25
434.509	71.25
434.731	70.25
434.953	85.25
435.175	82.25
435.397	84.25
435.618	82.25
435.84	89.25
436.062	83.25
436.284	82.25
436.505	86.25
436.727	75.25
436.949	82.25
437.17	73.25
437.392	73.25
437.614	91.25
437.835	94.25
438.057	81.25
438.278	85.25
438.5	90.25
438.721	81.25
438.943	83.25
439.165	79.25
439.386	72.25
439.608	75.25
439.829	79.25
440.05	65.25
440.272	84.25
440.493	89.25
440.715	81.25
440.936	88.25
441.158	76.25
441.379	87.25
441.6	73.25
441.822	94.25
442.043	83.25
442.264	86.25
442.486	96.25
442.707	111.25
442.928	105.25
443.149	102.25
443.371	110.25
443.592	146.25
443.813	134.25
444.034	83.25
444.255	91.25
444.476	81.25
444.698	70.25
444.919	99.25
445.14	174.25
445.361	155.25
445.582	185.25
445.803	159.25
446.024	105.25
446.245	80.25
446.466	76.25
446.687	87.25
446.908	77.25
447.129	82.25
447.35	80.25
447.571	87.25
447.792	87.25
448.013	81.25
448.234	90.25
448.455	78.25
448.675	73.25
448.896	79.25
449.117	76.25
449.338	75.25
449.559	81.25
449.779	79.25
450	73.25
450.221	75.25
450.442	88.25
450.662	81.25
450.883	78.25
451.104	71.25
451.324	74.25
451.545	65.25
451.766	80.25
451.986	69.25
452.207	85.25
452.428	86.25
452.648	87.25
452.869	95.25
453.089	86.25
453.31	76.25
453.53	95.25
453.751	86.25
453.971	80.25
454.192	76.25
454.412	74.25
454.633	73.25
454.853	81.25
455.073	79.25
455.294	79.25
455.514	94.25
455.734	76.25
455.955	81.25
456.175	78.25
456.395	81.25
456.616	83.25
456.836	82.25
457.056	74.25
457.276	78.25
457.497	75.25
457.717	88.25
457.937	90.25
458.157	93.25
458.377	91.25
458.598	94.25
458.818	104.25
459.038	75.25
459.258	91.25
459.478	90.25
459.698	76.25
459.918	85.25
460.138	80.25
460.358	79.25
460.578	85.25
460.798	118.25
461.018	102.25
461.238	92.25
461.458	78.25
461.678	70.25
461.898	85.25
462.118	70.25
462.338	78.25
462.558	79.25
462.777	89.25
462.997	82.25
463.217	84.25
463.437	80.25
463.657	83.25
463.876	85.25
464.096	76.25
464.316	63.25
464.536	76.25
464.755	71.25
464.975	71.25
465.195	81.25
465.414	74.25
465.634	79.25
465.854	89.25
466.073	81.25
466.293	79.25
466.512	65.25
466.732	82.25
466.951	78.25
467.171	81.25
467.391	89.25
467.61	78.25
467.829	87.25
468.049	78.25
468.268	70.25
468.488	69.25
468.707	94.25
468.927	75.25
469.146	77.25
469.365	83.25
469.585	86.25
469.804	80.25
470.023	77.25
470.243	75.25
470.462	83.25
470.681	82.25
470.901	73.25
471.12	74.25
471.339	78.25
471.558	68.25
471.777	65.25
471.997	82.25
472.216	71.25
472.435	73.25
472.654	81.25
472.873	97.25
473.092	85.25
473.311	78.25
473.53	90.25
473.749	86.25
473.968	90.25
474.187	81.25
474.406	87.25
474.625	84.25
474.844	83.25
475.063	81.25
475.282	69.25
475.501	72.25
475.72	93.25
475.939	85.25
476.158	79.25
476.377	78.25
476.596	81.25
476.814	83.25
477.033	75.25
477.252	98.25
477.471	79.25
477.69	69.25
477.908	69.25
478.127	81.25
478.346	95.25
478.564	77.25
478.783	74.25
479.002	92.25
479.22	71.25
479.439	72.25
479.658	82.25
479.876	88.25
480.095	87.25
480.313	85.25
480.532	81.25
480.751	84.25
480.969	84.25
481.188	85.25
481.406	91.25
481.624	85.25
481.843	84.25
482.061	85.25
482.28	85.25
482.498	89.25
482.717	87.25
482.935	65.25
483.153	79.25
483.372	77.25
483.59	78.25
483.808	95.25
484.027	83.25
484.245	110.25
484.463	89.25
484.681	83.25
484.9	75.25
485.118	81.25
485.336	62.25
485.554	82.25
485.772	79.25
485.99	84.25
486.209	65.25
486.427	88.25
486.645	93.25
486.863	97.25
487.081	93.25
487.299	90.25
487.517	96.25
487.735	87.25
487.953	115.25
488.171	96.25
488.389	84.25
488.607	87.25
488.825	88.25
489.043	71.25
489.261	89.25
489.479	77.25
489.696	86.25
489.914	99.25
490.132	85.25
490.35	87.25
490.568	90.25
490.786	84.25
491.003	74.25
491.221	73.25
491.439	73.25
491.657	102.25
491.874	82.25
492.092	88.25
492.31	92.25
492.527	82.25
492.745	84.25
492.963	83.25
493.18	69.25
493.398	84.25
493.615	85.25
493.833	87.25
494.05	90.25
494.268	71.25
494.485	75.25
494.703	90.25
494.92	86.25
495.138	88.25
495.355	90.25
495.573	77.25
495.79	87.25
496.008	95.25
496.225	88.25
496.442	88.25
496.66	94.25
496.877	86.25
497.094	82.25
497.312	79.25
497.529	70.25
497.746	84.25
497.963	81.25
498.181	77.25
498.398	91.25
498.615	98.25
498.832	82.25
499.049	96.25
499.267	89.25
499.484	97.25
499.701	80.25
499.918	90.25
500.135	81.25
500.352	88.25
500.569	80.25
500.786	95.25
501.003	99.25
501.22	83.25
501.437	86.25
501.654	81.25
501.871	82.25
502.088	78.25
502.305	65.25
502.522	91.25
502.739	87.25
502.956	85.25
503.172	89.25
503.389	75.25
503.606	99.25
503.823	93.25
504.04	97.25
504.256	104.25
504.473	89.25
504.69	84.25
504.907	86.25
505.123	79.25
505.34	90.25
505.557	71.25
505.773	87.25
505.99	98.25
506.207	87.25
506.423	81.25
506.64	85.25
506.856	80.25
507.073	99.25
507.289	82.25
507.506	72.25
507.722	85.25
507.939	84.25
508.155	94.25
508.372	79.25
508.588	89.25
508.805	104.25
509.021	79.25
509.238	94.25
509.454	90.25
509.67	74.25
509.887	78.25
510.103	71.25
510.319	85.25
510.536	81.25
510.752	81.25
510.968	85.25
511.184	67.25
511.401	63.25
511.617	87.25
511.833	81.25
512.049	85.25
512.265	88.25
512.481	83.25
512.698	65.25
512.914	83.25
513.13	77.25
513.346	81.25
513.562	87.25
513.778	91.25
513.994	81.25
514.21	84.25
514.426	83.25
514.642	93.25
514.858	81.25
515.074	71.25
515.29	88.25
515.506	87.25
515.721	90.25
515.937	102.25
516.153	85.25
516.369	83.25
516.585	84.25
516.801	89.25
517.016	91.25
517.232	93.25
517.448	94.25
517.664	93.25
517.879	108.25
518.095	83.25
518.311	90.25
518.527	81.25
518.742	94.25
518.958	97.25
519.173	99.25
519.389	92.25
