Data from 15780_1_HRD10591_00017.txt Node
Date: Mon Jan 19 14:18:18 EST 2026
User: Yrep
Spectrometer: HR+D1059
Trigger mode: 1
Integration Time (sec): 1.000000E-1
Scans to average: 1
Electric dark correction enabled: true
Nonlinearity correction enabled: false
Boxcar width: 0
XAxis mode: Wavelengths
Number of Pixels in Spectrum: 2048
>>>>>Begin Spectral Data<<<<<
223.165	-22.19
223.4	-22.19
223.635	-22.19
223.869	-21.19
224.104	-12.19
224.338	-1.19
224.573	-12.19
224.808	-19.19
225.042	-3.19
225.277	-4.19
225.511	6.81
225.746	0.81
225.98	8.81
226.215	16.81
226.449	4.81
226.683	14.81
226.918	19.81
227.152	22.81
227.387	36.81
227.621	38.81
227.856	51.81
228.09	50.81
228.324	49.81
228.559	64.81
228.793	69.81
229.027	73.81
229.262	61.81
229.496	66.81
229.73	75.81
229.964	69.81
230.199	68.81
230.433	68.81
230.667	74.81
230.901	66.81
231.136	74.81
231.37	70.81
231.604	74.81
231.838	96.81
232.072	80.81
232.306	83.81
232.541	79.81
232.775	97.81
233.009	73.81
233.243	80.81
233.477	95.81
233.711	68.81
233.945	87.81
234.179	84.81
234.413	83.81
234.647	96.81
234.881	74.81
235.115	74.81
235.349	82.81
235.583	78.81
235.817	74.81
236.051	84.81
236.285	70.81
236.519	75.81
236.753	72.81
236.987	79.81
237.221	74.81
237.455	82.81
237.689	81.81
237.922	88.81
238.156	70.81
238.39	76.81
238.624	85.81
238.858	68.81
239.091	74.81
239.325	70.81
239.559	78.81
239.793	81.81
240.027	74.81
240.26	72.81
240.494	79.81
240.728	74.81
240.961	75.81
241.195	88.81
241.429	68.81
241.662	75.81
241.896	74.81
242.13	77.81
242.363	88.81
242.597	71.81
242.83	79.81
243.064	80.81
243.298	84.81
243.531	90.81
243.765	78.81
243.998	76.81
244.232	89.81
244.465	80.81
244.699	82.81
244.932	85.81
245.166	91.81
245.399	83.81
245.633	71.81
245.866	78.81
246.099	64.81
246.333	68.81
246.566	65.81
246.8	77.81
247.033	74.81
247.266	76.81
247.5	82.81
247.733	70.81
247.966	83.81
248.2	82.81
248.433	85.81
248.666	79.81
248.899	68.81
249.133	82.81
249.366	84.81
249.599	66.81
249.832	84.81
250.066	77.81
250.299	78.81
250.532	76.81
250.765	78.81
250.998	73.81
251.231	77.81
251.465	68.81
251.698	78.81
251.931	93.81
252.164	71.81
252.397	91.81
252.63	84.81
252.863	77.81
253.096	78.81
253.329	79.81
253.562	78.81
253.795	77.81
254.028	89.81
254.261	101.81
254.494	71.81
254.727	79.81
254.96	72.81
255.193	76.81
255.426	72.81
255.659	69.81
255.892	72.81
256.124	89.81
256.357	91.81
256.59	74.81
256.823	77.81
257.056	81.81
257.289	82.81
257.521	86.81
257.754	89.81
257.987	75.81
258.22	82.81
258.452	69.81
258.685	92.81
258.918	71.81
259.151	84.81
259.383	81.81
259.616	86.81
259.849	85.81
260.081	75.81
260.314	82.81
260.547	84.81
260.779	83.81
261.012	81.81
261.244	81.81
261.477	83.81
261.71	76.81
261.942	79.81
262.175	78.81
262.407	109.81
262.64	93.81
262.872	78.81
263.105	95.81
263.337	84.81
263.57	78.81
263.802	85.81
264.035	88.81
264.267	79.81
264.499	76.81
264.732	83.81
264.964	98.81
265.197	74.81
265.429	84.81
265.661	88.81
265.894	73.81
266.126	86.81
266.358	70.81
266.591	93.81
266.823	81.81
267.055	76.81
267.287	79.81
267.52	82.81
267.752	83.81
267.984	72.81
268.216	77.81
268.448	79.81
268.681	81.81
268.913	83.81
269.145	88.81
269.377	88.81
269.609	84.81
269.841	83.81
270.073	88.81
270.306	82.81
270.538	81.81
270.77	69.81
271.002	86.81
271.234	93.81
271.466	69.81
271.698	89.81
271.93	78.81
272.162	78.81
272.394	79.81
272.626	76.81
272.858	79.81
273.09	77.81
273.322	77.81
273.553	84.81
273.785	77.81
274.017	89.81
274.249	89.81
274.481	91.81
274.713	95.81
274.945	76.81
275.176	74.81
275.408	90.81
275.64	77.81
275.872	87.81
276.104	79.81
276.335	86.81
276.567	79.81
276.799	84.81
277.031	96.81
277.262	70.81
277.494	87.81
277.726	96.81
277.957	82.81
278.189	83.81
278.421	79.81
278.652	80.81
278.884	86.81
279.115	70.81
279.347	92.81
279.579	94.81
279.81	89.81
280.042	105.81
280.273	70.81
280.505	73.81
280.736	91.81
280.968	99.81
281.199	84.81
281.431	74.81
281.662	77.81
281.894	78.81
282.125	77.81
282.356	94.81
282.588	84.81
282.819	86.81
283.051	101.81
283.282	86.81
283.513	96.81
283.745	94.81
283.976	90.81
284.207	71.81
284.439	75.81
284.67	91.81
284.901	81.81
285.132	77.81
285.364	84.81
285.595	78.81
285.826	63.81
286.057	88.81
286.288	83.81
286.52	84.81
286.751	91.81
286.982	92.81
287.213	77.81
287.444	91.81
287.675	86.81
287.906	98.81
288.138	91.81
288.369	90.81
288.6	90.81
288.831	69.81
289.062	71.81
289.293	91.81
289.524	73.81
289.755	78.81
289.986	86.81
290.217	92.81
290.448	89.81
290.679	89.81
290.91	86.81
291.141	75.81
291.371	94.81
291.602	85.81
291.833	90.81
292.064	71.81
292.295	93.81
292.526	83.81
292.757	94.81
292.987	82.81
293.218	91.81
293.449	78.81
293.68	92.81
293.91	81.81
294.141	85.81
294.372	101.81
294.603	87.81
294.833	82.81
295.064	84.81
295.295	93.81
295.525	95.81
295.756	84.81
295.987	97.81
296.217	84.81
296.448	85.81
296.679	99.81
296.909	84.81
297.14	73.81
297.37	97.81
297.601	87.81
297.831	78.81
298.062	91.81
298.292	84.81
298.523	76.81
298.753	96.81
298.984	75.81
299.214	69.81
299.445	76.81
299.675	93.81
299.905	70.81
300.136	83.81
300.366	78.81
300.597	77.81
300.827	91.81
301.057	94.81
301.288	64.81
301.518	70.81
301.748	77.81
301.979	101.81
302.209	86.81
302.439	79.81
302.669	90.81
302.9	83.81
303.13	74.81
303.36	92.81
303.59	82.81
303.82	87.81
304.051	82.81
304.281	96.81
304.511	84.81
304.741	79.81
304.971	87.81
305.201	70.81
305.431	78.81
305.661	86.81
305.891	83.81
306.121	87.81
306.352	76.81
306.582	69.81
306.812	85.81
307.042	71.81
307.272	84.81
307.502	86.81
307.731	86.81
307.961	91.81
308.191	86.81
308.421	82.81
308.651	85.81
308.881	80.81
309.111	82.81
309.341	92.81
309.571	88.81
309.8	84.81
310.03	90.81
310.26	90.81
310.49	86.81
310.72	81.81
310.949	85.81
311.179	97.81
311.409	77.81
311.639	82.81
311.868	83.81
312.098	73.81
312.328	78.81
312.557	78.81
312.787	91.81
313.017	90.81
313.246	87.81
313.476	87.81
313.706	73.81
313.935	80.81
314.165	84.81
314.394	86.81
314.624	90.81
314.853	85.81
315.083	94.81
315.312	89.81
315.542	86.81
315.771	89.81
316.001	86.81
316.23	101.81
316.46	78.81
316.689	82.81
316.919	94.81
317.148	79.81
317.377	88.81
317.607	81.81
317.836	79.81
318.065	62.81
318.295	92.81
318.524	79.81
318.753	89.81
318.983	83.81
319.212	80.81
319.441	82.81
319.67	105.81
319.9	85.81
320.129	90.81
320.358	83.81
320.587	94.81
320.816	85.81
321.046	93.81
321.275	88.81
321.504	78.81
321.733	74.81
321.962	86.81
322.191	78.81
322.42	95.81
322.649	93.81
322.878	67.81
323.108	79.81
323.337	73.81
323.566	85.81
323.795	73.81
324.024	86.81
324.253	88.81
324.482	73.81
324.71	83.81
324.939	101.81
325.168	73.81
325.397	86.81
325.626	88.81
325.855	76.81
326.084	71.81
326.313	91.81
326.542	88.81
326.77	78.81
326.999	74.81
327.228	75.81
327.457	79.81
327.686	69.81
327.914	88.81
328.143	89.81
328.372	85.81
328.6	90.81
328.829	78.81
329.058	93.81
329.287	88.81
329.515	91.81
329.744	76.81
329.972	83.81
330.201	80.81
330.43	94.81
330.658	89.81
330.887	84.81
331.115	79.81
331.344	74.81
331.572	90.81
331.801	80.81
332.03	77.81
332.258	93.81
332.486	88.81
332.715	78.81
332.943	91.81
333.172	78.81
333.4	78.81
333.629	89.81
333.857	96.81
334.085	80.81
334.314	86.81
334.542	74.81
334.771	74.81
334.999	88.81
335.227	84.81
335.455	72.81
335.684	96.81
335.912	77.81
336.14	86.81
336.369	83.81
336.597	75.81
336.825	75.81
337.053	94.81
337.281	74.81
337.51	73.81
337.738	83.81
337.966	75.81
338.194	76.81
338.422	84.81
338.65	89.81
338.878	79.81
339.106	85.81
339.334	91.81
339.562	86.81
339.79	82.81
340.018	80.81
340.246	74.81
340.474	83.81
340.702	64.81
340.93	86.81
341.158	84.81
341.386	84.81
341.614	70.81
341.842	91.81
342.07	93.81
342.298	78.81
342.526	93.81
342.754	90.81
342.981	89.81
343.209	84.81
343.437	98.81
343.665	100.81
343.893	83.81
344.12	83.81
344.348	84.81
344.576	84.81
344.804	85.81
345.031	74.81
345.259	79.81
345.487	94.81
345.714	82.81
345.942	87.81
346.17	88.81
346.397	83.81
346.625	74.81
346.853	71.81
347.08	87.81
347.308	92.81
347.535	93.81
347.763	89.81
347.99	85.81
348.218	94.81
348.445	85.81
348.673	79.81
348.9	81.81
349.128	87.81
349.355	84.81
349.583	71.81
349.81	60.81
350.037	62.81
350.265	92.81
350.492	82.81
350.72	82.81
350.947	79.81
351.174	92.81
351.402	90.81
351.629	76.81
351.856	84.81
352.083	78.81
352.311	82.81
352.538	84.81
352.765	78.81
352.992	90.81
353.22	79.81
353.447	78.81
353.674	90.81
353.901	83.81
354.128	81.81
354.355	88.81
354.583	75.81
354.81	88.81
355.037	85.81
355.264	93.81
355.491	100.81
355.718	78.81
355.945	86.81
356.172	83.81
356.399	86.81
356.626	77.81
356.853	93.81
357.08	89.81
357.307	72.81
357.534	89.81
357.761	76.81
357.988	78.81
358.215	83.81
358.441	70.81
358.668	75.81
358.895	85.81
359.122	80.81
359.349	88.81
359.576	90.81
359.802	81.81
360.029	73.81
360.256	88.81
360.483	68.81
360.709	78.81
360.936	95.81
361.163	75.81
361.39	77.81
361.616	92.81
361.843	74.81
362.07	96.81
362.296	78.81
362.523	84.81
362.749	93.81
362.976	89.81
363.203	99.81
363.429	78.81
363.656	78.81
363.882	75.81
364.109	94.81
364.335	81.81
364.562	92.81
364.788	88.81
365.015	85.81
365.241	90.81
365.468	81.81
365.694	82.81
365.92	75.81
366.147	84.81
366.373	76.81
366.599	78.81
366.826	73.81
367.052	65.81
367.278	84.81
367.505	68.81
367.731	104.81
367.957	78.81
368.184	69.81
368.41	85.81
368.636	79.81
368.862	79.81
369.089	68.81
369.315	72.81
369.541	88.81
369.767	87.81
369.993	83.81
370.219	70.81
370.445	80.81
370.672	67.81
370.898	88.81
371.124	77.81
371.35	80.81
371.576	78.81
371.802	86.81
372.028	82.81
372.254	74.81
372.48	78.81
372.706	89.81
372.932	90.81
373.158	78.81
373.384	85.81
373.61	91.81
373.835	79.81
374.061	82.81
374.287	98.81
374.513	74.81
374.739	90.81
374.965	90.81
375.191	88.81
375.416	86.81
375.642	101.81
375.868	73.81
376.094	79.81
376.319	62.81
376.545	76.81
376.771	71.81
376.997	90.81
377.222	94.81
377.448	91.81
377.674	95.81
377.899	87.81
378.125	83.81
378.35	83.81
378.576	73.81
378.802	76.81
379.027	98.81
379.253	88.81
379.478	79.81
379.704	67.81
379.929	74.81
380.155	82.81
380.38	97.81
380.606	92.81
380.831	64.81
381.057	94.81
381.282	92.81
381.507	80.81
381.733	94.81
381.958	76.81
382.184	73.81
382.409	93.81
382.634	88.81
382.86	99.81
383.085	102.81
383.31	88.81
383.535	83.81
383.761	80.81
383.986	78.81
384.211	71.81
384.436	86.81
384.662	75.81
384.887	64.81
385.112	84.81
385.337	104.81
385.562	81.81
385.787	72.81
386.013	84.81
386.238	77.81
386.463	84.81
386.688	92.81
386.913	78.81
387.138	94.81
387.363	73.81
387.588	94.81
387.813	100.81
388.038	87.81
388.263	86.81
388.488	75.81
388.713	81.81
388.938	74.81
389.163	84.81
389.387	74.81
389.612	83.81
389.837	80.81
390.062	93.81
390.287	84.81
390.512	85.81
390.736	67.81
390.961	85.81
391.186	70.81
391.411	81.81
391.636	67.81
391.86	93.81
392.085	78.81
392.31	85.81
392.534	93.81
392.759	86.81
392.984	108.81
393.208	121.81
393.433	124.81
393.658	122.81
393.882	85.81
394.107	84.81
394.331	96.81
394.556	94.81
394.78	90.81
395.005	90.81
395.229	80.81
395.454	85.81
395.678	72.81
395.903	81.81
396.127	84.81
396.352	104.81
396.576	107.81
396.801	142.81
397.025	141.81
397.249	106.81
397.474	79.81
397.698	74.81
397.922	97.81
398.147	81.81
398.371	74.81
398.595	94.81
398.82	83.81
399.044	79.81
399.268	81.81
399.492	86.81
399.717	82.81
399.941	77.81
400.165	82.81
400.389	82.81
400.613	85.81
400.837	93.81
401.062	84.81
401.286	92.81
401.51	78.81
401.734	83.81
401.958	80.81
402.182	84.81
402.406	85.81
402.63	90.81
402.854	81.81
403.078	88.81
403.302	81.81
403.526	85.81
403.75	79.81
403.974	82.81
404.198	89.81
404.422	96.81
404.645	89.81
404.869	100.81
405.093	97.81
405.317	82.81
405.541	87.81
405.765	76.81
405.988	77.81
406.212	82.81
406.436	74.81
406.66	77.81
406.883	71.81
407.107	82.81
407.331	93.81
407.555	86.81
407.778	81.81
408.002	101.81
408.226	88.81
408.449	84.81
408.673	78.81
408.896	86.81
409.12	89.81
409.344	82.81
409.567	78.81
409.791	96.81
410.014	87.81
410.238	83.81
410.461	84.81
410.685	67.81
410.908	79.81
411.132	93.81
411.355	75.81
411.578	89.81
411.802	80.81
412.025	66.81
412.249	76.81
412.472	81.81
412.695	79.81
412.919	83.81
413.142	89.81
413.365	81.81
413.589	67.81
413.812	77.81
414.035	72.81
414.258	88.81
414.482	69.81
414.705	86.81
414.928	82.81
415.151	95.81
415.374	88.81
415.597	82.81
415.821	95.81
416.044	77.81
416.267	86.81
416.49	78.81
416.713	78.81
416.936	69.81
417.159	85.81
417.382	66.81
417.605	75.81
417.828	81.81
418.051	79.81
418.274	90.81
418.497	82.81
418.72	84.81
418.943	81.81
419.166	84.81
419.389	84.81
419.611	91.81
419.834	91.81
420.057	78.81
420.28	74.81
420.503	70.81
420.726	86.81
420.948	80.81
421.171	91.81
421.394	61.81
421.617	81.81
421.839	80.81
422.062	91.81
422.285	91.81
422.507	124.81
422.73	167.81
422.953	147.81
423.175	104.81
423.398	104.81
423.621	94.81
423.843	81.81
424.066	74.81
424.288	89.81
424.511	86.81
424.733	89.81
424.956	91.81
425.178	82.81
425.401	79.81
425.623	88.81
425.846	84.81
426.068	87.81
426.291	78.81
426.513	72.81
426.735	76.81
426.958	74.81
427.18	84.81
427.402	77.81
427.625	90.81
427.847	90.81
428.069	69.81
428.292	87.81
428.514	84.81
428.736	90.81
428.958	102.81
429.181	92.81
429.403	81.81
429.625	85.81
429.847	85.81
430.069	96.81
430.292	105.81
430.514	88.81
430.736	102.81
430.958	90.81
431.18	82.81
431.402	90.81
431.624	85.81
431.846	78.81
432.068	86.81
432.29	106.81
432.512	77.81
432.734	84.81
432.956	83.81
433.178	89.81
433.4	79.81
433.622	73.81
433.844	81.81
434.066	85.81
434.287	81.81
434.509	90.81
434.731	80.81
434.953	86.81
435.175	83.81
435.397	80.81
435.618	78.81
435.84	84.81
436.062	76.81
436.284	89.81
436.505	86.81
436.727	78.81
436.949	68.81
437.17	78.81
437.392	76.81
437.614	78.81
437.835	89.81
438.057	77.81
438.278	86.81
438.5	69.81
438.721	92.81
438.943	90.81
439.165	76.81
439.386	105.81
439.608	84.81
439.829	84.81
440.05	75.81
440.272	75.81
440.493	94.81
440.715	87.81
440.936	78.81
441.158	74.81
441.379	89.81
441.6	84.81
441.822	77.81
442.043	74.81
442.264	83.81
442.486	91.81
442.707	92.81
442.928	74.81
443.149	92.81
443.371	93.81
443.592	110.81
443.813	96.81
444.034	93.81
444.255	91.81
444.476	76.81
444.698	83.81
444.919	78.81
445.14	168.81
445.361	130.81
445.582	120.81
445.803	109.81
446.024	91.81
446.245	94.81
446.466	68.81
446.687	90.81
446.908	85.81
447.129	82.81
447.35	85.81
447.571	94.81
447.792	79.81
448.013	86.81
448.234	75.81
448.455	84.81
448.675	88.81
448.896	85.81
449.117	79.81
449.338	76.81
449.559	88.81
449.779	87.81
450	80.81
450.221	84.81
450.442	83.81
450.662	81.81
450.883	82.81
451.104	78.81
451.324	90.81
451.545	79.81
451.766	76.81
451.986	78.81
452.207	78.81
452.428	83.81
452.648	90.81
452.869	90.81
453.089	87.81
453.31	103.81
453.53	72.81
453.751	91.81
453.971	85.81
454.192	93.81
454.412	79.81
454.633	95.81
454.853	78.81
455.073	83.81
455.294	86.81
455.514	94.81
455.734	82.81
455.955	79.81
456.175	76.81
456.395	72.81
456.616	94.81
456.836	83.81
457.056	90.81
457.276	84.81
457.497	84.81
457.717	83.81
457.937	71.81
458.157	89.81
458.377	93.81
458.598	90.81
458.818	90.81
459.038	88.81
459.258	83.81
459.478	63.81
459.698	91.81
459.918	74.81
460.138	88.81
460.358	82.81
460.578	90.81
460.798	92.81
461.018	83.81
461.238	83.81
461.458	81.81
461.678	74.81
461.898	84.81
462.118	92.81
462.338	96.81
462.558	81.81
462.777	81.81
462.997	86.81
463.217	78.81
463.437	81.81
463.657	75.81
463.876	81.81
464.096	82.81
464.316	78.81
464.536	86.81
464.755	81.81
464.975	93.81
465.195	95.81
465.414	79.81
465.634	84.81
465.854	73.81
466.073	68.81
466.293	57.81
466.512	76.81
466.732	77.81
466.951	96.81
467.171	71.81
467.391	82.81
467.61	73.81
467.829	76.81
468.049	96.81
468.268	87.81
468.488	85.81
468.707	83.81
468.927	96.81
469.146	98.81
469.365	90.81
469.585	87.81
469.804	73.81
470.023	82.81
470.243	74.81
470.462	91.81
470.681	85.81
470.901	88.81
471.12	93.81
471.339	93.81
471.558	93.81
471.777	81.81
471.997	78.81
472.216	88.81
472.435	79.81
472.654	85.81
472.873	79.81
473.092	87.81
473.311	81.81
473.53	84.81
473.749	93.81
473.968	82.81
474.187	80.81
474.406	70.81
474.625	87.81
474.844	98.81
475.063	84.81
475.282	85.81
475.501	85.81
475.72	84.81
475.939	78.81
476.158	92.81
476.377	88.81
476.596	90.81
476.814	90.81
477.033	85.81
477.252	84.81
477.471	78.81
477.69	93.81
477.908	85.81
478.127	84.81
478.346	89.81
478.564	78.81
478.783	79.81
479.002	84.81
479.22	96.81
479.439	90.81
479.658	74.81
479.876	85.81
480.095	98.81
480.313	85.81
480.532	62.81
480.751	79.81
480.969	76.81
481.188	74.81
481.406	93.81
481.624	88.81
481.843	91.81
482.061	80.81
482.28	101.81
482.498	84.81
482.717	83.81
482.935	81.81
483.153	87.81
483.372	85.81
483.59	82.81
483.808	66.81
484.027	88.81
484.245	81.81
484.463	70.81
484.681	94.81
484.9	90.81
485.118	94.81
485.336	78.81
485.554	82.81
485.772	78.81
485.99	62.81
486.209	74.81
486.427	83.81
486.645	70.81
486.863	76.81
487.081	85.81
487.299	82.81
487.517	86.81
487.735	92.81
487.953	105.81
488.171	101.81
488.389	97.81
488.607	74.81
488.825	82.81
489.043	85.81
489.261	77.81
489.479	83.81
489.696	93.81
489.914	82.81
490.132	82.81
490.35	87.81
490.568	98.81
490.786	81.81
491.003	75.81
491.221	84.81
491.439	91.81
491.657	75.81
491.874	85.81
492.092	86.81
492.31	86.81
492.527	87.81
492.745	90.81
492.963	86.81
493.18	81.81
493.398	83.81
493.615	74.81
493.833	97.81
494.05	85.81
494.268	89.81
494.485	88.81
494.703	96.81
494.92	97.81
495.138	84.81
495.355	77.81
495.573	89.81
495.79	88.81
496.008	71.81
496.225	76.81
496.442	92.81
496.66	91.81
496.877	89.81
497.094	88.81
497.312	87.81
497.529	90.81
497.746	88.81
497.963	92.81
498.181	82.81
498.398	94.81
498.615	86.81
498.832	83.81
499.049	90.81
499.267	98.81
499.484	98.81
499.701	82.81
499.918	101.81
500.135	103.81
500.352	92.81
500.569	85.81
500.786	75.81
501.003	81.81
501.22	84.81
501.437	72.81
501.654	100.81
501.871	94.81
502.088	76.81
502.305	87.81
502.522	95.81
502.739	81.81
502.956	80.81
503.172	85.81
503.389	85.81
503.606	88.81
503.823	87.81
504.04	89.81
504.256	100.81
504.473	78.81
504.69	91.81
504.907	94.81
505.123	87.81
505.34	86.81
505.557	96.81
505.773	90.81
505.99	89.81
506.207	87.81
506.423	82.81
506.64	84.81
506.856	84.81
507.073	92.81
507.289	87.81
507.506	82.81
507.722	83.81
507.939	75.81
508.155	88.81
508.372	88.81
508.588	77.81
508.805	76.81
509.021	73.81
509.238	89.81
509.454	97.81
509.67	92.81
509.887	92.81
510.103	90.81
510.319	79.81
510.536	104.81
510.752	85.81
510.968	80.81
511.184	77.81
511.401	94.81
511.617	81.81
511.833	83.81
512.049	81.81
512.265	81.81
512.481	89.81
512.698	78.81
512.914	79.81
513.13	80.81
513.346	81.81
513.562	98.81
513.778	96.81
513.994	71.81
514.21	76.81
514.426	84.81
514.642	85.81
514.858	83.81
515.074	83.81
515.29	94.81
515.506	87.81
515.721	81.81
515.937	86.81
516.153	77.81
516.369	86.81
516.585	93.81
516.801	91.81
517.016	105.81
517.232	93.81
517.448	84.81
517.664	75.81
517.879	88.81
518.095	78.81
518.311	92.81
518.527	94.81
518.742	76.81
518.958	106.81
519.173	105.81
519.389	85.81
519.605	97.81
