Data from 15780_1_HRD10591_00041.txt Node
Date: Mon Jan 19 14:18:30 EST 2026
User: Yrep
Spectrometer: HR+D1059
Trigger mode: 1
Integration Time (sec): 1.000000E-1
Scans to average: 1
Electric dark correction enabled: true
Nonlinearity correction enabled: false
Boxcar width: 0
XAxis mode: Wavelengths
Number of Pixels in Spectrum: 2048
>>>>>Begin Spectral Data<<<<<
223.165	-29.12
223.4	-29.12
223.635	-29.12
223.869	-7.12
224.104	-16.12
224.338	-20.12
224.573	-11.12
224.808	3.88
225.042	-12.12
225.277	-8.12
225.511	-4.12
225.746	-5.12
225.98	7.88
226.215	21.88
226.449	5.88
226.683	14.88
226.918	23.88
227.152	34.88
227.387	37.88
227.621	38.88
227.856	26.88
228.09	39.88
228.324	44.88
228.559	59.88
228.793	57.88
229.027	68.88
229.262	67.88
229.496	84.88
229.73	82.88
229.964	67.88
230.199	85.88
230.433	69.88
230.667	63.88
230.901	78.88
231.136	73.88
231.37	83.88
231.604	84.88
231.838	93.88
232.072	85.88
232.306	81.88
232.541	82.88
232.775	82.88
233.009	82.88
233.243	78.88
233.477	79.88
233.711	77.88
233.945	94.88
234.179	81.88
234.413	91.88
234.647	77.88
234.881	78.88
235.115	77.88
235.349	74.88
235.583	75.88
235.817	77.88
236.051	83.88
236.285	67.88
236.519	81.88
236.753	79.88
236.987	74.88
237.221	70.88
237.455	80.88
237.689	87.88
237.922	75.88
238.156	75.88
238.39	75.88
238.624	75.88
238.858	77.88
239.091	76.88
239.325	76.88
239.559	82.88
239.793	63.88
240.027	83.88
240.26	83.88
240.494	80.88
240.728	85.88
240.961	76.88
241.195	69.88
241.429	83.88
241.662	93.88
241.896	71.88
242.13	77.88
242.363	63.88
242.597	70.88
242.83	82.88
243.064	69.88
243.298	67.88
243.531	78.88
243.765	75.88
243.998	86.88
244.232	73.88
244.465	79.88
244.699	71.88
244.932	74.88
245.166	75.88
245.399	71.88
245.633	65.88
245.866	61.88
246.099	85.88
246.333	73.88
246.566	83.88
246.8	74.88
247.033	78.88
247.266	80.88
247.5	85.88
247.733	87.88
247.966	78.88
248.2	73.88
248.433	85.88
248.666	87.88
248.899	80.88
249.133	85.88
249.366	81.88
249.599	73.88
249.832	91.88
250.066	81.88
250.299	74.88
250.532	84.88
250.765	72.88
250.998	71.88
251.231	81.88
251.465	81.88
251.698	82.88
251.931	85.88
252.164	77.88
252.397	71.88
252.63	82.88
252.863	83.88
253.096	75.88
253.329	74.88
253.562	73.88
253.795	79.88
254.028	85.88
254.261	70.88
254.494	78.88
254.727	73.88
254.96	79.88
255.193	76.88
255.426	89.88
255.659	72.88
255.892	73.88
256.124	77.88
256.357	92.88
256.59	82.88
256.823	92.88
257.056	80.88
257.289	74.88
257.521	74.88
257.754	81.88
257.987	75.88
258.22	85.88
258.452	97.88
258.685	101.88
258.918	88.88
259.151	77.88
259.383	74.88
259.616	86.88
259.849	69.88
260.081	73.88
260.314	93.88
260.547	75.88
260.779	79.88
261.012	75.88
261.244	76.88
261.477	84.88
261.71	71.88
261.942	91.88
262.175	82.88
262.407	98.88
262.64	75.88
262.872	68.88
263.105	80.88
263.337	90.88
263.57	85.88
263.802	86.88
264.035	71.88
264.267	71.88
264.499	73.88
264.732	85.88
264.964	93.88
265.197	80.88
265.429	84.88
265.661	75.88
265.894	72.88
266.126	79.88
266.358	77.88
266.591	84.88
266.823	87.88
267.055	87.88
267.287	87.88
267.52	93.88
267.752	90.88
267.984	88.88
268.216	82.88
268.448	99.88
268.681	81.88
268.913	78.88
269.145	94.88
269.377	88.88
269.609	85.88
269.841	88.88
270.073	75.88
270.306	85.88
270.538	89.88
270.77	86.88
271.002	83.88
271.234	91.88
271.466	99.88
271.698	96.88
271.93	79.88
272.162	93.88
272.394	81.88
272.626	94.88
272.858	78.88
273.09	90.88
273.322	94.88
273.553	81.88
273.785	84.88
274.017	92.88
274.249	81.88
274.481	73.88
274.713	89.88
274.945	86.88
275.176	81.88
275.408	89.88
275.64	87.88
275.872	76.88
276.104	88.88
276.335	95.88
276.567	85.88
276.799	77.88
277.031	85.88
277.262	74.88
277.494	102.88
277.726	91.88
277.957	86.88
278.189	89.88
278.421	82.88
278.652	77.88
278.884	93.88
279.115	79.88
279.347	78.88
279.579	82.88
279.81	81.88
280.042	99.88
280.273	90.88
280.505	76.88
280.736	89.88
280.968	79.88
281.199	93.88
281.431	83.88
281.662	87.88
281.894	93.88
282.125	90.88
282.356	95.88
282.588	81.88
282.819	71.88
283.051	90.88
283.282	92.88
283.513	96.88
283.745	83.88
283.976	85.88
284.207	78.88
284.439	85.88
284.67	89.88
284.901	91.88
285.132	106.88
285.364	92.88
285.595	84.88
285.826	90.88
286.057	87.88
286.288	87.88
286.52	85.88
286.751	90.88
286.982	96.88
287.213	83.88
287.444	78.88
287.675	84.88
287.906	98.88
288.138	92.88
288.369	97.88
288.6	97.88
288.831	88.88
289.062	78.88
289.293	86.88
289.524	95.88
289.755	87.88
289.986	89.88
290.217	94.88
290.448	75.88
290.679	97.88
290.91	80.88
291.141	83.88
291.371	83.88
291.602	74.88
291.833	73.88
292.064	73.88
292.295	83.88
292.526	88.88
292.757	100.88
292.987	88.88
293.218	86.88
293.449	73.88
293.68	97.88
293.91	82.88
294.141	87.88
294.372	82.88
294.603	93.88
294.833	97.88
295.064	84.88
295.295	85.88
295.525	85.88
295.756	88.88
295.987	95.88
296.217	81.88
296.448	84.88
296.679	84.88
296.909	70.88
297.14	89.88
297.37	97.88
297.601	72.88
297.831	86.88
298.062	78.88
298.292	90.88
298.523	72.88
298.753	86.88
298.984	89.88
299.214	95.88
299.445	89.88
299.675	87.88
299.905	93.88
300.136	92.88
300.366	101.88
300.597	85.88
300.827	95.88
301.057	90.88
301.288	95.88
301.518	81.88
301.748	97.88
301.979	94.88
302.209	107.88
302.439	80.88
302.669	83.88
302.9	91.88
303.13	88.88
303.36	92.88
303.59	84.88
303.82	98.88
304.051	78.88
304.281	81.88
304.511	79.88
304.741	93.88
304.971	102.88
305.201	81.88
305.431	83.88
305.661	83.88
305.891	84.88
306.121	96.88
306.352	88.88
306.582	92.88
306.812	81.88
307.042	91.88
307.272	84.88
307.502	90.88
307.731	97.88
307.961	92.88
308.191	93.88
308.421	98.88
308.651	95.88
308.881	91.88
309.111	95.88
309.341	93.88
309.571	88.88
309.8	99.88
310.03	106.88
310.26	70.88
310.49	99.88
310.72	83.88
310.949	97.88
311.179	94.88
311.409	94.88
311.639	83.88
311.868	89.88
312.098	89.88
312.328	79.88
312.557	88.88
312.787	85.88
313.017	97.88
313.246	96.88
313.476	90.88
313.706	86.88
313.935	83.88
314.165	86.88
314.394	105.88
314.624	86.88
314.853	79.88
315.083	90.88
315.312	117.88
315.542	93.88
315.771	100.88
316.001	112.88
316.23	91.88
316.46	88.88
316.689	99.88
316.919	99.88
317.148	78.88
317.377	99.88
317.607	93.88
317.836	109.88
318.065	121.88
318.295	109.88
318.524	79.88
318.753	99.88
318.983	85.88
319.212	94.88
319.441	98.88
319.67	108.88
319.9	80.88
320.129	75.88
320.358	85.88
320.587	97.88
320.816	90.88
321.046	88.88
321.275	85.88
321.504	77.88
321.733	87.88
321.962	91.88
322.191	87.88
322.42	87.88
322.649	82.88
322.878	92.88
323.108	91.88
323.337	86.88
323.566	102.88
323.795	93.88
324.024	92.88
324.253	93.88
324.482	98.88
324.71	91.88
324.939	93.88
325.168	85.88
325.397	90.88
325.626	92.88
325.855	83.88
326.084	81.88
326.313	80.88
326.542	85.88
326.77	82.88
326.999	90.88
327.228	83.88
327.457	77.88
327.686	91.88
327.914	97.88
328.143	96.88
328.372	98.88
328.6	83.88
328.829	98.88
329.058	85.88
329.287	69.88
329.515	92.88
329.744	87.88
329.972	95.88
330.201	88.88
330.43	84.88
330.658	99.88
330.887	81.88
331.115	83.88
331.344	95.88
331.572	93.88
331.801	99.88
332.03	78.88
332.258	89.88
332.486	91.88
332.715	79.88
332.943	87.88
333.172	87.88
333.4	74.88
333.629	87.88
333.857	83.88
334.085	81.88
334.314	98.88
334.542	112.88
334.771	100.88
334.999	101.88
335.227	96.88
335.455	92.88
335.684	89.88
335.912	101.88
336.14	99.88
336.369	100.88
336.597	86.88
336.825	101.88
337.053	93.88
337.281	103.88
337.51	75.88
337.738	96.88
337.966	99.88
338.194	95.88
338.422	97.88
338.65	78.88
338.878	93.88
339.106	81.88
339.334	91.88
339.562	86.88
339.79	81.88
340.018	88.88
340.246	92.88
340.474	88.88
340.702	96.88
340.93	87.88
341.158	85.88
341.386	82.88
341.614	82.88
341.842	80.88
342.07	95.88
342.298	103.88
342.526	92.88
342.754	83.88
342.981	88.88
343.209	73.88
343.437	95.88
343.665	75.88
343.893	93.88
344.12	82.88
344.348	101.88
344.576	101.88
344.804	96.88
345.031	77.88
345.259	97.88
345.487	100.88
345.714	71.88
345.942	78.88
346.17	79.88
346.397	87.88
346.625	80.88
346.853	80.88
347.08	83.88
347.308	76.88
347.535	89.88
347.763	91.88
347.99	88.88
348.218	81.88
348.445	91.88
348.673	100.88
348.9	94.88
349.128	93.88
349.355	88.88
349.583	99.88
349.81	83.88
350.037	75.88
350.265	91.88
350.492	83.88
350.72	91.88
350.947	81.88
351.174	95.88
351.402	96.88
351.629	85.88
351.856	74.88
352.083	78.88
352.311	84.88
352.538	88.88
352.765	90.88
352.992	97.88
353.22	92.88
353.447	95.88
353.674	101.88
353.901	89.88
354.128	83.88
354.355	87.88
354.583	81.88
354.81	81.88
355.037	68.88
355.264	83.88
355.491	94.88
355.718	89.88
355.945	98.88
356.172	77.88
356.399	85.88
356.626	86.88
356.853	100.88
357.08	100.88
357.307	100.88
357.534	95.88
357.761	101.88
357.988	108.88
358.215	115.88
358.441	91.88
358.668	95.88
358.895	83.88
359.122	91.88
359.349	103.88
359.576	101.88
359.802	85.88
360.029	74.88
360.256	101.88
360.483	92.88
360.709	95.88
360.936	100.88
361.163	102.88
361.39	98.88
361.616	93.88
361.843	84.88
362.07	98.88
362.296	122.88
362.523	96.88
362.749	95.88
362.976	108.88
363.203	127.88
363.429	99.88
363.656	116.88
363.882	102.88
364.109	104.88
364.335	107.88
364.562	115.88
364.788	104.88
365.015	97.88
365.241	95.88
365.468	93.88
365.694	91.88
365.92	89.88
366.147	86.88
366.373	90.88
366.599	100.88
366.826	103.88
367.052	89.88
367.278	91.88
367.505	86.88
367.731	97.88
367.957	98.88
368.184	88.88
368.41	91.88
368.636	91.88
368.862	89.88
369.089	106.88
369.315	85.88
369.541	87.88
369.767	105.88
369.993	82.88
370.219	84.88
370.445	92.88
370.672	107.88
370.898	103.88
371.124	90.88
371.35	73.88
371.576	89.88
371.802	91.88
372.028	95.88
372.254	121.88
372.48	99.88
372.706	86.88
372.932	95.88
373.158	90.88
373.384	112.88
373.61	135.88
373.835	141.88
374.061	94.88
374.287	85.88
374.513	98.88
374.739	91.88
374.965	104.88
375.191	107.88
375.416	105.88
375.642	93.88
375.868	99.88
376.094	93.88
376.319	83.88
376.545	80.88
376.771	93.88
376.997	91.88
377.222	87.88
377.448	91.88
377.674	93.88
377.899	83.88
378.125	87.88
378.35	96.88
378.576	81.88
378.802	72.88
379.027	88.88
379.253	90.88
379.478	91.88
379.704	100.88
379.929	92.88
380.155	95.88
380.38	106.88
380.606	85.88
380.831	89.88
381.057	97.88
381.282	91.88
381.507	95.88
381.733	99.88
381.958	97.88
382.184	93.88
382.409	106.88
382.634	102.88
382.86	99.88
383.085	105.88
383.31	91.88
383.535	111.88
383.761	116.88
383.986	115.88
384.211	103.88
384.436	93.88
384.662	84.88
384.887	94.88
385.112	97.88
385.337	101.88
385.562	92.88
385.787	99.88
386.013	100.88
386.238	97.88
386.463	98.88
386.688	118.88
386.913	93.88
387.138	104.88
387.363	96.88
387.588	107.88
387.813	87.88
388.038	103.88
388.263	115.88
388.488	105.88
388.713	95.88
388.938	83.88
389.163	91.88
389.387	84.88
389.612	99.88
389.837	89.88
390.062	100.88
390.287	93.88
390.512	104.88
390.736	96.88
390.961	88.88
391.186	100.88
391.411	87.88
391.636	79.88
391.86	114.88
392.085	115.88
392.31	108.88
392.534	126.88
392.759	154.88
392.984	233.88
393.208	469.88
393.433	683.88
393.658	522.88
393.882	203.88
394.107	136.88
394.331	147.88
394.556	160.88
394.78	123.88
395.005	111.88
395.229	93.88
395.454	89.88
395.678	111.88
395.903	140.88
396.127	192.88
396.352	230.88
396.576	274.88
396.801	449.88
397.025	529.88
397.249	275.88
397.474	139.88
397.698	114.88
397.922	108.88
398.147	87.88
398.371	86.88
398.595	95.88
398.82	102.88
399.044	88.88
399.268	97.88
399.492	88.88
399.717	97.88
399.941	83.88
400.165	101.88
400.389	76.88
400.613	96.88
400.837	80.88
401.062	101.88
401.286	83.88
401.51	79.88
401.734	91.88
401.958	82.88
402.182	95.88
402.406	91.88
402.63	93.88
402.854	94.88
403.078	90.88
403.302	92.88
403.526	86.88
403.75	95.88
403.974	99.88
404.198	135.88
404.422	188.88
404.645	224.88
404.869	161.88
405.093	124.88
405.317	96.88
405.541	91.88
405.765	101.88
405.988	80.88
406.212	95.88
406.436	111.88
406.66	91.88
406.883	93.88
407.107	82.88
407.331	101.88
407.555	111.88
407.778	133.88
408.002	130.88
408.226	91.88
408.449	97.88
408.673	85.88
408.896	83.88
409.12	81.88
409.344	91.88
409.567	107.88
409.791	92.88
410.014	93.88
410.238	86.88
410.461	98.88
410.685	77.88
410.908	78.88
411.132	80.88
411.355	89.88
411.578	83.88
411.802	80.88
412.025	97.88
412.249	89.88
412.472	91.88
412.695	87.88
412.919	88.88
413.142	92.88
413.365	90.88
413.589	90.88
413.812	83.88
414.035	93.88
414.258	85.88
414.482	76.88
414.705	85.88
414.928	95.88
415.151	75.88
415.374	86.88
415.597	85.88
415.821	95.88
416.044	83.88
416.267	84.88
416.49	77.88
416.713	98.88
416.936	81.88
417.159	71.88
417.382	88.88
417.605	83.88
417.828	75.88
418.051	91.88
418.274	72.88
418.497	74.88
418.72	95.88
418.943	81.88
419.166	92.88
419.389	84.88
419.611	76.88
419.834	85.88
420.057	87.88
420.28	79.88
420.503	77.88
420.726	100.88
420.948	97.88
421.171	111.88
421.394	107.88
421.617	132.88
421.839	123.88
422.062	111.88
422.285	183.88
422.507	329.88
422.73	577.88
422.953	514.88
423.175	201.88
423.398	122.88
423.621	113.88
423.843	105.88
424.066	107.88
424.288	111.88
424.511	96.88
424.733	70.88
424.956	83.88
425.178	93.88
425.401	91.88
425.623	97.88
425.846	82.88
426.068	83.88
426.291	76.88
426.513	85.88
426.735	91.88
426.958	95.88
427.18	103.88
427.402	96.88
427.625	88.88
427.847	99.88
428.069	115.88
428.292	175.88
428.514	174.88
428.736	128.88
428.958	171.88
429.181	162.88
429.403	121.88
429.625	113.88
429.847	138.88
430.069	215.88
430.292	260.88
430.514	233.88
430.736	175.88
430.958	189.88
431.18	117.88
431.402	85.88
431.624	104.88
431.846	156.88
432.068	170.88
432.29	127.88
432.512	100.88
432.734	91.88
432.956	79.88
433.178	86.88
433.4	88.88
433.622	87.88
433.844	86.88
434.066	73.88
434.287	86.88
434.509	93.88
434.731	78.88
434.953	89.88
435.175	88.88
435.397	92.88
435.618	96.88
435.84	90.88
436.062	95.88
436.284	89.88
436.505	87.88
436.727	69.88
436.949	81.88
437.17	89.88
437.392	82.88
437.614	87.88
437.835	89.88
438.057	81.88
438.278	66.88
438.5	87.88
438.721	87.88
438.943	102.88
439.165	91.88
439.386	85.88
439.608	90.88
439.829	87.88
440.05	95.88
440.272	88.88
440.493	93.88
440.715	96.88
440.936	76.88
441.158	84.88
441.379	79.88
441.6	93.88
441.822	95.88
442.043	106.88
442.264	115.88
442.486	147.88
442.707	178.88
442.928	141.88
443.149	115.88
443.371	217.88
443.592	332.88
443.813	260.88
444.034	102.88
444.255	106.88
444.476	98.88
444.698	94.88
444.919	107.88
445.14	199.88
445.361	264.88
445.582	403.88
445.803	317.88
446.024	147.88
446.245	96.88
446.466	89.88
446.687	98.88
446.908	83.88
447.129	81.88
447.35	64.88
447.571	81.88
447.792	72.88
448.013	83.88
448.234	80.88
448.455	75.88
448.675	78.88
448.896	94.88
449.117	96.88
449.338	81.88
449.559	83.88
449.779	83.88
450	92.88
450.221	77.88
450.442	84.88
450.662	86.88
450.883	102.88
451.104	97.88
451.324	85.88
451.545	88.88
451.766	71.88
451.986	97.88
452.207	82.88
452.428	83.88
452.648	90.88
452.869	96.88
453.089	105.88
453.31	98.88
453.53	103.88
453.751	87.88
453.971	96.88
454.192	79.88
454.412	67.88
454.633	85.88
454.853	89.88
455.073	72.88
455.294	104.88
455.514	92.88
455.734	88.88
455.955	88.88
456.175	78.88
456.395	73.88
456.616	83.88
456.836	85.88
457.056	87.88
457.276	101.88
457.497	97.88
457.717	83.88
457.937	113.88
458.157	103.88
458.377	115.88
458.598	115.88
458.818	131.88
459.038	116.88
459.258	91.88
459.478	84.88
459.698	107.88
459.918	86.88
460.138	85.88
460.358	81.88
460.578	95.88
460.798	128.88
461.018	141.88
461.238	87.88
461.458	99.88
461.678	84.88
461.898	84.88
462.118	83.88
462.338	84.88
462.558	85.88
462.777	83.88
462.997	81.88
463.217	88.88
463.437	78.88
463.657	77.88
463.876	83.88
464.096	79.88
464.316	91.88
464.536	90.88
464.755	79.88
464.975	83.88
465.195	80.88
465.414	71.88
465.634	82.88
465.854	87.88
466.073	90.88
466.293	82.88
466.512	81.88
466.732	75.88
466.951	84.88
467.171	72.88
467.391	81.88
467.61	83.88
467.829	93.88
468.049	79.88
468.268	83.88
468.488	89.88
468.707	87.88
468.927	79.88
469.146	78.88
469.365	92.88
469.585	84.88
469.804	94.88
470.023	89.88
470.243	92.88
470.462	85.88
470.681	91.88
470.901	86.88
471.12	66.88
471.339	79.88
471.558	94.88
471.777	81.88
471.997	94.88
472.216	77.88
472.435	77.88
472.654	81.88
472.873	83.88
473.092	86.88
473.311	90.88
473.53	80.88
473.749	84.88
473.968	81.88
474.187	87.88
474.406	98.88
474.625	79.88
474.844	97.88
475.063	88.88
475.282	74.88
475.501	84.88
475.72	87.88
475.939	79.88
476.158	74.88
476.377	75.88
476.596	78.88
476.814	93.88
477.033	79.88
477.252	88.88
477.471	81.88
477.69	89.88
477.908	77.88
478.127	71.88
478.346	93.88
478.564	87.88
478.783	85.88
479.002	91.88
479.22	89.88
479.439	80.88
479.658	91.88
479.876	89.88
480.095	83.88
480.313	97.88
480.532	87.88
480.751	102.88
480.969	90.88
481.188	92.88
481.406	89.88
481.624	88.88
481.843	90.88
482.061	85.88
482.28	84.88
482.498	73.88
482.717	89.88
482.935	84.88
483.153	87.88
483.372	101.88
483.59	91.88
483.808	95.88
484.027	95.88
484.245	89.88
484.463	82.88
484.681	86.88
484.9	86.88
485.118	88.88
485.336	78.88
485.554	88.88
485.772	81.88
485.99	83.88
486.209	91.88
486.427	68.88
486.645	83.88
486.863	88.88
487.081	80.88
487.299	95.88
487.517	110.88
487.735	117.88
487.953	142.88
488.171	152.88
488.389	103.88
488.607	86.88
488.825	98.88
489.043	85.88
489.261	104.88
489.479	99.88
489.696	72.88
489.914	98.88
490.132	80.88
490.35	94.88
490.568	77.88
490.786	75.88
491.003	67.88
491.221	89.88
491.439	95.88
491.657	83.88
491.874	82.88
492.092	87.88
492.31	89.88
492.527	92.88
492.745	79.88
492.963	91.88
493.18	101.88
493.398	81.88
493.615	80.88
493.833	98.88
494.05	89.88
494.268	84.88
494.485	88.88
494.703	86.88
494.92	93.88
495.138	81.88
495.355	90.88
495.573	98.88
495.79	95.88
496.008	90.88
496.225	87.88
496.442	88.88
496.66	87.88
496.877	74.88
497.094	99.88
497.312	96.88
497.529	87.88
497.746	90.88
497.963	90.88
498.181	108.88
498.398	116.88
498.615	83.88
498.832	101.88
499.049	89.88
499.267	96.88
499.484	75.88
499.701	90.88
499.918	103.88
500.135	98.88
500.352	77.88
500.569	91.88
500.786	96.88
501.003	91.88
501.22	98.88
501.437	87.88
501.654	99.88
501.871	80.88
502.088	93.88
502.305	91.88
502.522	85.88
502.739	95.88
502.956	81.88
503.172	95.88
503.389	91.88
503.606	105.88
503.823	108.88
504.04	112.88
504.256	123.88
504.473	117.88
504.69	96.88
504.907	91.88
505.123	99.88
505.34	98.88
505.557	95.88
505.773	81.88
505.99	89.88
506.207	85.88
506.423	90.88
506.64	87.88
506.856	86.88
507.073	84.88
507.289	84.88
507.506	86.88
507.722	85.88
507.939	95.88
508.155	91.88
508.372	75.88
508.588	84.88
508.805	91.88
509.021	99.88
509.238	86.88
509.454	84.88
509.67	82.88
509.887	79.88
510.103	73.88
510.319	93.88
510.536	96.88
510.752	83.88
510.968	107.88
511.184	93.88
511.401	77.88
511.617	94.88
511.833	90.88
512.049	93.88
512.265	93.88
512.481	94.88
512.698	90.88
512.914	80.88
513.13	97.88
513.346	95.88
513.562	89.88
513.778	94.88
513.994	97.88
514.21	83.88
514.426	88.88
514.642	89.88
514.858	97.88
515.074	96.88
515.29	98.88
515.506	102.88
515.721	86.88
515.937	97.88
516.153	89.88
516.369	83.88
516.585	85.88
516.801	92.88
517.016	90.88
517.232	76.88
