Data from 15780_1_HRD10591_00005.txt Node
Date: Mon Jan 19 14:18:12 EST 2026
User: Yrep
Spectrometer: HR+D1059
Trigger mode: 1
Integration Time (sec): 1.000000E-1
Scans to average: 1
Electric dark correction enabled: true
Nonlinearity correction enabled: false
Boxcar width: 0
XAxis mode: Wavelengths
Number of Pixels in Spectrum: 2048
>>>>>Begin Spectral Data<<<<<
223.165	-9.19
223.4	-9.19
223.635	-9.19
223.869	-25.19
224.104	-22.19
224.338	-19.19
224.573	-15.19
224.808	-7.19
225.042	-12.19
225.277	-10.19
225.511	4.81
225.746	14.81
225.98	9.81
226.215	6.81
226.449	20.81
226.683	21.81
226.918	27.81
227.152	13.81
227.387	42.81
227.621	41.81
227.856	41.81
228.09	65.81
228.324	56.81
228.559	54.81
228.793	53.81
229.027	42.81
229.262	54.81
229.496	68.81
229.73	81.81
229.964	76.81
230.199	84.81
230.433	76.81
230.667	83.81
230.901	69.81
231.136	85.81
231.37	71.81
231.604	76.81
231.838	80.81
232.072	80.81
232.306	83.81
232.541	74.81
232.775	94.81
233.009	88.81
233.243	80.81
233.477	79.81
233.711	75.81
233.945	79.81
234.179	65.81
234.413	78.81
234.647	74.81
234.881	82.81
235.115	85.81
235.349	68.81
235.583	66.81
235.817	83.81
236.051	57.81
236.285	88.81
236.519	86.81
236.753	82.81
236.987	64.81
237.221	78.81
237.455	82.81
237.689	94.81
237.922	63.81
238.156	68.81
238.39	75.81
238.624	94.81
238.858	68.81
239.091	75.81
239.325	82.81
239.559	77.81
239.793	82.81
240.027	72.81
240.26	85.81
240.494	88.81
240.728	75.81
240.961	80.81
241.195	66.81
241.429	77.81
241.662	75.81
241.896	75.81
242.13	67.81
242.363	73.81
242.597	86.81
242.83	75.81
243.064	70.81
243.298	80.81
243.531	81.81
243.765	76.81
243.998	80.81
244.232	73.81
244.465	70.81
244.699	83.81
244.932	81.81
245.166	73.81
245.399	91.81
245.633	74.81
245.866	72.81
246.099	71.81
246.333	69.81
246.566	62.81
246.8	84.81
247.033	62.81
247.266	69.81
247.5	70.81
247.733	77.81
247.966	75.81
248.2	72.81
248.433	63.81
248.666	86.81
248.899	88.81
249.133	86.81
249.366	94.81
249.599	82.81
249.832	79.81
250.066	83.81
250.299	78.81
250.532	82.81
250.765	90.81
250.998	82.81
251.231	73.81
251.465	77.81
251.698	95.81
251.931	82.81
252.164	62.81
252.397	79.81
252.63	85.81
252.863	78.81
253.096	77.81
253.329	82.81
253.562	75.81
253.795	78.81
254.028	78.81
254.261	82.81
254.494	72.81
254.727	84.81
254.96	91.81
255.193	87.81
255.426	95.81
255.659	64.81
255.892	74.81
256.124	70.81
256.357	71.81
256.59	74.81
256.823	77.81
257.056	104.81
257.289	95.81
257.521	87.81
257.754	78.81
257.987	76.81
258.22	76.81
258.452	69.81
258.685	82.81
258.918	78.81
259.151	81.81
259.383	71.81
259.616	92.81
259.849	76.81
260.081	88.81
260.314	88.81
260.547	82.81
260.779	77.81
261.012	77.81
261.244	85.81
261.477	92.81
261.71	70.81
261.942	77.81
262.175	83.81
262.407	82.81
262.64	81.81
262.872	79.81
263.105	82.81
263.337	70.81
263.57	88.81
263.802	80.81
264.035	94.81
264.267	80.81
264.499	84.81
264.732	94.81
264.964	80.81
265.197	75.81
265.429	78.81
265.661	88.81
265.894	90.81
266.126	86.81
266.358	80.81
266.591	88.81
266.823	77.81
267.055	89.81
267.287	95.81
267.52	88.81
267.752	91.81
267.984	86.81
268.216	80.81
268.448	80.81
268.681	99.81
268.913	68.81
269.145	80.81
269.377	64.81
269.609	73.81
269.841	75.81
270.073	74.81
270.306	72.81
270.538	72.81
270.77	72.81
271.002	75.81
271.234	79.81
271.466	90.81
271.698	90.81
271.93	87.81
272.162	84.81
272.394	80.81
272.626	74.81
272.858	80.81
273.09	83.81
273.322	92.81
273.553	94.81
273.785	82.81
274.017	87.81
274.249	80.81
274.481	73.81
274.713	70.81
274.945	79.81
275.176	73.81
275.408	89.81
275.64	81.81
275.872	90.81
276.104	78.81
276.335	82.81
276.567	83.81
276.799	90.81
277.031	76.81
277.262	103.81
277.494	95.81
277.726	80.81
277.957	75.81
278.189	87.81
278.421	87.81
278.652	76.81
278.884	91.81
279.115	77.81
279.347	98.81
279.579	85.81
279.81	91.81
280.042	86.81
280.273	74.81
280.505	88.81
280.736	82.81
280.968	74.81
281.199	82.81
281.431	89.81
281.662	91.81
281.894	94.81
282.125	92.81
282.356	74.81
282.588	90.81
282.819	89.81
283.051	83.81
283.282	90.81
283.513	92.81
283.745	91.81
283.976	81.81
284.207	83.81
284.439	74.81
284.67	96.81
284.901	88.81
285.132	78.81
285.364	82.81
285.595	95.81
285.826	90.81
286.057	82.81
286.288	89.81
286.52	82.81
286.751	75.81
286.982	87.81
287.213	83.81
287.444	90.81
287.675	104.81
287.906	98.81
288.138	95.81
288.369	96.81
288.6	84.81
288.831	87.81
289.062	84.81
289.293	70.81
289.524	78.81
289.755	69.81
289.986	84.81
290.217	82.81
290.448	82.81
290.679	76.81
290.91	86.81
291.141	73.81
291.371	82.81
291.602	84.81
291.833	80.81
292.064	76.81
292.295	82.81
292.526	99.81
292.757	83.81
292.987	84.81
293.218	94.81
293.449	89.81
293.68	77.81
293.91	74.81
294.141	90.81
294.372	82.81
294.603	92.81
294.833	92.81
295.064	76.81
295.295	92.81
295.525	74.81
295.756	96.81
295.987	85.81
296.217	87.81
296.448	79.81
296.679	73.81
296.909	86.81
297.14	86.81
297.37	91.81
297.601	76.81
297.831	87.81
298.062	81.81
298.292	92.81
298.523	90.81
298.753	90.81
298.984	92.81
299.214	93.81
299.445	86.81
299.675	97.81
299.905	87.81
300.136	93.81
300.366	100.81
300.597	88.81
300.827	98.81
301.057	100.81
301.288	87.81
301.518	81.81
301.748	91.81
301.979	130.81
302.209	82.81
302.439	87.81
302.669	84.81
302.9	81.81
303.13	72.81
303.36	90.81
303.59	83.81
303.82	89.81
304.051	86.81
304.281	101.81
304.511	101.81
304.741	74.81
304.971	86.81
305.201	91.81
305.431	82.81
305.661	80.81
305.891	105.81
306.121	94.81
306.352	83.81
306.582	79.81
306.812	90.81
307.042	96.81
307.272	84.81
307.502	87.81
307.731	83.81
307.961	82.81
308.191	96.81
308.421	91.81
308.651	99.81
308.881	98.81
309.111	106.81
309.341	103.81
309.571	107.81
309.8	65.81
310.03	86.81
310.26	98.81
310.49	92.81
310.72	92.81
310.949	88.81
311.179	82.81
311.409	73.81
311.639	90.81
311.868	97.81
312.098	82.81
312.328	80.81
312.557	104.81
312.787	97.81
313.017	87.81
313.246	93.81
313.476	85.81
313.706	82.81
313.935	80.81
314.165	78.81
314.394	92.81
314.624	102.81
314.853	94.81
315.083	100.81
315.312	96.81
315.542	89.81
315.771	79.81
316.001	89.81
316.23	84.81
316.46	73.81
316.689	79.81
316.919	96.81
317.148	73.81
317.377	100.81
317.607	87.81
317.836	94.81
318.065	106.81
318.295	90.81
318.524	74.81
318.753	81.81
318.983	89.81
319.212	90.81
319.441	89.81
319.67	89.81
319.9	83.81
320.129	76.81
320.358	78.81
320.587	99.81
320.816	92.81
321.046	99.81
321.275	88.81
321.504	83.81
321.733	84.81
321.962	96.81
322.191	88.81
322.42	87.81
322.649	86.81
322.878	88.81
323.108	93.81
323.337	93.81
323.566	91.81
323.795	89.81
324.024	90.81
324.253	94.81
324.482	96.81
324.71	95.81
324.939	95.81
325.168	101.81
325.397	83.81
325.626	92.81
325.855	95.81
326.084	85.81
326.313	90.81
326.542	95.81
326.77	95.81
326.999	96.81
327.228	95.81
327.457	89.81
327.686	100.81
327.914	98.81
328.143	82.81
328.372	73.81
328.6	96.81
328.829	97.81
329.058	85.81
329.287	89.81
329.515	77.81
329.744	74.81
329.972	82.81
330.201	102.81
330.43	96.81
330.658	90.81
330.887	94.81
331.115	86.81
331.344	91.81
331.572	80.81
331.801	81.81
332.03	101.81
332.258	95.81
332.486	88.81
332.715	80.81
332.943	91.81
333.172	82.81
333.4	91.81
333.629	84.81
333.857	73.81
334.085	101.81
334.314	91.81
334.542	81.81
334.771	96.81
334.999	99.81
335.227	94.81
335.455	98.81
335.684	91.81
335.912	103.81
336.14	91.81
336.369	91.81
336.597	90.81
336.825	82.81
337.053	78.81
337.281	96.81
337.51	80.81
337.738	94.81
337.966	99.81
338.194	98.81
338.422	78.81
338.65	91.81
338.878	74.81
339.106	79.81
339.334	89.81
339.562	81.81
339.79	91.81
340.018	88.81
340.246	90.81
340.474	92.81
340.702	84.81
340.93	89.81
341.158	82.81
341.386	96.81
341.614	72.81
341.842	86.81
342.07	70.81
342.298	90.81
342.526	84.81
342.754	88.81
342.981	76.81
343.209	77.81
343.437	106.81
343.665	93.81
343.893	95.81
344.12	96.81
344.348	94.81
344.576	84.81
344.804	82.81
345.031	91.81
345.259	82.81
345.487	82.81
345.714	80.81
345.942	91.81
346.17	98.81
346.397	102.81
346.625	100.81
346.853	89.81
347.08	75.81
347.308	91.81
347.535	94.81
347.763	93.81
347.99	92.81
348.218	86.81
348.445	90.81
348.673	85.81
348.9	92.81
349.128	84.81
349.355	82.81
349.583	89.81
349.81	81.81
350.037	90.81
350.265	94.81
350.492	77.81
350.72	81.81
350.947	87.81
351.174	98.81
351.402	67.81
351.629	83.81
351.856	85.81
352.083	83.81
352.311	87.81
352.538	90.81
352.765	76.81
352.992	101.81
353.22	89.81
353.447	82.81
353.674	85.81
353.901	97.81
354.128	84.81
354.355	95.81
354.583	75.81
354.81	98.81
355.037	94.81
355.264	86.81
355.491	80.81
355.718	75.81
355.945	88.81
356.172	89.81
356.399	85.81
356.626	96.81
356.853	91.81
357.08	112.81
357.307	107.81
357.534	86.81
357.761	98.81
357.988	94.81
358.215	95.81
358.441	109.81
358.668	82.81
358.895	87.81
359.122	102.81
359.349	91.81
359.576	74.81
359.802	72.81
360.029	95.81
360.256	94.81
360.483	82.81
360.709	86.81
360.936	92.81
361.163	101.81
361.39	88.81
361.616	83.81
361.843	94.81
362.07	94.81
362.296	96.81
362.523	97.81
362.749	103.81
362.976	106.81
363.203	126.81
363.429	106.81
363.656	90.81
363.882	87.81
364.109	107.81
364.335	134.81
364.562	136.81
364.788	115.81
365.015	96.81
365.241	94.81
365.468	92.81
365.694	84.81
365.92	81.81
366.147	76.81
366.373	92.81
366.599	86.81
366.826	90.81
367.052	86.81
367.278	78.81
367.505	96.81
367.731	87.81
367.957	96.81
368.184	83.81
368.41	84.81
368.636	80.81
368.862	84.81
369.089	85.81
369.315	102.81
369.541	89.81
369.767	83.81
369.993	100.81
370.219	82.81
370.445	100.81
370.672	87.81
370.898	103.81
371.124	98.81
371.35	86.81
371.576	105.81
371.802	103.81
372.028	92.81
372.254	87.81
372.48	100.81
372.706	98.81
372.932	87.81
373.158	105.81
373.384	104.81
373.61	118.81
373.835	118.81
374.061	101.81
374.287	86.81
374.513	111.81
374.739	113.81
374.965	114.81
375.191	102.81
375.416	101.81
375.642	105.81
375.868	104.81
376.094	91.81
376.319	93.81
376.545	82.81
376.771	91.81
376.997	75.81
377.222	97.81
377.448	80.81
377.674	90.81
377.899	92.81
378.125	83.81
378.35	75.81
378.576	96.81
378.802	95.81
379.027	92.81
379.253	95.81
379.478	88.81
379.704	68.81
379.929	75.81
380.155	86.81
380.38	84.81
380.606	87.81
380.831	90.81
381.057	100.81
381.282	96.81
381.507	92.81
381.733	97.81
381.958	96.81
382.184	98.81
382.409	79.81
382.634	118.81
382.86	90.81
383.085	111.81
383.31	105.81
383.535	117.81
383.761	85.81
383.986	116.81
384.211	94.81
384.436	88.81
384.662	75.81
384.887	66.81
385.112	92.81
385.337	120.81
385.562	98.81
385.787	88.81
386.013	114.81
386.238	110.81
386.463	95.81
386.688	115.81
386.913	105.81
387.138	95.81
387.363	88.81
387.588	103.81
387.813	89.81
388.038	100.81
388.263	97.81
388.488	98.81
388.713	91.81
388.938	84.81
389.163	76.81
389.387	92.81
389.612	84.81
389.837	92.81
390.062	101.81
390.287	94.81
390.512	99.81
390.736	94.81
390.961	107.81
391.186	95.81
391.411	90.81
391.636	98.81
391.86	96.81
392.085	111.81
392.31	90.81
392.534	107.81
392.759	119.81
392.984	152.81
393.208	307.81
393.433	442.81
393.658	351.81
393.882	160.81
394.107	118.81
394.331	130.81
394.556	137.81
394.78	110.81
395.005	99.81
395.229	88.81
395.454	96.81
395.678	97.81
395.903	131.81
396.127	154.81
396.352	172.81
396.576	214.81
396.801	307.81
397.025	354.81
397.249	196.81
397.474	130.81
397.698	119.81
397.922	91.81
398.147	98.81
398.371	88.81
398.595	87.81
398.82	91.81
399.044	110.81
399.268	90.81
399.492	96.81
399.717	96.81
399.941	86.81
400.165	81.81
400.389	76.81
400.613	86.81
400.837	74.81
401.062	81.81
401.286	92.81
401.51	87.81
401.734	94.81
401.958	86.81
402.182	82.81
402.406	91.81
402.63	86.81
402.854	100.81
403.078	89.81
403.302	103.81
403.526	99.81
403.75	103.81
403.974	93.81
404.198	81.81
404.422	107.81
404.645	96.81
404.869	106.81
405.093	82.81
405.317	81.81
405.541	74.81
405.765	76.81
405.988	97.81
406.212	86.81
406.436	112.81
406.66	86.81
406.883	76.81
407.107	101.81
407.331	87.81
407.555	95.81
407.778	115.81
408.002	108.81
408.226	92.81
408.449	95.81
408.673	98.81
408.896	85.81
409.12	75.81
409.344	100.81
409.567	106.81
409.791	108.81
410.014	105.81
410.238	96.81
410.461	95.81
410.685	91.81
410.908	83.81
411.132	91.81
411.355	77.81
411.578	96.81
411.802	106.81
412.025	84.81
412.249	89.81
412.472	83.81
412.695	86.81
412.919	78.81
413.142	80.81
413.365	93.81
413.589	99.81
413.812	102.81
414.035	92.81
414.258	79.81
414.482	95.81
414.705	94.81
414.928	97.81
415.151	84.81
415.374	70.81
415.597	84.81
415.821	80.81
416.044	86.81
416.267	72.81
416.49	88.81
416.713	80.81
416.936	107.81
417.159	72.81
417.382	91.81
417.605	90.81
417.828	97.81
418.051	81.81
418.274	86.81
418.497	82.81
418.72	103.81
418.943	100.81
419.166	101.81
419.389	84.81
419.611	88.81
419.834	78.81
420.057	81.81
420.28	76.81
420.503	106.81
420.726	94.81
420.948	90.81
421.171	87.81
421.394	119.81
421.617	127.81
421.839	138.81
422.062	128.81
422.285	161.81
422.507	299.81
422.73	452.81
422.953	396.81
423.175	216.81
423.398	146.81
423.621	114.81
423.843	100.81
424.066	100.81
424.288	93.81
424.511	87.81
424.733	102.81
424.956	93.81
425.178	96.81
425.401	96.81
425.623	95.81
425.846	89.81
426.068	93.81
426.291	90.81
426.513	92.81
426.735	87.81
426.958	94.81
427.18	90.81
427.402	103.81
427.625	80.81
427.847	101.81
428.069	100.81
428.292	147.81
428.514	155.81
428.736	110.81
428.958	144.81
429.181	132.81
429.403	108.81
429.625	108.81
429.847	122.81
430.069	170.81
430.292	218.81
430.514	191.81
430.736	146.81
430.958	144.81
431.18	100.81
431.402	87.81
431.624	86.81
431.846	109.81
432.068	154.81
432.29	99.81
432.512	93.81
432.734	87.81
432.956	86.81
433.178	91.81
433.4	82.81
433.622	84.81
433.844	87.81
434.066	94.81
434.287	91.81
434.509	87.81
434.731	85.81
434.953	91.81
435.175	84.81
435.397	98.81
435.618	84.81
435.84	95.81
436.062	87.81
436.284	97.81
436.505	82.81
436.727	81.81
436.949	82.81
437.17	92.81
437.392	84.81
437.614	85.81
437.835	98.81
438.057	85.81
438.278	86.81
438.5	106.81
438.721	98.81
438.943	74.81
439.165	88.81
439.386	98.81
439.608	64.81
439.829	92.81
440.05	90.81
440.272	74.81
440.493	81.81
440.715	94.81
440.936	93.81
441.158	105.81
441.379	83.81
441.6	91.81
441.822	97.81
442.043	94.81
442.264	112.81
442.486	142.81
442.707	166.81
442.928	135.81
443.149	112.81
443.371	155.81
443.592	269.81
443.813	235.81
444.034	113.81
444.255	83.81
444.476	80.81
444.698	92.81
444.919	88.81
445.14	164.81
445.361	194.81
445.582	313.81
445.803	278.81
446.024	124.81
446.245	90.81
446.466	83.81
446.687	91.81
446.908	86.81
447.129	98.81
447.35	77.81
447.571	75.81
447.792	91.81
448.013	77.81
448.234	87.81
448.455	81.81
448.675	87.81
448.896	91.81
449.117	89.81
449.338	86.81
449.559	86.81
449.779	99.81
450	82.81
450.221	91.81
450.442	79.81
450.662	81.81
450.883	79.81
451.104	100.81
451.324	96.81
451.545	99.81
451.766	96.81
451.986	80.81
452.207	83.81
452.428	99.81
452.648	91.81
452.869	100.81
453.089	100.81
453.31	93.81
453.53	101.81
453.751	106.81
453.971	90.81
454.192	84.81
454.412	82.81
454.633	87.81
454.853	95.81
455.073	88.81
455.294	86.81
455.514	83.81
455.734	88.81
455.955	98.81
456.175	82.81
456.395	89.81
456.616	90.81
456.836	95.81
457.056	95.81
457.276	94.81
457.497	80.81
457.717	90.81
457.937	114.81
458.157	119.81
458.377	127.81
458.598	120.81
458.818	116.81
459.038	86.81
459.258	74.81
459.478	80.81
459.698	97.81
459.918	86.81
460.138	87.81
460.358	94.81
460.578	99.81
460.798	140.81
461.018	126.81
461.238	101.81
461.458	88.81
461.678	83.81
461.898	72.81
462.118	86.81
462.338	79.81
462.558	84.81
462.777	89.81
462.997	87.81
463.217	105.81
463.437	93.81
463.657	76.81
463.876	81.81
464.096	77.81
464.316	82.81
464.536	80.81
464.755	102.81
464.975	94.81
465.195	90.81
465.414	90.81
465.634	76.81
465.854	70.81
466.073	88.81
466.293	93.81
466.512	73.81
466.732	89.81
466.951	92.81
467.171	74.81
467.391	88.81
467.61	86.81
467.829	106.81
468.049	98.81
468.268	88.81
468.488	83.81
468.707	85.81
468.927	76.81
469.146	94.81
469.365	89.81
469.585	84.81
469.804	80.81
470.023	79.81
470.243	86.81
470.462	85.81
470.681	89.81
470.901	81.81
471.12	89.81
471.339	88.81
471.558	94.81
471.777	77.81
471.997	95.81
472.216	99.81
472.435	99.81
472.654	94.81
472.873	84.81
473.092	99.81
473.311	86.81
473.53	95.81
473.749	83.81
473.968	90.81
474.187	88.81
474.406	94.81
474.625	80.81
474.844	90.81
475.063	90.81
475.282	95.81
475.501	86.81
475.72	82.81
475.939	94.81
476.158	91.81
476.377	88.81
476.596	76.81
476.814	71.81
477.033	90.81
477.252	82.81
477.471	70.81
477.69	91.81
477.908	90.81
478.127	78.81
478.346	82.81
478.564	97.81
478.783	89.81
479.002	86.81
479.22	87.81
479.439	85.81
479.658	99.81
479.876	91.81
480.095	93.81
480.313	82.81
480.532	86.81
480.751	88.81
480.969	95.81
481.188	104.81
481.406	88.81
481.624	89.81
481.843	88.81
482.061	87.81
482.28	92.81
482.498	97.81
482.717	93.81
482.935	102.81
483.153	96.81
483.372	84.81
483.59	86.81
483.808	97.81
484.027	86.81
484.245	86.81
484.463	96.81
484.681	114.81
484.9	72.81
485.118	99.81
485.336	82.81
485.554	98.81
485.772	82.81
485.99	112.81
486.209	89.81
486.427	98.81
486.645	92.81
486.863	95.81
487.081	76.81
487.299	107.81
487.517	104.81
487.735	131.81
487.953	179.81
488.171	142.81
488.389	84.81
488.607	97.81
488.825	93.81
489.043	96.81
489.261	97.81
489.479	86.81
489.696	90.81
489.914	89.81
490.132	83.81
490.35	102.81
490.568	89.81
490.786	96.81
491.003	100.81
491.221	98.81
491.439	98.81
491.657	91.81
491.874	82.81
492.092	91.81
492.31	89.81
492.527	83.81
492.745	83.81
492.963	94.81
493.18	87.81
493.398	103.81
493.615	101.81
493.833	86.81
494.05	101.81
494.268	92.81
494.485	101.81
494.703	91.81
494.92	87.81
495.138	100.81
495.355	95.81
495.573	105.81
495.79	81.81
496.008	83.81
496.225	98.81
496.442	84.81
496.66	82.81
496.877	98.81
497.094	98.81
497.312	86.81
497.529	88.81
497.746	94.81
497.963	102.81
498.181	113.81
498.398	120.81
498.615	118.81
498.832	102.81
499.049	103.81
499.267	101.81
499.484	111.81
499.701	92.81
499.918	107.81
500.135	99.81
500.352	103.81
500.569	99.81
500.786	83.81
501.003	100.81
501.22	102.81
501.437	104.81
501.654	104.81
501.871	117.81
502.088	98.81
502.305	94.81
502.522	107.81
502.739	107.81
502.956	93.81
503.172	105.81
503.389	84.81
503.606	91.81
503.823	99.81
504.04	106.81
504.256	137.81
504.473	145.81
504.69	100.81
504.907	93.81
505.123	102.81
505.34	93.81
505.557	91.81
505.773	100.81
505.99	93.81
506.207	78.81
506.423	96.81
506.64	85.81
506.856	83.81
507.073	88.81
507.289	96.81
507.506	97.81
507.722	96.81
507.939	90.81
508.155	89.81
508.372	95.81
508.588	82.81
508.805	104.81
509.021	95.81
509.238	87.81
509.454	100.81
509.67	92.81
509.887	90.81
510.103	91.81
510.319	105.81
510.536	96.81
510.752	96.81
510.968	106.81
511.184	102.81
511.401	101.81
511.617	94.81
511.833	99.81
512.049	107.81
512.265	91.81
512.481	90.81
512.698	95.81
512.914	95.81
513.13	87.81
513.346	86.81
513.562	88.81
513.778	86.81
513.994	95.81
514.21	102.81
514.426	97.81
514.642	90.81
514.858	91.81
515.074	90.81
515.29	95.81
515.506	97.81
515.721	82.81
515.937	76.81
516.153	98.81
516.369	91.81
516.585	106.81
516.801	98.81
517.016	98.81
