Data from 15780_1_HRD10591_00042.txt Node
Date: Mon Jan 19 14:18:31 EST 2026
User: Yrep
Spectrometer: HR+D1059
Trigger mode: 1
Integration Time (sec): 1.000000E-1
Scans to average: 1
Electric dark correction enabled: true
Nonlinearity correction enabled: false
Boxcar width: 0
XAxis mode: Wavelengths
Number of Pixels in Spectrum: 2048
>>>>>Begin Spectral Data<<<<<
223.165	-24.31
223.4	-24.31
223.635	-24.31
223.869	-11.31
224.104	-21.31
224.338	-18.31
224.573	-13.31
224.808	-15.31
225.042	-21.31
225.277	-9.31
225.511	-0.31
225.746	-0.31
225.98	17.69
226.215	4.69
226.449	10.69
226.683	30.69
226.918	34.69
227.152	36.69
227.387	31.69
227.621	26.69
227.856	43.69
228.09	55.69
228.324	43.69
228.559	70.69
228.793	52.69
229.027	66.69
229.262	62.69
229.496	64.69
229.73	61.69
229.964	67.69
230.199	88.69
230.433	78.69
230.667	77.69
230.901	80.69
231.136	79.69
231.37	94.69
231.604	89.69
231.838	92.69
232.072	90.69
232.306	86.69
232.541	86.69
232.775	77.69
233.009	68.69
233.243	66.69
233.477	84.69
233.711	83.69
233.945	76.69
234.179	78.69
234.413	91.69
234.647	92.69
234.881	72.69
235.115	80.69
235.349	78.69
235.583	78.69
235.817	64.69
236.051	68.69
236.285	76.69
236.519	83.69
236.753	70.69
236.987	74.69
237.221	63.69
237.455	69.69
237.689	71.69
237.922	90.69
238.156	70.69
238.39	92.69
238.624	78.69
238.858	79.69
239.091	88.69
239.325	74.69
239.559	63.69
239.793	75.69
240.027	84.69
240.26	90.69
240.494	83.69
240.728	83.69
240.961	82.69
241.195	70.69
241.429	55.69
241.662	71.69
241.896	77.69
242.13	78.69
242.363	75.69
242.597	80.69
242.83	72.69
243.064	71.69
243.298	74.69
243.531	71.69
243.765	68.69
243.998	80.69
244.232	73.69
244.465	80.69
244.699	82.69
244.932	76.69
245.166	72.69
245.399	85.69
245.633	84.69
245.866	80.69
246.099	74.69
246.333	77.69
246.566	68.69
246.8	101.69
247.033	86.69
247.266	83.69
247.5	80.69
247.733	75.69
247.966	75.69
248.2	89.69
248.433	88.69
248.666	69.69
248.899	74.69
249.133	80.69
249.366	86.69
249.599	67.69
249.832	88.69
250.066	66.69
250.299	74.69
250.532	85.69
250.765	86.69
250.998	71.69
251.231	99.69
251.465	88.69
251.698	79.69
251.931	86.69
252.164	86.69
252.397	84.69
252.63	78.69
252.863	70.69
253.096	71.69
253.329	82.69
253.562	72.69
253.795	82.69
254.028	86.69
254.261	89.69
254.494	83.69
254.727	84.69
254.96	77.69
255.193	79.69
255.426	78.69
255.659	74.69
255.892	79.69
256.124	77.69
256.357	79.69
256.59	90.69
256.823	86.69
257.056	75.69
257.289	84.69
257.521	83.69
257.754	73.69
257.987	84.69
258.22	91.69
258.452	90.69
258.685	79.69
258.918	79.69
259.151	76.69
259.383	81.69
259.616	93.69
259.849	79.69
260.081	82.69
260.314	74.69
260.547	84.69
260.779	88.69
261.012	91.69
261.244	87.69
261.477	82.69
261.71	90.69
261.942	88.69
262.175	88.69
262.407	75.69
262.64	80.69
262.872	91.69
263.105	80.69
263.337	72.69
263.57	87.69
263.802	90.69
264.035	86.69
264.267	81.69
264.499	83.69
264.732	86.69
264.964	82.69
265.197	85.69
265.429	77.69
265.661	79.69
265.894	83.69
266.126	94.69
266.358	95.69
266.591	81.69
266.823	87.69
267.055	83.69
267.287	63.69
267.52	74.69
267.752	74.69
267.984	94.69
268.216	98.69
268.448	73.69
268.681	78.69
268.913	91.69
269.145	82.69
269.377	81.69
269.609	95.69
269.841	92.69
270.073	78.69
270.306	82.69
270.538	92.69
270.77	86.69
271.002	98.69
271.234	98.69
271.466	81.69
271.698	81.69
271.93	84.69
272.162	89.69
272.394	90.69
272.626	86.69
272.858	69.69
273.09	81.69
273.322	90.69
273.553	75.69
273.785	88.69
274.017	80.69
274.249	76.69
274.481	89.69
274.713	81.69
274.945	81.69
275.176	99.69
275.408	80.69
275.64	81.69
275.872	93.69
276.104	88.69
276.335	86.69
276.567	83.69
276.799	87.69
277.031	96.69
277.262	88.69
277.494	100.69
277.726	96.69
277.957	92.69
278.189	94.69
278.421	74.69
278.652	89.69
278.884	74.69
279.115	84.69
279.347	93.69
279.579	100.69
279.81	90.69
280.042	88.69
280.273	70.69
280.505	71.69
280.736	76.69
280.968	94.69
281.199	76.69
281.431	90.69
281.662	83.69
281.894	83.69
282.125	87.69
282.356	85.69
282.588	76.69
282.819	78.69
283.051	80.69
283.282	75.69
283.513	88.69
283.745	85.69
283.976	88.69
284.207	88.69
284.439	92.69
284.67	99.69
284.901	96.69
285.132	104.69
285.364	86.69
285.595	85.69
285.826	90.69
286.057	84.69
286.288	86.69
286.52	83.69
286.751	90.69
286.982	104.69
287.213	86.69
287.444	83.69
287.675	77.69
287.906	94.69
288.138	86.69
288.369	85.69
288.6	81.69
288.831	106.69
289.062	80.69
289.293	90.69
289.524	74.69
289.755	80.69
289.986	93.69
290.217	92.69
290.448	88.69
290.679	87.69
290.91	98.69
291.141	91.69
291.371	85.69
291.602	96.69
291.833	85.69
292.064	82.69
292.295	81.69
292.526	84.69
292.757	94.69
292.987	72.69
293.218	86.69
293.449	87.69
293.68	86.69
293.91	90.69
294.141	95.69
294.372	85.69
294.603	93.69
294.833	83.69
295.064	96.69
295.295	93.69
295.525	82.69
295.756	87.69
295.987	93.69
296.217	79.69
296.448	78.69
296.679	73.69
296.909	82.69
297.14	88.69
297.37	84.69
297.601	76.69
297.831	96.69
298.062	96.69
298.292	86.69
298.523	88.69
298.753	93.69
298.984	70.69
299.214	84.69
299.445	86.69
299.675	94.69
299.905	89.69
300.136	86.69
300.366	96.69
300.597	87.69
300.827	97.69
301.057	82.69
301.288	77.69
301.518	94.69
301.748	79.69
301.979	97.69
302.209	102.69
302.439	96.69
302.669	87.69
302.9	76.69
303.13	94.69
303.36	85.69
303.59	90.69
303.82	90.69
304.051	79.69
304.281	81.69
304.511	77.69
304.741	90.69
304.971	91.69
305.201	92.69
305.431	82.69
305.661	80.69
305.891	98.69
306.121	102.69
306.352	92.69
306.582	90.69
306.812	91.69
307.042	73.69
307.272	86.69
307.502	83.69
307.731	80.69
307.961	81.69
308.191	88.69
308.421	103.69
308.651	81.69
308.881	82.69
309.111	90.69
309.341	99.69
309.571	97.69
309.8	95.69
310.03	96.69
310.26	85.69
310.49	93.69
310.72	82.69
310.949	78.69
311.179	88.69
311.409	93.69
311.639	84.69
311.868	82.69
312.098	100.69
312.328	94.69
312.557	78.69
312.787	75.69
313.017	80.69
313.246	85.69
313.476	77.69
313.706	96.69
313.935	85.69
314.165	97.69
314.394	90.69
314.624	80.69
314.853	98.69
315.083	81.69
315.312	83.69
315.542	90.69
315.771	75.69
316.001	100.69
316.23	84.69
316.46	80.69
316.689	81.69
316.919	85.69
317.148	82.69
317.377	93.69
317.607	76.69
317.836	89.69
318.065	100.69
318.295	104.69
318.524	84.69
318.753	99.69
318.983	86.69
319.212	90.69
319.441	100.69
319.67	76.69
319.9	93.69
320.129	82.69
320.358	85.69
320.587	93.69
320.816	85.69
321.046	86.69
321.275	94.69
321.504	87.69
321.733	92.69
321.962	91.69
322.191	92.69
322.42	95.69
322.649	79.69
322.878	93.69
323.108	89.69
323.337	83.69
323.566	84.69
323.795	84.69
324.024	98.69
324.253	99.69
324.482	91.69
324.71	85.69
324.939	87.69
325.168	80.69
325.397	82.69
325.626	85.69
325.855	87.69
326.084	83.69
326.313	78.69
326.542	78.69
326.77	84.69
326.999	81.69
327.228	80.69
327.457	79.69
327.686	94.69
327.914	101.69
328.143	93.69
328.372	88.69
328.6	90.69
328.829	96.69
329.058	102.69
329.287	84.69
329.515	77.69
329.744	94.69
329.972	96.69
330.201	98.69
330.43	79.69
330.658	90.69
330.887	77.69
331.115	86.69
331.344	95.69
331.572	82.69
331.801	94.69
332.03	96.69
332.258	81.69
332.486	71.69
332.715	83.69
332.943	93.69
333.172	80.69
333.4	84.69
333.629	81.69
333.857	87.69
334.085	79.69
334.314	90.69
334.542	90.69
334.771	93.69
334.999	83.69
335.227	83.69
335.455	88.69
335.684	87.69
335.912	96.69
336.14	98.69
336.369	89.69
336.597	98.69
336.825	81.69
337.053	86.69
337.281	71.69
337.51	86.69
337.738	87.69
337.966	86.69
338.194	100.69
338.422	90.69
338.65	77.69
338.878	84.69
339.106	95.69
339.334	94.69
339.562	79.69
339.79	89.69
340.018	95.69
340.246	87.69
340.474	91.69
340.702	71.69
340.93	78.69
341.158	92.69
341.386	95.69
341.614	77.69
341.842	104.69
342.07	79.69
342.298	67.69
342.526	75.69
342.754	81.69
342.981	94.69
343.209	88.69
343.437	92.69
343.665	98.69
343.893	91.69
344.12	86.69
344.348	98.69
344.576	89.69
344.804	80.69
345.031	86.69
345.259	80.69
345.487	84.69
345.714	85.69
345.942	90.69
346.17	96.69
346.397	82.69
346.625	75.69
346.853	86.69
347.08	94.69
347.308	89.69
347.535	92.69
347.763	86.69
347.99	84.69
348.218	100.69
348.445	73.69
348.673	84.69
348.9	92.69
349.128	91.69
349.355	75.69
349.583	96.69
349.81	83.69
350.037	84.69
350.265	89.69
350.492	95.69
350.72	90.69
350.947	80.69
351.174	83.69
351.402	81.69
351.629	91.69
351.856	79.69
352.083	83.69
352.311	94.69
352.538	96.69
352.765	84.69
352.992	81.69
353.22	87.69
353.447	81.69
353.674	85.69
353.901	95.69
354.128	86.69
354.355	86.69
354.583	89.69
354.81	86.69
355.037	90.69
355.264	89.69
355.491	75.69
355.718	75.69
355.945	86.69
356.172	77.69
356.399	100.69
356.626	90.69
356.853	91.69
357.08	101.69
357.307	74.69
357.534	88.69
357.761	87.69
357.988	71.69
358.215	96.69
358.441	99.69
358.668	96.69
358.895	94.69
359.122	85.69
359.349	71.69
359.576	93.69
359.802	90.69
360.029	76.69
360.256	98.69
360.483	86.69
360.709	89.69
360.936	94.69
361.163	92.69
361.39	84.69
361.616	86.69
361.843	91.69
362.07	88.69
362.296	82.69
362.523	102.69
362.749	94.69
362.976	87.69
363.203	98.69
363.429	93.69
363.656	76.69
363.882	107.69
364.109	103.69
364.335	91.69
364.562	107.69
364.788	99.69
365.015	92.69
365.241	82.69
365.468	78.69
365.694	79.69
365.92	94.69
366.147	77.69
366.373	83.69
366.599	88.69
366.826	84.69
367.052	79.69
367.278	98.69
367.505	92.69
367.731	96.69
367.957	80.69
368.184	88.69
368.41	90.69
368.636	90.69
368.862	80.69
369.089	82.69
369.315	93.69
369.541	87.69
369.767	86.69
369.993	88.69
370.219	78.69
370.445	89.69
370.672	97.69
370.898	91.69
371.124	77.69
371.35	89.69
371.576	83.69
371.802	86.69
372.028	84.69
372.254	92.69
372.48	98.69
372.706	106.69
372.932	91.69
373.158	109.69
373.384	98.69
373.61	103.69
373.835	94.69
374.061	95.69
374.287	109.69
374.513	102.69
374.739	102.69
374.965	99.69
375.191	103.69
375.416	98.69
375.642	94.69
375.868	100.69
376.094	101.69
376.319	95.69
376.545	94.69
376.771	100.69
376.997	79.69
377.222	94.69
377.448	96.69
377.674	85.69
377.899	94.69
378.125	67.69
378.35	82.69
378.576	82.69
378.802	95.69
379.027	92.69
379.253	91.69
379.478	83.69
379.704	89.69
379.929	99.69
380.155	87.69
380.38	79.69
380.606	90.69
380.831	83.69
381.057	71.69
381.282	85.69
381.507	93.69
381.733	96.69
381.958	83.69
382.184	92.69
382.409	84.69
382.634	101.69
382.86	92.69
383.085	97.69
383.31	95.69
383.535	103.69
383.761	98.69
383.986	103.69
384.211	86.69
384.436	78.69
384.662	89.69
384.887	112.69
385.112	86.69
385.337	94.69
385.562	85.69
385.787	86.69
386.013	94.69
386.238	102.69
386.463	87.69
386.688	105.69
386.913	88.69
387.138	84.69
387.363	93.69
387.588	98.69
387.813	106.69
388.038	92.69
388.263	99.69
388.488	87.69
388.713	100.69
388.938	84.69
389.163	95.69
389.387	86.69
389.612	98.69
389.837	77.69
390.062	94.69
390.287	103.69
390.512	98.69
390.736	87.69
390.961	88.69
391.186	90.69
391.411	91.69
391.636	101.69
391.86	107.69
392.085	101.69
392.31	94.69
392.534	78.69
392.759	108.69
392.984	151.69
393.208	239.69
393.433	341.69
393.658	276.69
393.882	134.69
394.107	106.69
394.331	100.69
394.556	112.69
394.78	97.69
395.005	108.69
395.229	83.69
395.454	96.69
395.678	102.69
395.903	114.69
396.127	116.69
396.352	133.69
396.576	154.69
396.801	235.69
397.025	288.69
397.249	159.69
397.474	103.69
397.698	103.69
397.922	99.69
398.147	74.69
398.371	104.69
398.595	83.69
398.82	78.69
399.044	86.69
399.268	79.69
399.492	89.69
399.717	71.69
399.941	96.69
400.165	102.69
400.389	73.69
400.613	69.69
400.837	79.69
401.062	79.69
401.286	93.69
401.51	91.69
401.734	85.69
401.958	90.69
402.182	86.69
402.406	89.69
402.63	104.69
402.854	88.69
403.078	78.69
403.302	81.69
403.526	85.69
403.75	92.69
403.974	85.69
404.198	98.69
404.422	126.69
404.645	120.69
404.869	115.69
405.093	94.69
405.317	86.69
405.541	84.69
405.765	100.69
405.988	83.69
406.212	82.69
406.436	92.69
406.66	75.69
406.883	79.69
407.107	87.69
407.331	87.69
407.555	95.69
407.778	100.69
408.002	104.69
408.226	88.69
408.449	87.69
408.673	75.69
408.896	82.69
409.12	76.69
409.344	91.69
409.567	85.69
409.791	94.69
410.014	77.69
410.238	96.69
410.461	92.69
410.685	87.69
410.908	92.69
411.132	76.69
411.355	77.69
411.578	83.69
411.802	82.69
412.025	80.69
412.249	87.69
412.472	90.69
412.695	74.69
412.919	90.69
413.142	87.69
413.365	84.69
413.589	84.69
413.812	93.69
414.035	83.69
414.258	84.69
414.482	104.69
414.705	89.69
414.928	94.69
415.151	90.69
415.374	88.69
415.597	78.69
415.821	84.69
416.044	94.69
416.267	84.69
416.49	87.69
416.713	78.69
416.936	95.69
417.159	84.69
417.382	69.69
417.605	94.69
417.828	91.69
418.051	91.69
418.274	90.69
418.497	98.69
418.72	90.69
418.943	80.69
419.166	72.69
419.389	72.69
419.611	76.69
419.834	86.69
420.057	75.69
420.28	81.69
420.503	92.69
420.726	95.69
420.948	78.69
421.171	82.69
421.394	101.69
421.617	114.69
421.839	103.69
422.062	122.69
422.285	112.69
422.507	189.69
422.73	297.69
422.953	264.69
423.175	124.69
423.398	114.69
423.621	87.69
423.843	84.69
424.066	95.69
424.288	114.69
424.511	95.69
424.733	86.69
424.956	88.69
425.178	80.69
425.401	96.69
425.623	89.69
425.846	81.69
426.068	92.69
426.291	87.69
426.513	79.69
426.735	88.69
426.958	88.69
427.18	95.69
427.402	80.69
427.625	85.69
427.847	94.69
428.069	91.69
428.292	97.69
428.514	126.69
428.736	106.69
428.958	103.69
429.181	103.69
429.403	90.69
429.625	92.69
429.847	118.69
430.069	125.69
430.292	148.69
430.514	146.69
430.736	118.69
430.958	117.69
431.18	87.69
431.402	92.69
431.624	77.69
431.846	96.69
432.068	118.69
432.29	98.69
432.512	88.69
432.734	86.69
432.956	97.69
433.178	94.69
433.4	82.69
433.622	80.69
433.844	95.69
434.066	87.69
434.287	78.69
434.509	93.69
434.731	96.69
434.953	73.69
435.175	94.69
435.397	84.69
435.618	92.69
435.84	91.69
436.062	96.69
436.284	89.69
436.505	77.69
436.727	101.69
436.949	81.69
437.17	76.69
437.392	98.69
437.614	83.69
437.835	90.69
438.057	74.69
438.278	96.69
438.5	96.69
438.721	79.69
438.943	84.69
439.165	88.69
439.386	85.69
439.608	87.69
439.829	80.69
440.05	92.69
440.272	80.69
440.493	73.69
440.715	77.69
440.936	85.69
441.158	79.69
441.379	77.69
441.6	95.69
441.822	90.69
442.043	81.69
442.264	87.69
442.486	107.69
442.707	119.69
442.928	103.69
443.149	98.69
443.371	114.69
443.592	157.69
443.813	144.69
444.034	96.69
444.255	89.69
444.476	81.69
444.698	95.69
444.919	98.69
445.14	181.69
445.361	168.69
445.582	198.69
445.803	187.69
446.024	107.69
446.245	98.69
446.466	104.69
446.687	81.69
446.908	83.69
447.129	80.69
447.35	83.69
447.571	95.69
447.792	84.69
448.013	76.69
448.234	90.69
448.455	75.69
448.675	104.69
448.896	88.69
449.117	103.69
449.338	94.69
449.559	76.69
449.779	87.69
450	84.69
450.221	94.69
450.442	78.69
450.662	87.69
450.883	72.69
451.104	91.69
451.324	92.69
451.545	90.69
451.766	83.69
451.986	87.69
452.207	99.69
452.428	92.69
452.648	95.69
452.869	87.69
453.089	97.69
453.31	80.69
453.53	87.69
453.751	84.69
453.971	102.69
454.192	84.69
454.412	91.69
454.633	95.69
454.853	98.69
455.073	86.69
455.294	86.69
455.514	94.69
455.734	89.69
455.955	89.69
456.175	94.69
456.395	83.69
456.616	83.69
456.836	95.69
457.056	90.69
457.276	94.69
457.497	76.69
457.717	93.69
457.937	98.69
458.157	92.69
458.377	99.69
458.598	95.69
458.818	95.69
459.038	86.69
459.258	87.69
459.478	85.69
459.698	89.69
459.918	81.69
460.138	84.69
460.358	94.69
460.578	94.69
460.798	107.69
461.018	105.69
461.238	94.69
461.458	98.69
461.678	81.69
461.898	96.69
462.118	93.69
462.338	87.69
462.558	79.69
462.777	73.69
462.997	74.69
463.217	88.69
463.437	90.69
463.657	89.69
463.876	80.69
464.096	77.69
464.316	89.69
464.536	87.69
464.755	81.69
464.975	87.69
465.195	93.69
465.414	84.69
465.634	87.69
465.854	87.69
466.073	75.69
466.293	79.69
466.512	79.69
466.732	78.69
466.951	87.69
467.171	97.69
467.391	88.69
467.61	89.69
467.829	77.69
468.049	84.69
468.268	79.69
468.488	77.69
468.707	91.69
468.927	84.69
469.146	100.69
469.365	94.69
469.585	102.69
469.804	92.69
470.023	87.69
470.243	89.69
470.462	86.69
470.681	76.69
470.901	70.69
471.12	91.69
471.339	84.69
471.558	80.69
471.777	84.69
471.997	92.69
472.216	97.69
472.435	91.69
472.654	85.69
472.873	100.69
473.092	84.69
473.311	88.69
473.53	85.69
473.749	89.69
473.968	80.69
474.187	90.69
474.406	76.69
474.625	85.69
474.844	87.69
475.063	80.69
475.282	82.69
475.501	70.69
475.72	77.69
475.939	90.69
476.158	82.69
476.377	90.69
476.596	90.69
476.814	88.69
477.033	99.69
477.252	85.69
477.471	82.69
477.69	85.69
477.908	88.69
478.127	97.69
478.346	75.69
478.564	80.69
478.783	81.69
479.002	77.69
479.22	74.69
479.439	82.69
479.658	73.69
479.876	84.69
480.095	86.69
480.313	71.69
480.532	78.69
480.751	90.69
480.969	79.69
481.188	82.69
481.406	70.69
481.624	82.69
481.843	86.69
482.061	100.69
482.28	90.69
482.498	86.69
482.717	84.69
482.935	80.69
483.153	87.69
483.372	82.69
483.59	87.69
483.808	90.69
484.027	83.69
484.245	91.69
484.463	86.69
484.681	100.69
484.9	89.69
485.118	92.69
485.336	88.69
485.554	87.69
485.772	82.69
485.99	76.69
486.209	87.69
486.427	86.69
486.645	85.69
486.863	82.69
487.081	94.69
487.299	90.69
487.517	86.69
487.735	75.69
487.953	116.69
488.171	108.69
488.389	86.69
488.607	85.69
488.825	79.69
489.043	74.69
489.261	84.69
489.479	70.69
489.696	78.69
489.914	85.69
490.132	90.69
490.35	75.69
490.568	94.69
490.786	86.69
491.003	83.69
491.221	76.69
491.439	82.69
491.657	70.69
491.874	80.69
492.092	94.69
492.31	88.69
492.527	90.69
492.745	86.69
492.963	84.69
493.18	97.69
493.398	84.69
493.615	92.69
493.833	75.69
494.05	92.69
494.268	93.69
494.485	94.69
494.703	93.69
494.92	80.69
495.138	80.69
495.355	85.69
495.573	88.69
495.79	88.69
496.008	88.69
496.225	96.69
496.442	86.69
496.66	91.69
496.877	87.69
497.094	84.69
497.312	90.69
497.529	76.69
497.746	93.69
497.963	88.69
498.181	83.69
498.398	102.69
498.615	83.69
498.832	103.69
499.049	79.69
499.267	87.69
499.484	90.69
499.701	80.69
499.918	77.69
500.135	92.69
500.352	101.69
500.569	90.69
500.786	87.69
501.003	92.69
501.22	90.69
501.437	89.69
501.654	90.69
501.871	87.69
502.088	88.69
502.305	106.69
502.522	94.69
502.739	87.69
502.956	92.69
503.172	95.69
503.389	70.69
503.606	83.69
503.823	82.69
504.04	106.69
504.256	99.69
504.473	98.69
504.69	87.69
504.907	88.69
505.123	97.69
505.34	105.69
505.557	74.69
505.773	95.69
505.99	90.69
506.207	76.69
506.423	90.69
506.64	100.69
506.856	85.69
507.073	96.69
507.289	94.69
507.506	81.69
507.722	86.69
507.939	103.69
508.155	94.69
508.372	82.69
508.588	92.69
508.805	90.69
509.021	83.69
509.238	101.69
509.454	85.69
509.67	91.69
509.887	91.69
510.103	93.69
510.319	85.69
510.536	103.69
510.752	83.69
510.968	79.69
511.184	85.69
511.401	87.69
511.617	74.69
511.833	84.69
512.049	85.69
512.265	101.69
512.481	97.69
512.698	91.69
512.914	94.69
513.13	87.69
513.346	98.69
513.562	98.69
513.778	86.69
513.994	89.69
514.21	88.69
514.426	100.69
514.642	94.69
514.858	98.69
515.074	93.69
515.29	95.69
515.506	91.69
515.721	88.69
515.937	101.69
516.153	90.69
516.369	83.69
516.585	84.69
516.801	90.69
517.016	85.69
517.232	82.69
517.448	88.69
517.664	82.69
517.879	84.69
518.095	86.69
518.311	96.69
