Data from 15780_1_HRD10591_00006.txt Node
Date: Mon Jan 19 14:18:13 EST 2026
User: Yrep
Spectrometer: HR+D1059
Trigger mode: 1
Integration Time (sec): 1.000000E-1
Scans to average: 1
Electric dark correction enabled: true
Nonlinearity correction enabled: false
Boxcar width: 0
XAxis mode: Wavelengths
Number of Pixels in Spectrum: 2048
>>>>>Begin Spectral Data<<<<<
223.165	-6.06
223.4	-6.06
223.635	-6.06
223.869	-18.06
224.104	-20.06
224.338	-11.06
224.573	-16.06
224.808	-15.06
225.042	-19.06
225.277	-14.06
225.511	-9.06
225.746	-4.06
225.98	11.94
226.215	11.94
226.449	7.94
226.683	25.94
226.918	34.94
227.152	39.94
227.387	39.94
227.621	40.94
227.856	51.94
228.09	57.94
228.324	33.94
228.559	63.94
228.793	57.94
229.027	73.94
229.262	69.94
229.496	78.94
229.73	59.94
229.964	65.94
230.199	81.94
230.433	81.94
230.667	78.94
230.901	78.94
231.136	84.94
231.37	87.94
231.604	89.94
231.838	88.94
232.072	86.94
232.306	79.94
232.541	89.94
232.775	78.94
233.009	91.94
233.243	81.94
233.477	74.94
233.711	81.94
233.945	83.94
234.179	72.94
234.413	101.94
234.647	81.94
234.881	74.94
235.115	87.94
235.349	76.94
235.583	69.94
235.817	92.94
236.051	67.94
236.285	80.94
236.519	73.94
236.753	64.94
236.987	84.94
237.221	95.94
237.455	67.94
237.689	83.94
237.922	72.94
238.156	84.94
238.39	77.94
238.624	72.94
238.858	80.94
239.091	64.94
239.325	75.94
239.559	67.94
239.793	79.94
240.027	79.94
240.26	79.94
240.494	76.94
240.728	77.94
240.961	67.94
241.195	73.94
241.429	80.94
241.662	73.94
241.896	69.94
242.13	80.94
242.363	82.94
242.597	74.94
242.83	77.94
243.064	77.94
243.298	81.94
243.531	77.94
243.765	75.94
243.998	84.94
244.232	80.94
244.465	81.94
244.699	79.94
244.932	87.94
245.166	90.94
245.399	75.94
245.633	76.94
245.866	72.94
246.099	77.94
246.333	83.94
246.566	67.94
246.8	79.94
247.033	76.94
247.266	83.94
247.5	76.94
247.733	91.94
247.966	89.94
248.2	85.94
248.433	87.94
248.666	85.94
248.899	79.94
249.133	86.94
249.366	86.94
249.599	93.94
249.832	82.94
250.066	81.94
250.299	74.94
250.532	83.94
250.765	80.94
250.998	88.94
251.231	88.94
251.465	76.94
251.698	77.94
251.931	74.94
252.164	71.94
252.397	87.94
252.63	88.94
252.863	83.94
253.096	74.94
253.329	67.94
253.562	76.94
253.795	86.94
254.028	76.94
254.261	63.94
254.494	69.94
254.727	89.94
254.96	76.94
255.193	82.94
255.426	77.94
255.659	91.94
255.892	72.94
256.124	71.94
256.357	76.94
256.59	73.94
256.823	82.94
257.056	81.94
257.289	76.94
257.521	75.94
257.754	63.94
257.987	82.94
258.22	81.94
258.452	73.94
258.685	69.94
258.918	72.94
259.151	84.94
259.383	75.94
259.616	77.94
259.849	87.94
260.081	77.94
260.314	74.94
260.547	58.94
260.779	76.94
261.012	88.94
261.244	95.94
261.477	82.94
261.71	69.94
261.942	91.94
262.175	76.94
262.407	86.94
262.64	78.94
262.872	90.94
263.105	79.94
263.337	76.94
263.57	78.94
263.802	85.94
264.035	81.94
264.267	92.94
264.499	87.94
264.732	82.94
264.964	76.94
265.197	74.94
265.429	71.94
265.661	75.94
265.894	91.94
266.126	88.94
266.358	93.94
266.591	81.94
266.823	76.94
267.055	83.94
267.287	81.94
267.52	84.94
267.752	83.94
267.984	71.94
268.216	77.94
268.448	90.94
268.681	71.94
268.913	86.94
269.145	85.94
269.377	80.94
269.609	83.94
269.841	79.94
270.073	81.94
270.306	80.94
270.538	81.94
270.77	86.94
271.002	78.94
271.234	78.94
271.466	67.94
271.698	81.94
271.93	83.94
272.162	78.94
272.394	84.94
272.626	73.94
272.858	82.94
273.09	81.94
273.322	90.94
273.553	76.94
273.785	84.94
274.017	95.94
274.249	75.94
274.481	76.94
274.713	72.94
274.945	85.94
275.176	79.94
275.408	89.94
275.64	67.94
275.872	77.94
276.104	84.94
276.335	81.94
276.567	87.94
276.799	89.94
277.031	78.94
277.262	73.94
277.494	85.94
277.726	89.94
277.957	83.94
278.189	82.94
278.421	83.94
278.652	85.94
278.884	77.94
279.115	67.94
279.347	67.94
279.579	81.94
279.81	74.94
280.042	71.94
280.273	78.94
280.505	64.94
280.736	71.94
280.968	77.94
281.199	93.94
281.431	77.94
281.662	76.94
281.894	79.94
282.125	68.94
282.356	84.94
282.588	73.94
282.819	87.94
283.051	73.94
283.282	86.94
283.513	89.94
283.745	82.94
283.976	72.94
284.207	90.94
284.439	73.94
284.67	98.94
284.901	81.94
285.132	94.94
285.364	85.94
285.595	90.94
285.826	93.94
286.057	82.94
286.288	74.94
286.52	75.94
286.751	91.94
286.982	78.94
287.213	101.94
287.444	73.94
287.675	68.94
287.906	84.94
288.138	75.94
288.369	85.94
288.6	97.94
288.831	85.94
289.062	83.94
289.293	80.94
289.524	86.94
289.755	82.94
289.986	95.94
290.217	74.94
290.448	83.94
290.679	87.94
290.91	86.94
291.141	73.94
291.371	79.94
291.602	77.94
291.833	96.94
292.064	79.94
292.295	77.94
292.526	91.94
292.757	84.94
292.987	76.94
293.218	98.94
293.449	78.94
293.68	97.94
293.91	90.94
294.141	76.94
294.372	75.94
294.603	75.94
294.833	86.94
295.064	79.94
295.295	83.94
295.525	82.94
295.756	87.94
295.987	103.94
296.217	82.94
296.448	97.94
296.679	88.94
296.909	88.94
297.14	88.94
297.37	85.94
297.601	77.94
297.831	81.94
298.062	84.94
298.292	84.94
298.523	83.94
298.753	83.94
298.984	86.94
299.214	91.94
299.445	81.94
299.675	86.94
299.905	85.94
300.136	85.94
300.366	82.94
300.597	72.94
300.827	91.94
301.057	86.94
301.288	94.94
301.518	85.94
301.748	96.94
301.979	93.94
302.209	102.94
302.439	83.94
302.669	79.94
302.9	90.94
303.13	97.94
303.36	89.94
303.59	87.94
303.82	89.94
304.051	80.94
304.281	79.94
304.511	101.94
304.741	90.94
304.971	83.94
305.201	80.94
305.431	78.94
305.661	74.94
305.891	76.94
306.121	90.94
306.352	93.94
306.582	77.94
306.812	87.94
307.042	83.94
307.272	83.94
307.502	96.94
307.731	84.94
307.961	82.94
308.191	92.94
308.421	99.94
308.651	108.94
308.881	88.94
309.111	109.94
309.341	99.94
309.571	95.94
309.8	94.94
310.03	101.94
310.26	90.94
310.49	79.94
310.72	87.94
310.949	89.94
311.179	87.94
311.409	82.94
311.639	87.94
311.868	87.94
312.098	80.94
312.328	85.94
312.557	80.94
312.787	84.94
313.017	96.94
313.246	75.94
313.476	78.94
313.706	83.94
313.935	96.94
314.165	104.94
314.394	81.94
314.624	93.94
314.853	80.94
315.083	95.94
315.312	77.94
315.542	77.94
315.771	84.94
316.001	77.94
316.23	98.94
316.46	83.94
316.689	91.94
316.919	88.94
317.148	94.94
317.377	101.94
317.607	100.94
317.836	106.94
318.065	105.94
318.295	107.94
318.524	98.94
318.753	99.94
318.983	84.94
319.212	83.94
319.441	76.94
319.67	98.94
319.9	75.94
320.129	90.94
320.358	83.94
320.587	82.94
320.816	88.94
321.046	84.94
321.275	91.94
321.504	83.94
321.733	81.94
321.962	84.94
322.191	64.94
322.42	83.94
322.649	85.94
322.878	89.94
323.108	84.94
323.337	87.94
323.566	96.94
323.795	87.94
324.024	86.94
324.253	81.94
324.482	76.94
324.71	103.94
324.939	101.94
325.168	76.94
325.397	92.94
325.626	82.94
325.855	71.94
326.084	77.94
326.313	89.94
326.542	99.94
326.77	79.94
326.999	96.94
327.228	89.94
327.457	90.94
327.686	96.94
327.914	87.94
328.143	95.94
328.372	83.94
328.6	73.94
328.829	89.94
329.058	86.94
329.287	91.94
329.515	80.94
329.744	85.94
329.972	84.94
330.201	100.94
330.43	81.94
330.658	90.94
330.887	101.94
331.115	94.94
331.344	91.94
331.572	93.94
331.801	89.94
332.03	90.94
332.258	101.94
332.486	75.94
332.715	73.94
332.943	93.94
333.172	91.94
333.4	91.94
333.629	96.94
333.857	75.94
334.085	75.94
334.314	87.94
334.542	98.94
334.771	92.94
334.999	82.94
335.227	90.94
335.455	99.94
335.684	102.94
335.912	88.94
336.14	82.94
336.369	105.94
336.597	83.94
336.825	97.94
337.053	93.94
337.281	86.94
337.51	82.94
337.738	96.94
337.966	85.94
338.194	79.94
338.422	83.94
338.65	84.94
338.878	88.94
339.106	88.94
339.334	86.94
339.562	84.94
339.79	92.94
340.018	90.94
340.246	83.94
340.474	91.94
340.702	82.94
340.93	89.94
341.158	78.94
341.386	80.94
341.614	80.94
341.842	86.94
342.07	85.94
342.298	73.94
342.526	83.94
342.754	81.94
342.981	83.94
343.209	81.94
343.437	94.94
343.665	76.94
343.893	81.94
344.12	96.94
344.348	99.94
344.576	96.94
344.804	84.94
345.031	94.94
345.259	96.94
345.487	91.94
345.714	84.94
345.942	89.94
346.17	78.94
346.397	87.94
346.625	80.94
346.853	81.94
347.08	86.94
347.308	84.94
347.535	83.94
347.763	96.94
347.99	91.94
348.218	85.94
348.445	77.94
348.673	87.94
348.9	84.94
349.128	89.94
349.355	102.94
349.583	80.94
349.81	73.94
350.037	91.94
350.265	70.94
350.492	104.94
350.72	87.94
350.947	84.94
351.174	101.94
351.402	98.94
351.629	82.94
351.856	74.94
352.083	78.94
352.311	91.94
352.538	89.94
352.765	93.94
352.992	75.94
353.22	81.94
353.447	74.94
353.674	81.94
353.901	93.94
354.128	92.94
354.355	85.94
354.583	93.94
354.81	96.94
355.037	84.94
355.264	67.94
355.491	92.94
355.718	92.94
355.945	92.94
356.172	87.94
356.399	78.94
356.626	87.94
356.853	88.94
357.08	84.94
357.307	82.94
357.534	85.94
357.761	88.94
357.988	103.94
358.215	74.94
358.441	95.94
358.668	91.94
358.895	103.94
359.122	80.94
359.349	82.94
359.576	77.94
359.802	89.94
360.029	65.94
360.256	96.94
360.483	89.94
360.709	90.94
360.936	89.94
361.163	91.94
361.39	88.94
361.616	87.94
361.843	98.94
362.07	89.94
362.296	87.94
362.523	98.94
362.749	104.94
362.976	117.94
363.203	117.94
363.429	95.94
363.656	104.94
363.882	91.94
364.109	103.94
364.335	115.94
364.562	125.94
364.788	92.94
365.015	80.94
365.241	93.94
365.468	86.94
365.694	74.94
365.92	99.94
366.147	79.94
366.373	77.94
366.599	91.94
366.826	86.94
367.052	88.94
367.278	78.94
367.505	77.94
367.731	78.94
367.957	81.94
368.184	89.94
368.41	73.94
368.636	93.94
368.862	85.94
369.089	84.94
369.315	89.94
369.541	102.94
369.767	82.94
369.993	74.94
370.219	95.94
370.445	90.94
370.672	88.94
370.898	82.94
371.124	83.94
371.35	81.94
371.576	77.94
371.802	90.94
372.028	91.94
372.254	91.94
372.48	94.94
372.706	96.94
372.932	78.94
373.158	99.94
373.384	108.94
373.61	108.94
373.835	104.94
374.061	93.94
374.287	91.94
374.513	92.94
374.739	115.94
374.965	97.94
375.191	96.94
375.416	96.94
375.642	66.94
375.868	86.94
376.094	87.94
376.319	90.94
376.545	103.94
376.771	87.94
376.997	90.94
377.222	88.94
377.448	95.94
377.674	83.94
377.899	91.94
378.125	90.94
378.35	87.94
378.576	90.94
378.802	95.94
379.027	102.94
379.253	101.94
379.478	86.94
379.704	76.94
379.929	70.94
380.155	86.94
380.38	84.94
380.606	85.94
380.831	95.94
381.057	79.94
381.282	84.94
381.507	89.94
381.733	111.94
381.958	109.94
382.184	117.94
382.409	105.94
382.634	112.94
382.86	103.94
383.085	97.94
383.31	101.94
383.535	107.94
383.761	97.94
383.986	102.94
384.211	91.94
384.436	85.94
384.662	83.94
384.887	91.94
385.112	91.94
385.337	87.94
385.562	105.94
385.787	91.94
386.013	87.94
386.238	96.94
386.463	83.94
386.688	94.94
386.913	90.94
387.138	99.94
387.363	110.94
387.588	95.94
387.813	92.94
388.038	111.94
388.263	96.94
388.488	99.94
388.713	94.94
388.938	89.94
389.163	92.94
389.387	91.94
389.612	91.94
389.837	91.94
390.062	99.94
390.287	91.94
390.512	92.94
390.736	76.94
390.961	84.94
391.186	101.94
391.411	92.94
391.636	88.94
391.86	86.94
392.085	86.94
392.31	92.94
392.534	82.94
392.759	105.94
392.984	138.94
393.208	248.94
393.433	341.94
393.658	260.94
393.882	141.94
394.107	102.94
394.331	115.94
394.556	111.94
394.78	97.94
395.005	101.94
395.229	92.94
395.454	107.94
395.678	109.94
395.903	120.94
396.127	140.94
396.352	153.94
396.576	156.94
396.801	214.94
397.025	268.94
397.249	158.94
397.474	114.94
397.698	106.94
397.922	97.94
398.147	79.94
398.371	89.94
398.595	85.94
398.82	90.94
399.044	83.94
399.268	87.94
399.492	83.94
399.717	84.94
399.941	105.94
400.165	93.94
400.389	83.94
400.613	101.94
400.837	89.94
401.062	85.94
401.286	77.94
401.51	81.94
401.734	83.94
401.958	94.94
402.182	73.94
402.406	95.94
402.63	80.94
402.854	87.94
403.078	87.94
403.302	98.94
403.526	95.94
403.75	78.94
403.974	76.94
404.198	88.94
404.422	107.94
404.645	92.94
404.869	91.94
405.093	82.94
405.317	81.94
405.541	91.94
405.765	95.94
405.988	86.94
406.212	79.94
406.436	74.94
406.66	87.94
406.883	76.94
407.107	89.94
407.331	95.94
407.555	108.94
407.778	114.94
408.002	102.94
408.226	88.94
408.449	87.94
408.673	86.94
408.896	84.94
409.12	93.94
409.344	99.94
409.567	105.94
409.791	99.94
410.014	105.94
410.238	111.94
410.461	88.94
410.685	80.94
410.908	80.94
411.132	88.94
411.355	81.94
411.578	105.94
411.802	90.94
412.025	81.94
412.249	85.94
412.472	92.94
412.695	85.94
412.919	95.94
413.142	87.94
413.365	91.94
413.589	96.94
413.812	95.94
414.035	76.94
414.258	85.94
414.482	102.94
414.705	74.94
414.928	109.94
415.151	93.94
415.374	77.94
415.597	83.94
415.821	83.94
416.044	78.94
416.267	86.94
416.49	69.94
416.713	95.94
416.936	79.94
417.159	90.94
417.382	71.94
417.605	92.94
417.828	92.94
418.051	83.94
418.274	98.94
418.497	87.94
418.72	88.94
418.943	87.94
419.166	73.94
419.389	93.94
419.611	88.94
419.834	92.94
420.057	85.94
420.28	100.94
420.503	76.94
420.726	90.94
420.948	90.94
421.171	96.94
421.394	104.94
421.617	109.94
421.839	127.94
422.062	129.94
422.285	151.94
422.507	248.94
422.73	363.94
422.953	326.94
423.175	194.94
423.398	135.94
423.621	112.94
423.843	85.94
424.066	92.94
424.288	95.94
424.511	89.94
424.733	96.94
424.956	98.94
425.178	76.94
425.401	94.94
425.623	93.94
425.846	82.94
426.068	109.94
426.291	86.94
426.513	76.94
426.735	83.94
426.958	95.94
427.18	89.94
427.402	103.94
427.625	83.94
427.847	81.94
428.069	98.94
428.292	125.94
428.514	140.94
428.736	114.94
428.958	123.94
429.181	124.94
429.403	92.94
429.625	79.94
429.847	111.94
430.069	141.94
430.292	173.94
430.514	140.94
430.736	123.94
430.958	136.94
431.18	115.94
431.402	89.94
431.624	107.94
431.846	122.94
432.068	115.94
432.29	108.94
432.512	107.94
432.734	93.94
432.956	83.94
433.178	73.94
433.4	73.94
433.622	92.94
433.844	92.94
434.066	88.94
434.287	95.94
434.509	83.94
434.731	81.94
434.953	89.94
435.175	84.94
435.397	94.94
435.618	94.94
435.84	93.94
436.062	91.94
436.284	95.94
436.505	99.94
436.727	82.94
436.949	81.94
437.17	95.94
437.392	86.94
437.614	88.94
437.835	77.94
438.057	81.94
438.278	89.94
438.5	100.94
438.721	78.94
438.943	103.94
439.165	92.94
439.386	100.94
439.608	90.94
439.829	84.94
440.05	99.94
440.272	92.94
440.493	86.94
440.715	87.94
440.936	91.94
441.158	77.94
441.379	80.94
441.6	83.94
441.822	89.94
442.043	81.94
442.264	100.94
442.486	109.94
442.707	163.94
442.928	123.94
443.149	102.94
443.371	139.94
443.592	240.94
443.813	179.94
444.034	106.94
444.255	96.94
444.476	90.94
444.698	98.94
444.919	98.94
445.14	177.94
445.361	185.94
445.582	266.94
445.803	218.94
446.024	107.94
446.245	90.94
446.466	85.94
446.687	90.94
446.908	80.94
447.129	109.94
447.35	105.94
447.571	90.94
447.792	73.94
448.013	77.94
448.234	79.94
448.455	83.94
448.675	90.94
448.896	81.94
449.117	75.94
449.338	83.94
449.559	86.94
449.779	90.94
450	91.94
450.221	97.94
450.442	89.94
450.662	74.94
450.883	74.94
451.104	80.94
451.324	97.94
451.545	82.94
451.766	97.94
451.986	77.94
452.207	85.94
452.428	94.94
452.648	96.94
452.869	91.94
453.089	83.94
453.31	83.94
453.53	94.94
453.751	84.94
453.971	91.94
454.192	89.94
454.412	98.94
454.633	80.94
454.853	79.94
455.073	91.94
455.294	72.94
455.514	84.94
455.734	89.94
455.955	81.94
456.175	84.94
456.395	81.94
456.616	87.94
456.836	83.94
457.056	86.94
457.276	87.94
457.497	99.94
457.717	99.94
457.937	123.94
458.157	108.94
458.377	108.94
458.598	104.94
458.818	123.94
459.038	99.94
459.258	89.94
459.478	75.94
459.698	81.94
459.918	99.94
460.138	67.94
460.358	86.94
460.578	116.94
460.798	113.94
461.018	109.94
461.238	89.94
461.458	84.94
461.678	93.94
461.898	66.94
462.118	80.94
462.338	86.94
462.558	84.94
462.777	73.94
462.997	83.94
463.217	81.94
463.437	61.94
463.657	76.94
463.876	74.94
464.096	97.94
464.316	85.94
464.536	91.94
464.755	86.94
464.975	90.94
465.195	88.94
465.414	73.94
465.634	85.94
465.854	87.94
466.073	94.94
466.293	95.94
466.512	91.94
466.732	82.94
466.951	76.94
467.171	79.94
467.391	89.94
467.61	93.94
467.829	86.94
468.049	89.94
468.268	77.94
468.488	89.94
468.707	85.94
468.927	91.94
469.146	86.94
469.365	83.94
469.585	85.94
469.804	94.94
470.023	81.94
470.243	101.94
470.462	81.94
470.681	86.94
470.901	82.94
471.12	77.94
471.339	87.94
471.558	96.94
471.777	70.94
471.997	80.94
472.216	81.94
472.435	84.94
472.654	85.94
472.873	88.94
473.092	95.94
473.311	81.94
473.53	91.94
473.749	92.94
473.968	89.94
474.187	84.94
474.406	87.94
474.625	83.94
474.844	86.94
475.063	76.94
475.282	81.94
475.501	87.94
475.72	92.94
475.939	83.94
476.158	87.94
476.377	78.94
476.596	85.94
476.814	83.94
477.033	84.94
477.252	71.94
477.471	99.94
477.69	87.94
477.908	74.94
478.127	83.94
478.346	96.94
478.564	93.94
478.783	92.94
479.002	88.94
479.22	88.94
479.439	69.94
479.658	76.94
479.876	63.94
480.095	80.94
480.313	93.94
480.532	69.94
480.751	88.94
480.969	87.94
481.188	96.94
481.406	83.94
481.624	107.94
481.843	91.94
482.061	89.94
482.28	78.94
482.498	87.94
482.717	72.94
482.935	74.94
483.153	91.94
483.372	91.94
483.59	87.94
483.808	93.94
484.027	99.94
484.245	99.94
484.463	87.94
484.681	85.94
484.9	89.94
485.118	91.94
485.336	91.94
485.554	75.94
485.772	79.94
485.99	81.94
486.209	92.94
486.427	96.94
486.645	84.94
486.863	88.94
487.081	93.94
487.299	90.94
487.517	102.94
487.735	113.94
487.953	147.94
488.171	124.94
488.389	96.94
488.607	89.94
488.825	83.94
489.043	74.94
489.261	108.94
489.479	87.94
489.696	86.94
489.914	84.94
490.132	89.94
490.35	79.94
490.568	89.94
490.786	98.94
491.003	79.94
491.221	84.94
491.439	89.94
491.657	87.94
491.874	84.94
492.092	98.94
492.31	101.94
492.527	86.94
492.745	76.94
492.963	88.94
493.18	87.94
493.398	96.94
493.615	102.94
493.833	90.94
494.05	103.94
494.268	88.94
494.485	96.94
494.703	94.94
494.92	101.94
495.138	100.94
495.355	101.94
495.573	100.94
495.79	92.94
496.008	94.94
496.225	108.94
496.442	89.94
496.66	89.94
496.877	91.94
497.094	85.94
497.312	85.94
497.529	91.94
497.746	89.94
497.963	87.94
498.181	104.94
498.398	107.94
498.615	111.94
498.832	85.94
499.049	87.94
499.267	95.94
499.484	89.94
499.701	91.94
499.918	97.94
500.135	107.94
500.352	97.94
500.569	78.94
500.786	89.94
501.003	101.94
501.22	93.94
501.437	90.94
501.654	87.94
501.871	92.94
502.088	83.94
502.305	78.94
502.522	90.94
502.739	93.94
502.956	79.94
503.172	86.94
503.389	86.94
503.606	85.94
503.823	84.94
504.04	106.94
504.256	124.94
504.473	124.94
504.69	97.94
504.907	98.94
505.123	95.94
505.34	97.94
505.557	87.94
505.773	90.94
505.99	95.94
506.207	91.94
506.423	80.94
506.64	98.94
506.856	95.94
507.073	92.94
507.289	75.94
507.506	85.94
507.722	84.94
507.939	88.94
508.155	103.94
508.372	89.94
508.588	99.94
508.805	92.94
509.021	101.94
509.238	100.94
509.454	93.94
509.67	99.94
509.887	94.94
510.103	97.94
510.319	90.94
510.536	98.94
510.752	100.94
510.968	86.94
511.184	80.94
511.401	85.94
511.617	93.94
511.833	83.94
512.049	85.94
512.265	91.94
512.481	84.94
512.698	79.94
512.914	83.94
513.13	85.94
513.346	83.94
513.562	83.94
513.778	101.94
513.994	95.94
514.21	96.94
514.426	90.94
514.642	97.94
514.858	97.94
515.074	100.94
515.29	99.94
515.506	93.94
515.721	86.94
515.937	95.94
516.153	119.94
516.369	93.94
516.585	104.94
516.801	104.94
517.016	102.94
517.232	95.94
517.448	98.94
517.664	103.94
