Data from 15780_1_HRD10591_00035.txt Node
Date: Mon Jan 19 14:18:27 EST 2026
User: Yrep
Spectrometer: HR+D1059
Trigger mode: 1
Integration Time (sec): 1.000000E-1
Scans to average: 1
Electric dark correction enabled: true
Nonlinearity correction enabled: false
Boxcar width: 0
XAxis mode: Wavelengths
Number of Pixels in Spectrum: 2048
>>>>>Begin Spectral Data<<<<<
223.165	-15.38
223.4	-15.38
223.635	-15.38
223.869	-22.38
224.104	-17.38
224.338	-20.38
224.573	-18.38
224.808	-10.38
225.042	-3.38
225.277	-12.38
225.511	8.62
225.746	0.62
225.98	9.62
226.215	29.62
226.449	8.62
226.683	19.62
226.918	11.62
227.152	31.62
227.387	26.62
227.621	41.62
227.856	39.62
228.09	46.62
228.324	50.62
228.559	52.62
228.793	57.62
229.027	63.62
229.262	69.62
229.496	75.62
229.73	77.62
229.964	73.62
230.199	72.62
230.433	83.62
230.667	72.62
230.901	76.62
231.136	95.62
231.37	79.62
231.604	85.62
231.838	83.62
232.072	85.62
232.306	89.62
232.541	75.62
232.775	62.62
233.009	71.62
233.243	80.62
233.477	82.62
233.711	87.62
233.945	88.62
234.179	81.62
234.413	86.62
234.647	79.62
234.881	84.62
235.115	84.62
235.349	76.62
235.583	84.62
235.817	80.62
236.051	89.62
236.285	83.62
236.519	92.62
236.753	76.62
236.987	79.62
237.221	72.62
237.455	76.62
237.689	70.62
237.922	65.62
238.156	84.62
238.39	76.62
238.624	71.62
238.858	78.62
239.091	80.62
239.325	78.62
239.559	88.62
239.793	88.62
240.027	81.62
240.26	68.62
240.494	91.62
240.728	66.62
240.961	79.62
241.195	71.62
241.429	72.62
241.662	74.62
241.896	83.62
242.13	76.62
242.363	89.62
242.597	76.62
242.83	83.62
243.064	73.62
243.298	63.62
243.531	79.62
243.765	73.62
243.998	65.62
244.232	69.62
244.465	63.62
244.699	84.62
244.932	74.62
245.166	75.62
245.399	78.62
245.633	87.62
245.866	82.62
246.099	92.62
246.333	72.62
246.566	84.62
246.8	70.62
247.033	72.62
247.266	91.62
247.5	64.62
247.733	75.62
247.966	62.62
248.2	83.62
248.433	76.62
248.666	99.62
248.899	73.62
249.133	63.62
249.366	82.62
249.599	87.62
249.832	80.62
250.066	73.62
250.299	72.62
250.532	83.62
250.765	62.62
250.998	75.62
251.231	73.62
251.465	66.62
251.698	81.62
251.931	79.62
252.164	73.62
252.397	67.62
252.63	79.62
252.863	84.62
253.096	85.62
253.329	83.62
253.562	78.62
253.795	77.62
254.028	77.62
254.261	79.62
254.494	73.62
254.727	92.62
254.96	82.62
255.193	72.62
255.426	96.62
255.659	87.62
255.892	82.62
256.124	78.62
256.357	81.62
256.59	74.62
256.823	84.62
257.056	79.62
257.289	83.62
257.521	81.62
257.754	84.62
257.987	79.62
258.22	86.62
258.452	76.62
258.685	67.62
258.918	88.62
259.151	83.62
259.383	81.62
259.616	77.62
259.849	82.62
260.081	80.62
260.314	74.62
260.547	81.62
260.779	81.62
261.012	78.62
261.244	80.62
261.477	84.62
261.71	91.62
261.942	71.62
262.175	72.62
262.407	78.62
262.64	78.62
262.872	73.62
263.105	76.62
263.337	70.62
263.57	73.62
263.802	89.62
264.035	81.62
264.267	88.62
264.499	82.62
264.732	68.62
264.964	89.62
265.197	82.62
265.429	87.62
265.661	78.62
265.894	89.62
266.126	68.62
266.358	74.62
266.591	86.62
266.823	83.62
267.055	94.62
267.287	91.62
267.52	80.62
267.752	106.62
267.984	77.62
268.216	84.62
268.448	86.62
268.681	99.62
268.913	76.62
269.145	78.62
269.377	78.62
269.609	89.62
269.841	78.62
270.073	80.62
270.306	73.62
270.538	78.62
270.77	72.62
271.002	87.62
271.234	92.62
271.466	78.62
271.698	81.62
271.93	96.62
272.162	79.62
272.394	68.62
272.626	93.62
272.858	82.62
273.09	90.62
273.322	66.62
273.553	93.62
273.785	90.62
274.017	88.62
274.249	89.62
274.481	84.62
274.713	77.62
274.945	79.62
275.176	88.62
275.408	89.62
275.64	78.62
275.872	91.62
276.104	92.62
276.335	90.62
276.567	76.62
276.799	91.62
277.031	88.62
277.262	89.62
277.494	78.62
277.726	71.62
277.957	70.62
278.189	76.62
278.421	83.62
278.652	84.62
278.884	86.62
279.115	85.62
279.347	89.62
279.579	88.62
279.81	105.62
280.042	77.62
280.273	85.62
280.505	86.62
280.736	93.62
280.968	94.62
281.199	82.62
281.431	83.62
281.662	99.62
281.894	89.62
282.125	77.62
282.356	79.62
282.588	89.62
282.819	81.62
283.051	89.62
283.282	83.62
283.513	88.62
283.745	87.62
283.976	81.62
284.207	92.62
284.439	86.62
284.67	85.62
284.901	80.62
285.132	89.62
285.364	78.62
285.595	89.62
285.826	90.62
286.057	76.62
286.288	83.62
286.52	87.62
286.751	80.62
286.982	81.62
287.213	93.62
287.444	84.62
287.675	84.62
287.906	89.62
288.138	87.62
288.369	87.62
288.6	87.62
288.831	84.62
289.062	69.62
289.293	86.62
289.524	96.62
289.755	88.62
289.986	78.62
290.217	82.62
290.448	76.62
290.679	78.62
290.91	81.62
291.141	87.62
291.371	82.62
291.602	82.62
291.833	89.62
292.064	70.62
292.295	80.62
292.526	72.62
292.757	91.62
292.987	88.62
293.218	91.62
293.449	79.62
293.68	78.62
293.91	79.62
294.141	90.62
294.372	85.62
294.603	90.62
294.833	84.62
295.064	80.62
295.295	93.62
295.525	82.62
295.756	78.62
295.987	85.62
296.217	96.62
296.448	84.62
296.679	93.62
296.909	93.62
297.14	81.62
297.37	86.62
297.601	89.62
297.831	90.62
298.062	89.62
298.292	81.62
298.523	96.62
298.753	93.62
298.984	88.62
299.214	82.62
299.445	82.62
299.675	91.62
299.905	90.62
300.136	92.62
300.366	92.62
300.597	74.62
300.827	85.62
301.057	90.62
301.288	81.62
301.518	98.62
301.748	68.62
301.979	96.62
302.209	97.62
302.439	73.62
302.669	100.62
302.9	88.62
303.13	69.62
303.36	87.62
303.59	97.62
303.82	84.62
304.051	96.62
304.281	103.62
304.511	80.62
304.741	90.62
304.971	83.62
305.201	89.62
305.431	80.62
305.661	84.62
305.891	96.62
306.121	93.62
306.352	89.62
306.582	88.62
306.812	81.62
307.042	84.62
307.272	86.62
307.502	97.62
307.731	97.62
307.961	94.62
308.191	102.62
308.421	85.62
308.651	83.62
308.881	84.62
309.111	93.62
309.341	101.62
309.571	85.62
309.8	85.62
310.03	93.62
310.26	82.62
310.49	83.62
310.72	84.62
310.949	81.62
311.179	82.62
311.409	83.62
311.639	73.62
311.868	78.62
312.098	88.62
312.328	86.62
312.557	105.62
312.787	95.62
313.017	83.62
313.246	81.62
313.476	86.62
313.706	87.62
313.935	83.62
314.165	72.62
314.394	76.62
314.624	88.62
314.853	89.62
315.083	78.62
315.312	78.62
315.542	69.62
315.771	102.62
316.001	101.62
316.23	90.62
316.46	85.62
316.689	107.62
316.919	88.62
317.148	82.62
317.377	88.62
317.607	90.62
317.836	93.62
318.065	101.62
318.295	82.62
318.524	71.62
318.753	95.62
318.983	78.62
319.212	86.62
319.441	92.62
319.67	77.62
319.9	85.62
320.129	83.62
320.358	100.62
320.587	88.62
320.816	85.62
321.046	77.62
321.275	99.62
321.504	90.62
321.733	74.62
321.962	99.62
322.191	92.62
322.42	102.62
322.649	89.62
322.878	76.62
323.108	72.62
323.337	81.62
323.566	85.62
323.795	88.62
324.024	79.62
324.253	90.62
324.482	85.62
324.71	92.62
324.939	93.62
325.168	86.62
325.397	81.62
325.626	78.62
325.855	88.62
326.084	88.62
326.313	91.62
326.542	80.62
326.77	69.62
326.999	77.62
327.228	84.62
327.457	83.62
327.686	69.62
327.914	82.62
328.143	87.62
328.372	81.62
328.6	86.62
328.829	74.62
329.058	102.62
329.287	77.62
329.515	86.62
329.744	86.62
329.972	72.62
330.201	90.62
330.43	85.62
330.658	83.62
330.887	79.62
331.115	87.62
331.344	92.62
331.572	84.62
331.801	78.62
332.03	75.62
332.258	80.62
332.486	79.62
332.715	68.62
332.943	94.62
333.172	95.62
333.4	91.62
333.629	88.62
333.857	95.62
334.085	74.62
334.314	96.62
334.542	87.62
334.771	93.62
334.999	84.62
335.227	86.62
335.455	82.62
335.684	87.62
335.912	93.62
336.14	91.62
336.369	97.62
336.597	84.62
336.825	88.62
337.053	76.62
337.281	100.62
337.51	86.62
337.738	100.62
337.966	100.62
338.194	91.62
338.422	82.62
338.65	76.62
338.878	78.62
339.106	85.62
339.334	88.62
339.562	82.62
339.79	82.62
340.018	82.62
340.246	85.62
340.474	96.62
340.702	86.62
340.93	93.62
341.158	84.62
341.386	85.62
341.614	106.62
341.842	80.62
342.07	78.62
342.298	83.62
342.526	83.62
342.754	77.62
342.981	75.62
343.209	90.62
343.437	110.62
343.665	85.62
343.893	92.62
344.12	96.62
344.348	83.62
344.576	70.62
344.804	78.62
345.031	84.62
345.259	87.62
345.487	72.62
345.714	73.62
345.942	76.62
346.17	89.62
346.397	94.62
346.625	92.62
346.853	84.62
347.08	72.62
347.308	67.62
347.535	86.62
347.763	80.62
347.99	78.62
348.218	82.62
348.445	88.62
348.673	76.62
348.9	86.62
349.128	83.62
349.355	77.62
349.583	82.62
349.81	76.62
350.037	89.62
350.265	102.62
350.492	88.62
350.72	82.62
350.947	85.62
351.174	89.62
351.402	94.62
351.629	75.62
351.856	98.62
352.083	86.62
352.311	75.62
352.538	89.62
352.765	88.62
352.992	97.62
353.22	79.62
353.447	79.62
353.674	86.62
353.901	90.62
354.128	77.62
354.355	88.62
354.583	87.62
354.81	88.62
355.037	67.62
355.264	85.62
355.491	93.62
355.718	98.62
355.945	96.62
356.172	85.62
356.399	84.62
356.626	90.62
356.853	81.62
357.08	84.62
357.307	94.62
357.534	78.62
357.761	84.62
357.988	84.62
358.215	100.62
358.441	87.62
358.668	80.62
358.895	99.62
359.122	81.62
359.349	83.62
359.576	76.62
359.802	78.62
360.029	82.62
360.256	88.62
360.483	86.62
360.709	97.62
360.936	91.62
361.163	84.62
361.39	80.62
361.616	82.62
361.843	78.62
362.07	85.62
362.296	100.62
362.523	85.62
362.749	88.62
362.976	84.62
363.203	94.62
363.429	74.62
363.656	88.62
363.882	84.62
364.109	102.62
364.335	96.62
364.562	92.62
364.788	93.62
365.015	90.62
365.241	82.62
365.468	89.62
365.694	83.62
365.92	98.62
366.147	100.62
366.373	76.62
366.599	103.62
366.826	86.62
367.052	79.62
367.278	86.62
367.505	75.62
367.731	83.62
367.957	73.62
368.184	80.62
368.41	86.62
368.636	94.62
368.862	86.62
369.089	79.62
369.315	75.62
369.541	102.62
369.767	90.62
369.993	89.62
370.219	74.62
370.445	90.62
370.672	101.62
370.898	91.62
371.124	90.62
371.35	85.62
371.576	82.62
371.802	74.62
372.028	92.62
372.254	84.62
372.48	71.62
372.706	79.62
372.932	98.62
373.158	79.62
373.384	94.62
373.61	98.62
373.835	120.62
374.061	95.62
374.287	90.62
374.513	90.62
374.739	102.62
374.965	102.62
375.191	86.62
375.416	89.62
375.642	79.62
375.868	79.62
376.094	81.62
376.319	101.62
376.545	82.62
376.771	90.62
376.997	80.62
377.222	85.62
377.448	77.62
377.674	79.62
377.899	70.62
378.125	71.62
378.35	73.62
378.576	73.62
378.802	83.62
379.027	78.62
379.253	81.62
379.478	80.62
379.704	89.62
379.929	80.62
380.155	79.62
380.38	86.62
380.606	79.62
380.831	100.62
381.057	92.62
381.282	91.62
381.507	82.62
381.733	79.62
381.958	97.62
382.184	93.62
382.409	96.62
382.634	89.62
382.86	76.62
383.085	104.62
383.31	88.62
383.535	82.62
383.761	93.62
383.986	102.62
384.211	90.62
384.436	96.62
384.662	90.62
384.887	88.62
385.112	97.62
385.337	84.62
385.562	77.62
385.787	84.62
386.013	74.62
386.238	86.62
386.463	100.62
386.688	100.62
386.913	96.62
387.138	104.62
387.363	92.62
387.588	98.62
387.813	104.62
388.038	92.62
388.263	81.62
388.488	83.62
388.713	96.62
388.938	91.62
389.163	83.62
389.387	85.62
389.612	95.62
389.837	82.62
390.062	82.62
390.287	89.62
390.512	98.62
390.736	87.62
390.961	80.62
391.186	76.62
391.411	85.62
391.636	84.62
391.86	75.62
392.085	83.62
392.31	97.62
392.534	94.62
392.759	114.62
392.984	155.62
393.208	281.62
393.433	452.62
393.658	334.62
393.882	155.62
394.107	98.62
394.331	111.62
394.556	105.62
394.78	90.62
395.005	79.62
395.229	76.62
395.454	90.62
395.678	106.62
395.903	117.62
396.127	124.62
396.352	136.62
396.576	189.62
396.801	301.62
397.025	352.62
397.249	173.62
397.474	103.62
397.698	106.62
397.922	86.62
398.147	93.62
398.371	79.62
398.595	95.62
398.82	89.62
399.044	85.62
399.268	72.62
399.492	80.62
399.717	89.62
399.941	74.62
400.165	82.62
400.389	82.62
400.613	81.62
400.837	107.62
401.062	88.62
401.286	90.62
401.51	76.62
401.734	81.62
401.958	82.62
402.182	76.62
402.406	84.62
402.63	67.62
402.854	93.62
403.078	84.62
403.302	86.62
403.526	81.62
403.75	88.62
403.974	85.62
404.198	81.62
404.422	106.62
404.645	105.62
404.869	87.62
405.093	87.62
405.317	88.62
405.541	82.62
405.765	70.62
405.988	75.62
406.212	84.62
406.436	81.62
406.66	85.62
406.883	83.62
407.107	78.62
407.331	90.62
407.555	103.62
407.778	122.62
408.002	121.62
408.226	79.62
408.449	99.62
408.673	90.62
408.896	90.62
409.12	87.62
409.344	82.62
409.567	74.62
409.791	82.62
410.014	75.62
410.238	100.62
410.461	80.62
410.685	82.62
410.908	105.62
411.132	90.62
411.355	73.62
411.578	86.62
411.802	79.62
412.025	90.62
412.249	79.62
412.472	85.62
412.695	77.62
412.919	80.62
413.142	79.62
413.365	80.62
413.589	80.62
413.812	69.62
414.035	82.62
414.258	80.62
414.482	93.62
414.705	86.62
414.928	86.62
415.151	92.62
415.374	79.62
415.597	82.62
415.821	72.62
416.044	72.62
416.267	88.62
416.49	89.62
416.713	78.62
416.936	101.62
417.159	92.62
417.382	81.62
417.605	72.62
417.828	69.62
418.051	73.62
418.274	81.62
418.497	72.62
418.72	77.62
418.943	90.62
419.166	82.62
419.389	73.62
419.611	82.62
419.834	88.62
420.057	95.62
420.28	84.62
420.503	63.62
420.726	79.62
420.948	91.62
421.171	86.62
421.394	92.62
421.617	104.62
421.839	91.62
422.062	109.62
422.285	124.62
422.507	210.62
422.73	328.62
422.953	282.62
423.175	112.62
423.398	92.62
423.621	92.62
423.843	86.62
424.066	92.62
424.288	83.62
424.511	90.62
424.733	78.62
424.956	78.62
425.178	84.62
425.401	89.62
425.623	97.62
425.846	80.62
426.068	81.62
426.291	75.62
426.513	95.62
426.735	88.62
426.958	86.62
427.18	88.62
427.402	95.62
427.625	83.62
427.847	76.62
428.069	87.62
428.292	110.62
428.514	105.62
428.736	91.62
428.958	98.62
429.181	100.62
429.403	103.62
429.625	77.62
429.847	105.62
430.069	120.62
430.292	147.62
430.514	134.62
430.736	99.62
430.958	112.62
431.18	93.62
431.402	84.62
431.624	91.62
431.846	100.62
432.068	120.62
432.29	82.62
432.512	93.62
432.734	94.62
432.956	76.62
433.178	78.62
433.4	85.62
433.622	80.62
433.844	80.62
434.066	69.62
434.287	82.62
434.509	87.62
434.731	87.62
434.953	80.62
435.175	79.62
435.397	95.62
435.618	76.62
435.84	84.62
436.062	90.62
436.284	71.62
436.505	76.62
436.727	78.62
436.949	95.62
437.17	69.62
437.392	82.62
437.614	87.62
437.835	94.62
438.057	75.62
438.278	82.62
438.5	85.62
438.721	87.62
438.943	91.62
439.165	62.62
439.386	92.62
439.608	101.62
439.829	80.62
440.05	96.62
440.272	90.62
440.493	91.62
440.715	89.62
440.936	88.62
441.158	74.62
441.379	97.62
441.6	86.62
441.822	81.62
442.043	73.62
442.264	84.62
442.486	99.62
442.707	109.62
442.928	89.62
443.149	72.62
443.371	114.62
443.592	156.62
443.813	134.62
444.034	92.62
444.255	82.62
444.476	83.62
444.698	84.62
444.919	86.62
445.14	166.62
445.361	157.62
445.582	195.62
445.803	166.62
446.024	96.62
446.245	97.62
446.466	75.62
446.687	75.62
446.908	81.62
447.129	91.62
447.35	83.62
447.571	75.62
447.792	75.62
448.013	89.62
448.234	88.62
448.455	89.62
448.675	73.62
448.896	83.62
449.117	78.62
449.338	74.62
449.559	65.62
449.779	85.62
450	91.62
450.221	90.62
450.442	96.62
450.662	83.62
450.883	82.62
451.104	92.62
451.324	85.62
451.545	76.62
451.766	67.62
451.986	81.62
452.207	84.62
452.428	72.62
452.648	87.62
452.869	92.62
453.089	82.62
453.31	76.62
453.53	84.62
453.751	74.62
453.971	83.62
454.192	78.62
454.412	82.62
454.633	92.62
454.853	83.62
455.073	75.62
455.294	86.62
455.514	78.62
455.734	90.62
455.955	73.62
456.175	69.62
456.395	82.62
456.616	85.62
456.836	76.62
457.056	78.62
457.276	78.62
457.497	68.62
457.717	86.62
457.937	104.62
458.157	106.62
458.377	102.62
458.598	107.62
458.818	90.62
459.038	101.62
459.258	102.62
459.478	93.62
459.698	86.62
459.918	84.62
460.138	96.62
460.358	70.62
460.578	85.62
460.798	114.62
461.018	104.62
461.238	90.62
461.458	84.62
461.678	88.62
461.898	96.62
462.118	86.62
462.338	85.62
462.558	78.62
462.777	65.62
462.997	88.62
463.217	79.62
463.437	85.62
463.657	84.62
463.876	85.62
464.096	87.62
464.316	86.62
464.536	62.62
464.755	82.62
464.975	82.62
465.195	92.62
465.414	73.62
465.634	72.62
465.854	100.62
466.073	85.62
466.293	72.62
466.512	67.62
466.732	77.62
466.951	77.62
467.171	77.62
467.391	84.62
467.61	83.62
467.829	73.62
468.049	88.62
468.268	85.62
468.488	91.62
468.707	96.62
468.927	78.62
469.146	85.62
469.365	75.62
469.585	86.62
469.804	89.62
470.023	68.62
470.243	85.62
470.462	92.62
470.681	83.62
470.901	98.62
471.12	80.62
471.339	62.62
471.558	84.62
471.777	87.62
471.997	85.62
472.216	82.62
472.435	78.62
472.654	86.62
472.873	82.62
473.092	82.62
473.311	71.62
473.53	86.62
473.749	101.62
473.968	102.62
474.187	71.62
474.406	80.62
474.625	87.62
474.844	86.62
475.063	80.62
475.282	77.62
475.501	77.62
475.72	106.62
475.939	79.62
476.158	78.62
476.377	82.62
476.596	84.62
476.814	87.62
477.033	75.62
477.252	68.62
477.471	84.62
477.69	83.62
477.908	84.62
478.127	77.62
478.346	77.62
478.564	70.62
478.783	84.62
479.002	93.62
479.22	92.62
479.439	77.62
479.658	88.62
479.876	66.62
480.095	83.62
480.313	101.62
480.532	96.62
480.751	87.62
480.969	90.62
481.188	96.62
481.406	89.62
481.624	75.62
481.843	100.62
482.061	76.62
482.28	66.62
482.498	87.62
482.717	75.62
482.935	70.62
483.153	85.62
483.372	76.62
483.59	86.62
483.808	86.62
484.027	83.62
484.245	84.62
484.463	86.62
484.681	76.62
484.9	84.62
485.118	79.62
485.336	89.62
485.554	82.62
485.772	81.62
485.99	85.62
486.209	74.62
486.427	75.62
486.645	81.62
486.863	90.62
487.081	85.62
487.299	84.62
487.517	88.62
487.735	101.62
487.953	120.62
488.171	107.62
488.389	88.62
488.607	86.62
488.825	82.62
489.043	83.62
489.261	90.62
489.479	88.62
489.696	77.62
489.914	92.62
490.132	83.62
490.35	79.62
490.568	88.62
490.786	82.62
491.003	82.62
491.221	83.62
491.439	90.62
491.657	78.62
491.874	92.62
492.092	73.62
492.31	92.62
492.527	90.62
492.745	87.62
492.963	69.62
493.18	89.62
493.398	92.62
493.615	86.62
493.833	76.62
494.05	87.62
494.268	74.62
494.485	96.62
494.703	92.62
494.92	89.62
495.138	95.62
495.355	87.62
495.573	89.62
495.79	76.62
496.008	86.62
496.225	76.62
496.442	79.62
496.66	89.62
496.877	85.62
497.094	90.62
497.312	75.62
497.529	88.62
497.746	96.62
497.963	82.62
498.181	83.62
498.398	93.62
498.615	89.62
498.832	78.62
499.049	80.62
499.267	87.62
499.484	86.62
499.701	87.62
499.918	93.62
500.135	87.62
500.352	87.62
500.569	78.62
500.786	85.62
501.003	86.62
501.22	89.62
501.437	85.62
501.654	81.62
501.871	81.62
502.088	71.62
502.305	84.62
502.522	84.62
502.739	89.62
502.956	102.62
503.172	98.62
503.389	78.62
503.606	84.62
503.823	91.62
504.04	93.62
504.256	89.62
504.473	91.62
504.69	82.62
504.907	92.62
505.123	75.62
505.34	92.62
505.557	79.62
505.773	78.62
505.99	72.62
506.207	84.62
506.423	68.62
506.64	87.62
506.856	82.62
507.073	84.62
507.289	83.62
507.506	89.62
507.722	71.62
507.939	75.62
508.155	80.62
508.372	88.62
508.588	84.62
508.805	77.62
509.021	98.62
509.238	85.62
509.454	85.62
509.67	81.62
509.887	82.62
510.103	92.62
510.319	87.62
510.536	87.62
510.752	89.62
510.968	69.62
511.184	96.62
511.401	92.62
511.617	88.62
511.833	98.62
512.049	90.62
512.265	79.62
512.481	76.62
512.698	91.62
512.914	86.62
513.13	92.62
513.346	81.62
513.562	78.62
513.778	99.62
513.994	99.62
514.21	99.62
514.426	99.62
514.642	84.62
514.858	91.62
515.074	76.62
515.29	81.62
515.506	100.62
515.721	92.62
515.937	94.62
516.153	74.62
516.369	91.62
516.585	84.62
516.801	93.62
517.016	99.62
517.232	89.62
517.448	90.62
517.664	88.62
517.879	86.62
518.095	79.62
518.311	89.62
518.527	87.62
518.742	79.62
