Data from 15780_1_HRD10591_00034.txt Node
Date: Mon Jan 19 14:18:27 EST 2026
User: Yrep
Spectrometer: HR+D1059
Trigger mode: 1
Integration Time (sec): 1.000000E-1
Scans to average: 1
Electric dark correction enabled: true
Nonlinearity correction enabled: false
Boxcar width: 0
XAxis mode: Wavelengths
Number of Pixels in Spectrum: 2048
>>>>>Begin Spectral Data<<<<<
223.165	-20.06
223.4	-20.06
223.635	-20.06
223.869	-16.06
224.104	-15.06
224.338	-19.06
224.573	-12.06
224.808	-16.06
225.042	-9.06
225.277	-3.06
225.511	-5.06
225.746	-4.06
225.98	13.94
226.215	11.94
226.449	12.94
226.683	28.94
226.918	18.94
227.152	32.94
227.387	23.94
227.621	22.94
227.856	53.94
228.09	47.94
228.324	58.94
228.559	63.94
228.793	62.94
229.027	61.94
229.262	74.94
229.496	81.94
229.73	68.94
229.964	70.94
230.199	77.94
230.433	69.94
230.667	82.94
230.901	80.94
231.136	98.94
231.37	77.94
231.604	83.94
231.838	81.94
232.072	84.94
232.306	73.94
232.541	83.94
232.775	92.94
233.009	81.94
233.243	75.94
233.477	87.94
233.711	75.94
233.945	77.94
234.179	68.94
234.413	90.94
234.647	76.94
234.881	89.94
235.115	85.94
235.349	79.94
235.583	87.94
235.817	78.94
236.051	67.94
236.285	71.94
236.519	74.94
236.753	75.94
236.987	80.94
237.221	71.94
237.455	63.94
237.689	77.94
237.922	67.94
238.156	76.94
238.39	65.94
238.624	61.94
238.858	70.94
239.091	65.94
239.325	73.94
239.559	65.94
239.793	80.94
240.027	78.94
240.26	67.94
240.494	73.94
240.728	67.94
240.961	71.94
241.195	76.94
241.429	68.94
241.662	75.94
241.896	75.94
242.13	58.94
242.363	66.94
242.597	70.94
242.83	95.94
243.064	67.94
243.298	84.94
243.531	87.94
243.765	67.94
243.998	83.94
244.232	78.94
244.465	66.94
244.699	74.94
244.932	74.94
245.166	84.94
245.399	74.94
245.633	71.94
245.866	78.94
246.099	74.94
246.333	72.94
246.566	81.94
246.8	83.94
247.033	73.94
247.266	81.94
247.5	81.94
247.733	68.94
247.966	87.94
248.2	78.94
248.433	81.94
248.666	69.94
248.899	79.94
249.133	63.94
249.366	86.94
249.599	77.94
249.832	77.94
250.066	87.94
250.299	77.94
250.532	87.94
250.765	76.94
250.998	71.94
251.231	85.94
251.465	80.94
251.698	67.94
251.931	72.94
252.164	83.94
252.397	89.94
252.63	78.94
252.863	71.94
253.096	79.94
253.329	71.94
253.562	91.94
253.795	81.94
254.028	69.94
254.261	68.94
254.494	75.94
254.727	81.94
254.96	80.94
255.193	98.94
255.426	84.94
255.659	94.94
255.892	87.94
256.124	86.94
256.357	70.94
256.59	78.94
256.823	83.94
257.056	68.94
257.289	73.94
257.521	65.94
257.754	76.94
257.987	81.94
258.22	84.94
258.452	67.94
258.685	89.94
258.918	89.94
259.151	67.94
259.383	68.94
259.616	79.94
259.849	63.94
260.081	83.94
260.314	96.94
260.547	90.94
260.779	92.94
261.012	73.94
261.244	76.94
261.477	76.94
261.71	83.94
261.942	78.94
262.175	76.94
262.407	81.94
262.64	79.94
262.872	83.94
263.105	78.94
263.337	77.94
263.57	89.94
263.802	66.94
264.035	80.94
264.267	76.94
264.499	74.94
264.732	89.94
264.964	86.94
265.197	87.94
265.429	92.94
265.661	83.94
265.894	89.94
266.126	85.94
266.358	90.94
266.591	75.94
266.823	84.94
267.055	85.94
267.287	82.94
267.52	70.94
267.752	83.94
267.984	59.94
268.216	71.94
268.448	89.94
268.681	90.94
268.913	90.94
269.145	84.94
269.377	78.94
269.609	76.94
269.841	84.94
270.073	73.94
270.306	95.94
270.538	83.94
270.77	76.94
271.002	92.94
271.234	86.94
271.466	72.94
271.698	89.94
271.93	81.94
272.162	92.94
272.394	92.94
272.626	83.94
272.858	84.94
273.09	84.94
273.322	86.94
273.553	92.94
273.785	81.94
274.017	85.94
274.249	99.94
274.481	87.94
274.713	75.94
274.945	77.94
275.176	86.94
275.408	89.94
275.64	85.94
275.872	84.94
276.104	84.94
276.335	84.94
276.567	79.94
276.799	79.94
277.031	70.94
277.262	72.94
277.494	92.94
277.726	96.94
277.957	77.94
278.189	89.94
278.421	83.94
278.652	83.94
278.884	77.94
279.115	84.94
279.347	78.94
279.579	83.94
279.81	76.94
280.042	87.94
280.273	90.94
280.505	72.94
280.736	92.94
280.968	89.94
281.199	76.94
281.431	75.94
281.662	84.94
281.894	93.94
282.125	90.94
282.356	94.94
282.588	101.94
282.819	91.94
283.051	79.94
283.282	67.94
283.513	80.94
283.745	79.94
283.976	60.94
284.207	79.94
284.439	72.94
284.67	89.94
284.901	90.94
285.132	96.94
285.364	93.94
285.595	88.94
285.826	71.94
286.057	90.94
286.288	77.94
286.52	83.94
286.751	79.94
286.982	98.94
287.213	83.94
287.444	77.94
287.675	81.94
287.906	95.94
288.138	103.94
288.369	89.94
288.6	83.94
288.831	85.94
289.062	91.94
289.293	84.94
289.524	79.94
289.755	92.94
289.986	75.94
290.217	86.94
290.448	85.94
290.679	91.94
290.91	74.94
291.141	83.94
291.371	73.94
291.602	76.94
291.833	77.94
292.064	97.94
292.295	93.94
292.526	84.94
292.757	74.94
292.987	83.94
293.218	71.94
293.449	76.94
293.68	81.94
293.91	78.94
294.141	85.94
294.372	103.94
294.603	91.94
294.833	91.94
295.064	75.94
295.295	74.94
295.525	70.94
295.756	81.94
295.987	77.94
296.217	81.94
296.448	78.94
296.679	80.94
296.909	68.94
297.14	88.94
297.37	83.94
297.601	80.94
297.831	82.94
298.062	92.94
298.292	88.94
298.523	78.94
298.753	82.94
298.984	87.94
299.214	76.94
299.445	79.94
299.675	91.94
299.905	86.94
300.136	75.94
300.366	84.94
300.597	89.94
300.827	90.94
301.057	78.94
301.288	78.94
301.518	88.94
301.748	88.94
301.979	107.94
302.209	89.94
302.439	80.94
302.669	100.94
302.9	96.94
303.13	80.94
303.36	80.94
303.59	84.94
303.82	95.94
304.051	91.94
304.281	82.94
304.511	84.94
304.741	91.94
304.971	81.94
305.201	88.94
305.431	91.94
305.661	73.94
305.891	83.94
306.121	85.94
306.352	88.94
306.582	84.94
306.812	88.94
307.042	97.94
307.272	84.94
307.502	91.94
307.731	91.94
307.961	84.94
308.191	92.94
308.421	70.94
308.651	87.94
308.881	87.94
309.111	97.94
309.341	95.94
309.571	92.94
309.8	87.94
310.03	87.94
310.26	89.94
310.49	65.94
310.72	88.94
310.949	87.94
311.179	91.94
311.409	73.94
311.639	83.94
311.868	73.94
312.098	84.94
312.328	86.94
312.557	92.94
312.787	94.94
313.017	77.94
313.246	80.94
313.476	84.94
313.706	81.94
313.935	88.94
314.165	70.94
314.394	71.94
314.624	81.94
314.853	88.94
315.083	89.94
315.312	85.94
315.542	74.94
315.771	94.94
316.001	91.94
316.23	81.94
316.46	90.94
316.689	77.94
316.919	75.94
317.148	77.94
317.377	81.94
317.607	91.94
317.836	91.94
318.065	99.94
318.295	81.94
318.524	85.94
318.753	63.94
318.983	91.94
319.212	84.94
319.441	84.94
319.67	94.94
319.9	85.94
320.129	89.94
320.358	97.94
320.587	90.94
320.816	90.94
321.046	93.94
321.275	85.94
321.504	87.94
321.733	86.94
321.962	93.94
322.191	93.94
322.42	76.94
322.649	91.94
322.878	85.94
323.108	71.94
323.337	76.94
323.566	89.94
323.795	87.94
324.024	87.94
324.253	74.94
324.482	83.94
324.71	83.94
324.939	87.94
325.168	81.94
325.397	83.94
325.626	89.94
325.855	86.94
326.084	73.94
326.313	87.94
326.542	94.94
326.77	86.94
326.999	86.94
327.228	93.94
327.457	99.94
327.686	89.94
327.914	95.94
328.143	98.94
328.372	95.94
328.6	95.94
328.829	70.94
329.058	88.94
329.287	77.94
329.515	89.94
329.744	86.94
329.972	74.94
330.201	85.94
330.43	97.94
330.658	82.94
330.887	89.94
331.115	74.94
331.344	86.94
331.572	104.94
331.801	99.94
332.03	80.94
332.258	68.94
332.486	82.94
332.715	83.94
332.943	100.94
333.172	83.94
333.4	76.94
333.629	78.94
333.857	89.94
334.085	87.94
334.314	89.94
334.542	83.94
334.771	94.94
334.999	83.94
335.227	96.94
335.455	90.94
335.684	69.94
335.912	92.94
336.14	88.94
336.369	83.94
336.597	86.94
336.825	88.94
337.053	86.94
337.281	93.94
337.51	83.94
337.738	82.94
337.966	85.94
338.194	94.94
338.422	89.94
338.65	74.94
338.878	76.94
339.106	92.94
339.334	95.94
339.562	91.94
339.79	88.94
340.018	60.94
340.246	85.94
340.474	81.94
340.702	78.94
340.93	75.94
341.158	73.94
341.386	72.94
341.614	95.94
341.842	81.94
342.07	74.94
342.298	91.94
342.526	71.94
342.754	79.94
342.981	92.94
343.209	84.94
343.437	104.94
343.665	91.94
343.893	91.94
344.12	84.94
344.348	76.94
344.576	92.94
344.804	87.94
345.031	84.94
345.259	83.94
345.487	80.94
345.714	89.94
345.942	91.94
346.17	92.94
346.397	84.94
346.625	94.94
346.853	85.94
347.08	92.94
347.308	90.94
347.535	82.94
347.763	71.94
347.99	85.94
348.218	81.94
348.445	89.94
348.673	91.94
348.9	96.94
349.128	100.94
349.355	95.94
349.583	86.94
349.81	83.94
350.037	85.94
350.265	85.94
350.492	71.94
350.72	76.94
350.947	75.94
351.174	79.94
351.402	75.94
351.629	83.94
351.856	75.94
352.083	81.94
352.311	94.94
352.538	78.94
352.765	81.94
352.992	71.94
353.22	79.94
353.447	87.94
353.674	87.94
353.901	84.94
354.128	85.94
354.355	80.94
354.583	94.94
354.81	66.94
355.037	83.94
355.264	80.94
355.491	81.94
355.718	82.94
355.945	84.94
356.172	91.94
356.399	83.94
356.626	74.94
356.853	77.94
357.08	88.94
357.307	89.94
357.534	81.94
357.761	81.94
357.988	75.94
358.215	70.94
358.441	92.94
358.668	84.94
358.895	80.94
359.122	77.94
359.349	84.94
359.576	80.94
359.802	76.94
360.029	87.94
360.256	73.94
360.483	89.94
360.709	93.94
360.936	90.94
361.163	71.94
361.39	76.94
361.616	90.94
361.843	71.94
362.07	85.94
362.296	103.94
362.523	83.94
362.749	106.94
362.976	96.94
363.203	99.94
363.429	90.94
363.656	97.94
363.882	83.94
364.109	93.94
364.335	88.94
364.562	80.94
364.788	89.94
365.015	87.94
365.241	93.94
365.468	72.94
365.694	82.94
365.92	84.94
366.147	84.94
366.373	82.94
366.599	83.94
366.826	73.94
367.052	84.94
367.278	75.94
367.505	77.94
367.731	81.94
367.957	75.94
368.184	85.94
368.41	74.94
368.636	85.94
368.862	85.94
369.089	97.94
369.315	83.94
369.541	88.94
369.767	87.94
369.993	84.94
370.219	84.94
370.445	83.94
370.672	90.94
370.898	84.94
371.124	83.94
371.35	88.94
371.576	87.94
371.802	79.94
372.028	75.94
372.254	99.94
372.48	103.94
372.706	92.94
372.932	91.94
373.158	81.94
373.384	88.94
373.61	88.94
373.835	93.94
374.061	86.94
374.287	96.94
374.513	95.94
374.739	89.94
374.965	86.94
375.191	80.94
375.416	93.94
375.642	79.94
375.868	75.94
376.094	82.94
376.319	73.94
376.545	89.94
376.771	77.94
376.997	83.94
377.222	85.94
377.448	86.94
377.674	67.94
377.899	89.94
378.125	83.94
378.35	83.94
378.576	92.94
378.802	76.94
379.027	88.94
379.253	84.94
379.478	78.94
379.704	77.94
379.929	75.94
380.155	90.94
380.38	90.94
380.606	79.94
380.831	79.94
381.057	92.94
381.282	80.94
381.507	81.94
381.733	90.94
381.958	83.94
382.184	88.94
382.409	81.94
382.634	85.94
382.86	91.94
383.085	83.94
383.31	90.94
383.535	88.94
383.761	86.94
383.986	82.94
384.211	81.94
384.436	93.94
384.662	86.94
384.887	80.94
385.112	75.94
385.337	72.94
385.562	92.94
385.787	91.94
386.013	90.94
386.238	86.94
386.463	84.94
386.688	97.94
386.913	91.94
387.138	83.94
387.363	89.94
387.588	86.94
387.813	89.94
388.038	84.94
388.263	93.94
388.488	94.94
388.713	71.94
388.938	83.94
389.163	69.94
389.387	89.94
389.612	76.94
389.837	87.94
390.062	84.94
390.287	86.94
390.512	74.94
390.736	91.94
390.961	83.94
391.186	72.94
391.411	93.94
391.636	87.94
391.86	82.94
392.085	86.94
392.31	84.94
392.534	101.94
392.759	102.94
392.984	131.94
393.208	172.94
393.433	269.94
393.658	197.94
393.882	112.94
394.107	97.94
394.331	107.94
394.556	112.94
394.78	105.94
395.005	87.94
395.229	77.94
395.454	86.94
395.678	89.94
395.903	96.94
396.127	129.94
396.352	143.94
396.576	132.94
396.801	205.94
397.025	232.94
397.249	129.94
397.474	82.94
397.698	96.94
397.922	87.94
398.147	85.94
398.371	76.94
398.595	67.94
398.82	85.94
399.044	84.94
399.268	75.94
399.492	73.94
399.717	99.94
399.941	87.94
400.165	86.94
400.389	83.94
400.613	88.94
400.837	86.94
401.062	75.94
401.286	72.94
401.51	85.94
401.734	75.94
401.958	83.94
402.182	84.94
402.406	81.94
402.63	75.94
402.854	92.94
403.078	88.94
403.302	69.94
403.526	90.94
403.75	71.94
403.974	89.94
404.198	98.94
404.422	121.94
404.645	123.94
404.869	108.94
405.093	78.94
405.317	87.94
405.541	80.94
405.765	80.94
405.988	87.94
406.212	93.94
406.436	87.94
406.66	83.94
406.883	70.94
407.107	75.94
407.331	83.94
407.555	94.94
407.778	91.94
408.002	96.94
408.226	87.94
408.449	89.94
408.673	88.94
408.896	63.94
409.12	90.94
409.344	77.94
409.567	84.94
409.791	77.94
410.014	81.94
410.238	79.94
410.461	83.94
410.685	88.94
410.908	85.94
411.132	73.94
411.355	89.94
411.578	100.94
411.802	83.94
412.025	85.94
412.249	68.94
412.472	67.94
412.695	75.94
412.919	95.94
413.142	91.94
413.365	88.94
413.589	73.94
413.812	63.94
414.035	84.94
414.258	103.94
414.482	79.94
414.705	78.94
414.928	84.94
415.151	75.94
415.374	84.94
415.597	91.94
415.821	69.94
416.044	73.94
416.267	72.94
416.49	81.94
416.713	87.94
416.936	86.94
417.159	82.94
417.382	67.94
417.605	66.94
417.828	85.94
418.051	91.94
418.274	78.94
418.497	86.94
418.72	81.94
418.943	83.94
419.166	84.94
419.389	93.94
419.611	96.94
419.834	76.94
420.057	72.94
420.28	70.94
420.503	81.94
420.726	76.94
420.948	77.94
421.171	89.94
421.394	82.94
421.617	83.94
421.839	95.94
422.062	95.94
422.285	107.94
422.507	181.94
422.73	260.94
422.953	237.94
423.175	129.94
423.398	108.94
423.621	83.94
423.843	83.94
424.066	85.94
424.288	73.94
424.511	95.94
424.733	95.94
424.956	83.94
425.178	85.94
425.401	86.94
425.623	84.94
425.846	67.94
426.068	83.94
426.291	75.94
426.513	81.94
426.735	88.94
426.958	105.94
427.18	77.94
427.402	80.94
427.625	85.94
427.847	66.94
428.069	83.94
428.292	96.94
428.514	101.94
428.736	97.94
428.958	100.94
429.181	114.94
429.403	93.94
429.625	94.94
429.847	103.94
430.069	103.94
430.292	122.94
430.514	131.94
430.736	105.94
430.958	115.94
431.18	96.94
431.402	92.94
431.624	85.94
431.846	99.94
432.068	112.94
432.29	87.94
432.512	93.94
432.734	80.94
432.956	67.94
433.178	91.94
433.4	81.94
433.622	85.94
433.844	84.94
434.066	88.94
434.287	75.94
434.509	74.94
434.731	79.94
434.953	74.94
435.175	82.94
435.397	95.94
435.618	85.94
435.84	75.94
436.062	76.94
436.284	76.94
436.505	78.94
436.727	75.94
436.949	88.94
437.17	85.94
437.392	100.94
437.614	79.94
437.835	89.94
438.057	86.94
438.278	67.94
438.5	83.94
438.721	88.94
438.943	73.94
439.165	83.94
439.386	87.94
439.608	78.94
439.829	89.94
440.05	82.94
440.272	76.94
440.493	73.94
440.715	86.94
440.936	80.94
441.158	93.94
441.379	76.94
441.6	78.94
441.822	81.94
442.043	79.94
442.264	75.94
442.486	84.94
442.707	103.94
442.928	85.94
443.149	99.94
443.371	112.94
443.592	152.94
443.813	131.94
444.034	89.94
444.255	76.94
444.476	91.94
444.698	89.94
444.919	89.94
445.14	159.94
445.361	172.94
445.582	195.94
445.803	148.94
446.024	89.94
446.245	69.94
446.466	72.94
446.687	81.94
446.908	83.94
447.129	86.94
447.35	83.94
447.571	79.94
447.792	89.94
448.013	86.94
448.234	78.94
448.455	76.94
448.675	91.94
448.896	81.94
449.117	82.94
449.338	80.94
449.559	69.94
449.779	81.94
450	75.94
450.221	75.94
450.442	84.94
450.662	74.94
450.883	85.94
451.104	84.94
451.324	99.94
451.545	83.94
451.766	84.94
451.986	72.94
452.207	69.94
452.428	87.94
452.648	81.94
452.869	82.94
453.089	92.94
453.31	68.94
453.53	91.94
453.751	74.94
453.971	81.94
454.192	76.94
454.412	70.94
454.633	78.94
454.853	76.94
455.073	79.94
455.294	68.94
455.514	75.94
455.734	85.94
455.955	78.94
456.175	77.94
456.395	65.94
456.616	76.94
456.836	75.94
457.056	69.94
457.276	92.94
457.497	88.94
457.717	87.94
457.937	86.94
458.157	88.94
458.377	79.94
458.598	87.94
458.818	88.94
459.038	81.94
459.258	83.94
459.478	86.94
459.698	88.94
459.918	93.94
460.138	83.94
460.358	91.94
460.578	85.94
460.798	98.94
461.018	99.94
461.238	77.94
461.458	65.94
461.678	88.94
461.898	75.94
462.118	81.94
462.338	91.94
462.558	84.94
462.777	75.94
462.997	85.94
463.217	77.94
463.437	89.94
463.657	104.94
463.876	81.94
464.096	80.94
464.316	82.94
464.536	68.94
464.755	72.94
464.975	78.94
465.195	78.94
465.414	87.94
465.634	77.94
465.854	78.94
466.073	92.94
466.293	81.94
466.512	88.94
466.732	82.94
466.951	85.94
467.171	81.94
467.391	81.94
467.61	92.94
467.829	79.94
468.049	79.94
468.268	69.94
468.488	93.94
468.707	86.94
468.927	75.94
469.146	85.94
469.365	96.94
469.585	93.94
469.804	79.94
470.023	74.94
470.243	71.94
470.462	87.94
470.681	91.94
470.901	90.94
471.12	85.94
471.339	79.94
471.558	93.94
471.777	88.94
471.997	81.94
472.216	92.94
472.435	72.94
472.654	76.94
472.873	74.94
473.092	81.94
473.311	76.94
473.53	89.94
473.749	74.94
473.968	91.94
474.187	81.94
474.406	71.94
474.625	89.94
474.844	83.94
475.063	73.94
475.282	77.94
475.501	80.94
475.72	89.94
475.939	83.94
476.158	81.94
476.377	87.94
476.596	75.94
476.814	86.94
477.033	81.94
477.252	90.94
477.471	75.94
477.69	73.94
477.908	77.94
478.127	91.94
478.346	92.94
478.564	77.94
478.783	73.94
479.002	81.94
479.22	80.94
479.439	74.94
479.658	75.94
479.876	80.94
480.095	85.94
480.313	92.94
480.532	92.94
480.751	77.94
480.969	65.94
481.188	91.94
481.406	90.94
481.624	74.94
481.843	79.94
482.061	85.94
482.28	64.94
482.498	83.94
482.717	83.94
482.935	77.94
483.153	75.94
483.372	92.94
483.59	85.94
483.808	75.94
484.027	87.94
484.245	91.94
484.463	73.94
484.681	81.94
484.9	76.94
485.118	90.94
485.336	71.94
485.554	78.94
485.772	81.94
485.99	72.94
486.209	89.94
486.427	87.94
486.645	85.94
486.863	89.94
487.081	77.94
487.299	76.94
487.517	77.94
487.735	89.94
487.953	99.94
488.171	88.94
488.389	91.94
488.607	83.94
488.825	76.94
489.043	86.94
489.261	98.94
489.479	83.94
489.696	81.94
489.914	73.94
490.132	85.94
490.35	87.94
490.568	81.94
490.786	87.94
491.003	94.94
491.221	98.94
491.439	87.94
491.657	74.94
491.874	101.94
492.092	76.94
492.31	84.94
492.527	93.94
492.745	79.94
492.963	81.94
493.18	95.94
493.398	92.94
493.615	94.94
493.833	76.94
494.05	94.94
494.268	88.94
494.485	76.94
494.703	81.94
494.92	91.94
495.138	81.94
495.355	81.94
495.573	88.94
495.79	90.94
496.008	101.94
496.225	95.94
496.442	77.94
496.66	88.94
496.877	101.94
497.094	86.94
497.312	84.94
497.529	84.94
497.746	81.94
497.963	78.94
498.181	98.94
498.398	86.94
498.615	84.94
498.832	89.94
499.049	98.94
499.267	81.94
499.484	82.94
499.701	81.94
499.918	76.94
500.135	93.94
500.352	84.94
500.569	84.94
500.786	84.94
501.003	83.94
501.22	90.94
501.437	98.94
501.654	87.94
501.871	88.94
502.088	77.94
502.305	80.94
502.522	97.94
502.739	87.94
502.956	81.94
503.172	96.94
503.389	93.94
503.606	88.94
503.823	89.94
504.04	92.94
504.256	105.94
504.473	91.94
504.69	97.94
504.907	82.94
505.123	96.94
505.34	91.94
505.557	96.94
505.773	82.94
505.99	78.94
506.207	75.94
506.423	87.94
506.64	90.94
506.856	73.94
507.073	83.94
507.289	82.94
507.506	91.94
507.722	80.94
507.939	79.94
508.155	83.94
508.372	87.94
508.588	84.94
508.805	68.94
509.021	75.94
509.238	80.94
509.454	92.94
509.67	91.94
509.887	79.94
510.103	74.94
510.319	79.94
510.536	83.94
510.752	85.94
510.968	91.94
511.184	61.94
511.401	75.94
511.617	89.94
511.833	79.94
512.049	92.94
512.265	82.94
512.481	75.94
512.698	82.94
512.914	105.94
513.13	81.94
513.346	77.94
513.562	86.94
513.778	101.94
513.994	87.94
514.21	83.94
514.426	73.94
514.642	59.94
514.858	90.94
515.074	97.94
515.29	81.94
515.506	75.94
515.721	81.94
515.937	80.94
516.153	75.94
516.369	83.94
516.585	98.94
516.801	92.94
517.016	97.94
517.232	72.94
517.448	93.94
517.664	81.94
517.879	88.94
518.095	91.94
518.311	99.94
518.527	80.94
518.742	77.94
518.958	104.94
519.173	97.94
519.389	83.94
