Data from 15780_1_HRD10591_00038.txt Node
Date: Mon Jan 19 14:18:29 EST 2026
User: Yrep
Spectrometer: HR+D1059
Trigger mode: 1
Integration Time (sec): 1.000000E-1
Scans to average: 1
Electric dark correction enabled: true
Nonlinearity correction enabled: false
Boxcar width: 0
XAxis mode: Wavelengths
Number of Pixels in Spectrum: 2048
>>>>>Begin Spectral Data<<<<<
223.165	-16.69
223.4	-16.69
223.635	-16.69
223.869	-7.69
224.104	-23.69
224.338	-23.69
224.573	-13.69
224.808	-8.69
225.042	-8.69
225.277	-20.69
225.511	-10.69
225.746	6.31
225.98	10.31
226.215	10.31
226.449	30.31
226.683	27.31
226.918	29.31
227.152	20.31
227.387	22.31
227.621	38.31
227.856	37.31
228.09	46.31
228.324	56.31
228.559	54.31
228.793	65.31
229.027	61.31
229.262	77.31
229.496	88.31
229.73	75.31
229.964	82.31
230.199	74.31
230.433	83.31
230.667	77.31
230.901	75.31
231.136	85.31
231.37	85.31
231.604	87.31
231.838	97.31
232.072	92.31
232.306	84.31
232.541	91.31
232.775	114.31
233.009	82.31
233.243	85.31
233.477	74.31
233.711	101.31
233.945	77.31
234.179	88.31
234.413	99.31
234.647	104.31
234.881	78.31
235.115	89.31
235.349	81.31
235.583	93.31
235.817	78.31
236.051	81.31
236.285	77.31
236.519	84.31
236.753	85.31
236.987	91.31
237.221	78.31
237.455	86.31
237.689	90.31
237.922	88.31
238.156	90.31
238.39	82.31
238.624	84.31
238.858	94.31
239.091	87.31
239.325	84.31
239.559	75.31
239.793	97.31
240.027	96.31
240.26	78.31
240.494	91.31
240.728	94.31
240.961	91.31
241.195	83.31
241.429	88.31
241.662	108.31
241.896	90.31
242.13	90.31
242.363	96.31
242.597	97.31
242.83	92.31
243.064	83.31
243.298	78.31
243.531	88.31
243.765	86.31
243.998	96.31
244.232	82.31
244.465	97.31
244.699	91.31
244.932	95.31
245.166	88.31
245.399	89.31
245.633	90.31
245.866	78.31
246.099	83.31
246.333	92.31
246.566	77.31
246.8	77.31
247.033	106.31
247.266	86.31
247.5	100.31
247.733	78.31
247.966	91.31
248.2	97.31
248.433	93.31
248.666	98.31
248.899	103.31
249.133	97.31
249.366	99.31
249.599	104.31
249.832	94.31
250.066	100.31
250.299	106.31
250.532	97.31
250.765	99.31
250.998	100.31
251.231	101.31
251.465	95.31
251.698	87.31
251.931	93.31
252.164	101.31
252.397	94.31
252.63	103.31
252.863	102.31
253.096	100.31
253.329	116.31
253.562	101.31
253.795	112.31
254.028	102.31
254.261	84.31
254.494	112.31
254.727	108.31
254.96	113.31
255.193	108.31
255.426	100.31
255.659	104.31
255.892	109.31
256.124	104.31
256.357	125.31
256.59	101.31
256.823	96.31
257.056	102.31
257.289	117.31
257.521	108.31
257.754	107.31
257.987	93.31
258.22	93.31
258.452	84.31
258.685	103.31
258.918	116.31
259.151	104.31
259.383	118.31
259.616	98.31
259.849	114.31
260.081	124.31
260.314	130.31
260.547	113.31
260.779	107.31
261.012	112.31
261.244	104.31
261.477	118.31
261.71	104.31
261.942	116.31
262.175	125.31
262.407	97.31
262.64	112.31
262.872	103.31
263.105	110.31
263.337	119.31
263.57	121.31
263.802	105.31
264.035	97.31
264.267	109.31
264.499	105.31
264.732	105.31
264.964	128.31
265.197	113.31
265.429	102.31
265.661	112.31
265.894	110.31
266.126	109.31
266.358	116.31
266.591	94.31
266.823	98.31
267.055	117.31
267.287	107.31
267.52	109.31
267.752	113.31
267.984	128.31
268.216	106.31
268.448	123.31
268.681	116.31
268.913	112.31
269.145	108.31
269.377	102.31
269.609	90.31
269.841	114.31
270.073	115.31
270.306	125.31
270.538	124.31
270.77	110.31
271.002	126.31
271.234	133.31
271.466	125.31
271.698	129.31
271.93	119.31
272.162	106.31
272.394	125.31
272.626	104.31
272.858	116.31
273.09	118.31
273.322	128.31
273.553	130.31
273.785	114.31
274.017	112.31
274.249	121.31
274.481	135.31
274.713	132.31
274.945	118.31
275.176	130.31
275.408	124.31
275.64	126.31
275.872	120.31
276.104	121.31
276.335	128.31
276.567	135.31
276.799	129.31
277.031	120.31
277.262	127.31
277.494	125.31
277.726	137.31
277.957	131.31
278.189	124.31
278.421	147.31
278.652	140.31
278.884	136.31
279.115	138.31
279.347	154.31
279.579	206.31
279.81	196.31
280.042	168.31
280.273	166.31
280.505	179.31
280.736	148.31
280.968	137.31
281.199	119.31
281.431	119.31
281.662	118.31
281.894	131.31
282.125	136.31
282.356	125.31
282.588	131.31
282.819	131.31
283.051	131.31
283.282	132.31
283.513	134.31
283.745	124.31
283.976	139.31
284.207	139.31
284.439	134.31
284.67	144.31
284.901	139.31
285.132	146.31
285.364	134.31
285.595	155.31
285.826	133.31
286.057	123.31
286.288	131.31
286.52	126.31
286.751	115.31
286.982	150.31
287.213	127.31
287.444	136.31
287.675	124.31
287.906	122.31
288.138	138.31
288.369	168.31
288.6	153.31
288.831	138.31
289.062	135.31
289.293	143.31
289.524	123.31
289.755	121.31
289.986	142.31
290.217	137.31
290.448	131.31
290.679	136.31
290.91	161.31
291.141	131.31
291.371	132.31
291.602	137.31
291.833	130.31
292.064	151.31
292.295	157.31
292.526	143.31
292.757	150.31
292.987	130.31
293.218	153.31
293.449	123.31
293.68	138.31
293.91	153.31
294.141	133.31
294.372	140.31
294.603	135.31
294.833	141.31
295.064	134.31
295.295	138.31
295.525	144.31
295.756	150.31
295.987	133.31
296.217	148.31
296.448	135.31
296.679	124.31
296.909	147.31
297.14	137.31
297.37	142.31
297.601	145.31
297.831	144.31
298.062	141.31
298.292	153.31
298.523	172.31
298.753	132.31
298.984	119.31
299.214	132.31
299.445	145.31
299.675	141.31
299.905	148.31
300.136	141.31
300.366	133.31
300.597	150.31
300.827	144.31
301.057	150.31
301.288	162.31
301.518	153.31
301.748	147.31
301.979	185.31
302.209	158.31
302.439	156.31
302.669	141.31
302.9	149.31
303.13	139.31
303.36	142.31
303.59	146.31
303.82	141.31
304.051	154.31
304.281	154.31
304.511	147.31
304.741	150.31
304.971	149.31
305.201	147.31
305.431	146.31
305.661	142.31
305.891	144.31
306.121	160.31
306.352	150.31
306.582	148.31
306.812	142.31
307.042	155.31
307.272	150.31
307.502	140.31
307.731	147.31
307.961	152.31
308.191	174.31
308.421	169.31
308.651	167.31
308.881	172.31
309.111	164.31
309.341	179.31
309.571	168.31
309.8	162.31
310.03	146.31
310.26	146.31
310.49	149.31
310.72	162.31
310.949	148.31
311.179	150.31
311.409	139.31
311.639	151.31
311.868	160.31
312.098	159.31
312.328	141.31
312.557	141.31
312.787	164.31
313.017	156.31
313.246	164.31
313.476	152.31
313.706	158.31
313.935	148.31
314.165	184.31
314.394	152.31
314.624	162.31
314.853	160.31
315.083	181.31
315.312	196.31
315.542	246.31
315.771	302.31
316.001	360.31
316.23	350.31
316.46	240.31
316.689	216.31
316.919	194.31
317.148	227.31
317.377	239.31
317.607	315.31
317.836	444.31
318.065	554.31
318.295	488.31
318.524	337.31
318.753	247.31
318.983	222.31
319.212	202.31
319.441	167.31
319.67	176.31
319.9	180.31
320.129	187.31
320.358	167.31
320.587	183.31
320.816	177.31
321.046	165.31
321.275	185.31
321.504	169.31
321.733	162.31
321.962	160.31
322.191	154.31
322.42	165.31
322.649	186.31
322.878	164.31
323.108	167.31
323.337	170.31
323.566	174.31
323.795	177.31
324.024	169.31
324.253	165.31
324.482	172.31
324.71	171.31
324.939	180.31
325.168	173.31
325.397	180.31
325.626	172.31
325.855	176.31
326.084	166.31
326.313	157.31
326.542	161.31
326.77	169.31
326.999	167.31
327.228	178.31
327.457	168.31
327.686	166.31
327.914	159.31
328.143	160.31
328.372	165.31
328.6	176.31
328.829	184.31
329.058	164.31
329.287	168.31
329.515	178.31
329.744	170.31
329.972	165.31
330.201	184.31
330.43	163.31
330.658	162.31
330.887	177.31
331.115	173.31
331.344	178.31
331.572	194.31
331.801	170.31
332.03	183.31
332.258	204.31
332.486	176.31
332.715	181.31
332.943	195.31
333.172	194.31
333.4	201.31
333.629	187.31
333.857	195.31
334.085	210.31
334.314	204.31
334.542	208.31
334.771	205.31
334.999	200.31
335.227	212.31
335.455	198.31
335.684	205.31
335.912	201.31
336.14	206.31
336.369	187.31
336.597	193.31
336.825	183.31
337.053	175.31
337.281	178.31
337.51	184.31
337.738	189.31
337.966	179.31
338.194	189.31
338.422	182.31
338.65	177.31
338.878	173.31
339.106	180.31
339.334	173.31
339.562	182.31
339.79	176.31
340.018	178.31
340.246	161.31
340.474	186.31
340.702	182.31
340.93	171.31
341.158	171.31
341.386	184.31
341.614	182.31
341.842	179.31
342.07	171.31
342.298	171.31
342.526	168.31
342.754	163.31
342.981	188.31
343.209	165.31
343.437	178.31
343.665	194.31
343.893	187.31
344.12	189.31
344.348	205.31
344.576	187.31
344.804	171.31
345.031	189.31
345.259	179.31
345.487	163.31
345.714	172.31
345.942	172.31
346.17	166.31
346.397	186.31
346.625	175.31
346.853	171.31
347.08	162.31
347.308	161.31
347.535	173.31
347.763	165.31
347.99	172.31
348.218	172.31
348.445	170.31
348.673	164.31
348.9	156.31
349.128	164.31
349.355	167.31
349.583	174.31
349.81	168.31
350.037	183.31
350.265	158.31
350.492	160.31
350.72	159.31
350.947	162.31
351.174	157.31
351.402	174.31
351.629	164.31
351.856	176.31
352.083	164.31
352.311	157.31
352.538	157.31
352.765	173.31
352.992	194.31
353.22	147.31
353.447	168.31
353.674	159.31
353.901	184.31
354.128	168.31
354.355	164.31
354.583	162.31
354.81	173.31
355.037	178.31
355.264	176.31
355.491	162.31
355.718	168.31
355.945	170.31
356.172	165.31
356.399	193.31
356.626	169.31
356.853	176.31
357.08	194.31
357.307	170.31
357.534	162.31
357.761	179.31
357.988	194.31
358.215	186.31
358.441	203.31
358.668	181.31
358.895	181.31
359.122	174.31
359.349	176.31
359.576	171.31
359.802	170.31
360.029	181.31
360.256	179.31
360.483	166.31
360.709	179.31
360.936	177.31
361.163	179.31
361.39	164.31
361.616	180.31
361.843	187.31
362.07	165.31
362.296	164.31
362.523	163.31
362.749	169.31
362.976	194.31
363.203	192.31
363.429	190.31
363.656	174.31
363.882	172.31
364.109	194.31
364.335	189.31
364.562	205.31
364.788	198.31
365.015	169.31
365.241	170.31
365.468	156.31
365.694	174.31
365.92	178.31
366.147	171.31
366.373	169.31
366.599	164.31
366.826	186.31
367.052	180.31
367.278	174.31
367.505	180.31
367.731	169.31
367.957	176.31
368.184	180.31
368.41	171.31
368.636	190.31
368.862	189.31
369.089	194.31
369.315	178.31
369.541	188.31
369.767	190.31
369.993	188.31
370.219	209.31
370.445	225.31
370.672	268.31
370.898	272.31
371.124	212.31
371.35	186.31
371.576	208.31
371.802	182.31
372.028	182.31
372.254	203.31
372.48	195.31
372.706	200.31
372.932	216.31
373.158	214.31
373.384	267.31
373.61	352.31
373.835	382.31
374.061	304.31
374.287	240.31
374.513	219.31
374.739	233.31
374.965	230.31
375.191	212.31
375.416	216.31
375.642	216.31
375.868	216.31
376.094	216.31
376.319	185.31
376.545	199.31
376.771	184.31
376.997	202.31
377.222	176.31
377.448	198.31
377.674	170.31
377.899	174.31
378.125	185.31
378.35	187.31
378.576	176.31
378.802	188.31
379.027	192.31
379.253	194.31
379.478	186.31
379.704	180.31
379.929	181.31
380.155	191.31
380.38	185.31
380.606	170.31
380.831	197.31
381.057	200.31
381.282	199.31
381.507	208.31
381.733	196.31
381.958	217.31
382.184	200.31
382.409	207.31
382.634	219.31
382.86	212.31
383.085	216.31
383.31	210.31
383.535	230.31
383.761	218.31
383.986	215.31
384.211	222.31
384.436	220.31
384.662	221.31
384.887	210.31
385.112	224.31
385.337	246.31
385.562	218.31
385.787	240.31
386.013	244.31
386.238	250.31
386.463	208.31
386.688	242.31
386.913	220.31
387.138	234.31
387.363	230.31
387.588	221.31
387.813	246.31
388.038	215.31
388.263	241.31
388.488	244.31
388.713	215.31
388.938	230.31
389.163	214.31
389.387	218.31
389.612	210.31
389.837	218.31
390.062	210.31
390.287	228.31
390.512	227.31
390.736	243.31
390.961	233.31
391.186	250.31
391.411	252.31
391.636	273.31
391.86	269.31
392.085	296.31
392.31	326.31
392.534	409.31
392.759	570.31
392.984	925.31
393.208	1821.31
393.433	2642.31
393.658	1856.31
393.882	721.31
394.107	425.31
394.331	369.31
394.556	324.31
394.78	303.31
395.005	287.31
395.229	276.31
395.454	286.31
395.678	317.31
395.903	342.31
396.127	438.31
396.352	592.31
396.576	946.31
396.801	1604.31
397.025	1835.31
397.249	823.31
397.474	426.31
397.698	298.31
397.922	297.31
398.147	260.31
398.371	253.31
398.595	249.31
398.82	238.31
399.044	280.31
399.268	300.31
399.492	314.31
399.717	330.31
399.941	314.31
400.165	277.31
400.389	268.31
400.613	250.31
400.837	253.31
401.062	248.31
401.286	237.31
401.51	237.31
401.734	251.31
401.958	238.31
402.182	233.31
402.406	250.31
402.63	245.31
402.854	252.31
403.078	262.31
403.302	275.31
403.526	259.31
403.75	284.31
403.974	268.31
404.198	265.31
404.422	302.31
404.645	318.31
404.869	302.31
405.093	274.31
405.317	263.31
405.541	259.31
405.765	251.31
405.988	266.31
406.212	273.31
406.436	275.31
406.66	252.31
406.883	267.31
407.107	276.31
407.331	311.31
407.555	308.31
407.778	359.31
408.002	361.31
408.226	279.31
408.449	268.31
408.673	265.31
408.896	251.31
409.12	248.31
409.344	273.31
409.567	262.31
409.791	262.31
410.014	261.31
410.238	238.31
410.461	251.31
410.685	255.31
410.908	265.31
411.132	251.31
411.355	242.31
411.578	229.31
411.802	226.31
412.025	232.31
412.249	253.31
412.472	240.31
412.695	234.31
412.919	245.31
413.142	237.31
413.365	236.31
413.589	237.31
413.812	228.31
414.035	236.31
414.258	242.31
414.482	224.31
414.705	236.31
414.928	247.31
415.151	226.31
415.374	211.31
415.597	232.31
415.821	244.31
416.044	225.31
416.267	224.31
416.49	235.31
416.713	230.31
416.936	249.31
417.159	237.31
417.382	230.31
417.605	242.31
417.828	236.31
418.051	223.31
418.274	223.31
418.497	226.31
418.72	226.31
418.943	245.31
419.166	252.31
419.389	248.31
419.611	240.31
419.834	255.31
420.057	238.31
420.28	240.31
420.503	231.31
420.726	233.31
420.948	243.31
421.171	246.31
421.394	271.31
421.617	314.31
421.839	324.31
422.062	296.31
422.285	350.31
422.507	514.31
422.73	772.31
422.953	699.31
423.175	384.31
423.398	288.31
423.621	276.31
423.843	261.31
424.066	268.31
424.288	254.31
424.511	242.31
424.733	223.31
424.956	234.31
425.178	242.31
425.401	241.31
425.623	239.31
425.846	236.31
426.068	234.31
426.291	252.31
426.513	235.31
426.735	233.31
426.958	226.31
427.18	241.31
427.402	226.31
427.625	227.31
427.847	235.31
428.069	247.31
428.292	295.31
428.514	307.31
428.736	254.31
428.958	270.31
429.181	275.31
429.403	226.31
429.625	256.31
429.847	261.31
430.069	331.31
430.292	366.31
430.514	354.31
430.736	282.31
430.958	279.31
431.18	251.31
431.402	238.31
431.624	248.31
431.846	274.31
432.068	305.31
432.29	236.31
432.512	225.31
432.734	215.31
432.956	219.31
433.178	224.31
433.4	229.31
433.622	231.31
433.844	231.31
434.066	228.31
434.287	227.31
434.509	232.31
434.731	218.31
434.953	231.31
435.175	230.31
435.397	221.31
435.618	218.31
435.84	227.31
436.062	213.31
436.284	221.31
436.505	214.31
436.727	212.31
436.949	204.31
437.17	206.31
437.392	206.31
437.614	199.31
437.835	218.31
438.057	216.31
438.278	213.31
438.5	215.31
438.721	210.31
438.943	217.31
439.165	216.31
439.386	198.31
439.608	222.31
439.829	210.31
440.05	219.31
440.272	220.31
440.493	217.31
440.715	228.31
440.936	232.31
441.158	240.31
441.379	238.31
441.6	229.31
441.822	240.31
442.043	244.31
442.264	259.31
442.486	275.31
442.707	325.31
442.928	262.31
443.149	273.31
443.371	316.31
443.592	420.31
443.813	384.31
444.034	273.31
444.255	253.31
444.476	289.31
444.698	293.31
444.919	268.31
445.14	366.31
445.361	384.31
445.582	477.31
445.803	405.31
446.024	273.31
446.245	241.31
446.466	231.31
446.687	233.31
446.908	226.31
447.129	213.31
447.35	212.31
447.571	219.31
447.792	197.31
448.013	202.31
448.234	213.31
448.455	208.31
448.675	205.31
448.896	204.31
449.117	199.31
449.338	209.31
449.559	201.31
449.779	192.31
450	194.31
450.221	201.31
450.442	199.31
450.662	195.31
450.883	195.31
451.104	220.31
451.324	201.31
451.545	194.31
451.766	209.31
451.986	203.31
452.207	198.31
452.428	212.31
452.648	217.31
452.869	215.31
453.089	187.31
453.31	204.31
453.53	217.31
453.751	190.31
453.971	199.31
454.192	194.31
454.412	172.31
454.633	196.31
454.853	207.31
455.073	187.31
455.294	212.31
455.514	221.31
455.734	191.31
455.955	202.31
456.175	182.31
456.395	195.31
456.616	197.31
456.836	202.31
457.056	178.31
457.276	193.31
457.497	200.31
457.717	182.31
457.937	228.31
458.157	233.31
458.377	223.31
458.598	231.31
458.818	253.31
459.038	204.31
459.258	220.31
459.478	227.31
459.698	216.31
459.918	226.31
460.138	248.31
460.358	241.31
460.578	269.31
460.798	282.31
461.018	294.31
461.238	248.31
461.458	232.31
461.678	229.31
461.898	255.31
462.118	258.31
462.338	267.31
462.558	282.31
462.777	270.31
462.997	296.31
463.217	306.31
463.437	286.31
463.657	276.31
463.876	251.31
464.096	266.31
464.316	286.31
464.536	272.31
464.755	262.31
464.975	248.31
465.195	240.31
465.414	240.31
465.634	222.31
465.854	220.31
466.073	215.31
466.293	226.31
466.512	204.31
466.732	220.31
466.951	218.31
467.171	227.31
467.391	229.31
467.61	230.31
467.829	196.31
468.049	207.31
468.268	208.31
468.488	204.31
468.707	210.31
468.927	215.31
469.146	208.31
469.365	214.31
469.585	202.31
469.804	212.31
470.023	219.31
470.243	212.31
470.462	223.31
470.681	232.31
470.901	220.31
471.12	212.31
471.339	205.31
471.558	221.31
471.777	220.31
471.997	200.31
472.216	215.31
472.435	215.31
472.654	211.31
472.873	202.31
473.092	196.31
473.311	218.31
473.53	212.31
473.749	224.31
473.968	214.31
474.187	201.31
474.406	203.31
474.625	203.31
474.844	220.31
475.063	193.31
475.282	216.31
475.501	206.31
475.72	216.31
475.939	219.31
476.158	208.31
476.377	214.31
476.596	199.31
476.814	220.31
477.033	226.31
477.252	213.31
477.471	209.31
477.69	222.31
477.908	234.31
478.127	231.31
478.346	240.31
478.564	246.31
478.783	236.31
479.002	248.31
479.22	230.31
479.439	229.31
479.658	243.31
479.876	250.31
480.095	254.31
480.313	250.31
480.532	235.31
480.751	250.31
480.969	236.31
481.188	242.31
481.406	252.31
481.624	251.31
481.843	233.31
482.061	239.31
482.28	248.31
482.498	240.31
482.717	214.31
482.935	227.31
483.153	240.31
483.372	237.31
483.59	230.31
483.808	228.31
484.027	222.31
484.245	236.31
484.463	231.31
484.681	257.31
484.9	235.31
485.118	241.31
485.336	227.31
485.554	241.31
485.772	246.31
485.99	242.31
486.209	257.31
486.427	250.31
486.645	247.31
486.863	241.31
487.081	240.31
487.299	241.31
487.517	253.31
487.735	249.31
487.953	300.31
488.171	272.31
488.389	241.31
488.607	225.31
488.825	248.31
489.043	236.31
489.261	227.31
489.479	237.31
489.696	248.31
489.914	237.31
490.132	253.31
490.35	254.31
490.568	243.31
490.786	232.31
491.003	246.31
491.221	243.31
491.439	240.31
491.657	226.31
491.874	255.31
492.092	240.31
492.31	263.31
492.527	228.31
492.745	251.31
492.963	256.31
493.18	246.31
493.398	245.31
493.615	253.31
493.833	250.31
494.05	259.31
494.268	250.31
494.485	266.31
494.703	273.31
494.92	246.31
495.138	257.31
495.355	265.31
495.573	268.31
495.79	254.31
496.008	281.31
496.225	264.31
496.442	262.31
496.66	267.31
496.877	265.31
497.094	276.31
497.312	286.31
497.529	279.31
497.746	297.31
497.963	292.31
498.181	309.31
498.398	332.31
498.615	332.31
498.832	327.31
499.049	342.31
499.267	379.31
499.484	420.31
499.701	452.31
499.918	476.31
500.135	521.31
500.352	573.31
500.569	567.31
500.786	547.31
501.003	524.31
501.22	474.31
501.437	442.31
501.654	409.31
501.871	386.31
502.088	358.31
502.305	321.31
502.522	319.31
502.739	328.31
502.956	304.31
503.172	292.31
503.389	287.31
503.606	293.31
503.823	284.31
504.04	280.31
