Data from 15780_1_HRD10591_00003.txt Node
Date: Mon Jan 19 14:18:11 EST 2026
User: Yrep
Spectrometer: HR+D1059
Trigger mode: 1
Integration Time (sec): 1.000000E-1
Scans to average: 1
Electric dark correction enabled: true
Nonlinearity correction enabled: false
Boxcar width: 0
XAxis mode: Wavelengths
Number of Pixels in Spectrum: 2048
>>>>>Begin Spectral Data<<<<<
223.165	-19.75
223.4	-19.75
223.635	-19.75
223.869	-8.75
224.104	-14.75
224.338	-13.75
224.573	-4.75
224.808	-21.75
225.042	-2.75
225.277	-12.75
225.511	-15.75
225.746	5.25
225.98	1.25
226.215	8.25
226.449	7.25
226.683	26.25
226.918	32.25
227.152	34.25
227.387	31.25
227.621	47.25
227.856	42.25
228.09	55.25
228.324	53.25
228.559	63.25
228.793	57.25
229.027	69.25
229.262	66.25
229.496	73.25
229.73	69.25
229.964	69.25
230.199	62.25
230.433	80.25
230.667	82.25
230.901	76.25
231.136	73.25
231.37	79.25
231.604	65.25
231.838	82.25
232.072	71.25
232.306	81.25
232.541	83.25
232.775	81.25
233.009	79.25
233.243	95.25
233.477	89.25
233.711	74.25
233.945	79.25
234.179	76.25
234.413	88.25
234.647	86.25
234.881	78.25
235.115	75.25
235.349	65.25
235.583	77.25
235.817	76.25
236.051	76.25
236.285	80.25
236.519	76.25
236.753	72.25
236.987	89.25
237.221	87.25
237.455	84.25
237.689	83.25
237.922	73.25
238.156	92.25
238.39	91.25
238.624	78.25
238.858	89.25
239.091	84.25
239.325	69.25
239.559	86.25
239.793	78.25
240.027	81.25
240.26	77.25
240.494	64.25
240.728	80.25
240.961	86.25
241.195	71.25
241.429	75.25
241.662	73.25
241.896	75.25
242.13	84.25
242.363	77.25
242.597	64.25
242.83	82.25
243.064	86.25
243.298	74.25
243.531	87.25
243.765	84.25
243.998	75.25
244.232	79.25
244.465	79.25
244.699	77.25
244.932	79.25
245.166	84.25
245.399	75.25
245.633	76.25
245.866	91.25
246.099	89.25
246.333	75.25
246.566	72.25
246.8	65.25
247.033	74.25
247.266	83.25
247.5	77.25
247.733	95.25
247.966	94.25
248.2	62.25
248.433	58.25
248.666	69.25
248.899	77.25
249.133	79.25
249.366	91.25
249.599	77.25
249.832	74.25
250.066	76.25
250.299	83.25
250.532	71.25
250.765	79.25
250.998	90.25
251.231	83.25
251.465	71.25
251.698	85.25
251.931	83.25
252.164	69.25
252.397	71.25
252.63	97.25
252.863	88.25
253.096	78.25
253.329	82.25
253.562	56.25
253.795	71.25
254.028	83.25
254.261	75.25
254.494	75.25
254.727	89.25
254.96	75.25
255.193	76.25
255.426	76.25
255.659	87.25
255.892	80.25
256.124	89.25
256.357	75.25
256.59	76.25
256.823	87.25
257.056	88.25
257.289	92.25
257.521	77.25
257.754	75.25
257.987	77.25
258.22	91.25
258.452	86.25
258.685	90.25
258.918	77.25
259.151	81.25
259.383	74.25
259.616	71.25
259.849	76.25
260.081	84.25
260.314	75.25
260.547	84.25
260.779	91.25
261.012	78.25
261.244	76.25
261.477	87.25
261.71	89.25
261.942	96.25
262.175	74.25
262.407	63.25
262.64	77.25
262.872	85.25
263.105	77.25
263.337	91.25
263.57	70.25
263.802	85.25
264.035	80.25
264.267	84.25
264.499	84.25
264.732	103.25
264.964	88.25
265.197	95.25
265.429	71.25
265.661	73.25
265.894	82.25
266.126	80.25
266.358	76.25
266.591	86.25
266.823	93.25
267.055	76.25
267.287	89.25
267.52	82.25
267.752	77.25
267.984	89.25
268.216	74.25
268.448	86.25
268.681	90.25
268.913	83.25
269.145	84.25
269.377	76.25
269.609	76.25
269.841	76.25
270.073	88.25
270.306	85.25
270.538	83.25
270.77	80.25
271.002	83.25
271.234	85.25
271.466	90.25
271.698	84.25
271.93	68.25
272.162	75.25
272.394	85.25
272.626	73.25
272.858	81.25
273.09	77.25
273.322	77.25
273.553	83.25
273.785	76.25
274.017	93.25
274.249	102.25
274.481	84.25
274.713	81.25
274.945	83.25
275.176	97.25
275.408	76.25
275.64	95.25
275.872	81.25
276.104	75.25
276.335	87.25
276.567	83.25
276.799	85.25
277.031	91.25
277.262	82.25
277.494	71.25
277.726	80.25
277.957	77.25
278.189	92.25
278.421	75.25
278.652	83.25
278.884	77.25
279.115	91.25
279.347	93.25
279.579	91.25
279.81	98.25
280.042	95.25
280.273	98.25
280.505	91.25
280.736	93.25
280.968	81.25
281.199	78.25
281.431	81.25
281.662	85.25
281.894	82.25
282.125	83.25
282.356	85.25
282.588	93.25
282.819	78.25
283.051	83.25
283.282	84.25
283.513	91.25
283.745	85.25
283.976	84.25
284.207	71.25
284.439	81.25
284.67	91.25
284.901	84.25
285.132	95.25
285.364	75.25
285.595	78.25
285.826	82.25
286.057	84.25
286.288	91.25
286.52	92.25
286.751	77.25
286.982	83.25
287.213	69.25
287.444	83.25
287.675	91.25
287.906	95.25
288.138	93.25
288.369	74.25
288.6	87.25
288.831	76.25
289.062	87.25
289.293	78.25
289.524	86.25
289.755	87.25
289.986	91.25
290.217	93.25
290.448	87.25
290.679	87.25
290.91	93.25
291.141	82.25
291.371	94.25
291.602	74.25
291.833	94.25
292.064	86.25
292.295	83.25
292.526	90.25
292.757	89.25
292.987	86.25
293.218	70.25
293.449	73.25
293.68	81.25
293.91	83.25
294.141	75.25
294.372	78.25
294.603	79.25
294.833	71.25
295.064	92.25
295.295	90.25
295.525	75.25
295.756	84.25
295.987	83.25
296.217	83.25
296.448	88.25
296.679	85.25
296.909	82.25
297.14	92.25
297.37	80.25
297.601	93.25
297.831	90.25
298.062	88.25
298.292	94.25
298.523	88.25
298.753	91.25
298.984	94.25
299.214	95.25
299.445	81.25
299.675	90.25
299.905	87.25
300.136	105.25
300.366	78.25
300.597	96.25
300.827	94.25
301.057	75.25
301.288	92.25
301.518	81.25
301.748	95.25
301.979	99.25
302.209	93.25
302.439	88.25
302.669	91.25
302.9	79.25
303.13	88.25
303.36	87.25
303.59	81.25
303.82	91.25
304.051	83.25
304.281	81.25
304.511	91.25
304.741	76.25
304.971	77.25
305.201	88.25
305.431	81.25
305.661	91.25
305.891	88.25
306.121	83.25
306.352	90.25
306.582	80.25
306.812	63.25
307.042	97.25
307.272	69.25
307.502	90.25
307.731	86.25
307.961	90.25
308.191	98.25
308.421	86.25
308.651	101.25
308.881	91.25
309.111	83.25
309.341	89.25
309.571	84.25
309.8	83.25
310.03	97.25
310.26	94.25
310.49	96.25
310.72	71.25
310.949	75.25
311.179	89.25
311.409	85.25
311.639	85.25
311.868	95.25
312.098	79.25
312.328	97.25
312.557	86.25
312.787	84.25
313.017	64.25
313.246	80.25
313.476	96.25
313.706	100.25
313.935	88.25
314.165	89.25
314.394	83.25
314.624	87.25
314.853	83.25
315.083	83.25
315.312	88.25
315.542	95.25
315.771	79.25
316.001	83.25
316.23	91.25
316.46	99.25
316.689	69.25
316.919	99.25
317.148	71.25
317.377	79.25
317.607	101.25
317.836	88.25
318.065	86.25
318.295	101.25
318.524	70.25
318.753	80.25
318.983	81.25
319.212	87.25
319.441	93.25
319.67	79.25
319.9	83.25
320.129	71.25
320.358	86.25
320.587	91.25
320.816	86.25
321.046	92.25
321.275	90.25
321.504	89.25
321.733	101.25
321.962	81.25
322.191	86.25
322.42	93.25
322.649	86.25
322.878	86.25
323.108	92.25
323.337	85.25
323.566	86.25
323.795	100.25
324.024	66.25
324.253	93.25
324.482	87.25
324.71	97.25
324.939	91.25
325.168	83.25
325.397	83.25
325.626	107.25
325.855	84.25
326.084	91.25
326.313	82.25
326.542	68.25
326.77	72.25
326.999	75.25
327.228	84.25
327.457	85.25
327.686	80.25
327.914	85.25
328.143	78.25
328.372	82.25
328.6	87.25
328.829	83.25
329.058	95.25
329.287	79.25
329.515	100.25
329.744	95.25
329.972	80.25
330.201	85.25
330.43	76.25
330.658	77.25
330.887	89.25
331.115	105.25
331.344	96.25
331.572	96.25
331.801	98.25
332.03	73.25
332.258	90.25
332.486	87.25
332.715	77.25
332.943	93.25
333.172	98.25
333.4	82.25
333.629	102.25
333.857	91.25
334.085	88.25
334.314	89.25
334.542	99.25
334.771	89.25
334.999	85.25
335.227	79.25
335.455	84.25
335.684	91.25
335.912	88.25
336.14	92.25
336.369	76.25
336.597	95.25
336.825	104.25
337.053	91.25
337.281	84.25
337.51	76.25
337.738	100.25
337.966	93.25
338.194	86.25
338.422	88.25
338.65	84.25
338.878	88.25
339.106	83.25
339.334	81.25
339.562	92.25
339.79	92.25
340.018	83.25
340.246	82.25
340.474	79.25
340.702	81.25
340.93	96.25
341.158	84.25
341.386	85.25
341.614	95.25
341.842	94.25
342.07	100.25
342.298	91.25
342.526	89.25
342.754	91.25
342.981	85.25
343.209	78.25
343.437	99.25
343.665	94.25
343.893	92.25
344.12	100.25
344.348	83.25
344.576	73.25
344.804	98.25
345.031	90.25
345.259	90.25
345.487	91.25
345.714	82.25
345.942	81.25
346.17	95.25
346.397	79.25
346.625	92.25
346.853	93.25
347.08	90.25
347.308	83.25
347.535	89.25
347.763	82.25
347.99	81.25
348.218	88.25
348.445	81.25
348.673	91.25
348.9	92.25
349.128	96.25
349.355	92.25
349.583	91.25
349.81	83.25
350.037	78.25
350.265	75.25
350.492	85.25
350.72	85.25
350.947	101.25
351.174	82.25
351.402	87.25
351.629	84.25
351.856	81.25
352.083	85.25
352.311	85.25
352.538	89.25
352.765	98.25
352.992	97.25
353.22	76.25
353.447	86.25
353.674	94.25
353.901	74.25
354.128	80.25
354.355	71.25
354.583	97.25
354.81	83.25
355.037	82.25
355.264	81.25
355.491	92.25
355.718	73.25
355.945	78.25
356.172	82.25
356.399	78.25
356.626	80.25
356.853	93.25
357.08	77.25
357.307	100.25
357.534	82.25
357.761	85.25
357.988	77.25
358.215	91.25
358.441	87.25
358.668	95.25
358.895	92.25
359.122	89.25
359.349	81.25
359.576	89.25
359.802	91.25
360.029	97.25
360.256	100.25
360.483	81.25
360.709	72.25
360.936	101.25
361.163	77.25
361.39	90.25
361.616	102.25
361.843	98.25
362.07	93.25
362.296	76.25
362.523	77.25
362.749	91.25
362.976	105.25
363.203	127.25
363.429	99.25
363.656	99.25
363.882	82.25
364.109	89.25
364.335	106.25
364.562	109.25
364.788	101.25
365.015	87.25
365.241	99.25
365.468	98.25
365.694	92.25
365.92	80.25
366.147	84.25
366.373	80.25
366.599	79.25
366.826	84.25
367.052	101.25
367.278	100.25
367.505	100.25
367.731	96.25
367.957	81.25
368.184	87.25
368.41	88.25
368.636	96.25
368.862	85.25
369.089	98.25
369.315	82.25
369.541	91.25
369.767	82.25
369.993	72.25
370.219	82.25
370.445	96.25
370.672	89.25
370.898	97.25
371.124	99.25
371.35	87.25
371.576	80.25
371.802	86.25
372.028	80.25
372.254	83.25
372.48	101.25
372.706	84.25
372.932	87.25
373.158	87.25
373.384	92.25
373.61	103.25
373.835	106.25
374.061	81.25
374.287	113.25
374.513	97.25
374.739	87.25
374.965	93.25
375.191	78.25
375.416	91.25
375.642	92.25
375.868	99.25
376.094	93.25
376.319	97.25
376.545	95.25
376.771	75.25
376.997	87.25
377.222	82.25
377.448	100.25
377.674	87.25
377.899	76.25
378.125	79.25
378.35	95.25
378.576	75.25
378.802	75.25
379.027	85.25
379.253	86.25
379.478	101.25
379.704	87.25
379.929	81.25
380.155	85.25
380.38	94.25
380.606	93.25
380.831	71.25
381.057	96.25
381.282	91.25
381.507	91.25
381.733	91.25
381.958	93.25
382.184	91.25
382.409	77.25
382.634	91.25
382.86	100.25
383.085	100.25
383.31	113.25
383.535	112.25
383.761	96.25
383.986	115.25
384.211	96.25
384.436	100.25
384.662	74.25
384.887	75.25
385.112	79.25
385.337	89.25
385.562	85.25
385.787	92.25
386.013	103.25
386.238	86.25
386.463	92.25
386.688	101.25
386.913	88.25
387.138	91.25
387.363	93.25
387.588	97.25
387.813	94.25
388.038	93.25
388.263	83.25
388.488	96.25
388.713	81.25
388.938	78.25
389.163	75.25
389.387	86.25
389.612	86.25
389.837	92.25
390.062	83.25
390.287	89.25
390.512	75.25
390.736	88.25
390.961	87.25
391.186	87.25
391.411	73.25
391.636	93.25
391.86	92.25
392.085	104.25
392.31	85.25
392.534	91.25
392.759	117.25
392.984	134.25
393.208	251.25
393.433	355.25
393.658	261.25
393.882	139.25
394.107	101.25
394.331	106.25
394.556	124.25
394.78	101.25
395.005	89.25
395.229	92.25
395.454	91.25
395.678	115.25
395.903	108.25
396.127	127.25
396.352	149.25
396.576	172.25
396.801	244.25
397.025	292.25
397.249	162.25
397.474	115.25
397.698	99.25
397.922	89.25
398.147	79.25
398.371	84.25
398.595	91.25
398.82	98.25
399.044	97.25
399.268	103.25
399.492	82.25
399.717	91.25
399.941	86.25
400.165	88.25
400.389	86.25
400.613	96.25
400.837	78.25
401.062	91.25
401.286	88.25
401.51	75.25
401.734	83.25
401.958	88.25
402.182	95.25
402.406	89.25
402.63	96.25
402.854	84.25
403.078	78.25
403.302	82.25
403.526	75.25
403.75	99.25
403.974	95.25
404.198	89.25
404.422	97.25
404.645	109.25
404.869	78.25
405.093	83.25
405.317	78.25
405.541	91.25
405.765	87.25
405.988	81.25
406.212	91.25
406.436	97.25
406.66	90.25
406.883	89.25
407.107	77.25
407.331	93.25
407.555	90.25
407.778	107.25
408.002	108.25
408.226	79.25
408.449	101.25
408.673	90.25
408.896	88.25
409.12	88.25
409.344	93.25
409.567	103.25
409.791	94.25
410.014	96.25
410.238	86.25
410.461	97.25
410.685	95.25
410.908	84.25
411.132	95.25
411.355	84.25
411.578	85.25
411.802	74.25
412.025	81.25
412.249	77.25
412.472	85.25
412.695	87.25
412.919	96.25
413.142	75.25
413.365	75.25
413.589	92.25
413.812	85.25
414.035	89.25
414.258	79.25
414.482	81.25
414.705	104.25
414.928	82.25
415.151	78.25
415.374	82.25
415.597	69.25
415.821	88.25
416.044	92.25
416.267	93.25
416.49	95.25
416.713	90.25
416.936	83.25
417.159	80.25
417.382	98.25
417.605	82.25
417.828	81.25
418.051	97.25
418.274	87.25
418.497	91.25
418.72	90.25
418.943	96.25
419.166	72.25
419.389	89.25
419.611	102.25
419.834	95.25
420.057	86.25
420.28	90.25
420.503	83.25
420.726	91.25
420.948	84.25
421.171	88.25
421.394	105.25
421.617	119.25
421.839	121.25
422.062	116.25
422.285	154.25
422.507	207.25
422.73	300.25
422.953	260.25
423.175	160.25
423.398	112.25
423.621	108.25
423.843	93.25
424.066	99.25
424.288	93.25
424.511	100.25
424.733	91.25
424.956	89.25
425.178	98.25
425.401	89.25
425.623	95.25
425.846	80.25
426.068	77.25
426.291	97.25
426.513	85.25
426.735	86.25
426.958	75.25
427.18	99.25
427.402	95.25
427.625	81.25
427.847	98.25
428.069	101.25
428.292	130.25
428.514	110.25
428.736	103.25
428.958	114.25
429.181	131.25
429.403	100.25
429.625	97.25
429.847	118.25
430.069	146.25
430.292	167.25
430.514	159.25
430.736	125.25
430.958	148.25
431.18	92.25
431.402	85.25
431.624	86.25
431.846	111.25
432.068	117.25
432.29	90.25
432.512	87.25
432.734	102.25
432.956	84.25
433.178	99.25
433.4	89.25
433.622	82.25
433.844	86.25
434.066	90.25
434.287	88.25
434.509	65.25
434.731	89.25
434.953	83.25
435.175	95.25
435.397	84.25
435.618	101.25
435.84	102.25
436.062	95.25
436.284	79.25
436.505	86.25
436.727	81.25
436.949	83.25
437.17	84.25
437.392	88.25
437.614	81.25
437.835	88.25
438.057	83.25
438.278	99.25
438.5	91.25
438.721	95.25
438.943	87.25
439.165	88.25
439.386	80.25
439.608	93.25
439.829	96.25
440.05	89.25
440.272	90.25
440.493	93.25
440.715	78.25
440.936	84.25
441.158	93.25
441.379	83.25
441.6	87.25
441.822	96.25
442.043	94.25
442.264	122.25
442.486	115.25
442.707	136.25
442.928	131.25
443.149	97.25
443.371	122.25
443.592	196.25
443.813	185.25
444.034	107.25
444.255	97.25
444.476	99.25
444.698	92.25
444.919	85.25
445.14	169.25
445.361	170.25
445.582	229.25
445.803	189.25
446.024	116.25
446.245	84.25
446.466	77.25
446.687	81.25
446.908	89.25
447.129	75.25
447.35	78.25
447.571	87.25
447.792	95.25
448.013	92.25
448.234	98.25
448.455	83.25
448.675	81.25
448.896	73.25
449.117	99.25
449.338	76.25
449.559	88.25
449.779	84.25
450	85.25
450.221	84.25
450.442	87.25
450.662	86.25
450.883	73.25
451.104	107.25
451.324	96.25
451.545	97.25
451.766	82.25
451.986	74.25
452.207	96.25
452.428	93.25
452.648	90.25
452.869	106.25
453.089	97.25
453.31	108.25
453.53	102.25
453.751	88.25
453.971	92.25
454.192	93.25
454.412	92.25
454.633	92.25
454.853	82.25
455.073	91.25
455.294	84.25
455.514	100.25
455.734	92.25
455.955	73.25
456.175	69.25
456.395	80.25
456.616	75.25
456.836	87.25
457.056	98.25
457.276	90.25
457.497	84.25
457.717	93.25
457.937	98.25
458.157	99.25
458.377	100.25
458.598	106.25
458.818	108.25
459.038	80.25
459.258	76.25
459.478	95.25
459.698	83.25
459.918	85.25
460.138	88.25
460.358	85.25
460.578	88.25
460.798	116.25
461.018	115.25
461.238	90.25
461.458	73.25
461.678	93.25
461.898	75.25
462.118	81.25
462.338	93.25
462.558	95.25
462.777	96.25
462.997	72.25
463.217	73.25
463.437	82.25
463.657	78.25
463.876	87.25
464.096	87.25
464.316	85.25
464.536	91.25
464.755	87.25
464.975	79.25
465.195	92.25
465.414	84.25
465.634	92.25
465.854	87.25
466.073	91.25
466.293	90.25
466.512	78.25
466.732	85.25
466.951	97.25
467.171	84.25
467.391	87.25
467.61	101.25
467.829	97.25
468.049	79.25
468.268	89.25
468.488	76.25
468.707	92.25
468.927	87.25
469.146	81.25
469.365	85.25
469.585	91.25
469.804	76.25
470.023	95.25
470.243	83.25
470.462	84.25
470.681	99.25
470.901	85.25
471.12	81.25
471.339	91.25
471.558	75.25
471.777	85.25
471.997	85.25
472.216	85.25
472.435	76.25
472.654	90.25
472.873	105.25
473.092	105.25
473.311	87.25
473.53	77.25
473.749	95.25
473.968	99.25
474.187	99.25
474.406	88.25
474.625	83.25
474.844	86.25
475.063	83.25
475.282	68.25
475.501	86.25
475.72	113.25
475.939	69.25
476.158	83.25
476.377	83.25
476.596	88.25
476.814	83.25
477.033	99.25
477.252	90.25
477.471	81.25
477.69	95.25
477.908	92.25
478.127	85.25
478.346	85.25
478.564	96.25
478.783	84.25
479.002	94.25
479.22	91.25
479.439	95.25
479.658	97.25
479.876	85.25
480.095	83.25
480.313	84.25
480.532	106.25
480.751	107.25
480.969	85.25
481.188	79.25
481.406	83.25
481.624	103.25
481.843	100.25
482.061	94.25
482.28	90.25
482.498	69.25
482.717	97.25
482.935	89.25
483.153	90.25
483.372	104.25
483.59	102.25
483.808	88.25
484.027	89.25
484.245	81.25
484.463	87.25
484.681	104.25
484.9	103.25
485.118	100.25
485.336	93.25
485.554	100.25
485.772	93.25
485.99	90.25
486.209	108.25
486.427	92.25
486.645	105.25
486.863	98.25
487.081	85.25
487.299	88.25
487.517	103.25
487.735	106.25
487.953	147.25
488.171	118.25
488.389	99.25
488.607	111.25
488.825	92.25
489.043	92.25
489.261	89.25
489.479	89.25
489.696	91.25
489.914	97.25
490.132	106.25
490.35	101.25
490.568	78.25
490.786	89.25
491.003	88.25
491.221	93.25
491.439	84.25
491.657	79.25
491.874	90.25
492.092	92.25
492.31	108.25
492.527	99.25
492.745	92.25
492.963	93.25
493.18	104.25
493.398	103.25
493.615	103.25
493.833	105.25
494.05	93.25
494.268	92.25
494.485	91.25
494.703	85.25
494.92	92.25
495.138	97.25
495.355	104.25
495.573	106.25
495.79	95.25
496.008	107.25
496.225	85.25
496.442	98.25
496.66	98.25
496.877	96.25
497.094	100.25
497.312	102.25
497.529	94.25
497.746	90.25
497.963	83.25
498.181	84.25
498.398	105.25
498.615	96.25
498.832	92.25
499.049	102.25
499.267	106.25
499.484	105.25
499.701	92.25
499.918	99.25
500.135	105.25
500.352	90.25
500.569	92.25
500.786	100.25
501.003	92.25
501.22	95.25
501.437	88.25
501.654	103.25
501.871	99.25
502.088	77.25
502.305	100.25
502.522	87.25
502.739	88.25
502.956	98.25
503.172	95.25
503.389	101.25
503.606	91.25
503.823	113.25
504.04	111.25
504.256	127.25
504.473	129.25
504.69	98.25
504.907	114.25
505.123	94.25
505.34	91.25
505.557	95.25
505.773	90.25
505.99	88.25
506.207	96.25
506.423	87.25
506.64	109.25
506.856	89.25
507.073	89.25
507.289	88.25
507.506	90.25
507.722	80.25
507.939	95.25
508.155	83.25
508.372	94.25
508.588	87.25
508.805	95.25
509.021	78.25
509.238	91.25
509.454	66.25
509.67	89.25
509.887	74.25
510.103	94.25
510.319	95.25
510.536	87.25
510.752	103.25
510.968	93.25
511.184	88.25
511.401	89.25
511.617	95.25
511.833	89.25
512.049	103.25
512.265	95.25
512.481	101.25
512.698	108.25
512.914	89.25
513.13	110.25
513.346	83.25
513.562	94.25
513.778	91.25
513.994	95.25
514.21	103.25
514.426	100.25
514.642	85.25
514.858	99.25
515.074	100.25
515.29	105.25
515.506	100.25
515.721	111.25
515.937	96.25
516.153	91.25
516.369	100.25
516.585	79.25
516.801	111.25
517.016	115.25
517.232	97.25
517.448	113.25
517.664	99.25
