Data from 15780_1_HRD10591_00023.txt Node
Date: Mon Jan 19 14:18:21 EST 2026
User: Yrep
Spectrometer: HR+D1059
Trigger mode: 1
Integration Time (sec): 1.000000E-1
Scans to average: 1
Electric dark correction enabled: true
Nonlinearity correction enabled: false
Boxcar width: 0
XAxis mode: Wavelengths
Number of Pixels in Spectrum: 2048
>>>>>Begin Spectral Data<<<<<
223.165	-14.81
223.4	-14.81
223.635	-14.81
223.869	-3.81
224.104	-6.81
224.338	-22.81
224.573	-6.81
224.808	-1.81
225.042	-16.81
225.277	-0.81
225.511	-11.81
225.746	-6.81
225.98	12.19
226.215	10.19
226.449	13.19
226.683	7.19
226.918	26.19
227.152	24.19
227.387	34.19
227.621	50.19
227.856	39.19
228.09	42.19
228.324	39.19
228.559	44.19
228.793	65.19
229.027	59.19
229.262	68.19
229.496	69.19
229.73	85.19
229.964	74.19
230.199	70.19
230.433	66.19
230.667	70.19
230.901	75.19
231.136	75.19
231.37	74.19
231.604	89.19
231.838	76.19
232.072	82.19
232.306	77.19
232.541	74.19
232.775	91.19
233.009	88.19
233.243	76.19
233.477	86.19
233.711	90.19
233.945	71.19
234.179	74.19
234.413	91.19
234.647	80.19
234.881	78.19
235.115	78.19
235.349	91.19
235.583	83.19
235.817	88.19
236.051	81.19
236.285	88.19
236.519	80.19
236.753	68.19
236.987	68.19
237.221	66.19
237.455	84.19
237.689	88.19
237.922	71.19
238.156	70.19
238.39	68.19
238.624	82.19
238.858	74.19
239.091	93.19
239.325	95.19
239.559	65.19
239.793	94.19
240.027	76.19
240.26	83.19
240.494	74.19
240.728	77.19
240.961	61.19
241.195	77.19
241.429	70.19
241.662	77.19
241.896	79.19
242.13	65.19
242.363	61.19
242.597	87.19
242.83	83.19
243.064	81.19
243.298	80.19
243.531	89.19
243.765	70.19
243.998	69.19
244.232	75.19
244.465	84.19
244.699	82.19
244.932	66.19
245.166	60.19
245.399	88.19
245.633	83.19
245.866	68.19
246.099	85.19
246.333	67.19
246.566	87.19
246.8	82.19
247.033	91.19
247.266	70.19
247.5	90.19
247.733	75.19
247.966	89.19
248.2	83.19
248.433	83.19
248.666	70.19
248.899	83.19
249.133	88.19
249.366	71.19
249.599	80.19
249.832	75.19
250.066	82.19
250.299	82.19
250.532	83.19
250.765	88.19
250.998	77.19
251.231	76.19
251.465	84.19
251.698	84.19
251.931	61.19
252.164	74.19
252.397	89.19
252.63	78.19
252.863	86.19
253.096	69.19
253.329	89.19
253.562	78.19
253.795	94.19
254.028	84.19
254.261	85.19
254.494	72.19
254.727	86.19
254.96	57.19
255.193	78.19
255.426	84.19
255.659	66.19
255.892	98.19
256.124	79.19
256.357	62.19
256.59	83.19
256.823	80.19
257.056	92.19
257.289	76.19
257.521	91.19
257.754	70.19
257.987	73.19
258.22	86.19
258.452	79.19
258.685	85.19
258.918	84.19
259.151	79.19
259.383	81.19
259.616	71.19
259.849	80.19
260.081	86.19
260.314	68.19
260.547	91.19
260.779	85.19
261.012	74.19
261.244	84.19
261.477	74.19
261.71	76.19
261.942	81.19
262.175	86.19
262.407	68.19
262.64	66.19
262.872	78.19
263.105	79.19
263.337	82.19
263.57	78.19
263.802	87.19
264.035	80.19
264.267	85.19
264.499	82.19
264.732	78.19
264.964	88.19
265.197	81.19
265.429	76.19
265.661	100.19
265.894	82.19
266.126	78.19
266.358	88.19
266.591	84.19
266.823	78.19
267.055	88.19
267.287	84.19
267.52	90.19
267.752	76.19
267.984	77.19
268.216	84.19
268.448	88.19
268.681	90.19
268.913	73.19
269.145	73.19
269.377	84.19
269.609	60.19
269.841	79.19
270.073	72.19
270.306	77.19
270.538	84.19
270.77	75.19
271.002	79.19
271.234	81.19
271.466	86.19
271.698	83.19
271.93	84.19
272.162	78.19
272.394	82.19
272.626	89.19
272.858	73.19
273.09	82.19
273.322	78.19
273.553	94.19
273.785	91.19
274.017	90.19
274.249	89.19
274.481	88.19
274.713	83.19
274.945	78.19
275.176	80.19
275.408	84.19
275.64	81.19
275.872	86.19
276.104	80.19
276.335	87.19
276.567	78.19
276.799	77.19
277.031	75.19
277.262	82.19
277.494	75.19
277.726	87.19
277.957	96.19
278.189	78.19
278.421	81.19
278.652	71.19
278.884	76.19
279.115	72.19
279.347	86.19
279.579	78.19
279.81	81.19
280.042	77.19
280.273	94.19
280.505	88.19
280.736	77.19
280.968	82.19
281.199	79.19
281.431	93.19
281.662	91.19
281.894	70.19
282.125	84.19
282.356	74.19
282.588	78.19
282.819	96.19
283.051	94.19
283.282	76.19
283.513	89.19
283.745	78.19
283.976	68.19
284.207	85.19
284.439	75.19
284.67	90.19
284.901	82.19
285.132	70.19
285.364	84.19
285.595	70.19
285.826	78.19
286.057	91.19
286.288	76.19
286.52	75.19
286.751	63.19
286.982	94.19
287.213	88.19
287.444	80.19
287.675	75.19
287.906	86.19
288.138	91.19
288.369	89.19
288.6	96.19
288.831	92.19
289.062	92.19
289.293	82.19
289.524	68.19
289.755	85.19
289.986	96.19
290.217	83.19
290.448	78.19
290.679	84.19
290.91	78.19
291.141	98.19
291.371	80.19
291.602	84.19
291.833	79.19
292.064	75.19
292.295	75.19
292.526	81.19
292.757	74.19
292.987	84.19
293.218	84.19
293.449	94.19
293.68	84.19
293.91	86.19
294.141	80.19
294.372	88.19
294.603	66.19
294.833	90.19
295.064	97.19
295.295	90.19
295.525	92.19
295.756	86.19
295.987	75.19
296.217	92.19
296.448	92.19
296.679	82.19
296.909	82.19
297.14	78.19
297.37	73.19
297.601	85.19
297.831	85.19
298.062	102.19
298.292	82.19
298.523	81.19
298.753	84.19
298.984	88.19
299.214	92.19
299.445	74.19
299.675	72.19
299.905	78.19
300.136	88.19
300.366	76.19
300.597	89.19
300.827	84.19
301.057	81.19
301.288	69.19
301.518	71.19
301.748	78.19
301.979	100.19
302.209	72.19
302.439	80.19
302.669	92.19
302.9	89.19
303.13	93.19
303.36	85.19
303.59	80.19
303.82	75.19
304.051	77.19
304.281	83.19
304.511	84.19
304.741	90.19
304.971	90.19
305.201	86.19
305.431	80.19
305.661	88.19
305.891	77.19
306.121	82.19
306.352	83.19
306.582	80.19
306.812	79.19
307.042	77.19
307.272	82.19
307.502	88.19
307.731	100.19
307.961	94.19
308.191	88.19
308.421	85.19
308.651	84.19
308.881	93.19
309.111	87.19
309.341	101.19
309.571	86.19
309.8	89.19
310.03	85.19
310.26	81.19
310.49	82.19
310.72	76.19
310.949	89.19
311.179	86.19
311.409	86.19
311.639	88.19
311.868	76.19
312.098	85.19
312.328	84.19
312.557	93.19
312.787	83.19
313.017	93.19
313.246	77.19
313.476	89.19
313.706	103.19
313.935	79.19
314.165	81.19
314.394	86.19
314.624	76.19
314.853	83.19
315.083	73.19
315.312	99.19
315.542	88.19
315.771	98.19
316.001	99.19
316.23	81.19
316.46	85.19
316.689	87.19
316.919	85.19
317.148	95.19
317.377	89.19
317.607	88.19
317.836	92.19
318.065	99.19
318.295	92.19
318.524	78.19
318.753	77.19
318.983	91.19
319.212	97.19
319.441	80.19
319.67	96.19
319.9	85.19
320.129	90.19
320.358	86.19
320.587	98.19
320.816	76.19
321.046	82.19
321.275	87.19
321.504	71.19
321.733	88.19
321.962	79.19
322.191	87.19
322.42	93.19
322.649	84.19
322.878	89.19
323.108	82.19
323.337	92.19
323.566	86.19
323.795	78.19
324.024	92.19
324.253	86.19
324.482	99.19
324.71	85.19
324.939	88.19
325.168	87.19
325.397	84.19
325.626	79.19
325.855	78.19
326.084	76.19
326.313	79.19
326.542	82.19
326.77	93.19
326.999	80.19
327.228	78.19
327.457	89.19
327.686	76.19
327.914	80.19
328.143	90.19
328.372	75.19
328.6	82.19
328.829	93.19
329.058	93.19
329.287	92.19
329.515	91.19
329.744	89.19
329.972	94.19
330.201	77.19
330.43	88.19
330.658	81.19
330.887	98.19
331.115	86.19
331.344	76.19
331.572	89.19
331.801	78.19
332.03	78.19
332.258	86.19
332.486	71.19
332.715	90.19
332.943	84.19
333.172	79.19
333.4	84.19
333.629	95.19
333.857	86.19
334.085	97.19
334.314	81.19
334.542	95.19
334.771	86.19
334.999	96.19
335.227	104.19
335.455	79.19
335.684	87.19
335.912	81.19
336.14	90.19
336.369	94.19
336.597	89.19
336.825	94.19
337.053	83.19
337.281	87.19
337.51	90.19
337.738	90.19
337.966	84.19
338.194	88.19
338.422	87.19
338.65	78.19
338.878	95.19
339.106	88.19
339.334	90.19
339.562	88.19
339.79	92.19
340.018	74.19
340.246	90.19
340.474	90.19
340.702	86.19
340.93	76.19
341.158	75.19
341.386	82.19
341.614	73.19
341.842	78.19
342.07	76.19
342.298	72.19
342.526	95.19
342.754	78.19
342.981	102.19
343.209	93.19
343.437	100.19
343.665	83.19
343.893	79.19
344.12	87.19
344.348	87.19
344.576	81.19
344.804	70.19
345.031	92.19
345.259	75.19
345.487	87.19
345.714	88.19
345.942	77.19
346.17	86.19
346.397	81.19
346.625	75.19
346.853	93.19
347.08	101.19
347.308	91.19
347.535	88.19
347.763	82.19
347.99	89.19
348.218	87.19
348.445	77.19
348.673	89.19
348.9	88.19
349.128	92.19
349.355	92.19
349.583	97.19
349.81	84.19
350.037	84.19
350.265	76.19
350.492	91.19
350.72	83.19
350.947	87.19
351.174	86.19
351.402	73.19
351.629	87.19
351.856	86.19
352.083	81.19
352.311	87.19
352.538	82.19
352.765	76.19
352.992	85.19
353.22	83.19
353.447	80.19
353.674	79.19
353.901	79.19
354.128	93.19
354.355	86.19
354.583	65.19
354.81	86.19
355.037	95.19
355.264	94.19
355.491	88.19
355.718	85.19
355.945	88.19
356.172	98.19
356.399	77.19
356.626	92.19
356.853	76.19
357.08	97.19
357.307	97.19
357.534	89.19
357.761	71.19
357.988	86.19
358.215	90.19
358.441	81.19
358.668	87.19
358.895	76.19
359.122	80.19
359.349	90.19
359.576	84.19
359.802	102.19
360.029	93.19
360.256	71.19
360.483	79.19
360.709	88.19
360.936	94.19
361.163	73.19
361.39	94.19
361.616	96.19
361.843	75.19
362.07	82.19
362.296	88.19
362.523	104.19
362.749	70.19
362.976	68.19
363.203	82.19
363.429	80.19
363.656	82.19
363.882	77.19
364.109	87.19
364.335	92.19
364.562	75.19
364.788	100.19
365.015	83.19
365.241	89.19
365.468	93.19
365.694	75.19
365.92	96.19
366.147	85.19
366.373	85.19
366.599	64.19
366.826	76.19
367.052	75.19
367.278	84.19
367.505	80.19
367.731	99.19
367.957	86.19
368.184	83.19
368.41	86.19
368.636	83.19
368.862	72.19
369.089	75.19
369.315	91.19
369.541	84.19
369.767	80.19
369.993	88.19
370.219	92.19
370.445	87.19
370.672	90.19
370.898	68.19
371.124	85.19
371.35	76.19
371.576	93.19
371.802	86.19
372.028	83.19
372.254	70.19
372.48	84.19
372.706	92.19
372.932	91.19
373.158	74.19
373.384	91.19
373.61	95.19
373.835	73.19
374.061	75.19
374.287	90.19
374.513	94.19
374.739	97.19
374.965	90.19
375.191	98.19
375.416	82.19
375.642	82.19
375.868	101.19
376.094	81.19
376.319	94.19
376.545	76.19
376.771	81.19
376.997	91.19
377.222	78.19
377.448	78.19
377.674	80.19
377.899	94.19
378.125	79.19
378.35	73.19
378.576	84.19
378.802	88.19
379.027	101.19
379.253	76.19
379.478	89.19
379.704	91.19
379.929	89.19
380.155	100.19
380.38	76.19
380.606	79.19
380.831	88.19
381.057	83.19
381.282	82.19
381.507	107.19
381.733	92.19
381.958	84.19
382.184	82.19
382.409	82.19
382.634	83.19
382.86	76.19
383.085	99.19
383.31	101.19
383.535	87.19
383.761	70.19
383.986	87.19
384.211	90.19
384.436	76.19
384.662	89.19
384.887	86.19
385.112	84.19
385.337	84.19
385.562	84.19
385.787	69.19
386.013	93.19
386.238	96.19
386.463	88.19
386.688	107.19
386.913	90.19
387.138	91.19
387.363	75.19
387.588	79.19
387.813	77.19
388.038	87.19
388.263	93.19
388.488	94.19
388.713	85.19
388.938	92.19
389.163	70.19
389.387	78.19
389.612	91.19
389.837	78.19
390.062	90.19
390.287	81.19
390.512	78.19
390.736	90.19
390.961	86.19
391.186	81.19
391.411	83.19
391.636	72.19
391.86	86.19
392.085	84.19
392.31	94.19
392.534	91.19
392.759	99.19
392.984	113.19
393.208	145.19
393.433	188.19
393.658	155.19
393.882	93.19
394.107	72.19
394.331	84.19
394.556	88.19
394.78	88.19
395.005	81.19
395.229	73.19
395.454	94.19
395.678	80.19
395.903	96.19
396.127	106.19
396.352	110.19
396.576	119.19
396.801	147.19
397.025	167.19
397.249	107.19
397.474	90.19
397.698	90.19
397.922	85.19
398.147	81.19
398.371	72.19
398.595	66.19
398.82	91.19
399.044	78.19
399.268	96.19
399.492	78.19
399.717	87.19
399.941	77.19
400.165	103.19
400.389	78.19
400.613	94.19
400.837	78.19
401.062	75.19
401.286	91.19
401.51	83.19
401.734	90.19
401.958	85.19
402.182	85.19
402.406	88.19
402.63	73.19
402.854	85.19
403.078	93.19
403.302	76.19
403.526	88.19
403.75	86.19
403.974	88.19
404.198	90.19
404.422	85.19
404.645	88.19
404.869	84.19
405.093	92.19
405.317	101.19
405.541	86.19
405.765	85.19
405.988	85.19
406.212	86.19
406.436	77.19
406.66	99.19
406.883	98.19
407.107	89.19
407.331	71.19
407.555	90.19
407.778	95.19
408.002	96.19
408.226	80.19
408.449	76.19
408.673	87.19
408.896	88.19
409.12	85.19
409.344	88.19
409.567	84.19
409.791	95.19
410.014	78.19
410.238	76.19
410.461	92.19
410.685	79.19
410.908	85.19
411.132	80.19
411.355	83.19
411.578	92.19
411.802	86.19
412.025	76.19
412.249	88.19
412.472	67.19
412.695	78.19
412.919	90.19
413.142	87.19
413.365	69.19
413.589	77.19
413.812	86.19
414.035	89.19
414.258	83.19
414.482	68.19
414.705	80.19
414.928	83.19
415.151	74.19
415.374	74.19
415.597	74.19
415.821	65.19
416.044	85.19
416.267	81.19
416.49	82.19
416.713	84.19
416.936	94.19
417.159	92.19
417.382	77.19
417.605	80.19
417.828	76.19
418.051	81.19
418.274	93.19
418.497	97.19
418.72	81.19
418.943	67.19
419.166	80.19
419.389	92.19
419.611	90.19
419.834	83.19
420.057	101.19
420.28	80.19
420.503	76.19
420.726	98.19
420.948	77.19
421.171	76.19
421.394	88.19
421.617	85.19
421.839	82.19
422.062	100.19
422.285	85.19
422.507	140.19
422.73	200.19
422.953	190.19
423.175	94.19
423.398	91.19
423.621	89.19
423.843	83.19
424.066	85.19
424.288	93.19
424.511	85.19
424.733	91.19
424.956	69.19
425.178	79.19
425.401	94.19
425.623	97.19
425.846	75.19
426.068	80.19
426.291	74.19
426.513	72.19
426.735	84.19
426.958	85.19
427.18	90.19
427.402	94.19
427.625	81.19
427.847	84.19
428.069	96.19
428.292	85.19
428.514	96.19
428.736	88.19
428.958	77.19
429.181	107.19
429.403	78.19
429.625	81.19
429.847	102.19
430.069	117.19
430.292	120.19
430.514	104.19
430.736	97.19
430.958	110.19
431.18	85.19
431.402	94.19
431.624	89.19
431.846	85.19
432.068	109.19
432.29	82.19
432.512	88.19
432.734	98.19
432.956	72.19
433.178	81.19
433.4	89.19
433.622	86.19
433.844	86.19
434.066	93.19
434.287	82.19
434.509	88.19
434.731	84.19
434.953	84.19
435.175	100.19
435.397	82.19
435.618	82.19
435.84	83.19
436.062	70.19
436.284	70.19
436.505	86.19
436.727	86.19
436.949	88.19
437.17	66.19
437.392	81.19
437.614	82.19
437.835	82.19
438.057	92.19
438.278	89.19
438.5	80.19
438.721	88.19
438.943	82.19
439.165	84.19
439.386	76.19
439.608	84.19
439.829	91.19
440.05	90.19
440.272	84.19
440.493	79.19
440.715	80.19
440.936	81.19
441.158	91.19
441.379	85.19
441.6	80.19
441.822	85.19
442.043	102.19
442.264	85.19
442.486	98.19
442.707	77.19
442.928	93.19
443.149	76.19
443.371	96.19
443.592	116.19
443.813	106.19
444.034	92.19
444.255	90.19
444.476	78.19
444.698	95.19
444.919	86.19
445.14	170.19
445.361	124.19
445.582	142.19
445.803	121.19
446.024	90.19
446.245	98.19
446.466	72.19
446.687	81.19
446.908	84.19
447.129	63.19
447.35	86.19
447.571	84.19
447.792	89.19
448.013	87.19
448.234	75.19
448.455	65.19
448.675	89.19
448.896	89.19
449.117	84.19
449.338	96.19
449.559	83.19
449.779	76.19
450	84.19
450.221	86.19
450.442	77.19
450.662	97.19
450.883	84.19
451.104	90.19
451.324	86.19
451.545	71.19
451.766	64.19
451.986	83.19
452.207	85.19
452.428	84.19
452.648	84.19
452.869	80.19
453.089	99.19
453.31	72.19
453.53	83.19
453.751	91.19
453.971	73.19
454.192	79.19
454.412	96.19
454.633	73.19
454.853	88.19
455.073	68.19
455.294	79.19
455.514	74.19
455.734	90.19
455.955	84.19
456.175	83.19
456.395	83.19
456.616	86.19
456.836	77.19
457.056	94.19
457.276	86.19
457.497	87.19
457.717	93.19
457.937	85.19
458.157	91.19
458.377	90.19
458.598	66.19
458.818	79.19
459.038	78.19
459.258	70.19
459.478	84.19
459.698	88.19
459.918	85.19
460.138	73.19
460.358	82.19
460.578	86.19
460.798	105.19
461.018	102.19
461.238	84.19
461.458	77.19
461.678	75.19
461.898	91.19
462.118	84.19
462.338	79.19
462.558	78.19
462.777	95.19
462.997	89.19
463.217	72.19
463.437	85.19
463.657	83.19
463.876	88.19
464.096	88.19
464.316	89.19
464.536	94.19
464.755	96.19
464.975	91.19
465.195	88.19
465.414	79.19
465.634	92.19
465.854	81.19
466.073	74.19
466.293	90.19
466.512	74.19
466.732	77.19
466.951	75.19
467.171	84.19
467.391	64.19
467.61	77.19
467.829	68.19
468.049	81.19
468.268	95.19
468.488	93.19
468.707	79.19
468.927	83.19
469.146	75.19
469.365	80.19
469.585	87.19
469.804	83.19
470.023	90.19
470.243	84.19
470.462	79.19
470.681	70.19
470.901	68.19
471.12	67.19
471.339	72.19
471.558	81.19
471.777	85.19
471.997	73.19
472.216	78.19
472.435	81.19
472.654	90.19
472.873	78.19
473.092	65.19
473.311	80.19
473.53	84.19
473.749	62.19
473.968	71.19
474.187	78.19
474.406	75.19
474.625	70.19
474.844	83.19
475.063	88.19
475.282	106.19
475.501	89.19
475.72	68.19
475.939	82.19
476.158	79.19
476.377	92.19
476.596	73.19
476.814	82.19
477.033	78.19
477.252	82.19
477.471	82.19
477.69	78.19
477.908	81.19
478.127	79.19
478.346	81.19
478.564	67.19
478.783	75.19
479.002	82.19
479.22	87.19
479.439	93.19
479.658	87.19
479.876	68.19
480.095	77.19
480.313	80.19
480.532	84.19
480.751	92.19
480.969	68.19
481.188	75.19
481.406	90.19
481.624	88.19
481.843	97.19
482.061	84.19
482.28	79.19
482.498	84.19
482.717	81.19
482.935	79.19
483.153	81.19
483.372	89.19
483.59	78.19
483.808	92.19
484.027	89.19
484.245	82.19
484.463	89.19
484.681	83.19
484.9	89.19
485.118	94.19
485.336	88.19
485.554	101.19
485.772	82.19
485.99	93.19
486.209	83.19
486.427	94.19
486.645	93.19
486.863	89.19
487.081	80.19
487.299	84.19
487.517	82.19
487.735	90.19
487.953	94.19
488.171	100.19
488.389	81.19
488.607	85.19
488.825	81.19
489.043	89.19
489.261	89.19
489.479	86.19
489.696	87.19
489.914	78.19
490.132	89.19
490.35	82.19
490.568	85.19
490.786	82.19
491.003	87.19
491.221	84.19
491.439	89.19
491.657	94.19
491.874	86.19
492.092	83.19
492.31	109.19
492.527	88.19
492.745	90.19
492.963	74.19
493.18	89.19
493.398	88.19
493.615	80.19
493.833	88.19
494.05	75.19
494.268	84.19
494.485	79.19
494.703	89.19
494.92	77.19
495.138	88.19
495.355	84.19
495.573	85.19
495.79	83.19
496.008	72.19
496.225	82.19
496.442	77.19
496.66	98.19
496.877	86.19
497.094	90.19
497.312	84.19
497.529	92.19
497.746	97.19
497.963	82.19
498.181	82.19
498.398	100.19
498.615	86.19
498.832	91.19
499.049	101.19
499.267	89.19
499.484	84.19
499.701	80.19
499.918	95.19
500.135	82.19
500.352	89.19
500.569	86.19
500.786	79.19
501.003	92.19
501.22	70.19
501.437	84.19
501.654	92.19
501.871	81.19
502.088	81.19
502.305	94.19
502.522	82.19
502.739	86.19
502.956	82.19
503.172	91.19
503.389	75.19
503.606	89.19
503.823	85.19
504.04	87.19
504.256	82.19
504.473	95.19
504.69	78.19
504.907	81.19
505.123	88.19
505.34	86.19
505.557	94.19
505.773	84.19
505.99	87.19
506.207	70.19
506.423	78.19
506.64	85.19
506.856	68.19
507.073	96.19
507.289	76.19
507.506	88.19
507.722	96.19
507.939	77.19
508.155	69.19
508.372	72.19
508.588	78.19
508.805	91.19
509.021	79.19
509.238	79.19
509.454	81.19
509.67	83.19
509.887	76.19
510.103	84.19
510.319	95.19
510.536	90.19
510.752	74.19
510.968	77.19
511.184	78.19
511.401	76.19
511.617	93.19
511.833	90.19
512.049	92.19
512.265	94.19
512.481	80.19
512.698	86.19
512.914	98.19
513.13	91.19
513.346	73.19
513.562	77.19
513.778	77.19
513.994	88.19
514.21	88.19
514.426	84.19
514.642	83.19
514.858	78.19
515.074	85.19
515.29	91.19
515.506	88.19
515.721	84.19
515.937	86.19
516.153	82.19
516.369	90.19
516.585	78.19
516.801	94.19
517.016	89.19
517.232	93.19
517.448	98.19
517.664	74.19
517.879	77.19
518.095	90.19
518.311	67.19
518.527	61.19
518.742	84.19
518.958	102.19
519.173	99.19
519.389	94.19
