Data from 15780_1_HRD10591_00004.txt Node
Date: Mon Jan 19 14:18:12 EST 2026
User: Yrep
Spectrometer: HR+D1059
Trigger mode: 1
Integration Time (sec): 1.000000E-1
Scans to average: 1
Electric dark correction enabled: true
Nonlinearity correction enabled: false
Boxcar width: 0
XAxis mode: Wavelengths
Number of Pixels in Spectrum: 2048
>>>>>Begin Spectral Data<<<<<
223.165	-27.31
223.4	-27.31
223.635	-27.31
223.869	-13.31
224.104	-13.31
224.338	-17.31
224.573	-31.31
224.808	-29.31
225.042	-9.31
225.277	-3.31
225.511	-2.31
225.746	-0.31
225.98	15.69
226.215	8.69
226.449	12.69
226.683	21.69
226.918	38.69
227.152	49.69
227.387	29.69
227.621	29.69
227.856	38.69
228.09	42.69
228.324	48.69
228.559	65.69
228.793	67.69
229.027	70.69
229.262	56.69
229.496	77.69
229.73	83.69
229.964	62.69
230.199	70.69
230.433	79.69
230.667	84.69
230.901	78.69
231.136	82.69
231.37	78.69
231.604	89.69
231.838	88.69
232.072	92.69
232.306	101.69
232.541	87.69
232.775	80.69
233.009	78.69
233.243	80.69
233.477	96.69
233.711	90.69
233.945	94.69
234.179	77.69
234.413	79.69
234.647	77.69
234.881	77.69
235.115	79.69
235.349	77.69
235.583	69.69
235.817	65.69
236.051	73.69
236.285	75.69
236.519	89.69
236.753	84.69
236.987	73.69
237.221	84.69
237.455	91.69
237.689	81.69
237.922	68.69
238.156	77.69
238.39	75.69
238.624	77.69
238.858	79.69
239.091	78.69
239.325	78.69
239.559	70.69
239.793	76.69
240.027	96.69
240.26	83.69
240.494	78.69
240.728	87.69
240.961	79.69
241.195	85.69
241.429	98.69
241.662	77.69
241.896	63.69
242.13	71.69
242.363	78.69
242.597	68.69
242.83	75.69
243.064	73.69
243.298	67.69
243.531	74.69
243.765	84.69
243.998	82.69
244.232	75.69
244.465	74.69
244.699	68.69
244.932	81.69
245.166	90.69
245.399	88.69
245.633	92.69
245.866	73.69
246.099	68.69
246.333	80.69
246.566	67.69
246.8	87.69
247.033	69.69
247.266	81.69
247.5	83.69
247.733	91.69
247.966	75.69
248.2	87.69
248.433	83.69
248.666	86.69
248.899	74.69
249.133	90.69
249.366	92.69
249.599	90.69
249.832	70.69
250.066	87.69
250.299	84.69
250.532	70.69
250.765	80.69
250.998	86.69
251.231	79.69
251.465	84.69
251.698	62.69
251.931	84.69
252.164	88.69
252.397	90.69
252.63	82.69
252.863	69.69
253.096	73.69
253.329	81.69
253.562	80.69
253.795	86.69
254.028	96.69
254.261	83.69
254.494	76.69
254.727	91.69
254.96	78.69
255.193	72.69
255.426	88.69
255.659	72.69
255.892	84.69
256.124	86.69
256.357	76.69
256.59	81.69
256.823	93.69
257.056	86.69
257.289	93.69
257.521	82.69
257.754	79.69
257.987	98.69
258.22	74.69
258.452	92.69
258.685	76.69
258.918	88.69
259.151	100.69
259.383	91.69
259.616	81.69
259.849	83.69
260.081	91.69
260.314	80.69
260.547	77.69
260.779	85.69
261.012	87.69
261.244	74.69
261.477	87.69
261.71	83.69
261.942	84.69
262.175	84.69
262.407	87.69
262.64	74.69
262.872	98.69
263.105	83.69
263.337	77.69
263.57	98.69
263.802	78.69
264.035	78.69
264.267	80.69
264.499	87.69
264.732	82.69
264.964	90.69
265.197	80.69
265.429	57.69
265.661	92.69
265.894	68.69
266.126	79.69
266.358	88.69
266.591	80.69
266.823	71.69
267.055	88.69
267.287	101.69
267.52	85.69
267.752	89.69
267.984	94.69
268.216	90.69
268.448	94.69
268.681	96.69
268.913	101.69
269.145	83.69
269.377	81.69
269.609	89.69
269.841	86.69
270.073	92.69
270.306	88.69
270.538	99.69
270.77	92.69
271.002	75.69
271.234	93.69
271.466	96.69
271.698	80.69
271.93	86.69
272.162	92.69
272.394	85.69
272.626	78.69
272.858	70.69
273.09	74.69
273.322	85.69
273.553	94.69
273.785	79.69
274.017	84.69
274.249	102.69
274.481	75.69
274.713	74.69
274.945	77.69
275.176	77.69
275.408	101.69
275.64	92.69
275.872	84.69
276.104	92.69
276.335	73.69
276.567	96.69
276.799	78.69
277.031	79.69
277.262	87.69
277.494	111.69
277.726	88.69
277.957	83.69
278.189	77.69
278.421	82.69
278.652	77.69
278.884	88.69
279.115	102.69
279.347	103.69
279.579	74.69
279.81	81.69
280.042	79.69
280.273	97.69
280.505	83.69
280.736	88.69
280.968	86.69
281.199	93.69
281.431	96.69
281.662	81.69
281.894	81.69
282.125	75.69
282.356	85.69
282.588	81.69
282.819	86.69
283.051	96.69
283.282	87.69
283.513	94.69
283.745	89.69
283.976	89.69
284.207	73.69
284.439	107.69
284.67	70.69
284.901	80.69
285.132	86.69
285.364	90.69
285.595	100.69
285.826	76.69
286.057	89.69
286.288	78.69
286.52	89.69
286.751	78.69
286.982	91.69
287.213	74.69
287.444	88.69
287.675	81.69
287.906	90.69
288.138	88.69
288.369	97.69
288.6	84.69
288.831	84.69
289.062	75.69
289.293	100.69
289.524	87.69
289.755	79.69
289.986	77.69
290.217	99.69
290.448	86.69
290.679	100.69
290.91	76.69
291.141	86.69
291.371	84.69
291.602	82.69
291.833	84.69
292.064	91.69
292.295	84.69
292.526	90.69
292.757	89.69
292.987	83.69
293.218	84.69
293.449	83.69
293.68	77.69
293.91	95.69
294.141	91.69
294.372	93.69
294.603	94.69
294.833	78.69
295.064	86.69
295.295	86.69
295.525	80.69
295.756	78.69
295.987	96.69
296.217	93.69
296.448	86.69
296.679	106.69
296.909	100.69
297.14	90.69
297.37	98.69
297.601	83.69
297.831	87.69
298.062	87.69
298.292	93.69
298.523	90.69
298.753	95.69
298.984	94.69
299.214	94.69
299.445	77.69
299.675	92.69
299.905	88.69
300.136	89.69
300.366	68.69
300.597	90.69
300.827	94.69
301.057	80.69
301.288	98.69
301.518	86.69
301.748	83.69
301.979	94.69
302.209	96.69
302.439	95.69
302.669	96.69
302.9	88.69
303.13	95.69
303.36	85.69
303.59	91.69
303.82	85.69
304.051	85.69
304.281	104.69
304.511	78.69
304.741	88.69
304.971	77.69
305.201	100.69
305.431	77.69
305.661	86.69
305.891	88.69
306.121	90.69
306.352	72.69
306.582	84.69
306.812	87.69
307.042	86.69
307.272	93.69
307.502	83.69
307.731	87.69
307.961	86.69
308.191	92.69
308.421	97.69
308.651	88.69
308.881	99.69
309.111	91.69
309.341	85.69
309.571	90.69
309.8	88.69
310.03	99.69
310.26	84.69
310.49	99.69
310.72	78.69
310.949	77.69
311.179	79.69
311.409	75.69
311.639	78.69
311.868	93.69
312.098	88.69
312.328	85.69
312.557	84.69
312.787	87.69
313.017	90.69
313.246	91.69
313.476	94.69
313.706	85.69
313.935	110.69
314.165	86.69
314.394	91.69
314.624	94.69
314.853	92.69
315.083	80.69
315.312	95.69
315.542	103.69
315.771	93.69
316.001	94.69
316.23	78.69
316.46	89.69
316.689	85.69
316.919	80.69
317.148	78.69
317.377	98.69
317.607	94.69
317.836	89.69
318.065	90.69
318.295	96.69
318.524	114.69
318.753	84.69
318.983	75.69
319.212	85.69
319.441	79.69
319.67	91.69
319.9	77.69
320.129	91.69
320.358	84.69
320.587	78.69
320.816	82.69
321.046	77.69
321.275	95.69
321.504	106.69
321.733	101.69
321.962	84.69
322.191	90.69
322.42	77.69
322.649	106.69
322.878	82.69
323.108	76.69
323.337	93.69
323.566	92.69
323.795	80.69
324.024	86.69
324.253	89.69
324.482	86.69
324.71	77.69
324.939	95.69
325.168	71.69
325.397	90.69
325.626	78.69
325.855	91.69
326.084	94.69
326.313	79.69
326.542	84.69
326.77	81.69
326.999	88.69
327.228	81.69
327.457	92.69
327.686	92.69
327.914	85.69
328.143	108.69
328.372	102.69
328.6	80.69
328.829	80.69
329.058	79.69
329.287	94.69
329.515	97.69
329.744	101.69
329.972	78.69
330.201	88.69
330.43	98.69
330.658	89.69
330.887	90.69
331.115	84.69
331.344	98.69
331.572	99.69
331.801	95.69
332.03	93.69
332.258	89.69
332.486	89.69
332.715	93.69
332.943	81.69
333.172	87.69
333.4	79.69
333.629	79.69
333.857	91.69
334.085	82.69
334.314	96.69
334.542	100.69
334.771	80.69
334.999	86.69
335.227	109.69
335.455	96.69
335.684	96.69
335.912	99.69
336.14	106.69
336.369	97.69
336.597	90.69
336.825	99.69
337.053	91.69
337.281	98.69
337.51	84.69
337.738	86.69
337.966	89.69
338.194	81.69
338.422	84.69
338.65	96.69
338.878	90.69
339.106	93.69
339.334	81.69
339.562	83.69
339.79	89.69
340.018	76.69
340.246	105.69
340.474	105.69
340.702	78.69
340.93	77.69
341.158	80.69
341.386	98.69
341.614	89.69
341.842	98.69
342.07	86.69
342.298	86.69
342.526	89.69
342.754	96.69
342.981	87.69
343.209	94.69
343.437	98.69
343.665	80.69
343.893	90.69
344.12	90.69
344.348	95.69
344.576	90.69
344.804	86.69
345.031	81.69
345.259	88.69
345.487	84.69
345.714	83.69
345.942	91.69
346.17	86.69
346.397	84.69
346.625	81.69
346.853	90.69
347.08	82.69
347.308	95.69
347.535	74.69
347.763	88.69
347.99	97.69
348.218	99.69
348.445	100.69
348.673	98.69
348.9	91.69
349.128	96.69
349.355	98.69
349.583	100.69
349.81	93.69
350.037	84.69
350.265	89.69
350.492	94.69
350.72	102.69
350.947	69.69
351.174	95.69
351.402	91.69
351.629	87.69
351.856	79.69
352.083	72.69
352.311	90.69
352.538	108.69
352.765	87.69
352.992	84.69
353.22	106.69
353.447	99.69
353.674	82.69
353.901	93.69
354.128	90.69
354.355	90.69
354.583	82.69
354.81	98.69
355.037	92.69
355.264	96.69
355.491	98.69
355.718	86.69
355.945	87.69
356.172	86.69
356.399	86.69
356.626	75.69
356.853	98.69
357.08	93.69
357.307	100.69
357.534	99.69
357.761	78.69
357.988	100.69
358.215	99.69
358.441	99.69
358.668	100.69
358.895	94.69
359.122	90.69
359.349	87.69
359.576	72.69
359.802	86.69
360.029	90.69
360.256	76.69
360.483	99.69
360.709	91.69
360.936	77.69
361.163	94.69
361.39	98.69
361.616	97.69
361.843	86.69
362.07	106.69
362.296	90.69
362.523	91.69
362.749	91.69
362.976	110.69
363.203	119.69
363.429	93.69
363.656	98.69
363.882	82.69
364.109	103.69
364.335	119.69
364.562	118.69
364.788	103.69
365.015	82.69
365.241	75.69
365.468	92.69
365.694	102.69
365.92	86.69
366.147	86.69
366.373	93.69
366.599	90.69
366.826	91.69
367.052	94.69
367.278	104.69
367.505	98.69
367.731	98.69
367.957	77.69
368.184	82.69
368.41	86.69
368.636	83.69
368.862	81.69
369.089	88.69
369.315	85.69
369.541	85.69
369.767	85.69
369.993	84.69
370.219	86.69
370.445	90.69
370.672	97.69
370.898	81.69
371.124	81.69
371.35	92.69
371.576	90.69
371.802	80.69
372.028	103.69
372.254	95.69
372.48	96.69
372.706	93.69
372.932	96.69
373.158	89.69
373.384	94.69
373.61	122.69
373.835	115.69
374.061	104.69
374.287	91.69
374.513	95.69
374.739	104.69
374.965	111.69
375.191	116.69
375.416	88.69
375.642	99.69
375.868	94.69
376.094	88.69
376.319	96.69
376.545	90.69
376.771	94.69
376.997	98.69
377.222	89.69
377.448	91.69
377.674	104.69
377.899	77.69
378.125	83.69
378.35	98.69
378.576	86.69
378.802	87.69
379.027	94.69
379.253	82.69
379.478	99.69
379.704	91.69
379.929	85.69
380.155	95.69
380.38	100.69
380.606	72.69
380.831	76.69
381.057	104.69
381.282	93.69
381.507	102.69
381.733	98.69
381.958	95.69
382.184	94.69
382.409	95.69
382.634	96.69
382.86	100.69
383.085	97.69
383.31	86.69
383.535	94.69
383.761	100.69
383.986	102.69
384.211	104.69
384.436	86.69
384.662	87.69
384.887	94.69
385.112	104.69
385.337	98.69
385.562	78.69
385.787	102.69
386.013	107.69
386.238	112.69
386.463	89.69
386.688	99.69
386.913	90.69
387.138	95.69
387.363	91.69
387.588	99.69
387.813	101.69
388.038	100.69
388.263	95.69
388.488	92.69
388.713	95.69
388.938	97.69
389.163	95.69
389.387	89.69
389.612	91.69
389.837	99.69
390.062	92.69
390.287	99.69
390.512	95.69
390.736	75.69
390.961	81.69
391.186	99.69
391.411	84.69
391.636	88.69
391.86	78.69
392.085	92.69
392.31	92.69
392.534	111.69
392.759	119.69
392.984	148.69
393.208	207.69
393.433	293.69
393.658	211.69
393.882	126.69
394.107	111.69
394.331	104.69
394.556	118.69
394.78	99.69
395.005	78.69
395.229	96.69
395.454	106.69
395.678	111.69
395.903	103.69
396.127	130.69
396.352	156.69
396.576	149.69
396.801	230.69
397.025	236.69
397.249	139.69
397.474	118.69
397.698	88.69
397.922	95.69
398.147	91.69
398.371	95.69
398.595	91.69
398.82	84.69
399.044	81.69
399.268	88.69
399.492	76.69
399.717	77.69
399.941	80.69
400.165	96.69
400.389	90.69
400.613	81.69
400.837	85.69
401.062	84.69
401.286	89.69
401.51	84.69
401.734	86.69
401.958	88.69
402.182	92.69
402.406	91.69
402.63	90.69
402.854	100.69
403.078	90.69
403.302	89.69
403.526	96.69
403.75	92.69
403.974	86.69
404.198	96.69
404.422	114.69
404.645	108.69
404.869	98.69
405.093	98.69
405.317	69.69
405.541	100.69
405.765	72.69
405.988	86.69
406.212	94.69
406.436	88.69
406.66	87.69
406.883	90.69
407.107	76.69
407.331	83.69
407.555	92.69
407.778	110.69
408.002	116.69
408.226	102.69
408.449	94.69
408.673	94.69
408.896	92.69
409.12	84.69
409.344	107.69
409.567	95.69
409.791	92.69
410.014	86.69
410.238	91.69
410.461	90.69
410.685	90.69
410.908	87.69
411.132	72.69
411.355	85.69
411.578	92.69
411.802	87.69
412.025	79.69
412.249	88.69
412.472	99.69
412.695	95.69
412.919	89.69
413.142	82.69
413.365	94.69
413.589	92.69
413.812	94.69
414.035	87.69
414.258	100.69
414.482	98.69
414.705	88.69
414.928	96.69
415.151	80.69
415.374	61.69
415.597	78.69
415.821	90.69
416.044	82.69
416.267	87.69
416.49	81.69
416.713	99.69
416.936	91.69
417.159	86.69
417.382	92.69
417.605	82.69
417.828	80.69
418.051	71.69
418.274	76.69
418.497	90.69
418.72	88.69
418.943	79.69
419.166	81.69
419.389	90.69
419.611	79.69
419.834	92.69
420.057	94.69
420.28	97.69
420.503	78.69
420.726	80.69
420.948	91.69
421.171	88.69
421.394	92.69
421.617	116.69
421.839	115.69
422.062	114.69
422.285	147.69
422.507	242.69
422.73	359.69
422.953	336.69
423.175	177.69
423.398	131.69
423.621	114.69
423.843	83.69
424.066	86.69
424.288	80.69
424.511	96.69
424.733	85.69
424.956	81.69
425.178	85.69
425.401	103.69
425.623	86.69
425.846	101.69
426.068	93.69
426.291	90.69
426.513	76.69
426.735	88.69
426.958	97.69
427.18	104.69
427.402	103.69
427.625	90.69
427.847	106.69
428.069	97.69
428.292	122.69
428.514	133.69
428.736	122.69
428.958	132.69
429.181	110.69
429.403	111.69
429.625	108.69
429.847	100.69
430.069	143.69
430.292	166.69
430.514	147.69
430.736	116.69
430.958	130.69
431.18	106.69
431.402	93.69
431.624	93.69
431.846	100.69
432.068	124.69
432.29	86.69
432.512	92.69
432.734	91.69
432.956	77.69
433.178	85.69
433.4	80.69
433.622	87.69
433.844	90.69
434.066	100.69
434.287	94.69
434.509	88.69
434.731	85.69
434.953	86.69
435.175	79.69
435.397	99.69
435.618	90.69
435.84	76.69
436.062	90.69
436.284	99.69
436.505	91.69
436.727	87.69
436.949	98.69
437.17	80.69
437.392	86.69
437.614	88.69
437.835	87.69
438.057	83.69
438.278	92.69
438.5	92.69
438.721	83.69
438.943	88.69
439.165	88.69
439.386	80.69
439.608	88.69
439.829	101.69
440.05	107.69
440.272	91.69
440.493	89.69
440.715	98.69
440.936	104.69
441.158	84.69
441.379	89.69
441.6	85.69
441.822	98.69
442.043	95.69
442.264	94.69
442.486	96.69
442.707	143.69
442.928	127.69
443.149	120.69
443.371	126.69
443.592	184.69
443.813	178.69
444.034	101.69
444.255	90.69
444.476	90.69
444.698	92.69
444.919	104.69
445.14	171.69
445.361	160.69
445.582	239.69
445.803	209.69
446.024	111.69
446.245	84.69
446.466	89.69
446.687	95.69
446.908	99.69
447.129	90.69
447.35	83.69
447.571	88.69
447.792	86.69
448.013	85.69
448.234	93.69
448.455	100.69
448.675	88.69
448.896	79.69
449.117	77.69
449.338	90.69
449.559	75.69
449.779	84.69
450	94.69
450.221	90.69
450.442	67.69
450.662	78.69
450.883	92.69
451.104	91.69
451.324	77.69
451.545	87.69
451.766	96.69
451.986	96.69
452.207	93.69
452.428	96.69
452.648	106.69
452.869	98.69
453.089	91.69
453.31	81.69
453.53	90.69
453.751	80.69
453.971	91.69
454.192	91.69
454.412	86.69
454.633	84.69
454.853	101.69
455.073	92.69
455.294	98.69
455.514	86.69
455.734	96.69
455.955	101.69
456.175	88.69
456.395	94.69
456.616	94.69
456.836	84.69
457.056	82.69
457.276	88.69
457.497	87.69
457.717	101.69
457.937	110.69
458.157	91.69
458.377	93.69
458.598	111.69
458.818	100.69
459.038	83.69
459.258	92.69
459.478	75.69
459.698	85.69
459.918	91.69
460.138	88.69
460.358	91.69
460.578	90.69
460.798	126.69
461.018	120.69
461.238	98.69
461.458	96.69
461.678	95.69
461.898	95.69
462.118	85.69
462.338	74.69
462.558	95.69
462.777	64.69
462.997	92.69
463.217	78.69
463.437	75.69
463.657	86.69
463.876	88.69
464.096	95.69
464.316	87.69
464.536	89.69
464.755	92.69
464.975	84.69
465.195	94.69
465.414	105.69
465.634	95.69
465.854	79.69
466.073	86.69
466.293	102.69
466.512	87.69
466.732	98.69
466.951	93.69
467.171	93.69
467.391	87.69
467.61	90.69
467.829	80.69
468.049	92.69
468.268	89.69
468.488	106.69
468.707	93.69
468.927	94.69
469.146	101.69
469.365	84.69
469.585	105.69
469.804	92.69
470.023	92.69
470.243	90.69
470.462	95.69
470.681	99.69
470.901	83.69
471.12	95.69
471.339	86.69
471.558	75.69
471.777	88.69
471.997	80.69
472.216	93.69
472.435	85.69
472.654	84.69
472.873	90.69
473.092	93.69
473.311	87.69
473.53	99.69
473.749	98.69
473.968	89.69
474.187	77.69
474.406	85.69
474.625	92.69
474.844	89.69
475.063	99.69
475.282	94.69
475.501	92.69
475.72	98.69
475.939	84.69
476.158	94.69
476.377	88.69
476.596	79.69
476.814	96.69
477.033	99.69
477.252	88.69
477.471	80.69
477.69	90.69
477.908	96.69
478.127	91.69
478.346	104.69
478.564	89.69
478.783	92.69
479.002	90.69
479.22	81.69
479.439	96.69
479.658	92.69
479.876	100.69
480.095	84.69
480.313	88.69
480.532	96.69
480.751	98.69
480.969	97.69
481.188	94.69
481.406	105.69
481.624	89.69
481.843	89.69
482.061	90.69
482.28	80.69
482.498	93.69
482.717	91.69
482.935	81.69
483.153	90.69
483.372	94.69
483.59	91.69
483.808	98.69
484.027	98.69
484.245	96.69
484.463	101.69
484.681	102.69
484.9	102.69
485.118	88.69
485.336	90.69
485.554	98.69
485.772	102.69
485.99	88.69
486.209	97.69
486.427	94.69
486.645	94.69
486.863	92.69
487.081	91.69
487.299	98.69
487.517	105.69
487.735	96.69
487.953	148.69
488.171	128.69
488.389	106.69
488.607	90.69
488.825	91.69
489.043	90.69
489.261	100.69
489.479	92.69
489.696	86.69
489.914	100.69
490.132	97.69
490.35	108.69
490.568	99.69
490.786	106.69
491.003	81.69
491.221	95.69
491.439	96.69
491.657	89.69
491.874	84.69
492.092	98.69
492.31	85.69
492.527	84.69
492.745	92.69
492.963	100.69
493.18	100.69
493.398	95.69
493.615	92.69
493.833	79.69
494.05	81.69
494.268	95.69
494.485	117.69
494.703	98.69
494.92	96.69
495.138	86.69
495.355	116.69
495.573	96.69
495.79	91.69
496.008	92.69
496.225	86.69
496.442	93.69
496.66	92.69
496.877	91.69
497.094	94.69
497.312	106.69
497.529	102.69
497.746	100.69
497.963	95.69
498.181	102.69
498.398	102.69
498.615	86.69
498.832	81.69
499.049	100.69
499.267	120.69
499.484	118.69
499.701	85.69
499.918	92.69
500.135	98.69
500.352	87.69
500.569	94.69
500.786	100.69
501.003	123.69
501.22	89.69
501.437	103.69
501.654	98.69
501.871	98.69
502.088	84.69
502.305	108.69
502.522	87.69
502.739	106.69
502.956	102.69
503.172	96.69
503.389	92.69
503.606	79.69
503.823	102.69
504.04	106.69
504.256	122.69
504.473	141.69
504.69	89.69
504.907	96.69
505.123	93.69
505.34	101.69
505.557	95.69
505.773	84.69
505.99	88.69
506.207	101.69
506.423	90.69
506.64	93.69
506.856	97.69
507.073	94.69
507.289	94.69
507.506	92.69
507.722	119.69
507.939	95.69
508.155	101.69
508.372	102.69
508.588	85.69
508.805	100.69
509.021	104.69
509.238	89.69
509.454	90.69
509.67	109.69
509.887	101.69
510.103	86.69
510.319	85.69
510.536	104.69
510.752	95.69
510.968	103.69
511.184	93.69
511.401	99.69
511.617	87.69
511.833	84.69
512.049	91.69
512.265	94.69
512.481	92.69
512.698	102.69
512.914	94.69
513.13	90.69
513.346	99.69
513.562	79.69
513.778	88.69
513.994	109.69
514.21	102.69
514.426	93.69
514.642	91.69
514.858	100.69
515.074	103.69
515.29	114.69
515.506	107.69
515.721	87.69
515.937	90.69
516.153	101.69
516.369	87.69
516.585	102.69
516.801	93.69
517.016	115.69
