Data from 15780_1_HRD10591_00026.txt Node
Date: Mon Jan 19 14:18:23 EST 2026
User: Yrep
Spectrometer: HR+D1059
Trigger mode: 1
Integration Time (sec): 1.000000E-1
Scans to average: 1
Electric dark correction enabled: true
Nonlinearity correction enabled: false
Boxcar width: 0
XAxis mode: Wavelengths
Number of Pixels in Spectrum: 2048
>>>>>Begin Spectral Data<<<<<
223.165	-14.38
223.4	-14.38
223.635	-14.38
223.869	-15.38
224.104	-27.38
224.338	-11.38
224.573	-16.38
224.808	-15.38
225.042	-4.38
225.277	-13.38
225.511	-9.38
225.746	9.62
225.98	14.62
226.215	14.62
226.449	21.62
226.683	14.62
226.918	21.62
227.152	30.62
227.387	36.62
227.621	32.62
227.856	45.62
228.09	50.62
228.324	52.62
228.559	52.62
228.793	60.62
229.027	55.62
229.262	66.62
229.496	67.62
229.73	71.62
229.964	76.62
230.199	74.62
230.433	74.62
230.667	68.62
230.901	80.62
231.136	95.62
231.37	69.62
231.604	75.62
231.838	91.62
232.072	94.62
232.306	64.62
232.541	78.62
232.775	74.62
233.009	76.62
233.243	72.62
233.477	80.62
233.711	74.62
233.945	89.62
234.179	79.62
234.413	73.62
234.647	85.62
234.881	71.62
235.115	81.62
235.349	72.62
235.583	80.62
235.817	66.62
236.051	81.62
236.285	86.62
236.519	81.62
236.753	76.62
236.987	86.62
237.221	93.62
237.455	75.62
237.689	83.62
237.922	69.62
238.156	88.62
238.39	69.62
238.624	84.62
238.858	82.62
239.091	73.62
239.325	82.62
239.559	85.62
239.793	78.62
240.027	87.62
240.26	87.62
240.494	86.62
240.728	77.62
240.961	74.62
241.195	75.62
241.429	75.62
241.662	74.62
241.896	77.62
242.13	75.62
242.363	72.62
242.597	74.62
242.83	81.62
243.064	71.62
243.298	73.62
243.531	75.62
243.765	93.62
243.998	85.62
244.232	69.62
244.465	72.62
244.699	86.62
244.932	77.62
245.166	77.62
245.399	84.62
245.633	77.62
245.866	92.62
246.099	77.62
246.333	75.62
246.566	82.62
246.8	74.62
247.033	80.62
247.266	78.62
247.5	63.62
247.733	94.62
247.966	92.62
248.2	83.62
248.433	83.62
248.666	69.62
248.899	70.62
249.133	75.62
249.366	83.62
249.599	68.62
249.832	88.62
250.066	76.62
250.299	60.62
250.532	87.62
250.765	74.62
250.998	83.62
251.231	79.62
251.465	71.62
251.698	83.62
251.931	82.62
252.164	76.62
252.397	72.62
252.63	78.62
252.863	87.62
253.096	83.62
253.329	79.62
253.562	80.62
253.795	99.62
254.028	76.62
254.261	92.62
254.494	79.62
254.727	85.62
254.96	84.62
255.193	73.62
255.426	70.62
255.659	90.62
255.892	85.62
256.124	69.62
256.357	74.62
256.59	85.62
256.823	71.62
257.056	69.62
257.289	80.62
257.521	73.62
257.754	70.62
257.987	80.62
258.22	83.62
258.452	68.62
258.685	86.62
258.918	67.62
259.151	72.62
259.383	66.62
259.616	66.62
259.849	90.62
260.081	74.62
260.314	88.62
260.547	78.62
260.779	82.62
261.012	83.62
261.244	78.62
261.477	77.62
261.71	87.62
261.942	69.62
262.175	85.62
262.407	68.62
262.64	73.62
262.872	73.62
263.105	82.62
263.337	95.62
263.57	72.62
263.802	90.62
264.035	88.62
264.267	74.62
264.499	84.62
264.732	84.62
264.964	83.62
265.197	73.62
265.429	93.62
265.661	73.62
265.894	93.62
266.126	76.62
266.358	72.62
266.591	84.62
266.823	88.62
267.055	82.62
267.287	91.62
267.52	86.62
267.752	85.62
267.984	87.62
268.216	84.62
268.448	74.62
268.681	91.62
268.913	90.62
269.145	89.62
269.377	88.62
269.609	82.62
269.841	65.62
270.073	81.62
270.306	80.62
270.538	73.62
270.77	84.62
271.002	78.62
271.234	79.62
271.466	81.62
271.698	73.62
271.93	77.62
272.162	97.62
272.394	92.62
272.626	86.62
272.858	85.62
273.09	98.62
273.322	90.62
273.553	85.62
273.785	92.62
274.017	55.62
274.249	67.62
274.481	79.62
274.713	72.62
274.945	80.62
275.176	87.62
275.408	69.62
275.64	77.62
275.872	88.62
276.104	91.62
276.335	73.62
276.567	81.62
276.799	82.62
277.031	100.62
277.262	74.62
277.494	83.62
277.726	94.62
277.957	102.62
278.189	85.62
278.421	77.62
278.652	74.62
278.884	64.62
279.115	91.62
279.347	71.62
279.579	93.62
279.81	77.62
280.042	93.62
280.273	96.62
280.505	77.62
280.736	78.62
280.968	71.62
281.199	75.62
281.431	84.62
281.662	79.62
281.894	82.62
282.125	65.62
282.356	81.62
282.588	67.62
282.819	81.62
283.051	73.62
283.282	77.62
283.513	80.62
283.745	77.62
283.976	76.62
284.207	93.62
284.439	86.62
284.67	103.62
284.901	70.62
285.132	95.62
285.364	75.62
285.595	88.62
285.826	84.62
286.057	82.62
286.288	80.62
286.52	98.62
286.751	78.62
286.982	90.62
287.213	81.62
287.444	75.62
287.675	93.62
287.906	86.62
288.138	107.62
288.369	83.62
288.6	72.62
288.831	87.62
289.062	75.62
289.293	89.62
289.524	81.62
289.755	85.62
289.986	86.62
290.217	95.62
290.448	89.62
290.679	72.62
290.91	85.62
291.141	87.62
291.371	99.62
291.602	95.62
291.833	91.62
292.064	83.62
292.295	97.62
292.526	97.62
292.757	87.62
292.987	97.62
293.218	64.62
293.449	77.62
293.68	83.62
293.91	84.62
294.141	83.62
294.372	95.62
294.603	80.62
294.833	95.62
295.064	79.62
295.295	72.62
295.525	69.62
295.756	84.62
295.987	83.62
296.217	89.62
296.448	71.62
296.679	79.62
296.909	94.62
297.14	95.62
297.37	84.62
297.601	75.62
297.831	77.62
298.062	73.62
298.292	79.62
298.523	91.62
298.753	100.62
298.984	77.62
299.214	86.62
299.445	91.62
299.675	80.62
299.905	79.62
300.136	81.62
300.366	88.62
300.597	83.62
300.827	90.62
301.057	90.62
301.288	89.62
301.518	73.62
301.748	64.62
301.979	92.62
302.209	92.62
302.439	71.62
302.669	92.62
302.9	84.62
303.13	71.62
303.36	83.62
303.59	75.62
303.82	94.62
304.051	82.62
304.281	84.62
304.511	82.62
304.741	93.62
304.971	70.62
305.201	86.62
305.431	77.62
305.661	83.62
305.891	83.62
306.121	95.62
306.352	84.62
306.582	72.62
306.812	79.62
307.042	99.62
307.272	79.62
307.502	87.62
307.731	82.62
307.961	82.62
308.191	84.62
308.421	91.62
308.651	96.62
308.881	78.62
309.111	87.62
309.341	88.62
309.571	90.62
309.8	87.62
310.03	92.62
310.26	76.62
310.49	80.62
310.72	82.62
310.949	78.62
311.179	89.62
311.409	95.62
311.639	83.62
311.868	80.62
312.098	88.62
312.328	97.62
312.557	69.62
312.787	83.62
313.017	76.62
313.246	88.62
313.476	77.62
313.706	78.62
313.935	84.62
314.165	90.62
314.394	90.62
314.624	71.62
314.853	91.62
315.083	86.62
315.312	76.62
315.542	73.62
315.771	82.62
316.001	93.62
316.23	82.62
316.46	85.62
316.689	100.62
316.919	77.62
317.148	76.62
317.377	73.62
317.607	91.62
317.836	70.62
318.065	77.62
318.295	78.62
318.524	70.62
318.753	83.62
318.983	85.62
319.212	80.62
319.441	78.62
319.67	84.62
319.9	87.62
320.129	86.62
320.358	61.62
320.587	97.62
320.816	89.62
321.046	86.62
321.275	76.62
321.504	69.62
321.733	84.62
321.962	87.62
322.191	83.62
322.42	91.62
322.649	75.62
322.878	86.62
323.108	79.62
323.337	78.62
323.566	84.62
323.795	98.62
324.024	85.62
324.253	81.62
324.482	82.62
324.71	89.62
324.939	86.62
325.168	83.62
325.397	87.62
325.626	88.62
325.855	78.62
326.084	83.62
326.313	77.62
326.542	90.62
326.77	71.62
326.999	76.62
327.228	95.62
327.457	74.62
327.686	91.62
327.914	69.62
328.143	83.62
328.372	86.62
328.6	88.62
328.829	77.62
329.058	72.62
329.287	80.62
329.515	80.62
329.744	85.62
329.972	75.62
330.201	69.62
330.43	92.62
330.658	99.62
330.887	79.62
331.115	69.62
331.344	83.62
331.572	81.62
331.801	98.62
332.03	95.62
332.258	84.62
332.486	85.62
332.715	82.62
332.943	94.62
333.172	90.62
333.4	89.62
333.629	88.62
333.857	77.62
334.085	99.62
334.314	91.62
334.542	86.62
334.771	74.62
334.999	83.62
335.227	70.62
335.455	80.62
335.684	83.62
335.912	94.62
336.14	87.62
336.369	84.62
336.597	88.62
336.825	102.62
337.053	78.62
337.281	70.62
337.51	96.62
337.738	87.62
337.966	84.62
338.194	77.62
338.422	85.62
338.65	86.62
338.878	85.62
339.106	91.62
339.334	83.62
339.562	69.62
339.79	85.62
340.018	81.62
340.246	77.62
340.474	79.62
340.702	82.62
340.93	80.62
341.158	80.62
341.386	88.62
341.614	74.62
341.842	85.62
342.07	91.62
342.298	90.62
342.526	87.62
342.754	86.62
342.981	91.62
343.209	74.62
343.437	88.62
343.665	81.62
343.893	73.62
344.12	70.62
344.348	67.62
344.576	77.62
344.804	78.62
345.031	79.62
345.259	82.62
345.487	79.62
345.714	90.62
345.942	84.62
346.17	77.62
346.397	93.62
346.625	80.62
346.853	95.62
347.08	95.62
347.308	77.62
347.535	92.62
347.763	75.62
347.99	82.62
348.218	93.62
348.445	76.62
348.673	79.62
348.9	85.62
349.128	75.62
349.355	74.62
349.583	97.62
349.81	83.62
350.037	88.62
350.265	92.62
350.492	84.62
350.72	84.62
350.947	77.62
351.174	78.62
351.402	89.62
351.629	82.62
351.856	80.62
352.083	77.62
352.311	83.62
352.538	71.62
352.765	90.62
352.992	104.62
353.22	77.62
353.447	79.62
353.674	85.62
353.901	71.62
354.128	88.62
354.355	82.62
354.583	79.62
354.81	90.62
355.037	81.62
355.264	75.62
355.491	85.62
355.718	76.62
355.945	87.62
356.172	79.62
356.399	69.62
356.626	75.62
356.853	86.62
357.08	78.62
357.307	92.62
357.534	80.62
357.761	86.62
357.988	83.62
358.215	88.62
358.441	98.62
358.668	80.62
358.895	92.62
359.122	88.62
359.349	84.62
359.576	90.62
359.802	69.62
360.029	74.62
360.256	77.62
360.483	80.62
360.709	72.62
360.936	87.62
361.163	83.62
361.39	83.62
361.616	106.62
361.843	85.62
362.07	87.62
362.296	75.62
362.523	86.62
362.749	65.62
362.976	86.62
363.203	69.62
363.429	78.62
363.656	90.62
363.882	71.62
364.109	91.62
364.335	83.62
364.562	91.62
364.788	72.62
365.015	87.62
365.241	94.62
365.468	82.62
365.694	84.62
365.92	84.62
366.147	74.62
366.373	79.62
366.599	81.62
366.826	75.62
367.052	76.62
367.278	82.62
367.505	84.62
367.731	89.62
367.957	72.62
368.184	64.62
368.41	80.62
368.636	86.62
368.862	82.62
369.089	85.62
369.315	76.62
369.541	68.62
369.767	80.62
369.993	83.62
370.219	68.62
370.445	77.62
370.672	88.62
370.898	82.62
371.124	87.62
371.35	89.62
371.576	87.62
371.802	71.62
372.028	89.62
372.254	76.62
372.48	71.62
372.706	100.62
372.932	99.62
373.158	85.62
373.384	94.62
373.61	89.62
373.835	94.62
374.061	95.62
374.287	86.62
374.513	79.62
374.739	84.62
374.965	78.62
375.191	80.62
375.416	95.62
375.642	77.62
375.868	76.62
376.094	75.62
376.319	94.62
376.545	89.62
376.771	90.62
376.997	100.62
377.222	77.62
377.448	83.62
377.674	67.62
377.899	81.62
378.125	71.62
378.35	92.62
378.576	65.62
378.802	97.62
379.027	83.62
379.253	83.62
379.478	79.62
379.704	89.62
379.929	78.62
380.155	89.62
380.38	73.62
380.606	86.62
380.831	87.62
381.057	65.62
381.282	73.62
381.507	66.62
381.733	76.62
381.958	75.62
382.184	85.62
382.409	97.62
382.634	93.62
382.86	85.62
383.085	90.62
383.31	89.62
383.535	102.62
383.761	96.62
383.986	98.62
384.211	87.62
384.436	95.62
384.662	86.62
384.887	77.62
385.112	83.62
385.337	85.62
385.562	83.62
385.787	89.62
386.013	91.62
386.238	83.62
386.463	85.62
386.688	83.62
386.913	77.62
387.138	85.62
387.363	68.62
387.588	83.62
387.813	80.62
388.038	90.62
388.263	92.62
388.488	75.62
388.713	80.62
388.938	76.62
389.163	81.62
389.387	77.62
389.612	71.62
389.837	81.62
390.062	96.62
390.287	85.62
390.512	83.62
390.736	81.62
390.961	68.62
391.186	79.62
391.411	69.62
391.636	96.62
391.86	75.62
392.085	87.62
392.31	75.62
392.534	75.62
392.759	87.62
392.984	92.62
393.208	122.62
393.433	130.62
393.658	123.62
393.882	96.62
394.107	96.62
394.331	90.62
394.556	96.62
394.78	92.62
395.005	77.62
395.229	78.62
395.454	84.62
395.678	76.62
395.903	86.62
396.127	100.62
396.352	93.62
396.576	100.62
396.801	132.62
397.025	135.62
397.249	89.62
397.474	86.62
397.698	73.62
397.922	93.62
398.147	78.62
398.371	87.62
398.595	91.62
398.82	75.62
399.044	74.62
399.268	90.62
399.492	78.62
399.717	86.62
399.941	90.62
400.165	88.62
400.389	83.62
400.613	85.62
400.837	81.62
401.062	80.62
401.286	97.62
401.51	85.62
401.734	84.62
401.958	79.62
402.182	93.62
402.406	108.62
402.63	95.62
402.854	81.62
403.078	64.62
403.302	88.62
403.526	85.62
403.75	79.62
403.974	81.62
404.198	80.62
404.422	88.62
404.645	82.62
404.869	84.62
405.093	75.62
405.317	87.62
405.541	70.62
405.765	76.62
405.988	83.62
406.212	91.62
406.436	82.62
406.66	75.62
406.883	86.62
407.107	77.62
407.331	74.62
407.555	79.62
407.778	92.62
408.002	84.62
408.226	76.62
408.449	85.62
408.673	85.62
408.896	92.62
409.12	80.62
409.344	82.62
409.567	77.62
409.791	71.62
410.014	86.62
410.238	75.62
410.461	73.62
410.685	89.62
410.908	77.62
411.132	80.62
411.355	74.62
411.578	82.62
411.802	84.62
412.025	77.62
412.249	69.62
412.472	67.62
412.695	90.62
412.919	87.62
413.142	87.62
413.365	85.62
413.589	67.62
413.812	92.62
414.035	76.62
414.258	69.62
414.482	96.62
414.705	89.62
414.928	72.62
415.151	81.62
415.374	80.62
415.597	68.62
415.821	83.62
416.044	78.62
416.267	71.62
416.49	85.62
416.713	84.62
416.936	91.62
417.159	83.62
417.382	62.62
417.605	75.62
417.828	80.62
418.051	86.62
418.274	77.62
418.497	82.62
418.72	83.62
418.943	80.62
419.166	83.62
419.389	77.62
419.611	68.62
419.834	87.62
420.057	84.62
420.28	82.62
420.503	78.62
420.726	85.62
420.948	82.62
421.171	89.62
421.394	87.62
421.617	75.62
421.839	76.62
422.062	86.62
422.285	88.62
422.507	98.62
422.73	171.62
422.953	136.62
423.175	89.62
423.398	83.62
423.621	91.62
423.843	83.62
424.066	85.62
424.288	81.62
424.511	75.62
424.733	68.62
424.956	86.62
425.178	88.62
425.401	66.62
425.623	79.62
425.846	77.62
426.068	65.62
426.291	72.62
426.513	85.62
426.735	65.62
426.958	85.62
427.18	77.62
427.402	81.62
427.625	70.62
427.847	75.62
428.069	78.62
428.292	97.62
428.514	97.62
428.736	82.62
428.958	91.62
429.181	99.62
429.403	78.62
429.625	71.62
429.847	82.62
430.069	93.62
430.292	98.62
430.514	89.62
430.736	84.62
430.958	94.62
431.18	70.62
431.402	90.62
431.624	80.62
431.846	76.62
432.068	78.62
432.29	83.62
432.512	66.62
432.734	79.62
432.956	87.62
433.178	86.62
433.4	102.62
433.622	80.62
433.844	76.62
434.066	85.62
434.287	83.62
434.509	94.62
434.731	80.62
434.953	75.62
435.175	83.62
435.397	87.62
435.618	92.62
435.84	83.62
436.062	75.62
436.284	83.62
436.505	90.62
436.727	90.62
436.949	75.62
437.17	65.62
437.392	73.62
437.614	89.62
437.835	76.62
438.057	75.62
438.278	81.62
438.5	88.62
438.721	97.62
438.943	78.62
439.165	86.62
439.386	81.62
439.608	88.62
439.829	84.62
440.05	75.62
440.272	89.62
440.493	66.62
440.715	74.62
440.936	74.62
441.158	76.62
441.379	86.62
441.6	73.62
441.822	74.62
442.043	89.62
442.264	91.62
442.486	96.62
442.707	85.62
442.928	86.62
443.149	75.62
443.371	87.62
443.592	101.62
443.813	93.62
444.034	82.62
444.255	89.62
444.476	90.62
444.698	96.62
444.919	75.62
445.14	174.62
445.361	130.62
445.582	119.62
445.803	104.62
446.024	85.62
446.245	87.62
446.466	86.62
446.687	69.62
446.908	71.62
447.129	75.62
447.35	83.62
447.571	75.62
447.792	90.62
448.013	71.62
448.234	83.62
448.455	83.62
448.675	68.62
448.896	61.62
449.117	77.62
449.338	66.62
449.559	73.62
449.779	81.62
450	83.62
450.221	93.62
450.442	74.62
450.662	77.62
450.883	77.62
451.104	90.62
451.324	75.62
451.545	83.62
451.766	71.62
451.986	73.62
452.207	64.62
452.428	81.62
452.648	78.62
452.869	79.62
453.089	83.62
453.31	82.62
453.53	83.62
453.751	71.62
453.971	83.62
454.192	89.62
454.412	74.62
454.633	81.62
454.853	85.62
455.073	84.62
455.294	77.62
455.514	79.62
455.734	85.62
455.955	73.62
456.175	64.62
456.395	69.62
456.616	78.62
456.836	81.62
457.056	77.62
457.276	77.62
457.497	77.62
457.717	98.62
457.937	74.62
458.157	84.62
458.377	69.62
458.598	62.62
458.818	81.62
459.038	92.62
459.258	84.62
459.478	88.62
459.698	78.62
459.918	81.62
460.138	75.62
460.358	70.62
460.578	82.62
460.798	80.62
461.018	97.62
461.238	87.62
461.458	74.62
461.678	87.62
461.898	79.62
462.118	84.62
462.338	78.62
462.558	78.62
462.777	74.62
462.997	79.62
463.217	86.62
463.437	87.62
463.657	78.62
463.876	79.62
464.096	93.62
464.316	84.62
464.536	73.62
464.755	77.62
464.975	72.62
465.195	75.62
465.414	83.62
465.634	83.62
465.854	72.62
466.073	86.62
466.293	61.62
466.512	78.62
466.732	83.62
466.951	78.62
467.171	81.62
467.391	74.62
467.61	74.62
467.829	61.62
468.049	73.62
468.268	87.62
468.488	70.62
468.707	81.62
468.927	67.62
469.146	69.62
469.365	85.62
469.585	86.62
469.804	91.62
470.023	77.62
470.243	86.62
470.462	87.62
470.681	77.62
470.901	71.62
471.12	81.62
471.339	84.62
471.558	76.62
471.777	88.62
471.997	86.62
472.216	75.62
472.435	81.62
472.654	84.62
472.873	78.62
473.092	97.62
473.311	93.62
473.53	82.62
473.749	91.62
473.968	93.62
474.187	78.62
474.406	81.62
474.625	82.62
474.844	87.62
475.063	84.62
475.282	84.62
475.501	82.62
475.72	87.62
475.939	83.62
476.158	80.62
476.377	77.62
476.596	88.62
476.814	66.62
477.033	85.62
477.252	91.62
477.471	82.62
477.69	89.62
477.908	73.62
478.127	73.62
478.346	93.62
478.564	79.62
478.783	85.62
479.002	87.62
479.22	82.62
479.439	88.62
479.658	75.62
479.876	91.62
480.095	82.62
480.313	89.62
480.532	80.62
480.751	74.62
480.969	89.62
481.188	79.62
481.406	81.62
481.624	84.62
481.843	72.62
482.061	83.62
482.28	94.62
482.498	89.62
482.717	85.62
482.935	87.62
483.153	83.62
483.372	75.62
483.59	85.62
483.808	92.62
484.027	76.62
484.245	96.62
484.463	84.62
484.681	79.62
484.9	87.62
485.118	68.62
485.336	91.62
485.554	81.62
485.772	88.62
485.99	73.62
486.209	80.62
486.427	74.62
486.645	92.62
486.863	75.62
487.081	71.62
487.299	78.62
487.517	81.62
487.735	90.62
487.953	103.62
488.171	73.62
488.389	75.62
488.607	82.62
488.825	89.62
489.043	90.62
489.261	86.62
489.479	89.62
489.696	84.62
489.914	90.62
490.132	93.62
490.35	88.62
490.568	90.62
490.786	95.62
491.003	81.62
491.221	84.62
491.439	87.62
491.657	80.62
491.874	75.62
492.092	91.62
492.31	84.62
492.527	79.62
492.745	80.62
492.963	86.62
493.18	85.62
493.398	92.62
493.615	78.62
493.833	84.62
494.05	76.62
494.268	75.62
494.485	91.62
494.703	64.62
494.92	79.62
495.138	80.62
495.355	77.62
495.573	90.62
495.79	93.62
496.008	73.62
496.225	74.62
496.442	88.62
496.66	87.62
496.877	74.62
497.094	82.62
497.312	76.62
497.529	75.62
497.746	68.62
497.963	83.62
498.181	81.62
498.398	83.62
498.615	75.62
498.832	84.62
499.049	79.62
499.267	86.62
499.484	89.62
499.701	81.62
499.918	90.62
500.135	77.62
500.352	93.62
500.569	89.62
500.786	94.62
501.003	81.62
501.22	90.62
501.437	68.62
501.654	78.62
501.871	77.62
502.088	84.62
502.305	75.62
502.522	77.62
502.739	87.62
502.956	85.62
503.172	84.62
503.389	72.62
503.606	75.62
503.823	86.62
504.04	88.62
504.256	86.62
504.473	98.62
504.69	91.62
504.907	84.62
505.123	83.62
505.34	81.62
505.557	90.62
505.773	83.62
505.99	97.62
506.207	78.62
506.423	75.62
506.64	79.62
506.856	59.62
507.073	74.62
507.289	85.62
507.506	92.62
507.722	76.62
507.939	80.62
508.155	83.62
508.372	85.62
508.588	96.62
508.805	74.62
509.021	75.62
509.238	78.62
509.454	78.62
509.67	78.62
509.887	81.62
510.103	88.62
510.319	82.62
510.536	73.62
510.752	83.62
510.968	97.62
511.184	87.62
511.401	83.62
511.617	83.62
511.833	95.62
512.049	77.62
512.265	80.62
512.481	88.62
512.698	97.62
512.914	85.62
513.13	72.62
513.346	77.62
513.562	91.62
513.778	73.62
513.994	89.62
514.21	84.62
514.426	84.62
514.642	86.62
514.858	87.62
515.074	83.62
515.29	95.62
515.506	86.62
515.721	70.62
515.937	80.62
516.153	83.62
516.369	91.62
516.585	69.62
516.801	86.62
517.016	87.62
517.232	92.62
517.448	81.62
517.664	95.62
517.879	77.62
518.095	92.62
518.311	69.62
518.527	87.62
518.742	95.62
518.958	90.62
519.173	85.62
519.389	81.62
519.605	83.62
519.82	88.62
