Data from 15780_1_HRD10591_00030.txt Node
Date: Mon Jan 19 14:18:25 EST 2026
User: Yrep
Spectrometer: HR+D1059
Trigger mode: 1
Integration Time (sec): 1.000000E-1
Scans to average: 1
Electric dark correction enabled: true
Nonlinearity correction enabled: false
Boxcar width: 0
XAxis mode: Wavelengths
Number of Pixels in Spectrum: 2048
>>>>>Begin Spectral Data<<<<<
223.165	-16.5
223.4	-16.5
223.635	-16.5
223.869	-12.5
224.104	-22.5
224.338	-23.5
224.573	-7.5
224.808	-17.5
225.042	-11.5
225.277	-4.5
225.511	4.5
225.746	6.5
225.98	6.5
226.215	4.5
226.449	17.5
226.683	10.5
226.918	40.5
227.152	25.5
227.387	40.5
227.621	38.5
227.856	32.5
228.09	51.5
228.324	43.5
228.559	57.5
228.793	50.5
229.027	64.5
229.262	63.5
229.496	61.5
229.73	63.5
229.964	81.5
230.199	71.5
230.433	71.5
230.667	64.5
230.901	78.5
231.136	71.5
231.37	84.5
231.604	86.5
231.838	77.5
232.072	82.5
232.306	73.5
232.541	78.5
232.775	84.5
233.009	94.5
233.243	66.5
233.477	76.5
233.711	77.5
233.945	76.5
234.179	74.5
234.413	87.5
234.647	68.5
234.881	80.5
235.115	71.5
235.349	63.5
235.583	78.5
235.817	82.5
236.051	76.5
236.285	66.5
236.519	90.5
236.753	74.5
236.987	95.5
237.221	77.5
237.455	90.5
237.689	82.5
237.922	76.5
238.156	88.5
238.39	76.5
238.624	70.5
238.858	73.5
239.091	84.5
239.325	84.5
239.559	81.5
239.793	66.5
240.027	101.5
240.26	81.5
240.494	84.5
240.728	71.5
240.961	72.5
241.195	76.5
241.429	77.5
241.662	89.5
241.896	71.5
242.13	74.5
242.363	65.5
242.597	76.5
242.83	70.5
243.064	78.5
243.298	71.5
243.531	74.5
243.765	82.5
243.998	88.5
244.232	72.5
244.465	67.5
244.699	82.5
244.932	84.5
245.166	67.5
245.399	78.5
245.633	87.5
245.866	80.5
246.099	73.5
246.333	82.5
246.566	71.5
246.8	93.5
247.033	74.5
247.266	83.5
247.5	77.5
247.733	79.5
247.966	61.5
248.2	79.5
248.433	68.5
248.666	72.5
248.899	72.5
249.133	73.5
249.366	77.5
249.599	84.5
249.832	82.5
250.066	73.5
250.299	96.5
250.532	77.5
250.765	78.5
250.998	82.5
251.231	70.5
251.465	67.5
251.698	93.5
251.931	77.5
252.164	68.5
252.397	81.5
252.63	66.5
252.863	84.5
253.096	80.5
253.329	91.5
253.562	86.5
253.795	89.5
254.028	94.5
254.261	89.5
254.494	76.5
254.727	85.5
254.96	91.5
255.193	72.5
255.426	74.5
255.659	81.5
255.892	88.5
256.124	75.5
256.357	73.5
256.59	78.5
256.823	67.5
257.056	69.5
257.289	85.5
257.521	80.5
257.754	77.5
257.987	68.5
258.22	74.5
258.452	78.5
258.685	82.5
258.918	84.5
259.151	90.5
259.383	89.5
259.616	85.5
259.849	62.5
260.081	79.5
260.314	80.5
260.547	72.5
260.779	82.5
261.012	81.5
261.244	78.5
261.477	76.5
261.71	66.5
261.942	69.5
262.175	89.5
262.407	75.5
262.64	76.5
262.872	74.5
263.105	88.5
263.337	86.5
263.57	92.5
263.802	77.5
264.035	77.5
264.267	86.5
264.499	76.5
264.732	73.5
264.964	89.5
265.197	91.5
265.429	81.5
265.661	86.5
265.894	88.5
266.126	82.5
266.358	83.5
266.591	76.5
266.823	82.5
267.055	76.5
267.287	82.5
267.52	72.5
267.752	98.5
267.984	83.5
268.216	84.5
268.448	99.5
268.681	78.5
268.913	97.5
269.145	98.5
269.377	76.5
269.609	83.5
269.841	79.5
270.073	83.5
270.306	95.5
270.538	96.5
270.77	93.5
271.002	89.5
271.234	82.5
271.466	89.5
271.698	75.5
271.93	93.5
272.162	79.5
272.394	89.5
272.626	93.5
272.858	78.5
273.09	91.5
273.322	96.5
273.553	87.5
273.785	85.5
274.017	87.5
274.249	101.5
274.481	82.5
274.713	83.5
274.945	93.5
275.176	90.5
275.408	91.5
275.64	74.5
275.872	82.5
276.104	82.5
276.335	86.5
276.567	79.5
276.799	58.5
277.031	93.5
277.262	84.5
277.494	93.5
277.726	88.5
277.957	84.5
278.189	87.5
278.421	80.5
278.652	88.5
278.884	90.5
279.115	83.5
279.347	70.5
279.579	86.5
279.81	79.5
280.042	94.5
280.273	92.5
280.505	92.5
280.736	93.5
280.968	79.5
281.199	90.5
281.431	88.5
281.662	85.5
281.894	84.5
282.125	80.5
282.356	74.5
282.588	83.5
282.819	89.5
283.051	90.5
283.282	59.5
283.513	101.5
283.745	91.5
283.976	76.5
284.207	86.5
284.439	80.5
284.67	88.5
284.901	93.5
285.132	74.5
285.364	101.5
285.595	87.5
285.826	77.5
286.057	95.5
286.288	91.5
286.52	77.5
286.751	78.5
286.982	77.5
287.213	74.5
287.444	87.5
287.675	91.5
287.906	89.5
288.138	82.5
288.369	87.5
288.6	84.5
288.831	89.5
289.062	86.5
289.293	72.5
289.524	93.5
289.755	79.5
289.986	84.5
290.217	108.5
290.448	91.5
290.679	89.5
290.91	76.5
291.141	84.5
291.371	79.5
291.602	77.5
291.833	101.5
292.064	92.5
292.295	79.5
292.526	92.5
292.757	88.5
292.987	76.5
293.218	75.5
293.449	74.5
293.68	83.5
293.91	90.5
294.141	94.5
294.372	93.5
294.603	78.5
294.833	76.5
295.064	96.5
295.295	94.5
295.525	95.5
295.756	88.5
295.987	104.5
296.217	73.5
296.448	84.5
296.679	96.5
296.909	89.5
297.14	91.5
297.37	92.5
297.601	97.5
297.831	81.5
298.062	93.5
298.292	79.5
298.523	74.5
298.753	101.5
298.984	79.5
299.214	72.5
299.445	94.5
299.675	85.5
299.905	80.5
300.136	104.5
300.366	92.5
300.597	82.5
300.827	88.5
301.057	87.5
301.288	81.5
301.518	63.5
301.748	64.5
301.979	91.5
302.209	91.5
302.439	87.5
302.669	83.5
302.9	77.5
303.13	87.5
303.36	68.5
303.59	92.5
303.82	94.5
304.051	96.5
304.281	78.5
304.511	103.5
304.741	82.5
304.971	71.5
305.201	89.5
305.431	83.5
305.661	82.5
305.891	81.5
306.121	73.5
306.352	96.5
306.582	86.5
306.812	78.5
307.042	80.5
307.272	78.5
307.502	90.5
307.731	85.5
307.961	91.5
308.191	97.5
308.421	82.5
308.651	92.5
308.881	86.5
309.111	92.5
309.341	81.5
309.571	86.5
309.8	83.5
310.03	86.5
310.26	94.5
310.49	101.5
310.72	82.5
310.949	87.5
311.179	71.5
311.409	83.5
311.639	102.5
311.868	80.5
312.098	87.5
312.328	83.5
312.557	92.5
312.787	98.5
313.017	90.5
313.246	77.5
313.476	92.5
313.706	77.5
313.935	90.5
314.165	88.5
314.394	93.5
314.624	84.5
314.853	79.5
315.083	92.5
315.312	94.5
315.542	97.5
315.771	96.5
316.001	81.5
316.23	101.5
316.46	88.5
316.689	88.5
316.919	94.5
317.148	104.5
317.377	90.5
317.607	90.5
317.836	91.5
318.065	79.5
318.295	97.5
318.524	87.5
318.753	93.5
318.983	77.5
319.212	88.5
319.441	91.5
319.67	89.5
319.9	89.5
320.129	81.5
320.358	87.5
320.587	91.5
320.816	87.5
321.046	98.5
321.275	85.5
321.504	76.5
321.733	86.5
321.962	90.5
322.191	90.5
322.42	90.5
322.649	90.5
322.878	88.5
323.108	83.5
323.337	87.5
323.566	93.5
323.795	84.5
324.024	103.5
324.253	77.5
324.482	91.5
324.71	78.5
324.939	105.5
325.168	93.5
325.397	93.5
325.626	98.5
325.855	80.5
326.084	89.5
326.313	80.5
326.542	89.5
326.77	97.5
326.999	89.5
327.228	66.5
327.457	74.5
327.686	73.5
327.914	84.5
328.143	86.5
328.372	89.5
328.6	85.5
328.829	86.5
329.058	89.5
329.287	86.5
329.515	89.5
329.744	80.5
329.972	90.5
330.201	72.5
330.43	90.5
330.658	89.5
330.887	82.5
331.115	86.5
331.344	99.5
331.572	94.5
331.801	96.5
332.03	76.5
332.258	86.5
332.486	88.5
332.715	94.5
332.943	89.5
333.172	77.5
333.4	95.5
333.629	96.5
333.857	92.5
334.085	88.5
334.314	81.5
334.542	82.5
334.771	108.5
334.999	97.5
335.227	93.5
335.455	87.5
335.684	90.5
335.912	83.5
336.14	83.5
336.369	89.5
336.597	75.5
336.825	84.5
337.053	86.5
337.281	85.5
337.51	98.5
337.738	97.5
337.966	82.5
338.194	76.5
338.422	84.5
338.65	77.5
338.878	88.5
339.106	90.5
339.334	99.5
339.562	73.5
339.79	73.5
340.018	85.5
340.246	84.5
340.474	88.5
340.702	82.5
340.93	84.5
341.158	83.5
341.386	85.5
341.614	86.5
341.842	80.5
342.07	92.5
342.298	94.5
342.526	103.5
342.754	76.5
342.981	85.5
343.209	86.5
343.437	100.5
343.665	89.5
343.893	97.5
344.12	93.5
344.348	81.5
344.576	87.5
344.804	90.5
345.031	88.5
345.259	79.5
345.487	77.5
345.714	97.5
345.942	104.5
346.17	87.5
346.397	81.5
346.625	78.5
346.853	77.5
347.08	87.5
347.308	81.5
347.535	91.5
347.763	74.5
347.99	83.5
348.218	85.5
348.445	85.5
348.673	81.5
348.9	93.5
349.128	85.5
349.355	84.5
349.583	84.5
349.81	93.5
350.037	76.5
350.265	84.5
350.492	97.5
350.72	82.5
350.947	85.5
351.174	91.5
351.402	90.5
351.629	68.5
351.856	82.5
352.083	82.5
352.311	75.5
352.538	82.5
352.765	96.5
352.992	92.5
353.22	74.5
353.447	77.5
353.674	72.5
353.901	98.5
354.128	107.5
354.355	93.5
354.583	75.5
354.81	77.5
355.037	93.5
355.264	90.5
355.491	82.5
355.718	81.5
355.945	85.5
356.172	77.5
356.399	83.5
356.626	82.5
356.853	100.5
357.08	106.5
357.307	87.5
357.534	76.5
357.761	86.5
357.988	96.5
358.215	98.5
358.441	82.5
358.668	94.5
358.895	85.5
359.122	76.5
359.349	95.5
359.576	82.5
359.802	84.5
360.029	86.5
360.256	84.5
360.483	104.5
360.709	73.5
360.936	102.5
361.163	94.5
361.39	91.5
361.616	92.5
361.843	92.5
362.07	86.5
362.296	89.5
362.523	89.5
362.749	89.5
362.976	96.5
363.203	102.5
363.429	104.5
363.656	88.5
363.882	90.5
364.109	94.5
364.335	81.5
364.562	99.5
364.788	84.5
365.015	84.5
365.241	95.5
365.468	99.5
365.694	76.5
365.92	84.5
366.147	89.5
366.373	82.5
366.599	84.5
366.826	81.5
367.052	89.5
367.278	81.5
367.505	82.5
367.731	84.5
367.957	94.5
368.184	93.5
368.41	69.5
368.636	82.5
368.862	84.5
369.089	82.5
369.315	67.5
369.541	71.5
369.767	87.5
369.993	86.5
370.219	79.5
370.445	85.5
370.672	98.5
370.898	84.5
371.124	80.5
371.35	85.5
371.576	91.5
371.802	89.5
372.028	90.5
372.254	89.5
372.48	87.5
372.706	84.5
372.932	77.5
373.158	91.5
373.384	92.5
373.61	109.5
373.835	118.5
374.061	90.5
374.287	104.5
374.513	93.5
374.739	108.5
374.965	86.5
375.191	99.5
375.416	91.5
375.642	95.5
375.868	97.5
376.094	105.5
376.319	90.5
376.545	83.5
376.771	75.5
376.997	74.5
377.222	85.5
377.448	98.5
377.674	94.5
377.899	90.5
378.125	89.5
378.35	86.5
378.576	98.5
378.802	104.5
379.027	83.5
379.253	94.5
379.478	87.5
379.704	91.5
379.929	86.5
380.155	86.5
380.38	87.5
380.606	78.5
380.831	90.5
381.057	102.5
381.282	96.5
381.507	90.5
381.733	78.5
381.958	76.5
382.184	107.5
382.409	88.5
382.634	100.5
382.86	98.5
383.085	86.5
383.31	93.5
383.535	93.5
383.761	93.5
383.986	91.5
384.211	90.5
384.436	90.5
384.662	81.5
384.887	92.5
385.112	90.5
385.337	84.5
385.562	84.5
385.787	99.5
386.013	98.5
386.238	91.5
386.463	85.5
386.688	110.5
386.913	100.5
387.138	74.5
387.363	98.5
387.588	94.5
387.813	102.5
388.038	105.5
388.263	81.5
388.488	86.5
388.713	98.5
388.938	90.5
389.163	102.5
389.387	77.5
389.612	81.5
389.837	90.5
390.062	75.5
390.287	77.5
390.512	83.5
390.736	86.5
390.961	82.5
391.186	70.5
391.411	83.5
391.636	85.5
391.86	97.5
392.085	88.5
392.31	80.5
392.534	89.5
392.759	104.5
392.984	140.5
393.208	240.5
393.433	354.5
393.658	270.5
393.882	136.5
394.107	102.5
394.331	101.5
394.556	123.5
394.78	101.5
395.005	76.5
395.229	86.5
395.454	74.5
395.678	102.5
395.903	107.5
396.127	133.5
396.352	140.5
396.576	157.5
396.801	252.5
397.025	292.5
397.249	146.5
397.474	105.5
397.698	102.5
397.922	78.5
398.147	82.5
398.371	83.5
398.595	77.5
398.82	96.5
399.044	84.5
399.268	96.5
399.492	98.5
399.717	102.5
399.941	97.5
400.165	84.5
400.389	74.5
400.613	82.5
400.837	79.5
401.062	79.5
401.286	76.5
401.51	80.5
401.734	88.5
401.958	83.5
402.182	89.5
402.406	80.5
402.63	95.5
402.854	88.5
403.078	83.5
403.302	79.5
403.526	97.5
403.75	86.5
403.974	83.5
404.198	99.5
404.422	107.5
404.645	89.5
404.869	94.5
405.093	89.5
405.317	92.5
405.541	93.5
405.765	81.5
405.988	95.5
406.212	89.5
406.436	88.5
406.66	94.5
406.883	82.5
407.107	72.5
407.331	84.5
407.555	96.5
407.778	108.5
408.002	112.5
408.226	85.5
408.449	64.5
408.673	88.5
408.896	73.5
409.12	92.5
409.344	84.5
409.567	87.5
409.791	80.5
410.014	91.5
410.238	78.5
410.461	88.5
410.685	96.5
410.908	85.5
411.132	82.5
411.355	87.5
411.578	100.5
411.802	88.5
412.025	90.5
412.249	79.5
412.472	70.5
412.695	89.5
412.919	94.5
413.142	91.5
413.365	79.5
413.589	87.5
413.812	86.5
414.035	76.5
414.258	83.5
414.482	77.5
414.705	95.5
414.928	69.5
415.151	75.5
415.374	82.5
415.597	66.5
415.821	83.5
416.044	89.5
416.267	81.5
416.49	74.5
416.713	81.5
416.936	95.5
417.159	82.5
417.382	81.5
417.605	88.5
417.828	78.5
418.051	82.5
418.274	82.5
418.497	78.5
418.72	76.5
418.943	92.5
419.166	96.5
419.389	89.5
419.611	76.5
419.834	71.5
420.057	88.5
420.28	97.5
420.503	80.5
420.726	89.5
420.948	76.5
421.171	76.5
421.394	106.5
421.617	99.5
421.839	98.5
422.062	103.5
422.285	131.5
422.507	176.5
422.73	296.5
422.953	260.5
423.175	141.5
423.398	105.5
423.621	89.5
423.843	98.5
424.066	76.5
424.288	86.5
424.511	83.5
424.733	84.5
424.956	83.5
425.178	81.5
425.401	89.5
425.623	62.5
425.846	76.5
426.068	91.5
426.291	88.5
426.513	80.5
426.735	84.5
426.958	87.5
427.18	91.5
427.402	101.5
427.625	84.5
427.847	82.5
428.069	90.5
428.292	88.5
428.514	105.5
428.736	120.5
428.958	109.5
429.181	100.5
429.403	92.5
429.625	84.5
429.847	115.5
430.069	131.5
430.292	137.5
430.514	128.5
430.736	103.5
430.958	132.5
431.18	93.5
431.402	74.5
431.624	99.5
431.846	103.5
432.068	130.5
432.29	92.5
432.512	92.5
432.734	91.5
432.956	82.5
433.178	99.5
433.4	85.5
433.622	84.5
433.844	79.5
434.066	89.5
434.287	87.5
434.509	81.5
434.731	83.5
434.953	88.5
435.175	83.5
435.397	90.5
435.618	85.5
435.84	97.5
436.062	84.5
436.284	82.5
436.505	74.5
436.727	92.5
436.949	83.5
437.17	73.5
437.392	92.5
437.614	92.5
437.835	86.5
438.057	84.5
438.278	91.5
438.5	68.5
438.721	86.5
438.943	85.5
439.165	80.5
439.386	88.5
439.608	80.5
439.829	83.5
440.05	90.5
440.272	60.5
440.493	89.5
440.715	88.5
440.936	77.5
441.158	93.5
441.379	77.5
441.6	81.5
441.822	93.5
442.043	99.5
442.264	94.5
442.486	109.5
442.707	106.5
442.928	100.5
443.149	94.5
443.371	116.5
443.592	163.5
443.813	166.5
444.034	96.5
444.255	71.5
444.476	85.5
444.698	80.5
444.919	96.5
445.14	200.5
445.361	155.5
445.582	182.5
445.803	160.5
446.024	93.5
446.245	102.5
446.466	88.5
446.687	80.5
446.908	82.5
447.129	100.5
447.35	72.5
447.571	84.5
447.792	90.5
448.013	82.5
448.234	88.5
448.455	100.5
448.675	86.5
448.896	92.5
449.117	72.5
449.338	73.5
449.559	75.5
449.779	93.5
450	75.5
450.221	79.5
450.442	70.5
450.662	80.5
450.883	96.5
451.104	94.5
451.324	83.5
451.545	96.5
451.766	97.5
451.986	66.5
452.207	77.5
452.428	87.5
452.648	92.5
452.869	87.5
453.089	82.5
453.31	81.5
453.53	79.5
453.751	85.5
453.971	92.5
454.192	75.5
454.412	89.5
454.633	82.5
454.853	82.5
455.073	67.5
455.294	92.5
455.514	82.5
455.734	78.5
455.955	89.5
456.175	86.5
456.395	92.5
456.616	94.5
456.836	88.5
457.056	81.5
457.276	82.5
457.497	84.5
457.717	92.5
457.937	102.5
458.157	94.5
458.377	90.5
458.598	82.5
458.818	100.5
459.038	84.5
459.258	94.5
459.478	93.5
459.698	65.5
459.918	82.5
460.138	83.5
460.358	93.5
460.578	96.5
460.798	92.5
461.018	96.5
461.238	80.5
461.458	98.5
461.678	73.5
461.898	82.5
462.118	84.5
462.338	76.5
462.558	69.5
462.777	76.5
462.997	74.5
463.217	82.5
463.437	83.5
463.657	83.5
463.876	75.5
464.096	69.5
464.316	88.5
464.536	86.5
464.755	74.5
464.975	78.5
465.195	91.5
465.414	87.5
465.634	92.5
465.854	75.5
466.073	82.5
466.293	94.5
466.512	76.5
466.732	90.5
466.951	76.5
467.171	78.5
467.391	63.5
467.61	77.5
467.829	72.5
468.049	81.5
468.268	76.5
468.488	76.5
468.707	94.5
468.927	78.5
469.146	84.5
469.365	73.5
469.585	76.5
469.804	87.5
470.023	77.5
470.243	78.5
470.462	82.5
470.681	78.5
470.901	84.5
471.12	71.5
471.339	82.5
471.558	80.5
471.777	79.5
471.997	94.5
472.216	78.5
472.435	85.5
472.654	89.5
472.873	87.5
473.092	75.5
473.311	77.5
473.53	93.5
473.749	86.5
473.968	87.5
474.187	78.5
474.406	86.5
474.625	87.5
474.844	96.5
475.063	82.5
475.282	88.5
475.501	77.5
475.72	78.5
475.939	69.5
476.158	73.5
476.377	86.5
476.596	90.5
476.814	86.5
477.033	87.5
477.252	75.5
477.471	97.5
477.69	92.5
477.908	85.5
478.127	77.5
478.346	78.5
478.564	78.5
478.783	73.5
479.002	81.5
479.22	92.5
479.439	95.5
479.658	76.5
479.876	83.5
480.095	81.5
480.313	98.5
480.532	76.5
480.751	88.5
480.969	88.5
481.188	85.5
481.406	83.5
481.624	73.5
481.843	72.5
482.061	72.5
482.28	86.5
482.498	88.5
482.717	84.5
482.935	83.5
483.153	89.5
483.372	82.5
483.59	87.5
483.808	88.5
484.027	89.5
484.245	91.5
484.463	90.5
484.681	100.5
484.9	74.5
485.118	85.5
485.336	75.5
485.554	90.5
485.772	74.5
485.99	93.5
486.209	71.5
486.427	76.5
486.645	86.5
486.863	87.5
487.081	86.5
487.299	98.5
487.517	86.5
487.735	100.5
487.953	112.5
488.171	101.5
488.389	84.5
488.607	87.5
488.825	97.5
489.043	82.5
489.261	90.5
489.479	86.5
489.696	106.5
489.914	74.5
490.132	103.5
490.35	75.5
490.568	77.5
490.786	87.5
491.003	74.5
491.221	76.5
491.439	85.5
491.657	86.5
491.874	90.5
492.092	92.5
492.31	89.5
492.527	87.5
492.745	96.5
492.963	89.5
493.18	77.5
493.398	80.5
493.615	98.5
493.833	83.5
494.05	82.5
494.268	88.5
494.485	83.5
494.703	89.5
494.92	94.5
495.138	91.5
495.355	87.5
495.573	88.5
495.79	73.5
496.008	78.5
496.225	89.5
496.442	81.5
496.66	89.5
496.877	81.5
497.094	91.5
497.312	72.5
497.529	77.5
497.746	92.5
497.963	85.5
498.181	82.5
498.398	99.5
498.615	97.5
498.832	70.5
499.049	89.5
499.267	86.5
499.484	88.5
499.701	77.5
499.918	94.5
500.135	75.5
500.352	61.5
500.569	97.5
500.786	80.5
501.003	79.5
501.22	100.5
501.437	80.5
501.654	90.5
501.871	82.5
502.088	95.5
502.305	89.5
502.522	98.5
502.739	103.5
502.956	86.5
503.172	84.5
503.389	83.5
503.606	67.5
503.823	97.5
504.04	95.5
504.256	117.5
504.473	87.5
504.69	81.5
504.907	90.5
505.123	100.5
505.34	89.5
505.557	75.5
505.773	91.5
505.99	90.5
506.207	76.5
506.423	76.5
506.64	82.5
506.856	90.5
507.073	86.5
507.289	79.5
507.506	79.5
507.722	87.5
507.939	86.5
508.155	74.5
508.372	76.5
508.588	89.5
508.805	79.5
509.021	88.5
509.238	93.5
509.454	91.5
509.67	93.5
509.887	85.5
510.103	83.5
510.319	82.5
510.536	93.5
510.752	83.5
510.968	91.5
511.184	85.5
511.401	92.5
511.617	78.5
511.833	86.5
512.049	97.5
512.265	77.5
512.481	89.5
512.698	74.5
512.914	84.5
513.13	76.5
513.346	90.5
513.562	98.5
513.778	87.5
513.994	84.5
514.21	82.5
514.426	76.5
514.642	77.5
514.858	89.5
515.074	83.5
515.29	76.5
515.506	90.5
515.721	78.5
515.937	81.5
516.153	85.5
516.369	76.5
516.585	88.5
516.801	89.5
517.016	86.5
517.232	87.5
517.448	89.5
517.664	78.5
517.879	94.5
518.095	91.5
518.311	81.5
518.527	100.5
518.742	98.5
518.958	97.5
519.173	101.5
519.389	91.5
519.605	70.5
519.82	66.5
520.036	91.5
520.251	104.5
520.467	84.5
520.682	85.5
520.898	90.5
521.113	82.5
521.329	100.5
521.544	85.5
521.76	78.5
521.975	100.5
522.19	90.5
522.406	83.5
522.621	83.5
522.836	85.5
523.052	82.5
523.267	98.5
523.482	80.5
523.698	92.5
523.913	91.5
524.128	78.5
524.343	75.5
524.559	84.5
524.774	85.5
524.989	107.5
525.204	85.5
525.419	91.5
525.634	96.5
525.849	96.5
526.064	85.5
526.28	123.5
526.495	151.5
526.71	182.5
526.925	143.5
527.14	188.5
527.355	148.5
527.57	101.5
527.785	100.5
527.999	84.5
528.214	81.5
528.429	76.5
528.644	86.5
528.859	84.5
529.074	79.5
529.289	81.5
529.503	86.5
529.718	84.5
529.933	70.5
530.148	84.5
530.363	84.5
530.577	78.5
530.792	82.5
531.007	82.5
531.221	85.5
531.436	85.5
531.651	95.5
531.865	77.5
532.08	87.5
532.295	98.5
532.509	82.5
532.724	89.5
532.938	103.5
533.153	82.5
533.367	97.5
533.582	80.5
533.796	92.5
534.011	89.5
534.225	77.5
534.44	78.5
534.654	94.5
534.868	81.5
535.083	104.5
535.297	112.5
535.511	93.5
535.726	86.5
535.94	80.5
536.154	101.5
536.369	86.5
536.583	93.5
536.797	85.5
537.011	86.5
537.225	91.5
537.44	96.5
537.654	94.5
537.868	98.5
538.082	87.5
538.296	82.5
538.51	89.5
538.724	88.5
