Data from 15780_1_HRD10591_00008.txt Node
Date: Mon Jan 19 14:18:14 EST 2026
User: Yrep
Spectrometer: HR+D1059
Trigger mode: 1
Integration Time (sec): 1.000000E-1
Scans to average: 1
Electric dark correction enabled: true
Nonlinearity correction enabled: false
Boxcar width: 0
XAxis mode: Wavelengths
Number of Pixels in Spectrum: 2048
>>>>>Begin Spectral Data<<<<<
223.165	-9.38
223.4	-9.38
223.635	-9.38
223.869	-25.38
224.104	-26.38
224.338	-10.38
224.573	-5.38
224.808	6.62
225.042	-20.38
225.277	-15.38
225.511	0.62
225.746	0.62
225.98	5.62
226.215	18.62
226.449	21.62
226.683	9.62
226.918	22.62
227.152	26.62
227.387	19.62
227.621	34.62
227.856	38.62
228.09	46.62
228.324	39.62
228.559	31.62
228.793	39.62
229.027	60.62
229.262	70.62
229.496	53.62
229.73	56.62
229.964	79.62
230.199	65.62
230.433	72.62
230.667	75.62
230.901	74.62
231.136	79.62
231.37	75.62
231.604	79.62
231.838	71.62
232.072	75.62
232.306	74.62
232.541	75.62
232.775	61.62
233.009	79.62
233.243	77.62
233.477	90.62
233.711	73.62
233.945	79.62
234.179	68.62
234.413	69.62
234.647	76.62
234.881	70.62
235.115	81.62
235.349	73.62
235.583	69.62
235.817	68.62
236.051	73.62
236.285	87.62
236.519	79.62
236.753	80.62
236.987	72.62
237.221	75.62
237.455	83.62
237.689	81.62
237.922	65.62
238.156	65.62
238.39	77.62
238.624	77.62
238.858	72.62
239.091	79.62
239.325	79.62
239.559	64.62
239.793	76.62
240.027	85.62
240.26	82.62
240.494	72.62
240.728	63.62
240.961	73.62
241.195	69.62
241.429	78.62
241.662	65.62
241.896	85.62
242.13	81.62
242.363	78.62
242.597	70.62
242.83	84.62
243.064	76.62
243.298	79.62
243.531	82.62
243.765	74.62
243.998	68.62
244.232	80.62
244.465	69.62
244.699	75.62
244.932	72.62
245.166	80.62
245.399	60.62
245.633	81.62
245.866	62.62
246.099	82.62
246.333	65.62
246.566	75.62
246.8	78.62
247.033	83.62
247.266	73.62
247.5	81.62
247.733	81.62
247.966	58.62
248.2	66.62
248.433	71.62
248.666	57.62
248.899	81.62
249.133	69.62
249.366	88.62
249.599	67.62
249.832	67.62
250.066	69.62
250.299	81.62
250.532	91.62
250.765	82.62
250.998	85.62
251.231	84.62
251.465	74.62
251.698	65.62
251.931	85.62
252.164	66.62
252.397	86.62
252.63	73.62
252.863	90.62
253.096	72.62
253.329	89.62
253.562	74.62
253.795	87.62
254.028	74.62
254.261	83.62
254.494	75.62
254.727	82.62
254.96	83.62
255.193	90.62
255.426	73.62
255.659	73.62
255.892	86.62
256.124	74.62
256.357	71.62
256.59	81.62
256.823	82.62
257.056	98.62
257.289	73.62
257.521	74.62
257.754	66.62
257.987	100.62
258.22	65.62
258.452	83.62
258.685	72.62
258.918	74.62
259.151	80.62
259.383	88.62
259.616	78.62
259.849	59.62
260.081	89.62
260.314	66.62
260.547	68.62
260.779	81.62
261.012	75.62
261.244	85.62
261.477	84.62
261.71	67.62
261.942	67.62
262.175	73.62
262.407	84.62
262.64	69.62
262.872	79.62
263.105	87.62
263.337	82.62
263.57	73.62
263.802	73.62
264.035	68.62
264.267	76.62
264.499	89.62
264.732	71.62
264.964	86.62
265.197	73.62
265.429	79.62
265.661	90.62
265.894	66.62
266.126	84.62
266.358	76.62
266.591	78.62
266.823	76.62
267.055	79.62
267.287	90.62
267.52	69.62
267.752	79.62
267.984	77.62
268.216	96.62
268.448	73.62
268.681	95.62
268.913	89.62
269.145	89.62
269.377	93.62
269.609	81.62
269.841	84.62
270.073	79.62
270.306	84.62
270.538	85.62
270.77	79.62
271.002	88.62
271.234	88.62
271.466	85.62
271.698	100.62
271.93	85.62
272.162	89.62
272.394	83.62
272.626	85.62
272.858	76.62
273.09	74.62
273.322	81.62
273.553	81.62
273.785	84.62
274.017	92.62
274.249	77.62
274.481	78.62
274.713	88.62
274.945	71.62
275.176	74.62
275.408	86.62
275.64	72.62
275.872	74.62
276.104	84.62
276.335	93.62
276.567	90.62
276.799	68.62
277.031	80.62
277.262	98.62
277.494	83.62
277.726	74.62
277.957	69.62
278.189	78.62
278.421	87.62
278.652	88.62
278.884	91.62
279.115	71.62
279.347	89.62
279.579	93.62
279.81	90.62
280.042	78.62
280.273	84.62
280.505	71.62
280.736	74.62
280.968	69.62
281.199	80.62
281.431	87.62
281.662	78.62
281.894	84.62
282.125	83.62
282.356	76.62
282.588	75.62
282.819	62.62
283.051	89.62
283.282	80.62
283.513	94.62
283.745	80.62
283.976	77.62
284.207	81.62
284.439	86.62
284.67	82.62
284.901	94.62
285.132	80.62
285.364	81.62
285.595	72.62
285.826	81.62
286.057	82.62
286.288	79.62
286.52	84.62
286.751	82.62
286.982	77.62
287.213	70.62
287.444	88.62
287.675	93.62
287.906	87.62
288.138	79.62
288.369	85.62
288.6	75.62
288.831	70.62
289.062	75.62
289.293	89.62
289.524	78.62
289.755	99.62
289.986	84.62
290.217	77.62
290.448	71.62
290.679	91.62
290.91	73.62
291.141	79.62
291.371	97.62
291.602	83.62
291.833	82.62
292.064	84.62
292.295	52.62
292.526	80.62
292.757	99.62
292.987	75.62
293.218	85.62
293.449	83.62
293.68	86.62
293.91	99.62
294.141	85.62
294.372	71.62
294.603	89.62
294.833	78.62
295.064	74.62
295.295	66.62
295.525	68.62
295.756	86.62
295.987	81.62
296.217	89.62
296.448	83.62
296.679	77.62
296.909	85.62
297.14	83.62
297.37	85.62
297.601	79.62
297.831	74.62
298.062	77.62
298.292	85.62
298.523	73.62
298.753	85.62
298.984	92.62
299.214	82.62
299.445	89.62
299.675	85.62
299.905	88.62
300.136	76.62
300.366	78.62
300.597	86.62
300.827	83.62
301.057	84.62
301.288	89.62
301.518	93.62
301.748	79.62
301.979	93.62
302.209	98.62
302.439	97.62
302.669	68.62
302.9	86.62
303.13	85.62
303.36	78.62
303.59	75.62
303.82	83.62
304.051	86.62
304.281	86.62
304.511	92.62
304.741	77.62
304.971	78.62
305.201	80.62
305.431	85.62
305.661	83.62
305.891	83.62
306.121	73.62
306.352	91.62
306.582	77.62
306.812	72.62
307.042	82.62
307.272	84.62
307.502	74.62
307.731	79.62
307.961	78.62
308.191	85.62
308.421	85.62
308.651	78.62
308.881	69.62
309.111	86.62
309.341	91.62
309.571	90.62
309.8	86.62
310.03	86.62
310.26	80.62
310.49	89.62
310.72	83.62
310.949	83.62
311.179	83.62
311.409	73.62
311.639	86.62
311.868	102.62
312.098	69.62
312.328	81.62
312.557	88.62
312.787	83.62
313.017	93.62
313.246	79.62
313.476	81.62
313.706	85.62
313.935	62.62
314.165	74.62
314.394	87.62
314.624	78.62
314.853	81.62
315.083	80.62
315.312	81.62
315.542	75.62
315.771	96.62
316.001	81.62
316.23	86.62
316.46	96.62
316.689	77.62
316.919	86.62
317.148	81.62
317.377	93.62
317.607	91.62
317.836	93.62
318.065	85.62
318.295	95.62
318.524	76.62
318.753	87.62
318.983	83.62
319.212	85.62
319.441	89.62
319.67	72.62
319.9	86.62
320.129	78.62
320.358	76.62
320.587	78.62
320.816	86.62
321.046	73.62
321.275	88.62
321.504	91.62
321.733	87.62
321.962	80.62
322.191	92.62
322.42	84.62
322.649	76.62
322.878	83.62
323.108	69.62
323.337	95.62
323.566	81.62
323.795	65.62
324.024	96.62
324.253	85.62
324.482	89.62
324.71	99.62
324.939	81.62
325.168	82.62
325.397	82.62
325.626	87.62
325.855	59.62
326.084	87.62
326.313	83.62
326.542	72.62
326.77	74.62
326.999	83.62
327.228	87.62
327.457	93.62
327.686	74.62
327.914	91.62
328.143	94.62
328.372	88.62
328.6	97.62
328.829	82.62
329.058	64.62
329.287	74.62
329.515	76.62
329.744	83.62
329.972	84.62
330.201	85.62
330.43	86.62
330.658	84.62
330.887	96.62
331.115	72.62
331.344	86.62
331.572	76.62
331.801	69.62
332.03	89.62
332.258	88.62
332.486	78.62
332.715	90.62
332.943	97.62
333.172	75.62
333.4	69.62
333.629	78.62
333.857	99.62
334.085	81.62
334.314	87.62
334.542	96.62
334.771	74.62
334.999	75.62
335.227	100.62
335.455	86.62
335.684	72.62
335.912	76.62
336.14	87.62
336.369	93.62
336.597	83.62
336.825	85.62
337.053	85.62
337.281	62.62
337.51	80.62
337.738	87.62
337.966	84.62
338.194	69.62
338.422	88.62
338.65	82.62
338.878	89.62
339.106	84.62
339.334	95.62
339.562	81.62
339.79	94.62
340.018	86.62
340.246	90.62
340.474	79.62
340.702	80.62
340.93	83.62
341.158	77.62
341.386	85.62
341.614	67.62
341.842	79.62
342.07	93.62
342.298	71.62
342.526	71.62
342.754	78.62
342.981	84.62
343.209	83.62
343.437	96.62
343.665	90.62
343.893	100.62
344.12	97.62
344.348	93.62
344.576	84.62
344.804	73.62
345.031	88.62
345.259	75.62
345.487	81.62
345.714	86.62
345.942	91.62
346.17	88.62
346.397	79.62
346.625	99.62
346.853	86.62
347.08	89.62
347.308	90.62
347.535	76.62
347.763	83.62
347.99	82.62
348.218	88.62
348.445	86.62
348.673	95.62
348.9	76.62
349.128	89.62
349.355	88.62
349.583	83.62
349.81	89.62
350.037	80.62
350.265	82.62
350.492	78.62
350.72	85.62
350.947	69.62
351.174	81.62
351.402	94.62
351.629	81.62
351.856	85.62
352.083	79.62
352.311	90.62
352.538	65.62
352.765	88.62
352.992	98.62
353.22	85.62
353.447	72.62
353.674	71.62
353.901	82.62
354.128	100.62
354.355	88.62
354.583	78.62
354.81	78.62
355.037	90.62
355.264	78.62
355.491	81.62
355.718	79.62
355.945	87.62
356.172	73.62
356.399	78.62
356.626	96.62
356.853	79.62
357.08	75.62
357.307	97.62
357.534	90.62
357.761	98.62
357.988	89.62
358.215	109.62
358.441	93.62
358.668	83.62
358.895	79.62
359.122	80.62
359.349	73.62
359.576	85.62
359.802	83.62
360.029	79.62
360.256	86.62
360.483	86.62
360.709	91.62
360.936	91.62
361.163	88.62
361.39	93.62
361.616	88.62
361.843	74.62
362.07	98.62
362.296	88.62
362.523	94.62
362.749	109.62
362.976	96.62
363.203	98.62
363.429	93.62
363.656	80.62
363.882	81.62
364.109	94.62
364.335	115.62
364.562	109.62
364.788	102.62
365.015	82.62
365.241	85.62
365.468	91.62
365.694	67.62
365.92	73.62
366.147	76.62
366.373	82.62
366.599	69.62
366.826	86.62
367.052	78.62
367.278	75.62
367.505	71.62
367.731	85.62
367.957	80.62
368.184	105.62
368.41	86.62
368.636	85.62
368.862	76.62
369.089	89.62
369.315	90.62
369.541	79.62
369.767	72.62
369.993	83.62
370.219	76.62
370.445	87.62
370.672	83.62
370.898	84.62
371.124	75.62
371.35	79.62
371.576	88.62
371.802	95.62
372.028	75.62
372.254	83.62
372.48	78.62
372.706	73.62
372.932	92.62
373.158	76.62
373.384	104.62
373.61	97.62
373.835	99.62
374.061	90.62
374.287	83.62
374.513	86.62
374.739	105.62
374.965	89.62
375.191	96.62
375.416	95.62
375.642	87.62
375.868	90.62
376.094	81.62
376.319	95.62
376.545	97.62
376.771	94.62
376.997	79.62
377.222	86.62
377.448	83.62
377.674	75.62
377.899	59.62
378.125	77.62
378.35	79.62
378.576	71.62
378.802	87.62
379.027	90.62
379.253	81.62
379.478	76.62
379.704	87.62
379.929	96.62
380.155	76.62
380.38	88.62
380.606	95.62
380.831	77.62
381.057	87.62
381.282	94.62
381.507	86.62
381.733	97.62
381.958	89.62
382.184	86.62
382.409	94.62
382.634	102.62
382.86	105.62
383.085	81.62
383.31	98.62
383.535	110.62
383.761	97.62
383.986	101.62
384.211	89.62
384.436	82.62
384.662	79.62
384.887	96.62
385.112	93.62
385.337	78.62
385.562	111.62
385.787	91.62
386.013	105.62
386.238	95.62
386.463	89.62
386.688	101.62
386.913	88.62
387.138	94.62
387.363	83.62
387.588	98.62
387.813	101.62
388.038	101.62
388.263	101.62
388.488	102.62
388.713	96.62
388.938	74.62
389.163	82.62
389.387	80.62
389.612	81.62
389.837	84.62
390.062	88.62
390.287	92.62
390.512	84.62
390.736	93.62
390.961	79.62
391.186	80.62
391.411	72.62
391.636	80.62
391.86	85.62
392.085	91.62
392.31	98.62
392.534	88.62
392.759	105.62
392.984	115.62
393.208	209.62
393.433	306.62
393.658	231.62
393.882	115.62
394.107	111.62
394.331	109.62
394.556	114.62
394.78	89.62
395.005	91.62
395.229	86.62
395.454	84.62
395.678	96.62
395.903	115.62
396.127	115.62
396.352	142.62
396.576	135.62
396.801	216.62
397.025	244.62
397.249	137.62
397.474	126.62
397.698	91.62
397.922	85.62
398.147	70.62
398.371	80.62
398.595	85.62
398.82	89.62
399.044	91.62
399.268	88.62
399.492	85.62
399.717	87.62
399.941	71.62
400.165	90.62
400.389	83.62
400.613	87.62
400.837	75.62
401.062	83.62
401.286	75.62
401.51	94.62
401.734	83.62
401.958	79.62
402.182	98.62
402.406	92.62
402.63	90.62
402.854	75.62
403.078	90.62
403.302	73.62
403.526	95.62
403.75	74.62
403.974	81.62
404.198	75.62
404.422	82.62
404.645	75.62
404.869	87.62
405.093	83.62
405.317	74.62
405.541	82.62
405.765	99.62
405.988	77.62
406.212	79.62
406.436	77.62
406.66	94.62
406.883	76.62
407.107	86.62
407.331	81.62
407.555	85.62
407.778	100.62
408.002	95.62
408.226	95.62
408.449	105.62
408.673	77.62
408.896	85.62
409.12	81.62
409.344	81.62
409.567	83.62
409.791	82.62
410.014	76.62
410.238	87.62
410.461	82.62
410.685	86.62
410.908	80.62
411.132	86.62
411.355	81.62
411.578	85.62
411.802	99.62
412.025	87.62
412.249	77.62
412.472	86.62
412.695	86.62
412.919	87.62
413.142	78.62
413.365	86.62
413.589	85.62
413.812	89.62
414.035	82.62
414.258	98.62
414.482	74.62
414.705	87.62
414.928	79.62
415.151	85.62
415.374	104.62
415.597	72.62
415.821	89.62
416.044	91.62
416.267	86.62
416.49	81.62
416.713	82.62
416.936	72.62
417.159	87.62
417.382	78.62
417.605	85.62
417.828	85.62
418.051	91.62
418.274	82.62
418.497	74.62
418.72	68.62
418.943	91.62
419.166	73.62
419.389	67.62
419.611	71.62
419.834	88.62
420.057	86.62
420.28	76.62
420.503	85.62
420.726	82.62
420.948	83.62
421.171	79.62
421.394	97.62
421.617	117.62
421.839	123.62
422.062	111.62
422.285	131.62
422.507	254.62
422.73	360.62
422.953	311.62
423.175	174.62
423.398	109.62
423.621	112.62
423.843	89.62
424.066	99.62
424.288	86.62
424.511	83.62
424.733	82.62
424.956	74.62
425.178	81.62
425.401	84.62
425.623	81.62
425.846	72.62
426.068	98.62
426.291	87.62
426.513	82.62
426.735	101.62
426.958	96.62
427.18	85.62
427.402	86.62
427.625	89.62
427.847	75.62
428.069	96.62
428.292	116.62
428.514	119.62
428.736	104.62
428.958	103.62
429.181	102.62
429.403	94.62
429.625	85.62
429.847	127.62
430.069	122.62
430.292	153.62
430.514	148.62
430.736	122.62
430.958	125.62
431.18	74.62
431.402	81.62
431.624	88.62
431.846	112.62
432.068	114.62
432.29	90.62
432.512	99.62
432.734	85.62
432.956	93.62
433.178	90.62
433.4	73.62
433.622	99.62
433.844	82.62
434.066	89.62
434.287	78.62
434.509	90.62
434.731	82.62
434.953	81.62
435.175	81.62
435.397	92.62
435.618	84.62
435.84	89.62
436.062	87.62
436.284	81.62
436.505	75.62
436.727	81.62
436.949	81.62
437.17	91.62
437.392	81.62
437.614	85.62
437.835	73.62
438.057	68.62
438.278	103.62
438.5	89.62
438.721	77.62
438.943	73.62
439.165	96.62
439.386	74.62
439.608	87.62
439.829	75.62
440.05	85.62
440.272	88.62
440.493	72.62
440.715	92.62
440.936	87.62
441.158	90.62
441.379	84.62
441.6	73.62
441.822	89.62
442.043	89.62
442.264	78.62
442.486	114.62
442.707	134.62
442.928	110.62
443.149	91.62
443.371	128.62
443.592	180.62
443.813	189.62
444.034	100.62
444.255	78.62
444.476	69.62
444.698	96.62
444.919	91.62
445.14	185.62
445.361	154.62
445.582	221.62
445.803	213.62
446.024	115.62
446.245	65.62
446.466	78.62
446.687	80.62
446.908	93.62
447.129	90.62
447.35	84.62
447.571	74.62
447.792	85.62
448.013	87.62
448.234	90.62
448.455	77.62
448.675	70.62
448.896	77.62
449.117	77.62
449.338	72.62
449.559	71.62
449.779	81.62
450	90.62
450.221	74.62
450.442	83.62
450.662	87.62
450.883	81.62
451.104	87.62
451.324	90.62
451.545	80.62
451.766	86.62
451.986	82.62
452.207	81.62
452.428	80.62
452.648	84.62
452.869	99.62
453.089	89.62
453.31	87.62
453.53	89.62
453.751	90.62
453.971	98.62
454.192	76.62
454.412	83.62
454.633	80.62
454.853	86.62
455.073	81.62
455.294	87.62
455.514	93.62
455.734	82.62
455.955	74.62
456.175	85.62
456.395	80.62
456.616	77.62
456.836	70.62
457.056	82.62
457.276	89.62
457.497	72.62
457.717	81.62
457.937	83.62
458.157	99.62
458.377	113.62
458.598	74.62
458.818	107.62
459.038	83.62
459.258	85.62
459.478	95.62
459.698	81.62
459.918	76.62
460.138	78.62
460.358	85.62
460.578	100.62
460.798	114.62
461.018	119.62
461.238	84.62
461.458	68.62
461.678	73.62
461.898	91.62
462.118	103.62
462.338	70.62
462.558	90.62
462.777	91.62
462.997	76.62
463.217	81.62
463.437	87.62
463.657	85.62
463.876	71.62
464.096	85.62
464.316	85.62
464.536	90.62
464.755	85.62
464.975	84.62
465.195	85.62
465.414	69.62
465.634	80.62
465.854	73.62
466.073	85.62
466.293	70.62
466.512	83.62
466.732	83.62
466.951	93.62
467.171	69.62
467.391	79.62
467.61	90.62
467.829	85.62
468.049	87.62
468.268	98.62
468.488	101.62
468.707	87.62
468.927	92.62
469.146	80.62
469.365	79.62
469.585	87.62
469.804	71.62
470.023	89.62
470.243	83.62
470.462	86.62
470.681	88.62
470.901	81.62
471.12	79.62
471.339	74.62
471.558	85.62
471.777	86.62
471.997	83.62
472.216	97.62
472.435	86.62
472.654	98.62
472.873	87.62
473.092	95.62
473.311	93.62
473.53	73.62
473.749	90.62
473.968	78.62
474.187	99.62
474.406	87.62
474.625	86.62
474.844	86.62
475.063	76.62
475.282	83.62
475.501	71.62
475.72	93.62
475.939	84.62
476.158	88.62
476.377	76.62
476.596	82.62
476.814	91.62
477.033	85.62
477.252	72.62
477.471	78.62
477.69	71.62
477.908	81.62
478.127	93.62
478.346	67.62
478.564	75.62
478.783	86.62
479.002	81.62
479.22	78.62
479.439	94.62
479.658	85.62
479.876	74.62
480.095	72.62
480.313	60.62
480.532	103.62
480.751	100.62
480.969	81.62
481.188	72.62
481.406	85.62
481.624	87.62
481.843	95.62
482.061	103.62
482.28	85.62
482.498	80.62
482.717	79.62
482.935	80.62
483.153	95.62
483.372	85.62
483.59	82.62
483.808	73.62
484.027	87.62
484.245	102.62
484.463	91.62
484.681	96.62
484.9	75.62
485.118	74.62
485.336	101.62
485.554	95.62
485.772	95.62
485.99	98.62
486.209	94.62
486.427	81.62
486.645	89.62
486.863	98.62
487.081	82.62
487.299	86.62
487.517	84.62
487.735	97.62
487.953	139.62
488.171	115.62
488.389	115.62
488.607	98.62
488.825	79.62
489.043	104.62
489.261	84.62
489.479	85.62
489.696	89.62
489.914	80.62
490.132	76.62
490.35	90.62
490.568	87.62
490.786	96.62
491.003	89.62
491.221	91.62
491.439	85.62
491.657	98.62
491.874	93.62
492.092	85.62
492.31	93.62
492.527	90.62
492.745	97.62
492.963	84.62
493.18	95.62
493.398	101.62
493.615	87.62
493.833	90.62
494.05	91.62
494.268	94.62
494.485	81.62
494.703	91.62
494.92	102.62
495.138	87.62
495.355	96.62
495.573	89.62
495.79	95.62
496.008	90.62
496.225	94.62
496.442	91.62
496.66	85.62
496.877	87.62
497.094	100.62
497.312	87.62
497.529	83.62
497.746	85.62
497.963	98.62
498.181	89.62
498.398	94.62
498.615	89.62
498.832	85.62
499.049	79.62
499.267	89.62
499.484	89.62
499.701	91.62
499.918	96.62
500.135	83.62
500.352	85.62
500.569	87.62
500.786	95.62
501.003	109.62
501.22	92.62
501.437	95.62
501.654	87.62
501.871	97.62
502.088	99.62
502.305	84.62
502.522	93.62
502.739	83.62
502.956	88.62
503.172	91.62
503.389	98.62
503.606	83.62
503.823	96.62
504.04	98.62
504.256	102.62
504.473	111.62
504.69	97.62
504.907	89.62
505.123	78.62
505.34	78.62
505.557	83.62
505.773	72.62
505.99	95.62
506.207	90.62
506.423	72.62
506.64	104.62
506.856	92.62
507.073	83.62
507.289	86.62
507.506	85.62
507.722	89.62
507.939	83.62
508.155	86.62
508.372	70.62
508.588	78.62
508.805	82.62
509.021	85.62
509.238	97.62
509.454	82.62
509.67	91.62
509.887	89.62
510.103	81.62
510.319	100.62
510.536	102.62
510.752	87.62
510.968	104.62
511.184	83.62
511.401	85.62
511.617	93.62
511.833	76.62
512.049	81.62
512.265	88.62
512.481	88.62
512.698	97.62
512.914	89.62
513.13	103.62
513.346	81.62
513.562	92.62
513.778	76.62
513.994	86.62
514.21	100.62
514.426	95.62
514.642	100.62
514.858	89.62
515.074	77.62
515.29	98.62
515.506	87.62
515.721	88.62
515.937	78.62
516.153	88.62
516.369	79.62
516.585	95.62
516.801	69.62
517.016	99.62
517.232	61.62
517.448	86.62
517.664	90.62
517.879	88.62
518.095	85.62
518.311	94.62
518.527	105.62
518.742	107.62
