Data from 15780_1_HRD10591_00047.txt Node
Date: Mon Jan 19 14:18:33 EST 2026
User: Yrep
Spectrometer: HR+D1059
Trigger mode: 1
Integration Time (sec): 1.000000E-1
Scans to average: 1
Electric dark correction enabled: true
Nonlinearity correction enabled: false
Boxcar width: 0
XAxis mode: Wavelengths
Number of Pixels in Spectrum: 2048
>>>>>Begin Spectral Data<<<<<
223.165	-13.62
223.4	-13.62
223.635	-13.62
223.869	-12.62
224.104	-24.62
224.338	-24.62
224.573	-6.62
224.808	-5.62
225.042	5.38
225.277	-6.62
225.511	-12.62
225.746	0.38
225.98	5.38
226.215	8.38
226.449	20.38
226.683	16.38
226.918	18.38
227.152	32.38
227.387	42.38
227.621	40.38
227.856	48.38
228.09	42.38
228.324	40.38
228.559	60.38
228.793	61.38
229.027	56.38
229.262	63.38
229.496	75.38
229.73	58.38
229.964	71.38
230.199	66.38
230.433	71.38
230.667	82.38
230.901	70.38
231.136	75.38
231.37	77.38
231.604	78.38
231.838	95.38
232.072	90.38
232.306	83.38
232.541	81.38
232.775	74.38
233.009	82.38
233.243	67.38
233.477	83.38
233.711	85.38
233.945	83.38
234.179	81.38
234.413	87.38
234.647	77.38
234.881	87.38
235.115	78.38
235.349	81.38
235.583	78.38
235.817	71.38
236.051	91.38
236.285	85.38
236.519	73.38
236.753	73.38
236.987	73.38
237.221	77.38
237.455	76.38
237.689	83.38
237.922	65.38
238.156	54.38
238.39	76.38
238.624	67.38
238.858	78.38
239.091	84.38
239.325	70.38
239.559	66.38
239.793	78.38
240.027	80.38
240.26	78.38
240.494	82.38
240.728	73.38
240.961	64.38
241.195	70.38
241.429	65.38
241.662	81.38
241.896	62.38
242.13	75.38
242.363	64.38
242.597	72.38
242.83	71.38
243.064	71.38
243.298	85.38
243.531	69.38
243.765	74.38
243.998	70.38
244.232	71.38
244.465	71.38
244.699	60.38
244.932	84.38
245.166	80.38
245.399	87.38
245.633	76.38
245.866	83.38
246.099	87.38
246.333	73.38
246.566	67.38
246.8	80.38
247.033	89.38
247.266	81.38
247.5	81.38
247.733	87.38
247.966	79.38
248.2	82.38
248.433	83.38
248.666	78.38
248.899	72.38
249.133	68.38
249.366	92.38
249.599	83.38
249.832	85.38
250.066	90.38
250.299	86.38
250.532	70.38
250.765	81.38
250.998	79.38
251.231	70.38
251.465	89.38
251.698	95.38
251.931	71.38
252.164	71.38
252.397	73.38
252.63	76.38
252.863	80.38
253.096	82.38
253.329	84.38
253.562	67.38
253.795	77.38
254.028	75.38
254.261	83.38
254.494	81.38
254.727	63.38
254.96	72.38
255.193	80.38
255.426	74.38
255.659	83.38
255.892	79.38
256.124	76.38
256.357	98.38
256.59	81.38
256.823	77.38
257.056	85.38
257.289	90.38
257.521	90.38
257.754	76.38
257.987	73.38
258.22	92.38
258.452	71.38
258.685	91.38
258.918	77.38
259.151	67.38
259.383	68.38
259.616	80.38
259.849	76.38
260.081	73.38
260.314	78.38
260.547	77.38
260.779	93.38
261.012	69.38
261.244	73.38
261.477	82.38
261.71	81.38
261.942	67.38
262.175	95.38
262.407	91.38
262.64	75.38
262.872	66.38
263.105	77.38
263.337	91.38
263.57	73.38
263.802	74.38
264.035	77.38
264.267	89.38
264.499	72.38
264.732	83.38
264.964	77.38
265.197	79.38
265.429	75.38
265.661	76.38
265.894	66.38
266.126	81.38
266.358	87.38
266.591	79.38
266.823	88.38
267.055	84.38
267.287	70.38
267.52	89.38
267.752	96.38
267.984	79.38
268.216	89.38
268.448	77.38
268.681	67.38
268.913	76.38
269.145	91.38
269.377	75.38
269.609	91.38
269.841	86.38
270.073	77.38
270.306	92.38
270.538	79.38
270.77	77.38
271.002	83.38
271.234	81.38
271.466	83.38
271.698	78.38
271.93	96.38
272.162	73.38
272.394	82.38
272.626	64.38
272.858	91.38
273.09	91.38
273.322	94.38
273.553	88.38
273.785	76.38
274.017	83.38
274.249	83.38
274.481	83.38
274.713	77.38
274.945	96.38
275.176	86.38
275.408	66.38
275.64	77.38
275.872	89.38
276.104	91.38
276.335	96.38
276.567	86.38
276.799	81.38
277.031	85.38
277.262	83.38
277.494	99.38
277.726	90.38
277.957	95.38
278.189	76.38
278.421	69.38
278.652	76.38
278.884	79.38
279.115	75.38
279.347	92.38
279.579	81.38
279.81	79.38
280.042	84.38
280.273	90.38
280.505	79.38
280.736	71.38
280.968	60.38
281.199	78.38
281.431	81.38
281.662	93.38
281.894	74.38
282.125	79.38
282.356	83.38
282.588	81.38
282.819	88.38
283.051	74.38
283.282	91.38
283.513	79.38
283.745	75.38
283.976	87.38
284.207	77.38
284.439	93.38
284.67	90.38
284.901	92.38
285.132	96.38
285.364	87.38
285.595	93.38
285.826	69.38
286.057	98.38
286.288	74.38
286.52	87.38
286.751	84.38
286.982	79.38
287.213	74.38
287.444	88.38
287.675	78.38
287.906	75.38
288.138	77.38
288.369	90.38
288.6	87.38
288.831	85.38
289.062	98.38
289.293	75.38
289.524	77.38
289.755	73.38
289.986	84.38
290.217	77.38
290.448	86.38
290.679	79.38
290.91	81.38
291.141	67.38
291.371	84.38
291.602	87.38
291.833	70.38
292.064	93.38
292.295	85.38
292.526	87.38
292.757	72.38
292.987	82.38
293.218	97.38
293.449	87.38
293.68	72.38
293.91	76.38
294.141	100.38
294.372	74.38
294.603	78.38
294.833	69.38
295.064	95.38
295.295	83.38
295.525	81.38
295.756	83.38
295.987	90.38
296.217	81.38
296.448	82.38
296.679	87.38
296.909	96.38
297.14	96.38
297.37	69.38
297.601	82.38
297.831	83.38
298.062	75.38
298.292	84.38
298.523	87.38
298.753	72.38
298.984	91.38
299.214	96.38
299.445	84.38
299.675	88.38
299.905	88.38
300.136	91.38
300.366	80.38
300.597	77.38
300.827	88.38
301.057	88.38
301.288	84.38
301.518	75.38
301.748	60.38
301.979	89.38
302.209	83.38
302.439	92.38
302.669	92.38
302.9	87.38
303.13	96.38
303.36	83.38
303.59	88.38
303.82	79.38
304.051	86.38
304.281	84.38
304.511	92.38
304.741	85.38
304.971	96.38
305.201	94.38
305.431	86.38
305.661	76.38
305.891	77.38
306.121	88.38
306.352	69.38
306.582	76.38
306.812	83.38
307.042	96.38
307.272	91.38
307.502	89.38
307.731	83.38
307.961	86.38
308.191	90.38
308.421	95.38
308.651	94.38
308.881	81.38
309.111	89.38
309.341	94.38
309.571	77.38
309.8	86.38
310.03	68.38
310.26	82.38
310.49	91.38
310.72	88.38
310.949	75.38
311.179	68.38
311.409	67.38
311.639	97.38
311.868	96.38
312.098	81.38
312.328	89.38
312.557	78.38
312.787	86.38
313.017	88.38
313.246	95.38
313.476	86.38
313.706	91.38
313.935	88.38
314.165	83.38
314.394	100.38
314.624	75.38
314.853	85.38
315.083	75.38
315.312	87.38
315.542	79.38
315.771	87.38
316.001	76.38
316.23	83.38
316.46	84.38
316.689	70.38
316.919	83.38
317.148	83.38
317.377	84.38
317.607	94.38
317.836	93.38
318.065	97.38
318.295	100.38
318.524	84.38
318.753	92.38
318.983	77.38
319.212	99.38
319.441	81.38
319.67	92.38
319.9	81.38
320.129	77.38
320.358	73.38
320.587	92.38
320.816	87.38
321.046	82.38
321.275	84.38
321.504	89.38
321.733	86.38
321.962	96.38
322.191	78.38
322.42	73.38
322.649	90.38
322.878	89.38
323.108	80.38
323.337	88.38
323.566	67.38
323.795	76.38
324.024	97.38
324.253	87.38
324.482	95.38
324.71	68.38
324.939	80.38
325.168	92.38
325.397	85.38
325.626	77.38
325.855	82.38
326.084	91.38
326.313	84.38
326.542	91.38
326.77	83.38
326.999	73.38
327.228	91.38
327.457	84.38
327.686	102.38
327.914	75.38
328.143	85.38
328.372	85.38
328.6	101.38
328.829	83.38
329.058	76.38
329.287	83.38
329.515	65.38
329.744	92.38
329.972	89.38
330.201	97.38
330.43	84.38
330.658	85.38
330.887	85.38
331.115	84.38
331.344	87.38
331.572	99.38
331.801	95.38
332.03	82.38
332.258	91.38
332.486	73.38
332.715	89.38
332.943	83.38
333.172	77.38
333.4	91.38
333.629	86.38
333.857	84.38
334.085	90.38
334.314	88.38
334.542	75.38
334.771	84.38
334.999	90.38
335.227	68.38
335.455	89.38
335.684	91.38
335.912	90.38
336.14	80.38
336.369	101.38
336.597	93.38
336.825	89.38
337.053	80.38
337.281	93.38
337.51	81.38
337.738	85.38
337.966	81.38
338.194	77.38
338.422	89.38
338.65	87.38
338.878	89.38
339.106	77.38
339.334	78.38
339.562	91.38
339.79	99.38
340.018	93.38
340.246	94.38
340.474	87.38
340.702	93.38
340.93	82.38
341.158	84.38
341.386	94.38
341.614	95.38
341.842	76.38
342.07	89.38
342.298	97.38
342.526	81.38
342.754	85.38
342.981	99.38
343.209	90.38
343.437	112.38
343.665	85.38
343.893	98.38
344.12	96.38
344.348	100.38
344.576	102.38
344.804	91.38
345.031	95.38
345.259	77.38
345.487	87.38
345.714	85.38
345.942	85.38
346.17	79.38
346.397	104.38
346.625	78.38
346.853	84.38
347.08	96.38
347.308	86.38
347.535	83.38
347.763	85.38
347.99	90.38
348.218	99.38
348.445	84.38
348.673	83.38
348.9	70.38
349.128	102.38
349.355	97.38
349.583	85.38
349.81	86.38
350.037	88.38
350.265	86.38
350.492	100.38
350.72	96.38
350.947	83.38
351.174	91.38
351.402	98.38
351.629	91.38
351.856	83.38
352.083	100.38
352.311	96.38
352.538	92.38
352.765	94.38
352.992	93.38
353.22	87.38
353.447	80.38
353.674	88.38
353.901	101.38
354.128	74.38
354.355	96.38
354.583	76.38
354.81	83.38
355.037	85.38
355.264	97.38
355.491	74.38
355.718	87.38
355.945	70.38
356.172	97.38
356.399	87.38
356.626	91.38
356.853	100.38
357.08	108.38
357.307	83.38
357.534	77.38
357.761	92.38
357.988	96.38
358.215	85.38
358.441	99.38
358.668	91.38
358.895	94.38
359.122	84.38
359.349	80.38
359.576	101.38
359.802	81.38
360.029	82.38
360.256	88.38
360.483	99.38
360.709	99.38
360.936	88.38
361.163	95.38
361.39	84.38
361.616	78.38
361.843	88.38
362.07	100.38
362.296	64.38
362.523	93.38
362.749	81.38
362.976	90.38
363.203	100.38
363.429	94.38
363.656	92.38
363.882	92.38
364.109	89.38
364.335	96.38
364.562	91.38
364.788	83.38
365.015	93.38
365.241	88.38
365.468	97.38
365.694	84.38
365.92	85.38
366.147	85.38
366.373	89.38
366.599	106.38
366.826	85.38
367.052	90.38
367.278	91.38
367.505	92.38
367.731	83.38
367.957	82.38
368.184	78.38
368.41	80.38
368.636	91.38
368.862	93.38
369.089	90.38
369.315	92.38
369.541	106.38
369.767	83.38
369.993	78.38
370.219	81.38
370.445	88.38
370.672	87.38
370.898	89.38
371.124	76.38
371.35	86.38
371.576	85.38
371.802	87.38
372.028	98.38
372.254	83.38
372.48	91.38
372.706	78.38
372.932	76.38
373.158	80.38
373.384	79.38
373.61	88.38
373.835	104.38
374.061	89.38
374.287	94.38
374.513	98.38
374.739	101.38
374.965	102.38
375.191	87.38
375.416	88.38
375.642	89.38
375.868	89.38
376.094	88.38
376.319	90.38
376.545	88.38
376.771	92.38
376.997	89.38
377.222	95.38
377.448	88.38
377.674	89.38
377.899	77.38
378.125	83.38
378.35	85.38
378.576	101.38
378.802	88.38
379.027	89.38
379.253	76.38
379.478	81.38
379.704	74.38
379.929	92.38
380.155	90.38
380.38	90.38
380.606	86.38
380.831	80.38
381.057	92.38
381.282	83.38
381.507	79.38
381.733	88.38
381.958	78.38
382.184	87.38
382.409	86.38
382.634	92.38
382.86	96.38
383.085	87.38
383.31	72.38
383.535	82.38
383.761	83.38
383.986	75.38
384.211	87.38
384.436	79.38
384.662	82.38
384.887	79.38
385.112	80.38
385.337	77.38
385.562	84.38
385.787	96.38
386.013	99.38
386.238	89.38
386.463	79.38
386.688	109.38
386.913	96.38
387.138	83.38
387.363	90.38
387.588	88.38
387.813	87.38
388.038	84.38
388.263	100.38
388.488	90.38
388.713	72.38
388.938	99.38
389.163	78.38
389.387	83.38
389.612	87.38
389.837	85.38
390.062	100.38
390.287	90.38
390.512	85.38
390.736	82.38
390.961	89.38
391.186	75.38
391.411	86.38
391.636	87.38
391.86	91.38
392.085	74.38
392.31	91.38
392.534	90.38
392.759	106.38
392.984	128.38
393.208	211.38
393.433	310.38
393.658	225.38
393.882	119.38
394.107	104.38
394.331	103.38
394.556	101.38
394.78	97.38
395.005	94.38
395.229	79.38
395.454	83.38
395.678	112.38
395.903	99.38
396.127	115.38
396.352	122.38
396.576	140.38
396.801	217.38
397.025	243.38
397.249	134.38
397.474	92.38
397.698	75.38
397.922	88.38
398.147	85.38
398.371	91.38
398.595	79.38
398.82	85.38
399.044	85.38
399.268	79.38
399.492	86.38
399.717	80.38
399.941	86.38
400.165	79.38
400.389	88.38
400.613	102.38
400.837	90.38
401.062	86.38
401.286	92.38
401.51	87.38
401.734	79.38
401.958	87.38
402.182	93.38
402.406	90.38
402.63	88.38
402.854	97.38
403.078	86.38
403.302	76.38
403.526	101.38
403.75	103.38
403.974	97.38
404.198	96.38
404.422	117.38
404.645	137.38
404.869	125.38
405.093	94.38
405.317	87.38
405.541	92.38
405.765	103.38
405.988	70.38
406.212	85.38
406.436	96.38
406.66	85.38
406.883	90.38
407.107	76.38
407.331	83.38
407.555	90.38
407.778	98.38
408.002	106.38
408.226	95.38
408.449	82.38
408.673	84.38
408.896	98.38
409.12	86.38
409.344	76.38
409.567	89.38
409.791	91.38
410.014	86.38
410.238	91.38
410.461	92.38
410.685	89.38
410.908	91.38
411.132	78.38
411.355	87.38
411.578	82.38
411.802	84.38
412.025	95.38
412.249	93.38
412.472	74.38
412.695	83.38
412.919	73.38
413.142	75.38
413.365	91.38
413.589	87.38
413.812	86.38
414.035	86.38
414.258	86.38
414.482	69.38
414.705	77.38
414.928	98.38
415.151	93.38
415.374	89.38
415.597	91.38
415.821	76.38
416.044	89.38
416.267	83.38
416.49	71.38
416.713	77.38
416.936	83.38
417.159	83.38
417.382	93.38
417.605	81.38
417.828	75.38
418.051	76.38
418.274	85.38
418.497	95.38
418.72	70.38
418.943	79.38
419.166	76.38
419.389	83.38
419.611	86.38
419.834	91.38
420.057	81.38
420.28	87.38
420.503	84.38
420.726	90.38
420.948	89.38
421.171	81.38
421.394	88.38
421.617	94.38
421.839	99.38
422.062	97.38
422.285	135.38
422.507	205.38
422.73	335.38
422.953	291.38
423.175	140.38
423.398	95.38
423.621	90.38
423.843	89.38
424.066	81.38
424.288	85.38
424.511	98.38
424.733	93.38
424.956	94.38
425.178	83.38
425.401	82.38
425.623	81.38
425.846	75.38
426.068	87.38
426.291	84.38
426.513	85.38
426.735	82.38
426.958	97.38
427.18	74.38
427.402	90.38
427.625	89.38
427.847	89.38
428.069	88.38
428.292	99.38
428.514	126.38
428.736	101.38
428.958	118.38
429.181	117.38
429.403	88.38
429.625	86.38
429.847	109.38
430.069	145.38
430.292	141.38
430.514	149.38
430.736	129.38
430.958	130.38
431.18	92.38
431.402	79.38
431.624	84.38
431.846	115.38
432.068	119.38
432.29	101.38
432.512	87.38
432.734	91.38
432.956	86.38
433.178	82.38
433.4	78.38
433.622	70.38
433.844	86.38
434.066	79.38
434.287	73.38
434.509	85.38
434.731	68.38
434.953	91.38
435.175	88.38
435.397	92.38
435.618	102.38
435.84	85.38
436.062	81.38
436.284	78.38
436.505	88.38
436.727	95.38
436.949	77.38
437.17	81.38
437.392	88.38
437.614	70.38
437.835	68.38
438.057	80.38
438.278	79.38
438.5	91.38
438.721	88.38
438.943	78.38
439.165	71.38
439.386	96.38
439.608	95.38
439.829	85.38
440.05	82.38
440.272	79.38
440.493	94.38
440.715	89.38
440.936	87.38
441.158	82.38
441.379	86.38
441.6	71.38
441.822	83.38
442.043	67.38
442.264	87.38
442.486	100.38
442.707	125.38
442.928	113.38
443.149	107.38
443.371	121.38
443.592	158.38
443.813	148.38
444.034	95.38
444.255	100.38
444.476	99.38
444.698	88.38
444.919	79.38
445.14	160.38
445.361	181.38
445.582	197.38
445.803	171.38
446.024	106.38
446.245	87.38
446.466	97.38
446.687	96.38
446.908	93.38
447.129	85.38
447.35	74.38
447.571	75.38
447.792	85.38
448.013	76.38
448.234	77.38
448.455	84.38
448.675	82.38
448.896	78.38
449.117	92.38
449.338	78.38
449.559	92.38
449.779	81.38
450	68.38
450.221	86.38
450.442	79.38
450.662	83.38
450.883	88.38
451.104	77.38
451.324	77.38
451.545	81.38
451.766	83.38
451.986	88.38
452.207	85.38
452.428	100.38
452.648	93.38
452.869	92.38
453.089	88.38
453.31	84.38
453.53	84.38
453.751	90.38
453.971	80.38
454.192	83.38
454.412	103.38
454.633	79.38
454.853	91.38
455.073	67.38
455.294	91.38
455.514	104.38
455.734	72.38
455.955	75.38
456.175	85.38
456.395	73.38
456.616	67.38
456.836	89.38
457.056	76.38
457.276	81.38
457.497	80.38
457.717	84.38
457.937	89.38
458.157	71.38
458.377	92.38
458.598	83.38
458.818	97.38
459.038	80.38
459.258	95.38
459.478	83.38
459.698	69.38
459.918	69.38
460.138	64.38
460.358	73.38
460.578	97.38
460.798	114.38
461.018	102.38
461.238	100.38
461.458	83.38
461.678	96.38
461.898	83.38
462.118	83.38
462.338	79.38
462.558	87.38
462.777	84.38
462.997	83.38
463.217	83.38
463.437	85.38
463.657	87.38
463.876	79.38
464.096	73.38
464.316	85.38
464.536	78.38
464.755	85.38
464.975	82.38
465.195	68.38
465.414	88.38
465.634	75.38
465.854	77.38
466.073	75.38
466.293	76.38
466.512	77.38
466.732	77.38
466.951	83.38
467.171	75.38
467.391	87.38
467.61	91.38
467.829	81.38
468.049	87.38
468.268	71.38
468.488	77.38
468.707	97.38
468.927	89.38
469.146	95.38
469.365	78.38
469.585	93.38
469.804	93.38
470.023	67.38
470.243	78.38
470.462	85.38
470.681	75.38
470.901	86.38
471.12	95.38
471.339	75.38
471.558	73.38
471.777	88.38
471.997	80.38
472.216	89.38
472.435	81.38
472.654	84.38
472.873	88.38
473.092	89.38
473.311	83.38
473.53	100.38
473.749	100.38
473.968	97.38
474.187	77.38
474.406	84.38
474.625	72.38
474.844	85.38
475.063	75.38
475.282	77.38
475.501	80.38
475.72	79.38
475.939	82.38
476.158	83.38
476.377	85.38
476.596	83.38
476.814	85.38
477.033	80.38
477.252	89.38
477.471	87.38
477.69	77.38
477.908	82.38
478.127	88.38
478.346	59.38
478.564	93.38
478.783	84.38
479.002	95.38
479.22	84.38
479.439	98.38
479.658	73.38
479.876	89.38
480.095	81.38
480.313	93.38
480.532	91.38
480.751	99.38
480.969	79.38
481.188	82.38
481.406	92.38
481.624	91.38
481.843	75.38
482.061	73.38
482.28	83.38
482.498	85.38
482.717	76.38
482.935	92.38
483.153	76.38
483.372	83.38
483.59	83.38
483.808	78.38
484.027	86.38
484.245	83.38
484.463	85.38
484.681	82.38
484.9	86.38
485.118	82.38
485.336	86.38
485.554	83.38
485.772	77.38
485.99	92.38
486.209	74.38
486.427	82.38
486.645	91.38
486.863	83.38
487.081	91.38
487.299	93.38
487.517	99.38
487.735	99.38
487.953	93.38
488.171	94.38
488.389	84.38
488.607	82.38
488.825	80.38
489.043	93.38
489.261	94.38
489.479	90.38
489.696	90.38
489.914	73.38
490.132	92.38
490.35	73.38
490.568	99.38
490.786	85.38
491.003	84.38
491.221	80.38
491.439	88.38
491.657	81.38
491.874	85.38
492.092	100.38
492.31	100.38
492.527	95.38
492.745	76.38
492.963	101.38
493.18	68.38
493.398	71.38
493.615	87.38
493.833	76.38
494.05	81.38
494.268	79.38
494.485	77.38
494.703	93.38
494.92	95.38
495.138	88.38
495.355	79.38
495.573	84.38
495.79	68.38
496.008	82.38
496.225	87.38
496.442	89.38
496.66	79.38
496.877	88.38
497.094	92.38
497.312	91.38
497.529	95.38
497.746	84.38
497.963	93.38
498.181	89.38
498.398	87.38
498.615	88.38
498.832	76.38
499.049	82.38
499.267	86.38
499.484	87.38
499.701	73.38
499.918	91.38
500.135	89.38
500.352	87.38
500.569	82.38
500.786	89.38
501.003	85.38
501.22	89.38
501.437	97.38
501.654	88.38
501.871	82.38
502.088	75.38
502.305	91.38
502.522	88.38
502.739	87.38
502.956	78.38
503.172	85.38
503.389	87.38
503.606	99.38
503.823	83.38
504.04	82.38
504.256	103.38
504.473	103.38
504.69	88.38
504.907	87.38
505.123	73.38
505.34	83.38
505.557	77.38
505.773	93.38
505.99	83.38
506.207	84.38
506.423	77.38
506.64	91.38
506.856	83.38
507.073	101.38
507.289	87.38
507.506	95.38
507.722	80.38
507.939	77.38
508.155	86.38
508.372	71.38
508.588	78.38
508.805	105.38
509.021	81.38
509.238	90.38
509.454	81.38
509.67	87.38
509.887	99.38
510.103	80.38
510.319	84.38
510.536	86.38
510.752	87.38
510.968	80.38
511.184	97.38
511.401	80.38
511.617	83.38
511.833	91.38
512.049	77.38
512.265	99.38
512.481	73.38
512.698	81.38
512.914	98.38
513.13	102.38
513.346	77.38
513.562	92.38
513.778	91.38
513.994	70.38
514.21	90.38
514.426	82.38
514.642	85.38
514.858	86.38
515.074	100.38
515.29	90.38
515.506	81.38
515.721	89.38
515.937	69.38
516.153	73.38
516.369	86.38
516.585	81.38
516.801	86.38
517.016	93.38
517.232	93.38
517.448	84.38
517.664	77.38
517.879	89.38
518.095	91.38
518.311	96.38
518.527	89.38
518.742	92.38
518.958	101.38
