Data from 15780_1_HRD10591_00029.txt Node
Date: Mon Jan 19 14:18:24 EST 2026
User: Yrep
Spectrometer: HR+D1059
Trigger mode: 1
Integration Time (sec): 1.000000E-1
Scans to average: 1
Electric dark correction enabled: true
Nonlinearity correction enabled: false
Boxcar width: 0
XAxis mode: Wavelengths
Number of Pixels in Spectrum: 2048
>>>>>Begin Spectral Data<<<<<
223.165	-23.44
223.4	-23.44
223.635	-23.44
223.869	-22.44
224.104	-23.44
224.338	-24.44
224.573	-17.44
224.808	-18.44
225.042	-5.44
225.277	3.56
225.511	-4.44
225.746	15.56
225.98	12.56
226.215	8.56
226.449	27.56
226.683	24.56
226.918	36.56
227.152	10.56
227.387	30.56
227.621	27.56
227.856	50.56
228.09	45.56
228.324	48.56
228.559	63.56
228.793	61.56
229.027	57.56
229.262	63.56
229.496	67.56
229.73	75.56
229.964	85.56
230.199	55.56
230.433	59.56
230.667	82.56
230.901	74.56
231.136	76.56
231.37	85.56
231.604	69.56
231.838	85.56
232.072	79.56
232.306	89.56
232.541	80.56
232.775	88.56
233.009	91.56
233.243	63.56
233.477	73.56
233.711	87.56
233.945	83.56
234.179	85.56
234.413	66.56
234.647	81.56
234.881	74.56
235.115	70.56
235.349	85.56
235.583	83.56
235.817	83.56
236.051	73.56
236.285	74.56
236.519	64.56
236.753	81.56
236.987	75.56
237.221	73.56
237.455	78.56
237.689	75.56
237.922	79.56
238.156	86.56
238.39	64.56
238.624	68.56
238.858	79.56
239.091	79.56
239.325	63.56
239.559	77.56
239.793	69.56
240.027	73.56
240.26	63.56
240.494	76.56
240.728	73.56
240.961	76.56
241.195	72.56
241.429	66.56
241.662	66.56
241.896	67.56
242.13	76.56
242.363	85.56
242.597	72.56
242.83	71.56
243.064	70.56
243.298	74.56
243.531	76.56
243.765	83.56
243.998	76.56
244.232	68.56
244.465	72.56
244.699	70.56
244.932	74.56
245.166	71.56
245.399	79.56
245.633	86.56
245.866	81.56
246.099	70.56
246.333	72.56
246.566	74.56
246.8	73.56
247.033	77.56
247.266	68.56
247.5	71.56
247.733	87.56
247.966	76.56
248.2	89.56
248.433	74.56
248.666	91.56
248.899	85.56
249.133	88.56
249.366	90.56
249.599	73.56
249.832	64.56
250.066	77.56
250.299	80.56
250.532	83.56
250.765	89.56
250.998	73.56
251.231	74.56
251.465	90.56
251.698	89.56
251.931	83.56
252.164	79.56
252.397	85.56
252.63	85.56
252.863	81.56
253.096	73.56
253.329	81.56
253.562	73.56
253.795	63.56
254.028	76.56
254.261	71.56
254.494	70.56
254.727	79.56
254.96	77.56
255.193	81.56
255.426	87.56
255.659	67.56
255.892	74.56
256.124	81.56
256.357	85.56
256.59	59.56
256.823	81.56
257.056	73.56
257.289	77.56
257.521	78.56
257.754	74.56
257.987	68.56
258.22	77.56
258.452	73.56
258.685	83.56
258.918	89.56
259.151	81.56
259.383	86.56
259.616	77.56
259.849	104.56
260.081	92.56
260.314	71.56
260.547	73.56
260.779	64.56
261.012	94.56
261.244	74.56
261.477	76.56
261.71	59.56
261.942	74.56
262.175	67.56
262.407	85.56
262.64	66.56
262.872	75.56
263.105	78.56
263.337	95.56
263.57	72.56
263.802	83.56
264.035	75.56
264.267	74.56
264.499	66.56
264.732	81.56
264.964	82.56
265.197	89.56
265.429	75.56
265.661	73.56
265.894	83.56
266.126	81.56
266.358	61.56
266.591	83.56
266.823	73.56
267.055	79.56
267.287	77.56
267.52	73.56
267.752	82.56
267.984	79.56
268.216	78.56
268.448	89.56
268.681	85.56
268.913	79.56
269.145	78.56
269.377	86.56
269.609	71.56
269.841	87.56
270.073	73.56
270.306	81.56
270.538	67.56
270.77	67.56
271.002	71.56
271.234	71.56
271.466	86.56
271.698	77.56
271.93	74.56
272.162	85.56
272.394	91.56
272.626	67.56
272.858	89.56
273.09	89.56
273.322	71.56
273.553	98.56
273.785	75.56
274.017	74.56
274.249	89.56
274.481	99.56
274.713	88.56
274.945	82.56
275.176	82.56
275.408	74.56
275.64	99.56
275.872	81.56
276.104	88.56
276.335	69.56
276.567	87.56
276.799	92.56
277.031	83.56
277.262	96.56
277.494	73.56
277.726	81.56
277.957	79.56
278.189	80.56
278.421	85.56
278.652	89.56
278.884	79.56
279.115	85.56
279.347	85.56
279.579	69.56
279.81	80.56
280.042	73.56
280.273	74.56
280.505	73.56
280.736	90.56
280.968	90.56
281.199	81.56
281.431	81.56
281.662	95.56
281.894	86.56
282.125	86.56
282.356	99.56
282.588	77.56
282.819	88.56
283.051	83.56
283.282	81.56
283.513	92.56
283.745	93.56
283.976	96.56
284.207	78.56
284.439	77.56
284.67	83.56
284.901	99.56
285.132	87.56
285.364	88.56
285.595	75.56
285.826	79.56
286.057	83.56
286.288	80.56
286.52	74.56
286.751	81.56
286.982	74.56
287.213	89.56
287.444	73.56
287.675	80.56
287.906	88.56
288.138	84.56
288.369	84.56
288.6	79.56
288.831	89.56
289.062	85.56
289.293	77.56
289.524	81.56
289.755	81.56
289.986	76.56
290.217	84.56
290.448	71.56
290.679	81.56
290.91	90.56
291.141	81.56
291.371	84.56
291.602	91.56
291.833	85.56
292.064	73.56
292.295	86.56
292.526	95.56
292.757	81.56
292.987	88.56
293.218	82.56
293.449	89.56
293.68	82.56
293.91	85.56
294.141	93.56
294.372	81.56
294.603	79.56
294.833	86.56
295.064	106.56
295.295	85.56
295.525	79.56
295.756	66.56
295.987	84.56
296.217	73.56
296.448	95.56
296.679	86.56
296.909	95.56
297.14	73.56
297.37	91.56
297.601	89.56
297.831	85.56
298.062	83.56
298.292	77.56
298.523	88.56
298.753	75.56
298.984	86.56
299.214	75.56
299.445	74.56
299.675	86.56
299.905	78.56
300.136	71.56
300.366	86.56
300.597	84.56
300.827	93.56
301.057	105.56
301.288	88.56
301.518	81.56
301.748	90.56
301.979	82.56
302.209	79.56
302.439	87.56
302.669	85.56
302.9	84.56
303.13	87.56
303.36	83.56
303.59	64.56
303.82	89.56
304.051	82.56
304.281	81.56
304.511	72.56
304.741	90.56
304.971	100.56
305.201	89.56
305.431	81.56
305.661	101.56
305.891	92.56
306.121	74.56
306.352	75.56
306.582	67.56
306.812	80.56
307.042	75.56
307.272	85.56
307.502	77.56
307.731	93.56
307.961	87.56
308.191	94.56
308.421	74.56
308.651	95.56
308.881	79.56
309.111	83.56
309.341	94.56
309.571	80.56
309.8	101.56
310.03	90.56
310.26	76.56
310.49	87.56
310.72	75.56
310.949	91.56
311.179	80.56
311.409	77.56
311.639	96.56
311.868	76.56
312.098	76.56
312.328	99.56
312.557	75.56
312.787	64.56
313.017	79.56
313.246	93.56
313.476	71.56
313.706	97.56
313.935	75.56
314.165	82.56
314.394	65.56
314.624	77.56
314.853	78.56
315.083	81.56
315.312	87.56
315.542	89.56
315.771	91.56
316.001	99.56
316.23	91.56
316.46	99.56
316.689	87.56
316.919	77.56
317.148	79.56
317.377	81.56
317.607	84.56
317.836	84.56
318.065	86.56
318.295	71.56
318.524	78.56
318.753	79.56
318.983	89.56
319.212	84.56
319.441	90.56
319.67	91.56
319.9	88.56
320.129	78.56
320.358	88.56
320.587	73.56
320.816	62.56
321.046	84.56
321.275	73.56
321.504	89.56
321.733	64.56
321.962	87.56
322.191	99.56
322.42	83.56
322.649	70.56
322.878	91.56
323.108	87.56
323.337	75.56
323.566	79.56
323.795	69.56
324.024	88.56
324.253	82.56
324.482	96.56
324.71	83.56
324.939	101.56
325.168	100.56
325.397	68.56
325.626	69.56
325.855	83.56
326.084	95.56
326.313	85.56
326.542	85.56
326.77	81.56
326.999	72.56
327.228	77.56
327.457	76.56
327.686	82.56
327.914	79.56
328.143	81.56
328.372	85.56
328.6	76.56
328.829	82.56
329.058	93.56
329.287	92.56
329.515	81.56
329.744	82.56
329.972	83.56
330.201	88.56
330.43	94.56
330.658	69.56
330.887	81.56
331.115	95.56
331.344	87.56
331.572	94.56
331.801	104.56
332.03	88.56
332.258	91.56
332.486	92.56
332.715	75.56
332.943	74.56
333.172	76.56
333.4	80.56
333.629	73.56
333.857	81.56
334.085	83.56
334.314	88.56
334.542	79.56
334.771	95.56
334.999	89.56
335.227	90.56
335.455	85.56
335.684	90.56
335.912	87.56
336.14	80.56
336.369	85.56
336.597	91.56
336.825	88.56
337.053	81.56
337.281	87.56
337.51	73.56
337.738	80.56
337.966	84.56
338.194	91.56
338.422	81.56
338.65	83.56
338.878	85.56
339.106	75.56
339.334	86.56
339.562	94.56
339.79	85.56
340.018	65.56
340.246	83.56
340.474	70.56
340.702	73.56
340.93	77.56
341.158	83.56
341.386	77.56
341.614	81.56
341.842	73.56
342.07	86.56
342.298	67.56
342.526	86.56
342.754	89.56
342.981	86.56
343.209	85.56
343.437	83.56
343.665	82.56
343.893	71.56
344.12	88.56
344.348	75.56
344.576	79.56
344.804	85.56
345.031	80.56
345.259	91.56
345.487	90.56
345.714	88.56
345.942	77.56
346.17	81.56
346.397	76.56
346.625	91.56
346.853	87.56
347.08	86.56
347.308	78.56
347.535	86.56
347.763	83.56
347.99	85.56
348.218	96.56
348.445	82.56
348.673	88.56
348.9	85.56
349.128	96.56
349.355	73.56
349.583	87.56
349.81	62.56
350.037	82.56
350.265	78.56
350.492	75.56
350.72	81.56
350.947	90.56
351.174	97.56
351.402	71.56
351.629	97.56
351.856	87.56
352.083	85.56
352.311	89.56
352.538	79.56
352.765	87.56
352.992	79.56
353.22	81.56
353.447	80.56
353.674	73.56
353.901	90.56
354.128	88.56
354.355	82.56
354.583	84.56
354.81	82.56
355.037	74.56
355.264	90.56
355.491	66.56
355.718	86.56
355.945	88.56
356.172	91.56
356.399	76.56
356.626	71.56
356.853	71.56
357.08	84.56
357.307	88.56
357.534	86.56
357.761	88.56
357.988	84.56
358.215	99.56
358.441	83.56
358.668	90.56
358.895	77.56
359.122	79.56
359.349	83.56
359.576	90.56
359.802	76.56
360.029	67.56
360.256	96.56
360.483	75.56
360.709	88.56
360.936	94.56
361.163	78.56
361.39	91.56
361.616	89.56
361.843	99.56
362.07	90.56
362.296	92.56
362.523	83.56
362.749	98.56
362.976	81.56
363.203	107.56
363.429	91.56
363.656	93.56
363.882	79.56
364.109	87.56
364.335	99.56
364.562	104.56
364.788	85.56
365.015	86.56
365.241	79.56
365.468	90.56
365.694	88.56
365.92	80.56
366.147	78.56
366.373	91.56
366.599	76.56
366.826	81.56
367.052	80.56
367.278	72.56
367.505	74.56
367.731	97.56
367.957	79.56
368.184	73.56
368.41	90.56
368.636	73.56
368.862	74.56
369.089	80.56
369.315	77.56
369.541	80.56
369.767	90.56
369.993	78.56
370.219	66.56
370.445	93.56
370.672	86.56
370.898	82.56
371.124	83.56
371.35	84.56
371.576	88.56
371.802	89.56
372.028	82.56
372.254	87.56
372.48	81.56
372.706	83.56
372.932	73.56
373.158	94.56
373.384	95.56
373.61	96.56
373.835	94.56
374.061	104.56
374.287	74.56
374.513	95.56
374.739	98.56
374.965	94.56
375.191	81.56
375.416	73.56
375.642	83.56
375.868	88.56
376.094	91.56
376.319	62.56
376.545	89.56
376.771	80.56
376.997	74.56
377.222	85.56
377.448	81.56
377.674	83.56
377.899	88.56
378.125	90.56
378.35	91.56
378.576	97.56
378.802	74.56
379.027	88.56
379.253	83.56
379.478	75.56
379.704	82.56
379.929	75.56
380.155	90.56
380.38	83.56
380.606	67.56
380.831	80.56
381.057	82.56
381.282	81.56
381.507	79.56
381.733	82.56
381.958	91.56
382.184	86.56
382.409	98.56
382.634	98.56
382.86	86.56
383.085	87.56
383.31	88.56
383.535	85.56
383.761	89.56
383.986	83.56
384.211	75.56
384.436	74.56
384.662	104.56
384.887	71.56
385.112	79.56
385.337	78.56
385.562	88.56
385.787	101.56
386.013	94.56
386.238	87.56
386.463	83.56
386.688	93.56
386.913	84.56
387.138	73.56
387.363	93.56
387.588	88.56
387.813	110.56
388.038	89.56
388.263	81.56
388.488	101.56
388.713	98.56
388.938	79.56
389.163	83.56
389.387	87.56
389.612	87.56
389.837	71.56
390.062	89.56
390.287	73.56
390.512	93.56
390.736	94.56
390.961	91.56
391.186	85.56
391.411	77.56
391.636	83.56
391.86	101.56
392.085	94.56
392.31	110.56
392.534	82.56
392.759	104.56
392.984	134.56
393.208	197.56
393.433	272.56
393.658	214.56
393.882	115.56
394.107	109.56
394.331	115.56
394.556	113.56
394.78	95.56
395.005	91.56
395.229	95.56
395.454	88.56
395.678	81.56
395.903	90.56
396.127	107.56
396.352	128.56
396.576	154.56
396.801	197.56
397.025	218.56
397.249	125.56
397.474	100.56
397.698	88.56
397.922	82.56
398.147	83.56
398.371	85.56
398.595	81.56
398.82	74.56
399.044	81.56
399.268	86.56
399.492	79.56
399.717	91.56
399.941	89.56
400.165	71.56
400.389	83.56
400.613	78.56
400.837	77.56
401.062	79.56
401.286	82.56
401.51	75.56
401.734	79.56
401.958	83.56
402.182	80.56
402.406	79.56
402.63	71.56
402.854	85.56
403.078	80.56
403.302	78.56
403.526	88.56
403.75	75.56
403.974	83.56
404.198	80.56
404.422	96.56
404.645	109.56
404.869	105.56
405.093	79.56
405.317	88.56
405.541	86.56
405.765	85.56
405.988	79.56
406.212	76.56
406.436	76.56
406.66	81.56
406.883	97.56
407.107	77.56
407.331	87.56
407.555	96.56
407.778	78.56
408.002	87.56
408.226	81.56
408.449	76.56
408.673	76.56
408.896	106.56
409.12	84.56
409.344	83.56
409.567	88.56
409.791	87.56
410.014	96.56
410.238	74.56
410.461	80.56
410.685	88.56
410.908	83.56
411.132	92.56
411.355	83.56
411.578	88.56
411.802	80.56
412.025	84.56
412.249	87.56
412.472	88.56
412.695	89.56
412.919	83.56
413.142	65.56
413.365	67.56
413.589	83.56
413.812	70.56
414.035	85.56
414.258	79.56
414.482	79.56
414.705	83.56
414.928	84.56
415.151	72.56
415.374	81.56
415.597	89.56
415.821	74.56
416.044	67.56
416.267	90.56
416.49	85.56
416.713	83.56
416.936	79.56
417.159	75.56
417.382	71.56
417.605	91.56
417.828	84.56
418.051	88.56
418.274	81.56
418.497	77.56
418.72	80.56
418.943	81.56
419.166	79.56
419.389	80.56
419.611	92.56
419.834	73.56
420.057	73.56
420.28	99.56
420.503	94.56
420.726	76.56
420.948	67.56
421.171	95.56
421.394	98.56
421.617	100.56
421.839	100.56
422.062	87.56
422.285	126.56
422.507	200.56
422.73	331.56
422.953	281.56
423.175	142.56
423.398	98.56
423.621	100.56
423.843	77.56
424.066	73.56
424.288	77.56
424.511	76.56
424.733	76.56
424.956	65.56
425.178	89.56
425.401	77.56
425.623	87.56
425.846	84.56
426.068	79.56
426.291	77.56
426.513	85.56
426.735	78.56
426.958	82.56
427.18	83.56
427.402	84.56
427.625	73.56
427.847	75.56
428.069	103.56
428.292	114.56
428.514	109.56
428.736	93.56
428.958	110.56
429.181	120.56
429.403	87.56
429.625	102.56
429.847	102.56
430.069	119.56
430.292	146.56
430.514	143.56
430.736	123.56
430.958	108.56
431.18	81.56
431.402	95.56
431.624	82.56
431.846	97.56
432.068	110.56
432.29	82.56
432.512	73.56
432.734	75.56
432.956	71.56
433.178	96.56
433.4	81.56
433.622	69.56
433.844	78.56
434.066	93.56
434.287	99.56
434.509	78.56
434.731	79.56
434.953	85.56
435.175	77.56
435.397	96.56
435.618	81.56
435.84	81.56
436.062	83.56
436.284	89.56
436.505	93.56
436.727	77.56
436.949	97.56
437.17	91.56
437.392	98.56
437.614	75.56
437.835	67.56
438.057	85.56
438.278	72.56
438.5	77.56
438.721	70.56
438.943	91.56
439.165	72.56
439.386	73.56
439.608	98.56
439.829	83.56
440.05	77.56
440.272	93.56
440.493	74.56
440.715	71.56
440.936	83.56
441.158	83.56
441.379	85.56
441.6	86.56
441.822	72.56
442.043	69.56
442.264	99.56
442.486	97.56
442.707	114.56
442.928	108.56
443.149	102.56
443.371	121.56
443.592	163.56
443.813	144.56
444.034	93.56
444.255	89.56
444.476	90.56
444.698	66.56
444.919	78.56
445.14	185.56
445.361	155.56
445.582	196.56
445.803	178.56
446.024	112.56
446.245	93.56
446.466	97.56
446.687	67.56
446.908	79.56
447.129	83.56
447.35	87.56
447.571	84.56
447.792	83.56
448.013	76.56
448.234	82.56
448.455	65.56
448.675	83.56
448.896	82.56
449.117	81.56
449.338	83.56
449.559	88.56
449.779	79.56
450	77.56
450.221	78.56
450.442	61.56
450.662	83.56
450.883	69.56
451.104	73.56
451.324	85.56
451.545	79.56
451.766	79.56
451.986	91.56
452.207	88.56
452.428	69.56
452.648	70.56
452.869	94.56
453.089	93.56
453.31	73.56
453.53	84.56
453.751	95.56
453.971	73.56
454.192	76.56
454.412	89.56
454.633	80.56
454.853	84.56
455.073	69.56
455.294	65.56
455.514	82.56
455.734	81.56
455.955	94.56
456.175	79.56
456.395	77.56
456.616	68.56
456.836	78.56
457.056	73.56
457.276	81.56
457.497	90.56
457.717	90.56
457.937	91.56
458.157	98.56
458.377	98.56
458.598	75.56
458.818	93.56
459.038	77.56
459.258	68.56
459.478	92.56
459.698	83.56
459.918	93.56
460.138	96.56
460.358	78.56
460.578	85.56
460.798	103.56
461.018	109.56
461.238	95.56
461.458	93.56
461.678	79.56
461.898	67.56
462.118	75.56
462.338	74.56
462.558	72.56
462.777	82.56
462.997	87.56
463.217	62.56
463.437	80.56
463.657	88.56
463.876	85.56
464.096	88.56
464.316	72.56
464.536	88.56
464.755	92.56
464.975	73.56
465.195	78.56
465.414	75.56
465.634	79.56
465.854	77.56
466.073	89.56
466.293	76.56
466.512	74.56
466.732	74.56
466.951	82.56
467.171	73.56
467.391	85.56
467.61	77.56
467.829	78.56
468.049	86.56
468.268	81.56
468.488	69.56
468.707	81.56
468.927	85.56
469.146	88.56
469.365	83.56
469.585	86.56
469.804	73.56
470.023	73.56
470.243	96.56
470.462	83.56
470.681	72.56
470.901	65.56
471.12	74.56
471.339	90.56
471.558	80.56
471.777	83.56
471.997	98.56
472.216	80.56
472.435	89.56
472.654	63.56
472.873	65.56
473.092	88.56
473.311	75.56
473.53	75.56
473.749	74.56
473.968	93.56
474.187	93.56
474.406	86.56
474.625	79.56
474.844	83.56
475.063	70.56
475.282	77.56
475.501	75.56
475.72	99.56
475.939	83.56
476.158	93.56
476.377	93.56
476.596	82.56
476.814	80.56
477.033	84.56
477.252	87.56
477.471	88.56
477.69	82.56
477.908	73.56
478.127	85.56
478.346	90.56
478.564	88.56
478.783	82.56
479.002	80.56
479.22	86.56
479.439	83.56
479.658	80.56
479.876	84.56
480.095	87.56
480.313	85.56
480.532	84.56
480.751	81.56
480.969	87.56
481.188	85.56
481.406	77.56
481.624	83.56
481.843	91.56
482.061	87.56
482.28	89.56
482.498	80.56
482.717	72.56
482.935	73.56
483.153	76.56
483.372	63.56
483.59	83.56
483.808	83.56
484.027	72.56
484.245	93.56
484.463	59.56
484.681	102.56
484.9	75.56
485.118	87.56
485.336	79.56
485.554	85.56
485.772	89.56
485.99	91.56
486.209	69.56
486.427	77.56
486.645	86.56
486.863	86.56
487.081	100.56
487.299	89.56
487.517	90.56
487.735	101.56
487.953	121.56
488.171	109.56
488.389	90.56
488.607	74.56
488.825	88.56
489.043	76.56
489.261	79.56
489.479	78.56
489.696	86.56
489.914	100.56
490.132	77.56
490.35	83.56
490.568	76.56
490.786	76.56
491.003	84.56
491.221	79.56
491.439	82.56
491.657	74.56
491.874	77.56
492.092	74.56
492.31	90.56
492.527	81.56
492.745	89.56
492.963	92.56
493.18	79.56
493.398	90.56
493.615	95.56
493.833	105.56
494.05	72.56
494.268	86.56
494.485	78.56
494.703	86.56
494.92	79.56
495.138	65.56
495.355	81.56
495.573	82.56
495.79	80.56
496.008	92.56
496.225	77.56
496.442	87.56
496.66	93.56
496.877	88.56
497.094	87.56
497.312	85.56
497.529	82.56
497.746	93.56
497.963	81.56
498.181	73.56
498.398	78.56
498.615	86.56
498.832	75.56
499.049	86.56
499.267	85.56
499.484	81.56
499.701	75.56
499.918	80.56
500.135	77.56
500.352	81.56
500.569	83.56
500.786	78.56
501.003	98.56
501.22	81.56
501.437	91.56
501.654	84.56
501.871	82.56
502.088	83.56
502.305	72.56
502.522	79.56
502.739	96.56
502.956	89.56
503.172	79.56
503.389	88.56
503.606	91.56
503.823	102.56
504.04	92.56
504.256	101.56
504.473	84.56
504.69	83.56
504.907	86.56
505.123	79.56
505.34	79.56
505.557	92.56
505.773	79.56
505.99	71.56
506.207	90.56
506.423	84.56
506.64	91.56
506.856	88.56
507.073	72.56
507.289	83.56
507.506	70.56
507.722	96.56
507.939	91.56
508.155	81.56
508.372	89.56
508.588	93.56
508.805	88.56
509.021	82.56
509.238	91.56
509.454	89.56
509.67	100.56
509.887	93.56
510.103	87.56
510.319	86.56
510.536	83.56
510.752	79.56
510.968	83.56
511.184	85.56
511.401	85.56
511.617	88.56
511.833	77.56
512.049	83.56
512.265	81.56
512.481	71.56
512.698	83.56
512.914	75.56
513.13	75.56
513.346	75.56
513.562	90.56
513.778	90.56
513.994	81.56
514.21	77.56
514.426	65.56
514.642	85.56
514.858	88.56
515.074	83.56
515.29	93.56
515.506	86.56
515.721	89.56
515.937	80.56
516.153	69.56
516.369	71.56
516.585	81.56
516.801	80.56
517.016	79.56
517.232	94.56
517.448	90.56
517.664	72.56
517.879	100.56
518.095	73.56
518.311	75.56
518.527	84.56
518.742	79.56
518.958	92.56
519.173	110.56
