Data from Mixheat1_HRD10591_00018.txt Node
Date: Fri Dec 27 15:07:01 EST 2024
User: Yrep
Spectrometer: HR+D1059
Trigger mode: 1
Integration Time (sec): 1.000000E-1
Scans to average: 1
Electric dark correction enabled: true
Nonlinearity correction enabled: false
Boxcar width: 0
XAxis mode: Wavelengths
Number of Pixels in Spectrum: 2048
>>>>>Begin Spectral Data<<<<<
223.165	-17.88
223.4	-17.88
223.635	-17.88
223.869	-28.88
224.104	-14.88
224.338	-20.88
224.573	-7.88
224.808	-11.88
225.042	-14.88
225.277	-15.88
225.511	-3.88
225.746	5.12
225.98	6.12
226.215	12.12
226.449	24.12
226.683	27.12
226.918	22.12
227.152	40.12
227.387	43.12
227.621	44.12
227.856	44.12
228.09	52.12
228.324	57.12
228.559	51.12
228.793	63.12
229.027	52.12
229.262	64.12
229.496	83.12
229.73	64.12
229.964	79.12
230.199	72.12
230.433	83.12
230.667	75.12
230.901	84.12
231.136	86.12
231.37	82.12
231.604	70.12
231.838	71.12
232.072	81.12
232.306	86.12
232.541	83.12
232.775	84.12
233.009	85.12
233.243	88.12
233.477	78.12
233.711	82.12
233.945	90.12
234.179	87.12
234.413	84.12
234.647	90.12
234.881	87.12
235.115	88.12
235.349	81.12
235.583	90.12
235.817	87.12
236.051	75.12
236.285	75.12
236.519	81.12
236.753	70.12
236.987	76.12
237.221	68.12
237.455	72.12
237.689	66.12
237.922	88.12
238.156	71.12
238.39	81.12
238.624	69.12
238.858	82.12
239.091	88.12
239.325	79.12
239.559	78.12
239.793	80.12
240.027	88.12
240.26	79.12
240.494	83.12
240.728	86.12
240.961	83.12
241.195	85.12
241.429	71.12
241.662	84.12
241.896	79.12
242.13	80.12
242.363	85.12
242.597	87.12
242.83	81.12
243.064	78.12
243.298	78.12
243.531	84.12
243.765	71.12
243.998	92.12
244.232	75.12
244.465	77.12
244.699	83.12
244.932	83.12
245.166	81.12
245.399	89.12
245.633	66.12
245.866	79.12
246.099	64.12
246.333	93.12
246.566	79.12
246.8	78.12
247.033	88.12
247.266	88.12
247.5	78.12
247.733	77.12
247.966	84.12
248.2	85.12
248.433	76.12
248.666	88.12
248.899	70.12
249.133	75.12
249.366	86.12
249.599	74.12
249.832	71.12
250.066	90.12
250.299	86.12
250.532	87.12
250.765	75.12
250.998	93.12
251.231	83.12
251.465	94.12
251.698	80.12
251.931	71.12
252.164	89.12
252.397	71.12
252.63	70.12
252.863	66.12
253.096	86.12
253.329	90.12
253.562	87.12
253.795	72.12
254.028	79.12
254.261	91.12
254.494	87.12
254.727	86.12
254.96	73.12
255.193	76.12
255.426	73.12
255.659	69.12
255.892	83.12
256.124	77.12
256.357	73.12
256.59	70.12
256.823	80.12
257.056	85.12
257.289	81.12
257.521	72.12
257.754	90.12
257.987	86.12
258.22	100.12
258.452	96.12
258.685	89.12
258.918	79.12
259.151	91.12
259.383	75.12
259.616	83.12
259.849	83.12
260.081	65.12
260.314	82.12
260.547	77.12
260.779	75.12
261.012	77.12
261.244	78.12
261.477	73.12
261.71	70.12
261.942	73.12
262.175	83.12
262.407	78.12
262.64	85.12
262.872	86.12
263.105	91.12
263.337	65.12
263.57	81.12
263.802	92.12
264.035	79.12
264.267	88.12
264.499	88.12
264.732	82.12
264.964	89.12
265.197	79.12
265.429	82.12
265.661	86.12
265.894	91.12
266.126	72.12
266.358	67.12
266.591	81.12
266.823	71.12
267.055	81.12
267.287	98.12
267.52	91.12
267.752	87.12
267.984	75.12
268.216	76.12
268.448	76.12
268.681	85.12
268.913	80.12
269.145	80.12
269.377	81.12
269.609	87.12
269.841	96.12
270.073	71.12
270.306	78.12
270.538	87.12
270.77	81.12
271.002	79.12
271.234	75.12
271.466	71.12
271.698	83.12
271.93	79.12
272.162	83.12
272.394	95.12
272.626	91.12
272.858	77.12
273.09	88.12
273.322	76.12
273.553	89.12
273.785	88.12
274.017	83.12
274.249	91.12
274.481	85.12
274.713	82.12
274.945	79.12
275.176	76.12
275.408	87.12
275.64	94.12
275.872	101.12
276.104	75.12
276.335	71.12
276.567	83.12
276.799	82.12
277.031	83.12
277.262	89.12
277.494	97.12
277.726	78.12
277.957	96.12
278.189	86.12
278.421	83.12
278.652	72.12
278.884	83.12
279.115	92.12
279.347	90.12
279.579	81.12
279.81	83.12
280.042	82.12
280.273	76.12
280.505	95.12
280.736	70.12
280.968	84.12
281.199	89.12
281.431	78.12
281.662	91.12
281.894	71.12
282.125	80.12
282.356	89.12
282.588	91.12
282.819	63.12
283.051	69.12
283.282	80.12
283.513	87.12
283.745	93.12
283.976	89.12
284.207	77.12
284.439	87.12
284.67	90.12
284.901	83.12
285.132	89.12
285.364	93.12
285.595	76.12
285.826	71.12
286.057	87.12
286.288	82.12
286.52	91.12
286.751	83.12
286.982	74.12
287.213	74.12
287.444	77.12
287.675	85.12
287.906	92.12
288.138	94.12
288.369	96.12
288.6	93.12
288.831	90.12
289.062	79.12
289.293	71.12
289.524	92.12
289.755	82.12
289.986	91.12
290.217	81.12
290.448	80.12
290.679	84.12
290.91	90.12
291.141	78.12
291.371	81.12
291.602	83.12
291.833	89.12
292.064	84.12
292.295	65.12
292.526	75.12
292.757	84.12
292.987	74.12
293.218	87.12
293.449	96.12
293.68	89.12
293.91	86.12
294.141	94.12
294.372	78.12
294.603	96.12
294.833	81.12
295.064	86.12
295.295	83.12
295.525	83.12
295.756	84.12
295.987	94.12
296.217	85.12
296.448	90.12
296.679	90.12
296.909	84.12
297.14	83.12
297.37	68.12
297.601	80.12
297.831	89.12
298.062	92.12
298.292	73.12
298.523	86.12
298.753	97.12
298.984	99.12
299.214	87.12
299.445	80.12
299.675	87.12
299.905	89.12
300.136	87.12
300.366	77.12
300.597	86.12
300.827	79.12
301.057	88.12
301.288	80.12
301.518	85.12
301.748	80.12
301.979	113.12
302.209	84.12
302.439	75.12
302.669	87.12
302.9	86.12
303.13	88.12
303.36	76.12
303.59	89.12
303.82	91.12
304.051	81.12
304.281	94.12
304.511	93.12
304.741	86.12
304.971	79.12
305.201	91.12
305.431	87.12
305.661	77.12
305.891	89.12
306.121	93.12
306.352	90.12
306.582	87.12
306.812	92.12
307.042	77.12
307.272	68.12
307.502	91.12
307.731	90.12
307.961	78.12
308.191	80.12
308.421	84.12
308.651	79.12
308.881	94.12
309.111	92.12
309.341	96.12
309.571	86.12
309.8	90.12
310.03	83.12
310.26	74.12
310.49	83.12
310.72	85.12
310.949	78.12
311.179	79.12
311.409	101.12
311.639	88.12
311.868	90.12
312.098	91.12
312.328	82.12
312.557	80.12
312.787	95.12
313.017	86.12
313.246	82.12
313.476	79.12
313.706	78.12
313.935	77.12
314.165	80.12
314.394	100.12
314.624	93.12
314.853	88.12
315.083	80.12
315.312	91.12
315.542	79.12
315.771	83.12
316.001	88.12
316.23	80.12
316.46	88.12
316.689	76.12
316.919	87.12
317.148	93.12
317.377	84.12
317.607	102.12
317.836	83.12
318.065	78.12
318.295	77.12
318.524	80.12
318.753	68.12
318.983	87.12
319.212	85.12
319.441	86.12
319.67	84.12
319.9	78.12
320.129	98.12
320.358	89.12
320.587	91.12
320.816	84.12
321.046	80.12
321.275	78.12
321.504	77.12
321.733	89.12
321.962	81.12
322.191	85.12
322.42	71.12
322.649	72.12
322.878	88.12
323.108	77.12
323.337	85.12
323.566	83.12
323.795	111.12
324.024	89.12
324.253	88.12
324.482	86.12
324.71	77.12
324.939	88.12
325.168	73.12
325.397	75.12
325.626	77.12
325.855	95.12
326.084	78.12
326.313	81.12
326.542	80.12
326.77	88.12
326.999	76.12
327.228	91.12
327.457	93.12
327.686	85.12
327.914	88.12
328.143	85.12
328.372	76.12
328.6	94.12
328.829	87.12
329.058	93.12
329.287	79.12
329.515	75.12
329.744	89.12
329.972	83.12
330.201	94.12
330.43	78.12
330.658	77.12
330.887	88.12
331.115	89.12
331.344	103.12
331.572	84.12
331.801	88.12
332.03	77.12
332.258	92.12
332.486	77.12
332.715	81.12
332.943	84.12
333.172	86.12
333.4	69.12
333.629	79.12
333.857	83.12
334.085	94.12
334.314	80.12
334.542	91.12
334.771	85.12
334.999	94.12
335.227	102.12
335.455	82.12
335.684	89.12
335.912	76.12
336.14	79.12
336.369	73.12
336.597	87.12
336.825	93.12
337.053	85.12
337.281	75.12
337.51	70.12
337.738	85.12
337.966	88.12
338.194	88.12
338.422	86.12
338.65	89.12
338.878	95.12
339.106	92.12
339.334	96.12
339.562	89.12
339.79	74.12
340.018	103.12
340.246	103.12
340.474	78.12
340.702	94.12
340.93	83.12
341.158	77.12
341.386	90.12
341.614	81.12
341.842	84.12
342.07	79.12
342.298	94.12
342.526	78.12
342.754	88.12
342.981	94.12
343.209	99.12
343.437	99.12
343.665	79.12
343.893	91.12
344.12	83.12
344.348	93.12
344.576	96.12
344.804	85.12
345.031	81.12
345.259	83.12
345.487	75.12
345.714	80.12
345.942	63.12
346.17	85.12
346.397	81.12
346.625	103.12
346.853	88.12
347.08	87.12
347.308	74.12
347.535	73.12
347.763	80.12
347.99	72.12
348.218	95.12
348.445	89.12
348.673	71.12
348.9	84.12
349.128	84.12
349.355	87.12
349.583	88.12
349.81	82.12
350.037	79.12
350.265	90.12
350.492	66.12
350.72	87.12
350.947	86.12
351.174	80.12
351.402	78.12
351.629	81.12
351.856	85.12
352.083	86.12
352.311	88.12
352.538	82.12
352.765	93.12
352.992	100.12
353.22	77.12
353.447	82.12
353.674	77.12
353.901	81.12
354.128	86.12
354.355	80.12
354.583	79.12
354.81	83.12
355.037	80.12
355.264	79.12
355.491	83.12
355.718	72.12
355.945	87.12
356.172	93.12
356.399	86.12
356.626	79.12
356.853	72.12
357.08	84.12
357.307	77.12
357.534	81.12
357.761	77.12
357.988	89.12
358.215	80.12
358.441	76.12
358.668	81.12
358.895	80.12
359.122	86.12
359.349	89.12
359.576	87.12
359.802	90.12
360.029	83.12
360.256	82.12
360.483	80.12
360.709	81.12
360.936	81.12
361.163	82.12
361.39	90.12
361.616	96.12
361.843	84.12
362.07	88.12
362.296	93.12
362.523	85.12
362.749	85.12
362.976	80.12
363.203	93.12
363.429	103.12
363.656	87.12
363.882	71.12
364.109	103.12
364.335	91.12
364.562	85.12
364.788	86.12
365.015	92.12
365.241	86.12
365.468	92.12
365.694	90.12
365.92	92.12
366.147	83.12
366.373	73.12
366.599	100.12
366.826	76.12
367.052	69.12
367.278	73.12
367.505	67.12
367.731	93.12
367.957	78.12
368.184	78.12
368.41	90.12
368.636	87.12
368.862	79.12
369.089	78.12
369.315	89.12
369.541	94.12
369.767	84.12
369.993	85.12
370.219	73.12
370.445	79.12
370.672	83.12
370.898	88.12
371.124	98.12
371.35	83.12
371.576	89.12
371.802	84.12
372.028	97.12
372.254	88.12
372.48	82.12
372.706	85.12
372.932	73.12
373.158	91.12
373.384	80.12
373.61	79.12
373.835	71.12
374.061	74.12
374.287	94.12
374.513	93.12
374.739	78.12
374.965	80.12
375.191	87.12
375.416	85.12
375.642	89.12
375.868	87.12
376.094	80.12
376.319	87.12
376.545	84.12
376.771	87.12
376.997	80.12
377.222	80.12
377.448	87.12
377.674	80.12
377.899	78.12
378.125	92.12
378.35	83.12
378.576	68.12
378.802	91.12
379.027	84.12
379.253	90.12
379.478	76.12
379.704	78.12
379.929	72.12
380.155	84.12
380.38	91.12
380.606	92.12
380.831	83.12
381.057	83.12
381.282	89.12
381.507	91.12
381.733	90.12
381.958	80.12
382.184	89.12
382.409	97.12
382.634	84.12
382.86	103.12
383.085	99.12
383.31	81.12
383.535	87.12
383.761	86.12
383.986	84.12
384.211	80.12
384.436	81.12
384.662	91.12
384.887	87.12
385.112	72.12
385.337	88.12
385.562	80.12
385.787	96.12
386.013	101.12
386.238	85.12
386.463	83.12
386.688	95.12
386.913	95.12
387.138	83.12
387.363	88.12
387.588	93.12
387.813	101.12
388.038	79.12
388.263	94.12
388.488	82.12
388.713	79.12
388.938	85.12
389.163	96.12
389.387	85.12
389.612	83.12
389.837	86.12
390.062	84.12
390.287	75.12
390.512	83.12
390.736	74.12
390.961	93.12
391.186	93.12
391.411	81.12
391.636	94.12
391.86	87.12
392.085	91.12
392.31	92.12
392.534	91.12
392.759	97.12
392.984	89.12
393.208	108.12
393.433	119.12
393.658	121.12
393.882	91.12
394.107	76.12
394.331	104.12
394.556	99.12
394.78	87.12
395.005	86.12
395.229	81.12
395.454	89.12
395.678	83.12
395.903	98.12
396.127	87.12
396.352	106.12
396.576	96.12
396.801	115.12
397.025	111.12
397.249	104.12
397.474	96.12
397.698	86.12
397.922	84.12
398.147	83.12
398.371	102.12
398.595	75.12
398.82	88.12
399.044	79.12
399.268	90.12
399.492	105.12
399.717	94.12
399.941	83.12
400.165	85.12
400.389	72.12
400.613	83.12
400.837	72.12
401.062	88.12
401.286	90.12
401.51	89.12
401.734	90.12
401.958	78.12
402.182	72.12
402.406	92.12
402.63	84.12
402.854	84.12
403.078	94.12
403.302	78.12
403.526	90.12
403.75	85.12
403.974	95.12
404.198	92.12
404.422	100.12
404.645	115.12
404.869	130.12
405.093	96.12
405.317	85.12
405.541	96.12
405.765	79.12
405.988	91.12
406.212	84.12
406.436	85.12
406.66	77.12
406.883	86.12
407.107	77.12
407.331	82.12
407.555	81.12
407.778	84.12
408.002	70.12
408.226	74.12
408.449	92.12
408.673	88.12
408.896	84.12
409.12	83.12
409.344	80.12
409.567	74.12
409.791	81.12
410.014	85.12
410.238	88.12
410.461	89.12
410.685	106.12
410.908	93.12
411.132	87.12
411.355	78.12
411.578	81.12
411.802	80.12
412.025	90.12
412.249	80.12
412.472	91.12
412.695	74.12
412.919	71.12
413.142	95.12
413.365	71.12
413.589	77.12
413.812	83.12
414.035	76.12
414.258	83.12
414.482	79.12
414.705	86.12
414.928	85.12
415.151	84.12
415.374	84.12
415.597	82.12
415.821	71.12
416.044	90.12
416.267	86.12
416.49	80.12
416.713	83.12
416.936	93.12
417.159	81.12
417.382	71.12
417.605	92.12
417.828	81.12
418.051	92.12
418.274	87.12
418.497	79.12
418.72	84.12
418.943	75.12
419.166	81.12
419.389	84.12
419.611	83.12
419.834	67.12
420.057	88.12
420.28	77.12
420.503	88.12
420.726	80.12
420.948	101.12
421.171	82.12
421.394	77.12
421.617	89.12
421.839	79.12
422.062	94.12
422.285	107.12
422.507	121.12
422.73	155.12
422.953	151.12
423.175	111.12
423.398	99.12
423.621	96.12
423.843	93.12
424.066	87.12
424.288	73.12
424.511	85.12
424.733	90.12
424.956	88.12
425.178	87.12
425.401	83.12
425.623	95.12
425.846	85.12
426.068	78.12
426.291	74.12
426.513	87.12
426.735	80.12
426.958	84.12
427.18	88.12
427.402	81.12
427.625	82.12
427.847	80.12
428.069	90.12
428.292	79.12
428.514	92.12
428.736	89.12
428.958	101.12
429.181	101.12
429.403	76.12
429.625	82.12
429.847	105.12
430.069	109.12
430.292	117.12
430.514	117.12
430.736	85.12
430.958	100.12
431.18	92.12
431.402	81.12
431.624	84.12
431.846	106.12
432.068	101.12
432.29	89.12
432.512	89.12
432.734	85.12
432.956	76.12
433.178	89.12
433.4	93.12
433.622	77.12
433.844	85.12
434.066	77.12
434.287	75.12
434.509	90.12
434.731	88.12
434.953	76.12
435.175	93.12
435.397	77.12
435.618	75.12
435.84	90.12
436.062	90.12
436.284	72.12
436.505	76.12
436.727	80.12
436.949	89.12
437.17	77.12
437.392	79.12
437.614	66.12
437.835	81.12
438.057	89.12
438.278	72.12
438.5	86.12
438.721	84.12
438.943	77.12
439.165	84.12
439.386	81.12
439.608	84.12
439.829	79.12
440.05	75.12
440.272	84.12
440.493	92.12
440.715	70.12
440.936	100.12
441.158	89.12
441.379	80.12
441.6	83.12
441.822	87.12
442.043	85.12
442.264	90.12
442.486	103.12
442.707	105.12
442.928	102.12
443.149	102.12
443.371	108.12
443.592	119.12
443.813	117.12
444.034	91.12
444.255	95.12
444.476	83.12
444.698	88.12
444.919	89.12
445.14	152.12
445.361	132.12
445.582	138.12
445.803	112.12
446.024	84.12
446.245	90.12
446.466	89.12
446.687	82.12
446.908	88.12
447.129	85.12
447.35	68.12
447.571	89.12
447.792	83.12
448.013	88.12
448.234	89.12
448.455	78.12
448.675	77.12
448.896	80.12
449.117	81.12
449.338	63.12
449.559	80.12
449.779	88.12
450	99.12
450.221	78.12
450.442	75.12
450.662	79.12
450.883	86.12
451.104	73.12
451.324	89.12
451.545	79.12
451.766	86.12
451.986	81.12
452.207	87.12
452.428	80.12
452.648	84.12
452.869	75.12
453.089	75.12
453.31	87.12
453.53	78.12
453.751	67.12
453.971	80.12
454.192	80.12
454.412	77.12
454.633	81.12
454.853	74.12
455.073	81.12
455.294	87.12
455.514	74.12
455.734	85.12
455.955	72.12
456.175	71.12
456.395	64.12
456.616	86.12
456.836	79.12
457.056	82.12
457.276	83.12
457.497	86.12
457.717	82.12
457.937	84.12
458.157	91.12
458.377	92.12
458.598	92.12
458.818	105.12
459.038	77.12
459.258	69.12
459.478	81.12
459.698	67.12
459.918	89.12
460.138	70.12
460.358	87.12
460.578	95.12
460.798	85.12
461.018	90.12
461.238	75.12
461.458	84.12
461.678	91.12
461.898	90.12
462.118	94.12
462.338	73.12
462.558	83.12
462.777	81.12
462.997	90.12
463.217	84.12
463.437	77.12
463.657	84.12
463.876	91.12
464.096	88.12
464.316	95.12
464.536	91.12
464.755	76.12
464.975	91.12
465.195	97.12
465.414	101.12
465.634	80.12
465.854	91.12
466.073	83.12
466.293	71.12
466.512	75.12
466.732	94.12
466.951	68.12
467.171	99.12
467.391	71.12
467.61	89.12
467.829	82.12
468.049	86.12
468.268	83.12
468.488	83.12
468.707	90.12
468.927	96.12
469.146	98.12
469.365	73.12
469.585	90.12
469.804	91.12
470.023	79.12
470.243	89.12
470.462	84.12
470.681	84.12
470.901	76.12
471.12	86.12
471.339	91.12
471.558	87.12
471.777	89.12
471.997	74.12
472.216	98.12
472.435	87.12
472.654	75.12
472.873	89.12
473.092	72.12
473.311	90.12
473.53	74.12
473.749	82.12
473.968	79.12
474.187	86.12
474.406	81.12
474.625	82.12
474.844	79.12
475.063	62.12
475.282	99.12
475.501	86.12
475.72	96.12
475.939	75.12
476.158	88.12
476.377	87.12
476.596	79.12
476.814	76.12
477.033	83.12
477.252	80.12
477.471	85.12
477.69	80.12
477.908	103.12
478.127	76.12
478.346	89.12
478.564	92.12
478.783	69.12
479.002	83.12
479.22	84.12
479.439	99.12
479.658	79.12
479.876	91.12
480.095	84.12
480.313	81.12
480.532	79.12
480.751	89.12
480.969	94.12
481.188	82.12
481.406	92.12
481.624	85.12
481.843	88.12
482.061	85.12
482.28	89.12
482.498	87.12
482.717	97.12
482.935	85.12
483.153	90.12
483.372	79.12
483.59	94.12
483.808	91.12
484.027	95.12
484.245	94.12
484.463	93.12
484.681	89.12
484.9	94.12
485.118	93.12
485.336	83.12
485.554	80.12
485.772	81.12
485.99	101.12
486.209	81.12
486.427	83.12
486.645	87.12
486.863	86.12
487.081	74.12
487.299	80.12
487.517	84.12
487.735	96.12
487.953	91.12
488.171	87.12
488.389	88.12
488.607	95.12
488.825	83.12
489.043	86.12
489.261	81.12
489.479	78.12
489.696	84.12
489.914	79.12
490.132	93.12
490.35	85.12
490.568	74.12
490.786	84.12
491.003	95.12
491.221	83.12
491.439	76.12
491.657	77.12
491.874	102.12
492.092	92.12
492.31	91.12
492.527	88.12
492.745	94.12
492.963	76.12
493.18	90.12
493.398	82.12
493.615	93.12
493.833	89.12
494.05	79.12
494.268	76.12
494.485	85.12
494.703	83.12
494.92	92.12
495.138	83.12
495.355	88.12
495.573	90.12
495.79	79.12
496.008	94.12
496.225	88.12
496.442	88.12
496.66	90.12
496.877	94.12
497.094	72.12
497.312	83.12
497.529	78.12
497.746	78.12
497.963	83.12
498.181	85.12
498.398	95.12
498.615	79.12
498.832	84.12
499.049	85.12
499.267	91.12
499.484	90.12
499.701	83.12
499.918	74.12
500.135	71.12
500.352	92.12
500.569	81.12
500.786	84.12
501.003	81.12
501.22	85.12
501.437	90.12
501.654	94.12
501.871	95.12
502.088	84.12
502.305	83.12
502.522	85.12
502.739	72.12
502.956	85.12
503.172	76.12
503.389	92.12
503.606	85.12
503.823	92.12
504.04	81.12
504.256	94.12
504.473	95.12
504.69	96.12
504.907	95.12
505.123	91.12
505.34	87.12
505.557	77.12
505.773	90.12
505.99	76.12
506.207	84.12
506.423	91.12
506.64	86.12
506.856	74.12
507.073	84.12
507.289	68.12
507.506	76.12
507.722	78.12
507.939	85.12
508.155	93.12
508.372	83.12
508.588	79.12
508.805	81.12
509.021	105.12
509.238	96.12
509.454	77.12
509.67	91.12
509.887	92.12
510.103	84.12
510.319	96.12
510.536	71.12
510.752	89.12
510.968	91.12
511.184	88.12
511.401	75.12
511.617	84.12
511.833	100.12
512.049	90.12
512.265	88.12
512.481	87.12
512.698	78.12
512.914	72.12
513.13	89.12
513.346	95.12
513.562	94.12
513.778	88.12
513.994	86.12
514.21	83.12
514.426	83.12
514.642	82.12
514.858	90.12
515.074	95.12
515.29	86.12
515.506	88.12
515.721	88.12
515.937	83.12
516.153	76.12
516.369	85.12
516.585	92.12
516.801	75.12
517.016	83.12
517.232	87.12
517.448	86.12
517.664	85.12
517.879	86.12
518.095	80.12
518.311	96.12
518.527	99.12
518.742	99.12
518.958	96.12
519.173	95.12
519.389	80.12
