Data from Mixheat1_HRD10591_00010.txt Node
Date: Fri Dec 27 15:06:53 EST 2024
User: Yrep
Spectrometer: HR+D1059
Trigger mode: 1
Integration Time (sec): 1.000000E-1
Scans to average: 1
Electric dark correction enabled: true
Nonlinearity correction enabled: false
Boxcar width: 0
XAxis mode: Wavelengths
Number of Pixels in Spectrum: 2048
>>>>>Begin Spectral Data<<<<<
223.165	-25.56
223.4	-25.56
223.635	-25.56
223.869	-15.56
224.104	-3.56
224.338	-13.56
224.573	-14.56
224.808	-22.56
225.042	-8.56
225.277	-9.56
225.511	-4.56
225.746	5.44
225.98	-2.56
226.215	15.44
226.449	23.44
226.683	14.44
226.918	19.44
227.152	42.44
227.387	29.44
227.621	35.44
227.856	36.44
228.09	46.44
228.324	47.44
228.559	54.44
228.793	51.44
229.027	57.44
229.262	63.44
229.496	57.44
229.73	70.44
229.964	63.44
230.199	74.44
230.433	72.44
230.667	62.44
230.901	73.44
231.136	70.44
231.37	74.44
231.604	85.44
231.838	76.44
232.072	70.44
232.306	76.44
232.541	75.44
232.775	81.44
233.009	82.44
233.243	80.44
233.477	87.44
233.711	87.44
233.945	62.44
234.179	80.44
234.413	86.44
234.647	74.44
234.881	72.44
235.115	88.44
235.349	66.44
235.583	83.44
235.817	73.44
236.051	66.44
236.285	59.44
236.519	67.44
236.753	74.44
236.987	65.44
237.221	73.44
237.455	74.44
237.689	86.44
237.922	67.44
238.156	69.44
238.39	70.44
238.624	80.44
238.858	66.44
239.091	71.44
239.325	74.44
239.559	69.44
239.793	78.44
240.027	65.44
240.26	74.44
240.494	70.44
240.728	63.44
240.961	61.44
241.195	71.44
241.429	77.44
241.662	74.44
241.896	81.44
242.13	59.44
242.363	74.44
242.597	63.44
242.83	75.44
243.064	67.44
243.298	81.44
243.531	64.44
243.765	77.44
243.998	87.44
244.232	75.44
244.465	77.44
244.699	72.44
244.932	73.44
245.166	88.44
245.399	66.44
245.633	69.44
245.866	69.44
246.099	68.44
246.333	77.44
246.566	79.44
246.8	67.44
247.033	66.44
247.266	86.44
247.5	68.44
247.733	84.44
247.966	77.44
248.2	85.44
248.433	66.44
248.666	74.44
248.899	69.44
249.133	60.44
249.366	75.44
249.599	63.44
249.832	77.44
250.066	76.44
250.299	75.44
250.532	68.44
250.765	79.44
250.998	78.44
251.231	78.44
251.465	71.44
251.698	72.44
251.931	69.44
252.164	74.44
252.397	74.44
252.63	74.44
252.863	74.44
253.096	62.44
253.329	68.44
253.562	72.44
253.795	54.44
254.028	69.44
254.261	62.44
254.494	83.44
254.727	78.44
254.96	89.44
255.193	90.44
255.426	56.44
255.659	88.44
255.892	70.44
256.124	67.44
256.357	73.44
256.59	65.44
256.823	65.44
257.056	67.44
257.289	60.44
257.521	81.44
257.754	70.44
257.987	59.44
258.22	79.44
258.452	79.44
258.685	82.44
258.918	74.44
259.151	57.44
259.383	77.44
259.616	90.44
259.849	85.44
260.081	79.44
260.314	74.44
260.547	69.44
260.779	77.44
261.012	83.44
261.244	79.44
261.477	81.44
261.71	90.44
261.942	82.44
262.175	76.44
262.407	73.44
262.64	65.44
262.872	75.44
263.105	84.44
263.337	70.44
263.57	71.44
263.802	80.44
264.035	87.44
264.267	81.44
264.499	70.44
264.732	59.44
264.964	79.44
265.197	82.44
265.429	70.44
265.661	71.44
265.894	71.44
266.126	68.44
266.358	75.44
266.591	82.44
266.823	72.44
267.055	77.44
267.287	72.44
267.52	78.44
267.752	63.44
267.984	80.44
268.216	74.44
268.448	80.44
268.681	72.44
268.913	77.44
269.145	67.44
269.377	90.44
269.609	79.44
269.841	81.44
270.073	79.44
270.306	63.44
270.538	78.44
270.77	67.44
271.002	75.44
271.234	64.44
271.466	79.44
271.698	87.44
271.93	76.44
272.162	86.44
272.394	78.44
272.626	83.44
272.858	75.44
273.09	87.44
273.322	83.44
273.553	78.44
273.785	75.44
274.017	75.44
274.249	79.44
274.481	78.44
274.713	86.44
274.945	77.44
275.176	71.44
275.408	89.44
275.64	91.44
275.872	83.44
276.104	81.44
276.335	66.44
276.567	91.44
276.799	80.44
277.031	69.44
277.262	69.44
277.494	84.44
277.726	81.44
277.957	70.44
278.189	70.44
278.421	69.44
278.652	85.44
278.884	70.44
279.115	75.44
279.347	83.44
279.579	85.44
279.81	81.44
280.042	76.44
280.273	91.44
280.505	68.44
280.736	88.44
280.968	77.44
281.199	98.44
281.431	75.44
281.662	79.44
281.894	86.44
282.125	83.44
282.356	68.44
282.588	71.44
282.819	76.44
283.051	78.44
283.282	77.44
283.513	79.44
283.745	78.44
283.976	75.44
284.207	77.44
284.439	78.44
284.67	74.44
284.901	84.44
285.132	83.44
285.364	71.44
285.595	83.44
285.826	76.44
286.057	87.44
286.288	79.44
286.52	83.44
286.751	70.44
286.982	86.44
287.213	91.44
287.444	89.44
287.675	73.44
287.906	88.44
288.138	68.44
288.369	65.44
288.6	79.44
288.831	70.44
289.062	86.44
289.293	80.44
289.524	83.44
289.755	82.44
289.986	66.44
290.217	74.44
290.448	90.44
290.679	72.44
290.91	77.44
291.141	73.44
291.371	90.44
291.602	78.44
291.833	79.44
292.064	95.44
292.295	88.44
292.526	81.44
292.757	94.44
292.987	78.44
293.218	76.44
293.449	82.44
293.68	88.44
293.91	90.44
294.141	83.44
294.372	76.44
294.603	85.44
294.833	78.44
295.064	83.44
295.295	71.44
295.525	83.44
295.756	71.44
295.987	92.44
296.217	72.44
296.448	85.44
296.679	75.44
296.909	72.44
297.14	69.44
297.37	90.44
297.601	69.44
297.831	77.44
298.062	84.44
298.292	76.44
298.523	73.44
298.753	71.44
298.984	67.44
299.214	87.44
299.445	83.44
299.675	71.44
299.905	87.44
300.136	81.44
300.366	73.44
300.597	76.44
300.827	77.44
301.057	69.44
301.288	67.44
301.518	80.44
301.748	79.44
301.979	103.44
302.209	88.44
302.439	74.44
302.669	87.44
302.9	85.44
303.13	80.44
303.36	95.44
303.59	77.44
303.82	74.44
304.051	82.44
304.281	83.44
304.511	89.44
304.741	74.44
304.971	75.44
305.201	79.44
305.431	88.44
305.661	86.44
305.891	78.44
306.121	82.44
306.352	83.44
306.582	78.44
306.812	78.44
307.042	85.44
307.272	72.44
307.502	88.44
307.731	74.44
307.961	89.44
308.191	87.44
308.421	72.44
308.651	83.44
308.881	77.44
309.111	88.44
309.341	88.44
309.571	78.44
309.8	75.44
310.03	80.44
310.26	69.44
310.49	77.44
310.72	76.44
310.949	79.44
311.179	65.44
311.409	73.44
311.639	90.44
311.868	90.44
312.098	78.44
312.328	79.44
312.557	82.44
312.787	67.44
313.017	81.44
313.246	72.44
313.476	74.44
313.706	84.44
313.935	79.44
314.165	84.44
314.394	78.44
314.624	82.44
314.853	85.44
315.083	81.44
315.312	78.44
315.542	76.44
315.771	87.44
316.001	87.44
316.23	89.44
316.46	78.44
316.689	86.44
316.919	93.44
317.148	87.44
317.377	71.44
317.607	81.44
317.836	86.44
318.065	80.44
318.295	69.44
318.524	89.44
318.753	86.44
318.983	79.44
319.212	82.44
319.441	87.44
319.67	89.44
319.9	84.44
320.129	81.44
320.358	78.44
320.587	88.44
320.816	79.44
321.046	79.44
321.275	88.44
321.504	88.44
321.733	80.44
321.962	80.44
322.191	83.44
322.42	65.44
322.649	77.44
322.878	95.44
323.108	77.44
323.337	74.44
323.566	81.44
323.795	61.44
324.024	79.44
324.253	72.44
324.482	76.44
324.71	72.44
324.939	99.44
325.168	82.44
325.397	82.44
325.626	81.44
325.855	85.44
326.084	83.44
326.313	81.44
326.542	78.44
326.77	79.44
326.999	81.44
327.228	83.44
327.457	77.44
327.686	88.44
327.914	67.44
328.143	73.44
328.372	75.44
328.6	77.44
328.829	77.44
329.058	74.44
329.287	91.44
329.515	83.44
329.744	93.44
329.972	85.44
330.201	78.44
330.43	86.44
330.658	71.44
330.887	75.44
331.115	87.44
331.344	78.44
331.572	87.44
331.801	88.44
332.03	71.44
332.258	88.44
332.486	84.44
332.715	84.44
332.943	69.44
333.172	90.44
333.4	79.44
333.629	74.44
333.857	90.44
334.085	85.44
334.314	100.44
334.542	81.44
334.771	79.44
334.999	73.44
335.227	69.44
335.455	84.44
335.684	80.44
335.912	97.44
336.14	79.44
336.369	70.44
336.597	79.44
336.825	77.44
337.053	82.44
337.281	60.44
337.51	74.44
337.738	77.44
337.966	80.44
338.194	87.44
338.422	80.44
338.65	76.44
338.878	98.44
339.106	90.44
339.334	77.44
339.562	76.44
339.79	74.44
340.018	81.44
340.246	94.44
340.474	86.44
340.702	97.44
340.93	85.44
341.158	85.44
341.386	81.44
341.614	80.44
341.842	85.44
342.07	90.44
342.298	84.44
342.526	82.44
342.754	73.44
342.981	82.44
343.209	93.44
343.437	101.44
343.665	81.44
343.893	85.44
344.12	74.44
344.348	70.44
344.576	82.44
344.804	88.44
345.031	98.44
345.259	79.44
345.487	76.44
345.714	75.44
345.942	75.44
346.17	86.44
346.397	81.44
346.625	81.44
346.853	77.44
347.08	73.44
347.308	87.44
347.535	74.44
347.763	72.44
347.99	87.44
348.218	75.44
348.445	62.44
348.673	95.44
348.9	78.44
349.128	88.44
349.355	76.44
349.583	77.44
349.81	88.44
350.037	81.44
350.265	89.44
350.492	82.44
350.72	81.44
350.947	75.44
351.174	86.44
351.402	76.44
351.629	87.44
351.856	73.44
352.083	78.44
352.311	83.44
352.538	85.44
352.765	83.44
352.992	98.44
353.22	90.44
353.447	86.44
353.674	96.44
353.901	100.44
354.128	99.44
354.355	72.44
354.583	77.44
354.81	77.44
355.037	80.44
355.264	90.44
355.491	80.44
355.718	83.44
355.945	63.44
356.172	96.44
356.399	81.44
356.626	71.44
356.853	84.44
357.08	94.44
357.307	82.44
357.534	86.44
357.761	95.44
357.988	89.44
358.215	98.44
358.441	79.44
358.668	85.44
358.895	72.44
359.122	82.44
359.349	81.44
359.576	73.44
359.802	75.44
360.029	79.44
360.256	75.44
360.483	76.44
360.709	76.44
360.936	95.44
361.163	77.44
361.39	80.44
361.616	78.44
361.843	88.44
362.07	89.44
362.296	93.44
362.523	87.44
362.749	79.44
362.976	84.44
363.203	81.44
363.429	87.44
363.656	79.44
363.882	71.44
364.109	81.44
364.335	77.44
364.562	96.44
364.788	103.44
365.015	83.44
365.241	82.44
365.468	85.44
365.694	71.44
365.92	86.44
366.147	71.44
366.373	69.44
366.599	74.44
366.826	75.44
367.052	84.44
367.278	94.44
367.505	71.44
367.731	78.44
367.957	70.44
368.184	94.44
368.41	85.44
368.636	84.44
368.862	85.44
369.089	66.44
369.315	93.44
369.541	82.44
369.767	77.44
369.993	61.44
370.219	76.44
370.445	78.44
370.672	68.44
370.898	77.44
371.124	82.44
371.35	75.44
371.576	82.44
371.802	80.44
372.028	69.44
372.254	81.44
372.48	76.44
372.706	81.44
372.932	79.44
373.158	90.44
373.384	99.44
373.61	88.44
373.835	81.44
374.061	67.44
374.287	81.44
374.513	80.44
374.739	85.44
374.965	85.44
375.191	95.44
375.416	96.44
375.642	58.44
375.868	93.44
376.094	86.44
376.319	81.44
376.545	84.44
376.771	74.44
376.997	78.44
377.222	97.44
377.448	71.44
377.674	91.44
377.899	91.44
378.125	76.44
378.35	80.44
378.576	77.44
378.802	68.44
379.027	76.44
379.253	95.44
379.478	69.44
379.704	67.44
379.929	70.44
380.155	79.44
380.38	83.44
380.606	82.44
380.831	79.44
381.057	94.44
381.282	81.44
381.507	86.44
381.733	78.44
381.958	81.44
382.184	82.44
382.409	79.44
382.634	65.44
382.86	73.44
383.085	89.44
383.31	89.44
383.535	78.44
383.761	86.44
383.986	76.44
384.211	74.44
384.436	71.44
384.662	73.44
384.887	88.44
385.112	72.44
385.337	81.44
385.562	86.44
385.787	65.44
386.013	78.44
386.238	79.44
386.463	95.44
386.688	86.44
386.913	77.44
387.138	84.44
387.363	78.44
387.588	80.44
387.813	77.44
388.038	98.44
388.263	101.44
388.488	104.44
388.713	71.44
388.938	76.44
389.163	81.44
389.387	75.44
389.612	80.44
389.837	86.44
390.062	86.44
390.287	94.44
390.512	78.44
390.736	71.44
390.961	73.44
391.186	76.44
391.411	77.44
391.636	79.44
391.86	63.44
392.085	78.44
392.31	88.44
392.534	78.44
392.759	98.44
392.984	95.44
393.208	111.44
393.433	120.44
393.658	96.44
393.882	81.44
394.107	84.44
394.331	82.44
394.556	98.44
394.78	80.44
395.005	72.44
395.229	84.44
395.454	85.44
395.678	80.44
395.903	90.44
396.127	91.44
396.352	89.44
396.576	88.44
396.801	103.44
397.025	107.44
397.249	76.44
397.474	95.44
397.698	77.44
397.922	78.44
398.147	78.44
398.371	80.44
398.595	94.44
398.82	80.44
399.044	67.44
399.268	77.44
399.492	87.44
399.717	83.44
399.941	87.44
400.165	70.44
400.389	87.44
400.613	76.44
400.837	77.44
401.062	93.44
401.286	84.44
401.51	93.44
401.734	84.44
401.958	71.44
402.182	72.44
402.406	77.44
402.63	87.44
402.854	80.44
403.078	74.44
403.302	85.44
403.526	80.44
403.75	84.44
403.974	97.44
404.198	101.44
404.422	120.44
404.645	123.44
404.869	108.44
405.093	101.44
405.317	72.44
405.541	87.44
405.765	84.44
405.988	64.44
406.212	83.44
406.436	82.44
406.66	83.44
406.883	75.44
407.107	81.44
407.331	72.44
407.555	86.44
407.778	84.44
408.002	77.44
408.226	79.44
408.449	70.44
408.673	69.44
408.896	93.44
409.12	73.44
409.344	78.44
409.567	78.44
409.791	88.44
410.014	77.44
410.238	86.44
410.461	91.44
410.685	89.44
410.908	75.44
411.132	80.44
411.355	65.44
411.578	84.44
411.802	86.44
412.025	79.44
412.249	83.44
412.472	71.44
412.695	70.44
412.919	83.44
413.142	85.44
413.365	72.44
413.589	77.44
413.812	70.44
414.035	68.44
414.258	79.44
414.482	76.44
414.705	82.44
414.928	79.44
415.151	68.44
415.374	83.44
415.597	75.44
415.821	86.44
416.044	78.44
416.267	81.44
416.49	63.44
416.713	88.44
416.936	72.44
417.159	83.44
417.382	83.44
417.605	77.44
417.828	86.44
418.051	74.44
418.274	83.44
418.497	80.44
418.72	85.44
418.943	85.44
419.166	77.44
419.389	81.44
419.611	77.44
419.834	75.44
420.057	79.44
420.28	79.44
420.503	76.44
420.726	70.44
420.948	79.44
421.171	73.44
421.394	67.44
421.617	96.44
421.839	79.44
422.062	98.44
422.285	102.44
422.507	128.44
422.73	129.44
422.953	136.44
423.175	105.44
423.398	98.44
423.621	79.44
423.843	81.44
424.066	70.44
424.288	84.44
424.511	87.44
424.733	78.44
424.956	77.44
425.178	71.44
425.401	69.44
425.623	94.44
425.846	77.44
426.068	85.44
426.291	88.44
426.513	75.44
426.735	105.44
426.958	93.44
427.18	78.44
427.402	81.44
427.625	86.44
427.847	88.44
428.069	78.44
428.292	93.44
428.514	103.44
428.736	101.44
428.958	99.44
429.181	85.44
429.403	69.44
429.625	85.44
429.847	85.44
430.069	106.44
430.292	103.44
430.514	83.44
430.736	95.44
430.958	103.44
431.18	84.44
431.402	78.44
431.624	79.44
431.846	80.44
432.068	97.44
432.29	88.44
432.512	82.44
432.734	77.44
432.956	67.44
433.178	88.44
433.4	79.44
433.622	72.44
433.844	82.44
434.066	74.44
434.287	69.44
434.509	72.44
434.731	74.44
434.953	74.44
435.175	76.44
435.397	96.44
435.618	83.44
435.84	87.44
436.062	77.44
436.284	69.44
436.505	80.44
436.727	78.44
436.949	87.44
437.17	85.44
437.392	83.44
437.614	69.44
437.835	79.44
438.057	72.44
438.278	79.44
438.5	89.44
438.721	79.44
438.943	78.44
439.165	69.44
439.386	75.44
439.608	70.44
439.829	83.44
440.05	80.44
440.272	81.44
440.493	91.44
440.715	59.44
440.936	80.44
441.158	73.44
441.379	85.44
441.6	80.44
441.822	86.44
442.043	83.44
442.264	91.44
442.486	92.44
442.707	85.44
442.928	83.44
443.149	103.44
443.371	97.44
443.592	106.44
443.813	110.44
444.034	105.44
444.255	84.44
444.476	74.44
444.698	91.44
444.919	109.44
445.14	149.44
445.361	131.44
445.582	131.44
445.803	122.44
446.024	102.44
446.245	82.44
446.466	91.44
446.687	83.44
446.908	84.44
447.129	76.44
447.35	79.44
447.571	84.44
447.792	72.44
448.013	67.44
448.234	91.44
448.455	74.44
448.675	86.44
448.896	77.44
449.117	79.44
449.338	89.44
449.559	88.44
449.779	72.44
450	79.44
450.221	83.44
450.442	81.44
450.662	74.44
450.883	89.44
451.104	78.44
451.324	86.44
451.545	70.44
451.766	83.44
451.986	82.44
452.207	90.44
452.428	75.44
452.648	91.44
452.869	90.44
453.089	67.44
453.31	78.44
453.53	64.44
453.751	82.44
453.971	84.44
454.192	75.44
454.412	74.44
454.633	78.44
454.853	82.44
455.073	80.44
455.294	64.44
455.514	83.44
455.734	75.44
455.955	80.44
456.175	79.44
456.395	70.44
456.616	95.44
456.836	83.44
457.056	76.44
457.276	67.44
457.497	71.44
457.717	73.44
457.937	81.44
458.157	86.44
458.377	89.44
458.598	92.44
458.818	95.44
459.038	81.44
459.258	88.44
459.478	74.44
459.698	69.44
459.918	84.44
460.138	71.44
460.358	71.44
460.578	91.44
460.798	88.44
461.018	101.44
461.238	70.44
461.458	71.44
461.678	79.44
461.898	64.44
462.118	77.44
462.338	69.44
462.558	68.44
462.777	88.44
462.997	86.44
463.217	82.44
463.437	85.44
463.657	78.44
463.876	75.44
464.096	80.44
464.316	82.44
464.536	80.44
464.755	79.44
464.975	82.44
465.195	85.44
465.414	78.44
465.634	91.44
465.854	82.44
466.073	74.44
466.293	77.44
466.512	81.44
466.732	75.44
466.951	93.44
467.171	79.44
467.391	84.44
467.61	74.44
467.829	62.44
468.049	79.44
468.268	86.44
468.488	83.44
468.707	79.44
468.927	78.44
469.146	77.44
469.365	86.44
469.585	88.44
469.804	87.44
470.023	90.44
470.243	79.44
470.462	82.44
470.681	91.44
470.901	88.44
471.12	89.44
471.339	89.44
471.558	68.44
471.777	72.44
471.997	85.44
472.216	63.44
472.435	82.44
472.654	82.44
472.873	70.44
473.092	76.44
473.311	71.44
473.53	59.44
473.749	86.44
473.968	82.44
474.187	82.44
474.406	80.44
474.625	94.44
474.844	92.44
475.063	83.44
475.282	77.44
475.501	78.44
475.72	70.44
475.939	78.44
476.158	70.44
476.377	81.44
476.596	86.44
476.814	83.44
477.033	76.44
477.252	91.44
477.471	76.44
477.69	84.44
477.908	90.44
478.127	65.44
478.346	76.44
478.564	76.44
478.783	78.44
479.002	75.44
479.22	85.44
479.439	86.44
479.658	84.44
479.876	82.44
480.095	74.44
480.313	81.44
480.532	76.44
480.751	87.44
480.969	85.44
481.188	88.44
481.406	79.44
481.624	84.44
481.843	87.44
482.061	71.44
482.28	81.44
482.498	82.44
482.717	86.44
482.935	75.44
483.153	85.44
483.372	81.44
483.59	85.44
483.808	71.44
484.027	85.44
484.245	78.44
484.463	63.44
484.681	79.44
484.9	81.44
485.118	80.44
485.336	69.44
485.554	70.44
485.772	76.44
485.99	87.44
486.209	69.44
486.427	72.44
486.645	85.44
486.863	79.44
487.081	76.44
487.299	90.44
487.517	75.44
487.735	85.44
487.953	98.44
488.171	83.44
488.389	86.44
488.607	77.44
488.825	90.44
489.043	102.44
489.261	83.44
489.479	90.44
489.696	80.44
489.914	55.44
490.132	77.44
490.35	78.44
490.568	89.44
490.786	78.44
491.003	73.44
491.221	72.44
491.439	81.44
491.657	77.44
491.874	87.44
492.092	86.44
492.31	82.44
492.527	86.44
492.745	77.44
492.963	79.44
493.18	94.44
493.398	82.44
493.615	77.44
493.833	96.44
494.05	63.44
494.268	93.44
494.485	85.44
494.703	79.44
494.92	59.44
495.138	94.44
495.355	88.44
495.573	71.44
495.79	81.44
496.008	81.44
496.225	83.44
496.442	88.44
496.66	92.44
496.877	63.44
497.094	81.44
497.312	94.44
497.529	99.44
497.746	81.44
497.963	88.44
498.181	86.44
498.398	69.44
498.615	80.44
498.832	65.44
499.049	68.44
499.267	78.44
499.484	79.44
499.701	86.44
499.918	91.44
500.135	85.44
500.352	81.44
500.569	79.44
500.786	108.44
501.003	75.44
501.22	78.44
501.437	81.44
501.654	72.44
501.871	74.44
502.088	79.44
502.305	81.44
502.522	81.44
502.739	75.44
502.956	78.44
503.172	85.44
503.389	82.44
503.606	93.44
503.823	80.44
504.04	81.44
504.256	86.44
504.473	100.44
504.69	83.44
504.907	84.44
505.123	79.44
505.34	73.44
505.557	89.44
505.773	91.44
505.99	79.44
506.207	89.44
506.423	74.44
506.64	80.44
506.856	68.44
507.073	81.44
507.289	93.44
507.506	81.44
507.722	80.44
507.939	82.44
508.155	74.44
508.372	84.44
508.588	88.44
508.805	84.44
509.021	75.44
509.238	78.44
509.454	89.44
509.67	69.44
509.887	84.44
510.103	92.44
510.319	90.44
510.536	92.44
510.752	79.44
510.968	77.44
511.184	82.44
511.401	88.44
511.617	77.44
511.833	90.44
512.049	72.44
512.265	85.44
512.481	88.44
512.698	87.44
512.914	74.44
513.13	82.44
513.346	74.44
513.562	84.44
513.778	82.44
513.994	76.44
514.21	89.44
514.426	79.44
514.642	81.44
514.858	77.44
515.074	84.44
515.29	100.44
515.506	92.44
515.721	90.44
515.937	72.44
516.153	75.44
516.369	74.44
516.585	81.44
516.801	79.44
517.016	86.44
517.232	73.44
517.448	77.44
517.664	78.44
517.879	86.44
518.095	73.44
518.311	89.44
518.527	92.44
518.742	73.44
518.958	85.44
519.173	87.44
519.389	87.44
519.605	84.44
