Data from Mixheat1_HRD10591_00004.txt Node
Date: Fri Dec 27 15:06:47 EST 2024
User: Yrep
Spectrometer: HR+D1059
Trigger mode: 1
Integration Time (sec): 1.000000E-1
Scans to average: 1
Electric dark correction enabled: true
Nonlinearity correction enabled: false
Boxcar width: 0
XAxis mode: Wavelengths
Number of Pixels in Spectrum: 2048
>>>>>Begin Spectral Data<<<<<
223.165	-12.06
223.4	-12.06
223.635	-12.06
223.869	-18.06
224.104	-11.06
224.338	-16.06
224.573	-7.06
224.808	-14.06
225.042	-15.06
225.277	-20.06
225.511	-8.06
225.746	-0.06
225.98	11.94
226.215	11.94
226.449	19.94
226.683	14.94
226.918	28.94
227.152	33.94
227.387	39.94
227.621	40.94
227.856	48.94
228.09	59.94
228.324	53.94
228.559	66.94
228.793	50.94
229.027	64.94
229.262	76.94
229.496	66.94
229.73	73.94
229.964	76.94
230.199	79.94
230.433	72.94
230.667	77.94
230.901	89.94
231.136	82.94
231.37	74.94
231.604	100.94
231.838	84.94
232.072	74.94
232.306	83.94
232.541	87.94
232.775	86.94
233.009	89.94
233.243	92.94
233.477	73.94
233.711	99.94
233.945	84.94
234.179	91.94
234.413	86.94
234.647	91.94
234.881	75.94
235.115	87.94
235.349	71.94
235.583	89.94
235.817	84.94
236.051	82.94
236.285	69.94
236.519	69.94
236.753	84.94
236.987	81.94
237.221	98.94
237.455	72.94
237.689	70.94
237.922	82.94
238.156	80.94
238.39	76.94
238.624	81.94
238.858	62.94
239.091	68.94
239.325	73.94
239.559	78.94
239.793	61.94
240.027	94.94
240.26	71.94
240.494	69.94
240.728	72.94
240.961	64.94
241.195	80.94
241.429	71.94
241.662	65.94
241.896	68.94
242.13	83.94
242.363	77.94
242.597	87.94
242.83	74.94
243.064	71.94
243.298	68.94
243.531	71.94
243.765	78.94
243.998	78.94
244.232	82.94
244.465	72.94
244.699	77.94
244.932	79.94
245.166	79.94
245.399	86.94
245.633	85.94
245.866	82.94
246.099	83.94
246.333	77.94
246.566	88.94
246.8	86.94
247.033	71.94
247.266	72.94
247.5	88.94
247.733	87.94
247.966	85.94
248.2	94.94
248.433	80.94
248.666	88.94
248.899	76.94
249.133	86.94
249.366	75.94
249.599	77.94
249.832	82.94
250.066	83.94
250.299	83.94
250.532	82.94
250.765	83.94
250.998	92.94
251.231	90.94
251.465	85.94
251.698	73.94
251.931	79.94
252.164	93.94
252.397	95.94
252.63	92.94
252.863	81.94
253.096	74.94
253.329	78.94
253.562	99.94
253.795	89.94
254.028	73.94
254.261	90.94
254.494	69.94
254.727	81.94
254.96	77.94
255.193	80.94
255.426	84.94
255.659	72.94
255.892	97.94
256.124	83.94
256.357	89.94
256.59	77.94
256.823	81.94
257.056	79.94
257.289	77.94
257.521	82.94
257.754	85.94
257.987	90.94
258.22	87.94
258.452	96.94
258.685	92.94
258.918	76.94
259.151	89.94
259.383	88.94
259.616	84.94
259.849	90.94
260.081	80.94
260.314	79.94
260.547	82.94
260.779	77.94
261.012	77.94
261.244	92.94
261.477	93.94
261.71	86.94
261.942	70.94
262.175	81.94
262.407	80.94
262.64	86.94
262.872	81.94
263.105	96.94
263.337	83.94
263.57	87.94
263.802	78.94
264.035	85.94
264.267	81.94
264.499	96.94
264.732	85.94
264.964	87.94
265.197	101.94
265.429	90.94
265.661	77.94
265.894	87.94
266.126	75.94
266.358	77.94
266.591	92.94
266.823	86.94
267.055	79.94
267.287	87.94
267.52	77.94
267.752	91.94
267.984	83.94
268.216	81.94
268.448	91.94
268.681	96.94
268.913	88.94
269.145	93.94
269.377	81.94
269.609	85.94
269.841	87.94
270.073	88.94
270.306	89.94
270.538	78.94
270.77	89.94
271.002	86.94
271.234	93.94
271.466	88.94
271.698	89.94
271.93	79.94
272.162	95.94
272.394	92.94
272.626	87.94
272.858	84.94
273.09	92.94
273.322	96.94
273.553	100.94
273.785	95.94
274.017	83.94
274.249	80.94
274.481	76.94
274.713	85.94
274.945	96.94
275.176	89.94
275.408	83.94
275.64	77.94
275.872	95.94
276.104	89.94
276.335	88.94
276.567	79.94
276.799	97.94
277.031	80.94
277.262	87.94
277.494	81.94
277.726	91.94
277.957	84.94
278.189	91.94
278.421	88.94
278.652	74.94
278.884	72.94
279.115	83.94
279.347	96.94
279.579	77.94
279.81	79.94
280.042	92.94
280.273	92.94
280.505	91.94
280.736	88.94
280.968	76.94
281.199	90.94
281.431	80.94
281.662	79.94
281.894	89.94
282.125	93.94
282.356	90.94
282.588	110.94
282.819	91.94
283.051	97.94
283.282	81.94
283.513	81.94
283.745	81.94
283.976	72.94
284.207	92.94
284.439	84.94
284.67	77.94
284.901	85.94
285.132	83.94
285.364	91.94
285.595	92.94
285.826	87.94
286.057	86.94
286.288	77.94
286.52	86.94
286.751	69.94
286.982	82.94
287.213	72.94
287.444	90.94
287.675	87.94
287.906	89.94
288.138	98.94
288.369	83.94
288.6	95.94
288.831	87.94
289.062	83.94
289.293	88.94
289.524	98.94
289.755	89.94
289.986	83.94
290.217	77.94
290.448	71.94
290.679	80.94
290.91	89.94
291.141	75.94
291.371	87.94
291.602	84.94
291.833	81.94
292.064	93.94
292.295	81.94
292.526	80.94
292.757	89.94
292.987	95.94
293.218	88.94
293.449	95.94
293.68	88.94
293.91	86.94
294.141	97.94
294.372	83.94
294.603	96.94
294.833	76.94
295.064	93.94
295.295	97.94
295.525	96.94
295.756	95.94
295.987	88.94
296.217	94.94
296.448	91.94
296.679	74.94
296.909	78.94
297.14	67.94
297.37	80.94
297.601	95.94
297.831	90.94
298.062	85.94
298.292	79.94
298.523	75.94
298.753	88.94
298.984	83.94
299.214	88.94
299.445	93.94
299.675	88.94
299.905	98.94
300.136	97.94
300.366	91.94
300.597	79.94
300.827	86.94
301.057	101.94
301.288	88.94
301.518	79.94
301.748	90.94
301.979	107.94
302.209	100.94
302.439	84.94
302.669	82.94
302.9	75.94
303.13	102.94
303.36	77.94
303.59	86.94
303.82	94.94
304.051	100.94
304.281	95.94
304.511	83.94
304.741	79.94
304.971	82.94
305.201	84.94
305.431	94.94
305.661	94.94
305.891	92.94
306.121	94.94
306.352	88.94
306.582	87.94
306.812	83.94
307.042	86.94
307.272	94.94
307.502	88.94
307.731	75.94
307.961	81.94
308.191	95.94
308.421	105.94
308.651	88.94
308.881	95.94
309.111	98.94
309.341	84.94
309.571	96.94
309.8	104.94
310.03	76.94
310.26	85.94
310.49	89.94
310.72	89.94
310.949	93.94
311.179	92.94
311.409	84.94
311.639	103.94
311.868	94.94
312.098	81.94
312.328	103.94
312.557	83.94
312.787	75.94
313.017	86.94
313.246	78.94
313.476	86.94
313.706	91.94
313.935	64.94
314.165	99.94
314.394	103.94
314.624	63.94
314.853	91.94
315.083	87.94
315.312	87.94
315.542	92.94
315.771	97.94
316.001	82.94
316.23	92.94
316.46	105.94
316.689	96.94
316.919	94.94
317.148	74.94
317.377	85.94
317.607	95.94
317.836	82.94
318.065	77.94
318.295	85.94
318.524	86.94
318.753	86.94
318.983	86.94
319.212	97.94
319.441	88.94
319.67	93.94
319.9	86.94
320.129	73.94
320.358	88.94
320.587	93.94
320.816	91.94
321.046	75.94
321.275	73.94
321.504	83.94
321.733	67.94
321.962	90.94
322.191	101.94
322.42	84.94
322.649	88.94
322.878	89.94
323.108	94.94
323.337	80.94
323.566	76.94
323.795	94.94
324.024	89.94
324.253	99.94
324.482	87.94
324.71	79.94
324.939	94.94
325.168	82.94
325.397	94.94
325.626	87.94
325.855	82.94
326.084	97.94
326.313	83.94
326.542	87.94
326.77	76.94
326.999	95.94
327.228	79.94
327.457	76.94
327.686	97.94
327.914	96.94
328.143	75.94
328.372	84.94
328.6	101.94
328.829	82.94
329.058	81.94
329.287	89.94
329.515	86.94
329.744	100.94
329.972	75.94
330.201	86.94
330.43	90.94
330.658	87.94
330.887	69.94
331.115	99.94
331.344	84.94
331.572	104.94
331.801	87.94
332.03	89.94
332.258	79.94
332.486	80.94
332.715	93.94
332.943	85.94
333.172	105.94
333.4	63.94
333.629	101.94
333.857	82.94
334.085	88.94
334.314	88.94
334.542	75.94
334.771	91.94
334.999	105.94
335.227	88.94
335.455	95.94
335.684	93.94
335.912	88.94
336.14	85.94
336.369	81.94
336.597	92.94
336.825	90.94
337.053	99.94
337.281	101.94
337.51	100.94
337.738	111.94
337.966	95.94
338.194	95.94
338.422	94.94
338.65	76.94
338.878	88.94
339.106	87.94
339.334	90.94
339.562	93.94
339.79	84.94
340.018	89.94
340.246	84.94
340.474	107.94
340.702	90.94
340.93	77.94
341.158	87.94
341.386	92.94
341.614	92.94
341.842	96.94
342.07	91.94
342.298	96.94
342.526	97.94
342.754	100.94
342.981	94.94
343.209	72.94
343.437	95.94
343.665	93.94
343.893	97.94
344.12	98.94
344.348	88.94
344.576	83.94
344.804	83.94
345.031	88.94
345.259	106.94
345.487	88.94
345.714	79.94
345.942	82.94
346.17	84.94
346.397	94.94
346.625	81.94
346.853	86.94
347.08	75.94
347.308	92.94
347.535	94.94
347.763	78.94
347.99	89.94
348.218	92.94
348.445	103.94
348.673	91.94
348.9	86.94
349.128	89.94
349.355	90.94
349.583	85.94
349.81	80.94
350.037	79.94
350.265	105.94
350.492	82.94
350.72	79.94
350.947	84.94
351.174	85.94
351.402	86.94
351.629	93.94
351.856	82.94
352.083	77.94
352.311	98.94
352.538	96.94
352.765	81.94
352.992	108.94
353.22	92.94
353.447	80.94
353.674	89.94
353.901	75.94
354.128	97.94
354.355	95.94
354.583	82.94
354.81	84.94
355.037	101.94
355.264	100.94
355.491	77.94
355.718	77.94
355.945	79.94
356.172	87.94
356.399	80.94
356.626	96.94
356.853	89.94
357.08	93.94
357.307	83.94
357.534	90.94
357.761	104.94
357.988	95.94
358.215	77.94
358.441	89.94
358.668	94.94
358.895	79.94
359.122	90.94
359.349	85.94
359.576	80.94
359.802	75.94
360.029	74.94
360.256	80.94
360.483	97.94
360.709	90.94
360.936	89.94
361.163	88.94
361.39	92.94
361.616	85.94
361.843	87.94
362.07	95.94
362.296	91.94
362.523	90.94
362.749	72.94
362.976	91.94
363.203	92.94
363.429	98.94
363.656	78.94
363.882	94.94
364.109	89.94
364.335	97.94
364.562	95.94
364.788	94.94
365.015	92.94
365.241	89.94
365.468	93.94
365.694	89.94
365.92	88.94
366.147	83.94
366.373	72.94
366.599	71.94
366.826	80.94
367.052	92.94
367.278	80.94
367.505	92.94
367.731	104.94
367.957	99.94
368.184	88.94
368.41	89.94
368.636	89.94
368.862	94.94
369.089	76.94
369.315	71.94
369.541	86.94
369.767	91.94
369.993	92.94
370.219	94.94
370.445	92.94
370.672	82.94
370.898	87.94
371.124	88.94
371.35	83.94
371.576	107.94
371.802	105.94
372.028	89.94
372.254	87.94
372.48	85.94
372.706	83.94
372.932	88.94
373.158	84.94
373.384	92.94
373.61	92.94
373.835	82.94
374.061	85.94
374.287	84.94
374.513	90.94
374.739	81.94
374.965	87.94
375.191	79.94
375.416	91.94
375.642	82.94
375.868	87.94
376.094	96.94
376.319	80.94
376.545	87.94
376.771	88.94
376.997	89.94
377.222	88.94
377.448	86.94
377.674	88.94
377.899	91.94
378.125	95.94
378.35	91.94
378.576	94.94
378.802	96.94
379.027	84.94
379.253	89.94
379.478	100.94
379.704	71.94
379.929	85.94
380.155	90.94
380.38	88.94
380.606	82.94
380.831	84.94
381.057	92.94
381.282	99.94
381.507	93.94
381.733	89.94
381.958	90.94
382.184	98.94
382.409	92.94
382.634	89.94
382.86	82.94
383.085	94.94
383.31	94.94
383.535	87.94
383.761	81.94
383.986	76.94
384.211	68.94
384.436	81.94
384.662	80.94
384.887	86.94
385.112	76.94
385.337	93.94
385.562	93.94
385.787	88.94
386.013	85.94
386.238	75.94
386.463	79.94
386.688	85.94
386.913	73.94
387.138	82.94
387.363	89.94
387.588	90.94
387.813	74.94
388.038	84.94
388.263	80.94
388.488	79.94
388.713	75.94
388.938	71.94
389.163	102.94
389.387	79.94
389.612	89.94
389.837	106.94
390.062	84.94
390.287	99.94
390.512	90.94
390.736	97.94
390.961	81.94
391.186	78.94
391.411	91.94
391.636	84.94
391.86	111.94
392.085	112.94
392.31	93.94
392.534	88.94
392.759	96.94
392.984	87.94
393.208	109.94
393.433	123.94
393.658	125.94
393.882	104.94
394.107	82.94
394.331	91.94
394.556	90.94
394.78	86.94
395.005	94.94
395.229	101.94
395.454	85.94
395.678	78.94
395.903	84.94
396.127	107.94
396.352	97.94
396.576	88.94
396.801	116.94
397.025	127.94
397.249	108.94
397.474	103.94
397.698	95.94
397.922	97.94
398.147	76.94
398.371	82.94
398.595	80.94
398.82	84.94
399.044	97.94
399.268	88.94
399.492	91.94
399.717	83.94
399.941	87.94
400.165	93.94
400.389	75.94
400.613	88.94
400.837	84.94
401.062	76.94
401.286	88.94
401.51	92.94
401.734	90.94
401.958	88.94
402.182	84.94
402.406	84.94
402.63	92.94
402.854	91.94
403.078	93.94
403.302	77.94
403.526	95.94
403.75	79.94
403.974	87.94
404.198	100.94
404.422	113.94
404.645	117.94
404.869	126.94
405.093	96.94
405.317	92.94
405.541	79.94
405.765	90.94
405.988	79.94
406.212	97.94
406.436	88.94
406.66	91.94
406.883	91.94
407.107	88.94
407.331	84.94
407.555	83.94
407.778	80.94
408.002	90.94
408.226	91.94
408.449	84.94
408.673	84.94
408.896	93.94
409.12	89.94
409.344	82.94
409.567	93.94
409.791	56.94
410.014	91.94
410.238	94.94
410.461	92.94
410.685	81.94
410.908	82.94
411.132	69.94
411.355	98.94
411.578	83.94
411.802	99.94
412.025	97.94
412.249	87.94
412.472	101.94
412.695	91.94
412.919	86.94
413.142	84.94
413.365	79.94
413.589	89.94
413.812	79.94
414.035	94.94
414.258	94.94
414.482	88.94
414.705	75.94
414.928	72.94
415.151	90.94
415.374	80.94
415.597	85.94
415.821	85.94
416.044	90.94
416.267	89.94
416.49	84.94
416.713	92.94
416.936	91.94
417.159	84.94
417.382	83.94
417.605	88.94
417.828	94.94
418.051	82.94
418.274	90.94
418.497	80.94
418.72	91.94
418.943	78.94
419.166	82.94
419.389	80.94
419.611	94.94
419.834	94.94
420.057	79.94
420.28	93.94
420.503	88.94
420.726	90.94
420.948	94.94
421.171	73.94
421.394	84.94
421.617	80.94
421.839	106.94
422.062	99.94
422.285	115.94
422.507	138.94
422.73	185.94
422.953	149.94
423.175	127.94
423.398	109.94
423.621	94.94
423.843	85.94
424.066	90.94
424.288	82.94
424.511	83.94
424.733	81.94
424.956	92.94
425.178	90.94
425.401	91.94
425.623	84.94
425.846	89.94
426.068	104.94
426.291	84.94
426.513	98.94
426.735	78.94
426.958	77.94
427.18	79.94
427.402	92.94
427.625	78.94
427.847	82.94
428.069	101.94
428.292	114.94
428.514	92.94
428.736	89.94
428.958	106.94
429.181	111.94
429.403	96.94
429.625	93.94
429.847	88.94
430.069	124.94
430.292	121.94
430.514	113.94
430.736	92.94
430.958	106.94
431.18	69.94
431.402	81.94
431.624	89.94
431.846	88.94
432.068	96.94
432.29	99.94
432.512	91.94
432.734	81.94
432.956	82.94
433.178	95.94
433.4	88.94
433.622	87.94
433.844	92.94
434.066	82.94
434.287	94.94
434.509	84.94
434.731	99.94
434.953	107.94
435.175	99.94
435.397	80.94
435.618	82.94
435.84	91.94
436.062	83.94
436.284	88.94
436.505	86.94
436.727	82.94
436.949	80.94
437.17	85.94
437.392	94.94
437.614	83.94
437.835	95.94
438.057	88.94
438.278	83.94
438.5	77.94
438.721	89.94
438.943	86.94
439.165	85.94
439.386	89.94
439.608	80.94
439.829	113.94
440.05	89.94
440.272	84.94
440.493	91.94
440.715	93.94
440.936	103.94
441.158	84.94
441.379	87.94
441.6	90.94
441.822	98.94
442.043	87.94
442.264	85.94
442.486	117.94
442.707	100.94
442.928	107.94
443.149	97.94
443.371	115.94
443.592	125.94
443.813	113.94
444.034	91.94
444.255	92.94
444.476	86.94
444.698	97.94
444.919	96.94
445.14	172.94
445.361	155.94
445.582	162.94
445.803	122.94
446.024	98.94
446.245	87.94
446.466	88.94
446.687	75.94
446.908	70.94
447.129	92.94
447.35	81.94
447.571	93.94
447.792	86.94
448.013	83.94
448.234	85.94
448.455	88.94
448.675	81.94
448.896	81.94
449.117	86.94
449.338	78.94
449.559	90.94
449.779	77.94
450	73.94
450.221	82.94
450.442	76.94
450.662	85.94
450.883	85.94
451.104	88.94
451.324	94.94
451.545	86.94
451.766	69.94
451.986	75.94
452.207	91.94
452.428	93.94
452.648	99.94
452.869	106.94
453.089	99.94
453.31	92.94
453.53	95.94
453.751	91.94
453.971	79.94
454.192	87.94
454.412	82.94
454.633	99.94
454.853	88.94
455.073	82.94
455.294	89.94
455.514	83.94
455.734	93.94
455.955	87.94
456.175	80.94
456.395	92.94
456.616	76.94
456.836	88.94
457.056	94.94
457.276	74.94
457.497	90.94
457.717	81.94
457.937	106.94
458.157	85.94
458.377	96.94
458.598	85.94
458.818	87.94
459.038	89.94
459.258	87.94
459.478	83.94
459.698	73.94
459.918	92.94
460.138	79.94
460.358	79.94
460.578	95.94
460.798	112.94
461.018	105.94
461.238	83.94
461.458	80.94
461.678	85.94
461.898	89.94
462.118	94.94
462.338	91.94
462.558	76.94
462.777	77.94
462.997	83.94
463.217	84.94
463.437	85.94
463.657	90.94
463.876	72.94
464.096	76.94
464.316	80.94
464.536	75.94
464.755	97.94
464.975	78.94
465.195	77.94
465.414	82.94
465.634	73.94
465.854	98.94
466.073	84.94
466.293	82.94
466.512	89.94
466.732	82.94
466.951	91.94
467.171	93.94
467.391	79.94
467.61	89.94
467.829	84.94
468.049	89.94
468.268	89.94
468.488	81.94
468.707	81.94
468.927	84.94
469.146	78.94
469.365	97.94
469.585	89.94
469.804	89.94
470.023	91.94
470.243	86.94
470.462	90.94
470.681	83.94
470.901	78.94
471.12	79.94
471.339	75.94
471.558	92.94
471.777	66.94
471.997	90.94
472.216	88.94
472.435	85.94
472.654	77.94
472.873	87.94
473.092	72.94
473.311	78.94
473.53	84.94
473.749	92.94
473.968	97.94
474.187	88.94
474.406	79.94
474.625	86.94
474.844	89.94
475.063	90.94
475.282	86.94
475.501	75.94
475.72	91.94
475.939	86.94
476.158	76.94
476.377	98.94
476.596	81.94
476.814	98.94
477.033	76.94
477.252	96.94
477.471	81.94
477.69	79.94
477.908	80.94
478.127	89.94
478.346	79.94
478.564	82.94
478.783	75.94
479.002	95.94
479.22	78.94
479.439	77.94
479.658	88.94
479.876	79.94
480.095	93.94
480.313	79.94
480.532	93.94
480.751	88.94
480.969	84.94
481.188	84.94
481.406	89.94
481.624	87.94
481.843	75.94
482.061	95.94
482.28	87.94
482.498	80.94
482.717	88.94
482.935	89.94
483.153	82.94
483.372	87.94
483.59	90.94
483.808	108.94
484.027	90.94
484.245	90.94
484.463	93.94
484.681	92.94
484.9	98.94
485.118	83.94
485.336	90.94
485.554	94.94
485.772	90.94
485.99	92.94
486.209	95.94
486.427	86.94
486.645	88.94
486.863	91.94
487.081	86.94
487.299	102.94
487.517	105.94
487.735	100.94
487.953	117.94
488.171	102.94
488.389	87.94
488.607	93.94
488.825	95.94
489.043	89.94
489.261	84.94
489.479	84.94
489.696	80.94
489.914	83.94
490.132	82.94
490.35	91.94
490.568	89.94
490.786	90.94
491.003	91.94
491.221	91.94
491.439	96.94
491.657	74.94
491.874	82.94
492.092	94.94
492.31	85.94
492.527	88.94
492.745	84.94
492.963	98.94
493.18	89.94
493.398	77.94
493.615	82.94
493.833	88.94
494.05	84.94
494.268	80.94
494.485	92.94
494.703	94.94
494.92	89.94
495.138	92.94
495.355	81.94
495.573	98.94
495.79	86.94
496.008	83.94
496.225	81.94
496.442	80.94
496.66	88.94
496.877	97.94
497.094	85.94
497.312	69.94
497.529	97.94
497.746	94.94
497.963	89.94
498.181	97.94
498.398	90.94
498.615	87.94
498.832	80.94
499.049	83.94
499.267	96.94
499.484	107.94
499.701	92.94
499.918	103.94
500.135	101.94
500.352	76.94
500.569	92.94
500.786	94.94
501.003	90.94
501.22	83.94
501.437	103.94
501.654	86.94
501.871	92.94
502.088	84.94
502.305	108.94
502.522	79.94
502.739	78.94
502.956	88.94
503.172	85.94
503.389	92.94
503.606	89.94
503.823	96.94
504.04	103.94
504.256	107.94
504.473	104.94
504.69	84.94
504.907	113.94
505.123	94.94
505.34	83.94
505.557	86.94
505.773	97.94
505.99	97.94
506.207	77.94
506.423	82.94
506.64	96.94
506.856	84.94
507.073	87.94
507.289	74.94
507.506	76.94
507.722	86.94
507.939	83.94
508.155	94.94
508.372	89.94
508.588	84.94
508.805	86.94
509.021	67.94
509.238	81.94
509.454	93.94
509.67	91.94
509.887	100.94
510.103	82.94
510.319	83.94
510.536	87.94
510.752	108.94
510.968	96.94
511.184	92.94
511.401	93.94
511.617	96.94
511.833	96.94
512.049	93.94
512.265	77.94
512.481	73.94
512.698	97.94
512.914	100.94
513.13	91.94
513.346	80.94
513.562	81.94
513.778	96.94
513.994	83.94
514.21	96.94
514.426	92.94
514.642	102.94
514.858	78.94
515.074	95.94
515.29	113.94
515.506	89.94
515.721	88.94
515.937	101.94
516.153	101.94
516.369	85.94
516.585	87.94
516.801	95.94
517.016	94.94
517.232	88.94
517.448	80.94
517.664	90.94
517.879	98.94
518.095	85.94
518.311	85.94
518.527	88.94
