Data from Mixheat1_HRD10591_00012.txt Node
Date: Fri Dec 27 15:06:55 EST 2024
User: Yrep
Spectrometer: HR+D1059
Trigger mode: 1
Integration Time (sec): 1.000000E-1
Scans to average: 1
Electric dark correction enabled: true
Nonlinearity correction enabled: false
Boxcar width: 0
XAxis mode: Wavelengths
Number of Pixels in Spectrum: 2048
>>>>>Begin Spectral Data<<<<<
223.165	-13.62
223.4	-13.62
223.635	-13.62
223.869	-19.62
224.104	-12.62
224.338	-21.62
224.573	-7.62
224.808	-8.62
225.042	-14.62
225.277	-7.62
225.511	3.38
225.746	4.38
225.98	0.38
226.215	6.38
226.449	12.38
226.683	20.38
226.918	21.38
227.152	37.38
227.387	20.38
227.621	40.38
227.856	54.38
228.09	48.38
228.324	42.38
228.559	60.38
228.793	54.38
229.027	55.38
229.262	64.38
229.496	65.38
229.73	65.38
229.964	70.38
230.199	70.38
230.433	62.38
230.667	67.38
230.901	69.38
231.136	74.38
231.37	77.38
231.604	67.38
231.838	76.38
232.072	80.38
232.306	74.38
232.541	69.38
232.775	69.38
233.009	85.38
233.243	77.38
233.477	86.38
233.711	74.38
233.945	81.38
234.179	82.38
234.413	78.38
234.647	81.38
234.881	84.38
235.115	80.38
235.349	72.38
235.583	65.38
235.817	83.38
236.051	69.38
236.285	68.38
236.519	81.38
236.753	71.38
236.987	84.38
237.221	76.38
237.455	67.38
237.689	78.38
237.922	83.38
238.156	88.38
238.39	79.38
238.624	82.38
238.858	72.38
239.091	61.38
239.325	64.38
239.559	82.38
239.793	81.38
240.027	67.38
240.26	73.38
240.494	84.38
240.728	64.38
240.961	75.38
241.195	69.38
241.429	63.38
241.662	68.38
241.896	69.38
242.13	73.38
242.363	65.38
242.597	76.38
242.83	62.38
243.064	67.38
243.298	70.38
243.531	63.38
243.765	75.38
243.998	68.38
244.232	73.38
244.465	75.38
244.699	64.38
244.932	69.38
245.166	77.38
245.399	76.38
245.633	93.38
245.866	63.38
246.099	62.38
246.333	76.38
246.566	80.38
246.8	72.38
247.033	69.38
247.266	83.38
247.5	84.38
247.733	87.38
247.966	83.38
248.2	68.38
248.433	71.38
248.666	75.38
248.899	74.38
249.133	76.38
249.366	69.38
249.599	89.38
249.832	71.38
250.066	83.38
250.299	76.38
250.532	78.38
250.765	79.38
250.998	74.38
251.231	80.38
251.465	77.38
251.698	79.38
251.931	62.38
252.164	74.38
252.397	71.38
252.63	69.38
252.863	84.38
253.096	65.38
253.329	86.38
253.562	87.38
253.795	70.38
254.028	73.38
254.261	83.38
254.494	82.38
254.727	61.38
254.96	64.38
255.193	82.38
255.426	94.38
255.659	73.38
255.892	68.38
256.124	89.38
256.357	67.38
256.59	85.38
256.823	84.38
257.056	80.38
257.289	86.38
257.521	71.38
257.754	80.38
257.987	83.38
258.22	81.38
258.452	73.38
258.685	72.38
258.918	79.38
259.151	77.38
259.383	81.38
259.616	78.38
259.849	78.38
260.081	76.38
260.314	77.38
260.547	68.38
260.779	73.38
261.012	84.38
261.244	78.38
261.477	77.38
261.71	85.38
261.942	80.38
262.175	82.38
262.407	60.38
262.64	56.38
262.872	83.38
263.105	82.38
263.337	85.38
263.57	75.38
263.802	69.38
264.035	70.38
264.267	86.38
264.499	69.38
264.732	94.38
264.964	95.38
265.197	76.38
265.429	84.38
265.661	85.38
265.894	82.38
266.126	89.38
266.358	76.38
266.591	71.38
266.823	70.38
267.055	76.38
267.287	67.38
267.52	76.38
267.752	75.38
267.984	75.38
268.216	73.38
268.448	78.38
268.681	75.38
268.913	81.38
269.145	70.38
269.377	77.38
269.609	65.38
269.841	80.38
270.073	84.38
270.306	97.38
270.538	96.38
270.77	71.38
271.002	74.38
271.234	81.38
271.466	89.38
271.698	71.38
271.93	80.38
272.162	70.38
272.394	69.38
272.626	53.38
272.858	84.38
273.09	78.38
273.322	79.38
273.553	83.38
273.785	79.38
274.017	83.38
274.249	83.38
274.481	86.38
274.713	83.38
274.945	86.38
275.176	86.38
275.408	67.38
275.64	90.38
275.872	78.38
276.104	88.38
276.335	78.38
276.567	85.38
276.799	73.38
277.031	72.38
277.262	86.38
277.494	79.38
277.726	85.38
277.957	78.38
278.189	77.38
278.421	84.38
278.652	91.38
278.884	76.38
279.115	87.38
279.347	68.38
279.579	75.38
279.81	84.38
280.042	82.38
280.273	85.38
280.505	89.38
280.736	80.38
280.968	86.38
281.199	75.38
281.431	95.38
281.662	73.38
281.894	78.38
282.125	83.38
282.356	76.38
282.588	93.38
282.819	73.38
283.051	78.38
283.282	82.38
283.513	82.38
283.745	88.38
283.976	96.38
284.207	74.38
284.439	92.38
284.67	72.38
284.901	65.38
285.132	89.38
285.364	90.38
285.595	92.38
285.826	101.38
286.057	83.38
286.288	93.38
286.52	93.38
286.751	73.38
286.982	80.38
287.213	80.38
287.444	79.38
287.675	91.38
287.906	72.38
288.138	86.38
288.369	88.38
288.6	85.38
288.831	83.38
289.062	86.38
289.293	79.38
289.524	78.38
289.755	83.38
289.986	75.38
290.217	75.38
290.448	93.38
290.679	89.38
290.91	82.38
291.141	82.38
291.371	83.38
291.602	81.38
291.833	80.38
292.064	83.38
292.295	79.38
292.526	86.38
292.757	81.38
292.987	88.38
293.218	85.38
293.449	77.38
293.68	78.38
293.91	73.38
294.141	84.38
294.372	76.38
294.603	85.38
294.833	83.38
295.064	84.38
295.295	94.38
295.525	83.38
295.756	91.38
295.987	88.38
296.217	79.38
296.448	84.38
296.679	88.38
296.909	98.38
297.14	90.38
297.37	92.38
297.601	86.38
297.831	84.38
298.062	81.38
298.292	90.38
298.523	92.38
298.753	86.38
298.984	98.38
299.214	86.38
299.445	89.38
299.675	78.38
299.905	87.38
300.136	77.38
300.366	93.38
300.597	76.38
300.827	80.38
301.057	83.38
301.288	84.38
301.518	87.38
301.748	77.38
301.979	96.38
302.209	87.38
302.439	69.38
302.669	88.38
302.9	76.38
303.13	92.38
303.36	100.38
303.59	83.38
303.82	76.38
304.051	84.38
304.281	84.38
304.511	82.38
304.741	78.38
304.971	81.38
305.201	83.38
305.431	80.38
305.661	82.38
305.891	83.38
306.121	100.38
306.352	84.38
306.582	70.38
306.812	80.38
307.042	79.38
307.272	94.38
307.502	96.38
307.731	85.38
307.961	88.38
308.191	72.38
308.421	68.38
308.651	72.38
308.881	78.38
309.111	68.38
309.341	87.38
309.571	85.38
309.8	78.38
310.03	88.38
310.26	74.38
310.49	80.38
310.72	85.38
310.949	80.38
311.179	84.38
311.409	75.38
311.639	81.38
311.868	85.38
312.098	76.38
312.328	95.38
312.557	84.38
312.787	87.38
313.017	88.38
313.246	81.38
313.476	76.38
313.706	85.38
313.935	85.38
314.165	89.38
314.394	83.38
314.624	77.38
314.853	86.38
315.083	90.38
315.312	76.38
315.542	83.38
315.771	73.38
316.001	80.38
316.23	82.38
316.46	83.38
316.689	98.38
316.919	83.38
317.148	89.38
317.377	89.38
317.607	81.38
317.836	86.38
318.065	89.38
318.295	80.38
318.524	77.38
318.753	93.38
318.983	76.38
319.212	71.38
319.441	87.38
319.67	86.38
319.9	80.38
320.129	73.38
320.358	80.38
320.587	75.38
320.816	81.38
321.046	87.38
321.275	84.38
321.504	73.38
321.733	88.38
321.962	88.38
322.191	79.38
322.42	87.38
322.649	86.38
322.878	87.38
323.108	77.38
323.337	74.38
323.566	89.38
323.795	81.38
324.024	85.38
324.253	83.38
324.482	99.38
324.71	88.38
324.939	79.38
325.168	87.38
325.397	72.38
325.626	74.38
325.855	76.38
326.084	95.38
326.313	77.38
326.542	70.38
326.77	81.38
326.999	80.38
327.228	87.38
327.457	86.38
327.686	81.38
327.914	69.38
328.143	97.38
328.372	93.38
328.6	76.38
328.829	92.38
329.058	83.38
329.287	91.38
329.515	85.38
329.744	90.38
329.972	89.38
330.201	87.38
330.43	86.38
330.658	102.38
330.887	98.38
331.115	86.38
331.344	96.38
331.572	88.38
331.801	66.38
332.03	78.38
332.258	69.38
332.486	74.38
332.715	88.38
332.943	82.38
333.172	61.38
333.4	76.38
333.629	91.38
333.857	100.38
334.085	95.38
334.314	88.38
334.542	88.38
334.771	86.38
334.999	78.38
335.227	82.38
335.455	84.38
335.684	72.38
335.912	70.38
336.14	91.38
336.369	91.38
336.597	81.38
336.825	87.38
337.053	97.38
337.281	75.38
337.51	78.38
337.738	72.38
337.966	88.38
338.194	82.38
338.422	81.38
338.65	80.38
338.878	101.38
339.106	92.38
339.334	82.38
339.562	89.38
339.79	90.38
340.018	92.38
340.246	80.38
340.474	69.38
340.702	94.38
340.93	85.38
341.158	66.38
341.386	89.38
341.614	86.38
341.842	69.38
342.07	101.38
342.298	87.38
342.526	91.38
342.754	74.38
342.981	83.38
343.209	89.38
343.437	87.38
343.665	77.38
343.893	72.38
344.12	80.38
344.348	77.38
344.576	75.38
344.804	76.38
345.031	90.38
345.259	83.38
345.487	94.38
345.714	81.38
345.942	89.38
346.17	89.38
346.397	80.38
346.625	61.38
346.853	78.38
347.08	90.38
347.308	84.38
347.535	83.38
347.763	91.38
347.99	73.38
348.218	78.38
348.445	96.38
348.673	84.38
348.9	96.38
349.128	91.38
349.355	83.38
349.583	81.38
349.81	76.38
350.037	62.38
350.265	73.38
350.492	80.38
350.72	94.38
350.947	73.38
351.174	78.38
351.402	84.38
351.629	76.38
351.856	89.38
352.083	89.38
352.311	81.38
352.538	78.38
352.765	102.38
352.992	87.38
353.22	70.38
353.447	80.38
353.674	97.38
353.901	75.38
354.128	88.38
354.355	80.38
354.583	88.38
354.81	78.38
355.037	93.38
355.264	107.38
355.491	95.38
355.718	77.38
355.945	78.38
356.172	85.38
356.399	96.38
356.626	75.38
356.853	96.38
357.08	63.38
357.307	88.38
357.534	75.38
357.761	89.38
357.988	96.38
358.215	91.38
358.441	74.38
358.668	84.38
358.895	72.38
359.122	69.38
359.349	75.38
359.576	84.38
359.802	71.38
360.029	89.38
360.256	94.38
360.483	88.38
360.709	74.38
360.936	88.38
361.163	66.38
361.39	93.38
361.616	75.38
361.843	82.38
362.07	87.38
362.296	81.38
362.523	73.38
362.749	78.38
362.976	78.38
363.203	92.38
363.429	70.38
363.656	81.38
363.882	85.38
364.109	80.38
364.335	93.38
364.562	85.38
364.788	82.38
365.015	100.38
365.241	85.38
365.468	76.38
365.694	66.38
365.92	100.38
366.147	82.38
366.373	67.38
366.599	81.38
366.826	78.38
367.052	70.38
367.278	83.38
367.505	72.38
367.731	88.38
367.957	74.38
368.184	82.38
368.41	83.38
368.636	82.38
368.862	80.38
369.089	83.38
369.315	71.38
369.541	87.38
369.767	70.38
369.993	87.38
370.219	74.38
370.445	75.38
370.672	82.38
370.898	68.38
371.124	82.38
371.35	104.38
371.576	65.38
371.802	66.38
372.028	73.38
372.254	82.38
372.48	77.38
372.706	77.38
372.932	76.38
373.158	86.38
373.384	91.38
373.61	88.38
373.835	94.38
374.061	83.38
374.287	76.38
374.513	88.38
374.739	87.38
374.965	72.38
375.191	90.38
375.416	84.38
375.642	93.38
375.868	101.38
376.094	81.38
376.319	82.38
376.545	78.38
376.771	72.38
376.997	71.38
377.222	63.38
377.448	86.38
377.674	72.38
377.899	76.38
378.125	89.38
378.35	88.38
378.576	92.38
378.802	86.38
379.027	80.38
379.253	86.38
379.478	61.38
379.704	70.38
379.929	77.38
380.155	88.38
380.38	75.38
380.606	72.38
380.831	56.38
381.057	71.38
381.282	84.38
381.507	88.38
381.733	66.38
381.958	75.38
382.184	80.38
382.409	84.38
382.634	79.38
382.86	91.38
383.085	82.38
383.31	78.38
383.535	87.38
383.761	90.38
383.986	73.38
384.211	81.38
384.436	82.38
384.662	77.38
384.887	72.38
385.112	65.38
385.337	77.38
385.562	80.38
385.787	84.38
386.013	90.38
386.238	91.38
386.463	85.38
386.688	97.38
386.913	81.38
387.138	96.38
387.363	88.38
387.588	93.38
387.813	81.38
388.038	69.38
388.263	85.38
388.488	78.38
388.713	72.38
388.938	100.38
389.163	80.38
389.387	69.38
389.612	83.38
389.837	78.38
390.062	90.38
390.287	91.38
390.512	89.38
390.736	72.38
390.961	75.38
391.186	85.38
391.411	76.38
391.636	65.38
391.86	81.38
392.085	95.38
392.31	85.38
392.534	82.38
392.759	79.38
392.984	87.38
393.208	83.38
393.433	98.38
393.658	93.38
393.882	97.38
394.107	70.38
394.331	87.38
394.556	89.38
394.78	90.38
395.005	77.38
395.229	70.38
395.454	89.38
395.678	90.38
395.903	77.38
396.127	81.38
396.352	90.38
396.576	72.38
396.801	85.38
397.025	102.38
397.249	97.38
397.474	97.38
397.698	91.38
397.922	66.38
398.147	93.38
398.371	86.38
398.595	84.38
398.82	74.38
399.044	84.38
399.268	72.38
399.492	66.38
399.717	85.38
399.941	73.38
400.165	77.38
400.389	77.38
400.613	83.38
400.837	77.38
401.062	81.38
401.286	79.38
401.51	83.38
401.734	91.38
401.958	88.38
402.182	84.38
402.406	79.38
402.63	78.38
402.854	70.38
403.078	87.38
403.302	76.38
403.526	77.38
403.75	91.38
403.974	101.38
404.198	84.38
404.422	80.38
404.645	100.38
404.869	89.38
405.093	96.38
405.317	93.38
405.541	89.38
405.765	74.38
405.988	87.38
406.212	75.38
406.436	89.38
406.66	76.38
406.883	74.38
407.107	82.38
407.331	81.38
407.555	84.38
407.778	74.38
408.002	77.38
408.226	80.38
408.449	69.38
408.673	86.38
408.896	95.38
409.12	78.38
409.344	82.38
409.567	81.38
409.791	80.38
410.014	81.38
410.238	80.38
410.461	73.38
410.685	74.38
410.908	70.38
411.132	74.38
411.355	62.38
411.578	80.38
411.802	82.38
412.025	86.38
412.249	67.38
412.472	80.38
412.695	82.38
412.919	78.38
413.142	76.38
413.365	61.38
413.589	84.38
413.812	84.38
414.035	88.38
414.258	88.38
414.482	82.38
414.705	84.38
414.928	78.38
415.151	89.38
415.374	79.38
415.597	82.38
415.821	76.38
416.044	77.38
416.267	77.38
416.49	84.38
416.713	74.38
416.936	85.38
417.159	77.38
417.382	66.38
417.605	77.38
417.828	90.38
418.051	83.38
418.274	84.38
418.497	72.38
418.72	70.38
418.943	84.38
419.166	87.38
419.389	87.38
419.611	79.38
419.834	82.38
420.057	90.38
420.28	80.38
420.503	89.38
420.726	72.38
420.948	87.38
421.171	80.38
421.394	92.38
421.617	61.38
421.839	93.38
422.062	83.38
422.285	84.38
422.507	104.38
422.73	144.38
422.953	118.38
423.175	86.38
423.398	89.38
423.621	88.38
423.843	77.38
424.066	101.38
424.288	82.38
424.511	70.38
424.733	76.38
424.956	98.38
425.178	72.38
425.401	75.38
425.623	84.38
425.846	83.38
426.068	87.38
426.291	77.38
426.513	80.38
426.735	87.38
426.958	98.38
427.18	72.38
427.402	72.38
427.625	68.38
427.847	76.38
428.069	71.38
428.292	85.38
428.514	91.38
428.736	101.38
428.958	81.38
429.181	87.38
429.403	80.38
429.625	81.38
429.847	80.38
430.069	105.38
430.292	102.38
430.514	89.38
430.736	89.38
430.958	98.38
431.18	80.38
431.402	77.38
431.624	80.38
431.846	80.38
432.068	81.38
432.29	74.38
432.512	77.38
432.734	67.38
432.956	78.38
433.178	94.38
433.4	85.38
433.622	82.38
433.844	59.38
434.066	76.38
434.287	90.38
434.509	71.38
434.731	79.38
434.953	70.38
435.175	75.38
435.397	85.38
435.618	69.38
435.84	88.38
436.062	84.38
436.284	86.38
436.505	83.38
436.727	84.38
436.949	78.38
437.17	96.38
437.392	83.38
437.614	78.38
437.835	79.38
438.057	70.38
438.278	77.38
438.5	86.38
438.721	83.38
438.943	74.38
439.165	89.38
439.386	97.38
439.608	83.38
439.829	82.38
440.05	86.38
440.272	88.38
440.493	78.38
440.715	68.38
440.936	88.38
441.158	85.38
441.379	80.38
441.6	75.38
441.822	80.38
442.043	79.38
442.264	85.38
442.486	100.38
442.707	93.38
442.928	80.38
443.149	84.38
443.371	99.38
443.592	91.38
443.813	102.38
444.034	79.38
444.255	84.38
444.476	81.38
444.698	69.38
444.919	76.38
445.14	133.38
445.361	135.38
445.582	120.38
445.803	104.38
446.024	83.38
446.245	90.38
446.466	82.38
446.687	62.38
446.908	85.38
447.129	92.38
447.35	63.38
447.571	80.38
447.792	70.38
448.013	84.38
448.234	77.38
448.455	73.38
448.675	72.38
448.896	87.38
449.117	73.38
449.338	78.38
449.559	81.38
449.779	81.38
450	79.38
450.221	80.38
450.442	84.38
450.662	71.38
450.883	90.38
451.104	62.38
451.324	61.38
451.545	81.38
451.766	77.38
451.986	83.38
452.207	79.38
452.428	98.38
452.648	84.38
452.869	81.38
453.089	81.38
453.31	81.38
453.53	76.38
453.751	93.38
453.971	92.38
454.192	78.38
454.412	72.38
454.633	78.38
454.853	77.38
455.073	71.38
455.294	75.38
455.514	82.38
455.734	84.38
455.955	82.38
456.175	83.38
456.395	88.38
456.616	80.38
456.836	75.38
457.056	76.38
457.276	69.38
457.497	87.38
457.717	91.38
457.937	77.38
458.157	86.38
458.377	76.38
458.598	81.38
458.818	72.38
459.038	73.38
459.258	92.38
459.478	76.38
459.698	75.38
459.918	73.38
460.138	79.38
460.358	94.38
460.578	88.38
460.798	74.38
461.018	76.38
461.238	82.38
461.458	85.38
461.678	84.38
461.898	90.38
462.118	75.38
462.338	76.38
462.558	74.38
462.777	76.38
462.997	86.38
463.217	71.38
463.437	87.38
463.657	69.38
463.876	76.38
464.096	58.38
464.316	78.38
464.536	75.38
464.755	87.38
464.975	78.38
465.195	63.38
465.414	75.38
465.634	77.38
465.854	84.38
466.073	86.38
466.293	76.38
466.512	84.38
466.732	84.38
466.951	76.38
467.171	86.38
467.391	86.38
467.61	80.38
467.829	70.38
468.049	86.38
468.268	64.38
468.488	101.38
468.707	68.38
468.927	76.38
469.146	77.38
469.365	88.38
469.585	84.38
469.804	88.38
470.023	61.38
470.243	86.38
470.462	93.38
470.681	83.38
470.901	76.38
471.12	73.38
471.339	83.38
471.558	88.38
471.777	71.38
471.997	87.38
472.216	73.38
472.435	79.38
472.654	77.38
472.873	95.38
473.092	74.38
473.311	78.38
473.53	77.38
473.749	91.38
473.968	77.38
474.187	59.38
474.406	68.38
474.625	74.38
474.844	73.38
475.063	85.38
475.282	69.38
475.501	79.38
475.72	78.38
475.939	84.38
476.158	79.38
476.377	72.38
476.596	83.38
476.814	78.38
477.033	92.38
477.252	85.38
477.471	72.38
477.69	72.38
477.908	89.38
478.127	72.38
478.346	77.38
478.564	89.38
478.783	98.38
479.002	84.38
479.22	89.38
479.439	83.38
479.658	90.38
479.876	74.38
480.095	70.38
480.313	80.38
480.532	70.38
480.751	77.38
480.969	72.38
481.188	91.38
481.406	90.38
481.624	79.38
481.843	68.38
482.061	72.38
482.28	77.38
482.498	96.38
482.717	78.38
482.935	89.38
483.153	80.38
483.372	84.38
483.59	81.38
483.808	71.38
484.027	85.38
484.245	82.38
484.463	72.38
484.681	81.38
484.9	100.38
485.118	81.38
485.336	80.38
485.554	79.38
485.772	80.38
485.99	106.38
486.209	74.38
486.427	81.38
486.645	89.38
486.863	80.38
487.081	76.38
487.299	73.38
487.517	88.38
487.735	85.38
487.953	92.38
488.171	98.38
488.389	71.38
488.607	84.38
488.825	75.38
489.043	63.38
489.261	87.38
489.479	80.38
489.696	99.38
489.914	90.38
490.132	87.38
490.35	88.38
490.568	80.38
490.786	86.38
491.003	75.38
491.221	83.38
491.439	76.38
491.657	76.38
491.874	84.38
492.092	78.38
492.31	88.38
492.527	80.38
492.745	95.38
492.963	80.38
493.18	77.38
493.398	80.38
493.615	89.38
493.833	91.38
494.05	86.38
494.268	78.38
494.485	72.38
494.703	83.38
494.92	89.38
495.138	81.38
495.355	81.38
495.573	89.38
495.79	74.38
496.008	74.38
496.225	83.38
496.442	85.38
496.66	90.38
496.877	88.38
497.094	77.38
497.312	86.38
497.529	88.38
497.746	75.38
497.963	78.38
498.181	80.38
498.398	96.38
498.615	90.38
498.832	76.38
499.049	75.38
499.267	82.38
499.484	83.38
499.701	79.38
499.918	84.38
500.135	85.38
500.352	85.38
500.569	72.38
500.786	75.38
501.003	85.38
501.22	78.38
501.437	81.38
501.654	74.38
501.871	86.38
502.088	90.38
502.305	85.38
502.522	87.38
502.739	91.38
502.956	89.38
503.172	86.38
503.389	85.38
503.606	82.38
503.823	94.38
504.04	84.38
504.256	89.38
504.473	88.38
504.69	77.38
504.907	83.38
505.123	88.38
505.34	71.38
505.557	86.38
505.773	77.38
505.99	102.38
506.207	88.38
506.423	91.38
506.64	84.38
506.856	101.38
507.073	84.38
507.289	75.38
507.506	88.38
507.722	83.38
507.939	91.38
508.155	81.38
508.372	81.38
508.588	87.38
508.805	91.38
509.021	83.38
509.238	80.38
509.454	65.38
509.67	69.38
509.887	75.38
510.103	84.38
510.319	84.38
510.536	86.38
510.752	80.38
510.968	81.38
511.184	84.38
511.401	90.38
511.617	81.38
511.833	89.38
512.049	76.38
512.265	88.38
512.481	85.38
512.698	92.38
512.914	94.38
513.13	81.38
513.346	58.38
513.562	86.38
513.778	71.38
513.994	71.38
514.21	65.38
514.426	79.38
514.642	82.38
514.858	71.38
515.074	90.38
515.29	81.38
515.506	88.38
515.721	78.38
515.937	98.38
516.153	70.38
516.369	78.38
516.585	94.38
516.801	86.38
517.016	97.38
517.232	77.38
517.448	79.38
517.664	86.38
517.879	76.38
518.095	71.38
518.311	85.38
518.527	82.38
518.742	77.38
518.958	89.38
519.173	97.38
519.389	88.38
519.605	76.38
519.82	63.38
