Data from Mixheat1_HRD10591_00006.txt Node
Date: Fri Dec 27 15:06:49 EST 2024
User: Yrep
Spectrometer: HR+D1059
Trigger mode: 1
Integration Time (sec): 1.000000E-1
Scans to average: 1
Electric dark correction enabled: true
Nonlinearity correction enabled: false
Boxcar width: 0
XAxis mode: Wavelengths
Number of Pixels in Spectrum: 2048
>>>>>Begin Spectral Data<<<<<
223.165	-25.38
223.4	-25.38
223.635	-25.38
223.869	-5.38
224.104	-20.38
224.338	-15.38
224.573	-19.38
224.808	-4.38
225.042	-16.38
225.277	-3.38
225.511	-7.38
225.746	3.62
225.98	4.62
226.215	7.62
226.449	16.62
226.683	24.62
226.918	26.62
227.152	33.62
227.387	30.62
227.621	52.62
227.856	51.62
228.09	52.62
228.324	46.62
228.559	47.62
228.793	60.62
229.027	61.62
229.262	76.62
229.496	64.62
229.73	72.62
229.964	60.62
230.199	72.62
230.433	72.62
230.667	78.62
230.901	75.62
231.136	82.62
231.37	71.62
231.604	73.62
231.838	78.62
232.072	78.62
232.306	73.62
232.541	74.62
232.775	78.62
233.009	90.62
233.243	90.62
233.477	71.62
233.711	74.62
233.945	90.62
234.179	70.62
234.413	90.62
234.647	81.62
234.881	88.62
235.115	71.62
235.349	78.62
235.583	80.62
235.817	87.62
236.051	73.62
236.285	74.62
236.519	84.62
236.753	92.62
236.987	75.62
237.221	75.62
237.455	78.62
237.689	77.62
237.922	77.62
238.156	83.62
238.39	69.62
238.624	86.62
238.858	72.62
239.091	84.62
239.325	59.62
239.559	77.62
239.793	65.62
240.027	73.62
240.26	82.62
240.494	70.62
240.728	80.62
240.961	82.62
241.195	79.62
241.429	73.62
241.662	70.62
241.896	85.62
242.13	78.62
242.363	72.62
242.597	66.62
242.83	77.62
243.064	86.62
243.298	69.62
243.531	81.62
243.765	82.62
243.998	65.62
244.232	66.62
244.465	81.62
244.699	85.62
244.932	78.62
245.166	80.62
245.399	78.62
245.633	84.62
245.866	70.62
246.099	78.62
246.333	80.62
246.566	58.62
246.8	84.62
247.033	57.62
247.266	72.62
247.5	90.62
247.733	78.62
247.966	80.62
248.2	74.62
248.433	62.62
248.666	74.62
248.899	91.62
249.133	78.62
249.366	85.62
249.599	76.62
249.832	71.62
250.066	82.62
250.299	73.62
250.532	74.62
250.765	81.62
250.998	61.62
251.231	75.62
251.465	86.62
251.698	71.62
251.931	80.62
252.164	76.62
252.397	82.62
252.63	86.62
252.863	67.62
253.096	84.62
253.329	68.62
253.562	73.62
253.795	92.62
254.028	86.62
254.261	74.62
254.494	95.62
254.727	80.62
254.96	86.62
255.193	92.62
255.426	85.62
255.659	71.62
255.892	90.62
256.124	68.62
256.357	80.62
256.59	81.62
256.823	87.62
257.056	92.62
257.289	83.62
257.521	81.62
257.754	81.62
257.987	82.62
258.22	88.62
258.452	80.62
258.685	80.62
258.918	86.62
259.151	72.62
259.383	78.62
259.616	88.62
259.849	75.62
260.081	65.62
260.314	85.62
260.547	84.62
260.779	95.62
261.012	90.62
261.244	93.62
261.477	90.62
261.71	72.62
261.942	70.62
262.175	88.62
262.407	81.62
262.64	87.62
262.872	80.62
263.105	88.62
263.337	95.62
263.57	90.62
263.802	73.62
264.035	85.62
264.267	76.62
264.499	73.62
264.732	77.62
264.964	87.62
265.197	88.62
265.429	70.62
265.661	90.62
265.894	87.62
266.126	80.62
266.358	77.62
266.591	93.62
266.823	85.62
267.055	85.62
267.287	84.62
267.52	88.62
267.752	93.62
267.984	85.62
268.216	85.62
268.448	64.62
268.681	72.62
268.913	81.62
269.145	93.62
269.377	83.62
269.609	84.62
269.841	77.62
270.073	90.62
270.306	85.62
270.538	84.62
270.77	72.62
271.002	77.62
271.234	84.62
271.466	96.62
271.698	81.62
271.93	78.62
272.162	80.62
272.394	101.62
272.626	89.62
272.858	89.62
273.09	69.62
273.322	84.62
273.553	86.62
273.785	72.62
274.017	63.62
274.249	80.62
274.481	87.62
274.713	76.62
274.945	94.62
275.176	65.62
275.408	82.62
275.64	83.62
275.872	70.62
276.104	76.62
276.335	84.62
276.567	82.62
276.799	98.62
277.031	88.62
277.262	83.62
277.494	76.62
277.726	80.62
277.957	87.62
278.189	80.62
278.421	74.62
278.652	75.62
278.884	92.62
279.115	75.62
279.347	81.62
279.579	77.62
279.81	87.62
280.042	96.62
280.273	94.62
280.505	81.62
280.736	82.62
280.968	87.62
281.199	80.62
281.431	87.62
281.662	82.62
281.894	90.62
282.125	80.62
282.356	97.62
282.588	84.62
282.819	82.62
283.051	85.62
283.282	87.62
283.513	80.62
283.745	85.62
283.976	76.62
284.207	69.62
284.439	80.62
284.67	89.62
284.901	90.62
285.132	87.62
285.364	86.62
285.595	90.62
285.826	95.62
286.057	73.62
286.288	78.62
286.52	77.62
286.751	86.62
286.982	91.62
287.213	79.62
287.444	81.62
287.675	79.62
287.906	87.62
288.138	84.62
288.369	68.62
288.6	90.62
288.831	74.62
289.062	80.62
289.293	83.62
289.524	88.62
289.755	85.62
289.986	68.62
290.217	84.62
290.448	77.62
290.679	80.62
290.91	90.62
291.141	85.62
291.371	97.62
291.602	85.62
291.833	100.62
292.064	85.62
292.295	100.62
292.526	85.62
292.757	91.62
292.987	87.62
293.218	71.62
293.449	89.62
293.68	90.62
293.91	93.62
294.141	81.62
294.372	82.62
294.603	97.62
294.833	79.62
295.064	91.62
295.295	88.62
295.525	83.62
295.756	89.62
295.987	92.62
296.217	91.62
296.448	96.62
296.679	79.62
296.909	92.62
297.14	88.62
297.37	91.62
297.601	81.62
297.831	82.62
298.062	86.62
298.292	73.62
298.523	84.62
298.753	92.62
298.984	95.62
299.214	83.62
299.445	89.62
299.675	105.62
299.905	83.62
300.136	88.62
300.366	83.62
300.597	85.62
300.827	86.62
301.057	93.62
301.288	98.62
301.518	65.62
301.748	79.62
301.979	112.62
302.209	75.62
302.439	84.62
302.669	96.62
302.9	90.62
303.13	90.62
303.36	79.62
303.59	76.62
303.82	93.62
304.051	94.62
304.281	76.62
304.511	82.62
304.741	78.62
304.971	76.62
305.201	91.62
305.431	89.62
305.661	103.62
305.891	88.62
306.121	85.62
306.352	82.62
306.582	88.62
306.812	90.62
307.042	80.62
307.272	96.62
307.502	86.62
307.731	72.62
307.961	90.62
308.191	82.62
308.421	73.62
308.651	93.62
308.881	89.62
309.111	84.62
309.341	74.62
309.571	83.62
309.8	98.62
310.03	76.62
310.26	77.62
310.49	79.62
310.72	95.62
310.949	100.62
311.179	95.62
311.409	72.62
311.639	76.62
311.868	84.62
312.098	85.62
312.328	78.62
312.557	78.62
312.787	72.62
313.017	90.62
313.246	79.62
313.476	73.62
313.706	92.62
313.935	81.62
314.165	93.62
314.394	85.62
314.624	88.62
314.853	72.62
315.083	95.62
315.312	93.62
315.542	86.62
315.771	82.62
316.001	82.62
316.23	93.62
316.46	89.62
316.689	88.62
316.919	81.62
317.148	78.62
317.377	91.62
317.607	88.62
317.836	85.62
318.065	74.62
318.295	83.62
318.524	94.62
318.753	90.62
318.983	86.62
319.212	97.62
319.441	87.62
319.67	84.62
319.9	86.62
320.129	75.62
320.358	86.62
320.587	87.62
320.816	80.62
321.046	67.62
321.275	90.62
321.504	87.62
321.733	72.62
321.962	75.62
322.191	84.62
322.42	84.62
322.649	89.62
322.878	84.62
323.108	84.62
323.337	82.62
323.566	88.62
323.795	80.62
324.024	84.62
324.253	78.62
324.482	84.62
324.71	75.62
324.939	84.62
325.168	92.62
325.397	82.62
325.626	96.62
325.855	81.62
326.084	84.62
326.313	92.62
326.542	91.62
326.77	86.62
326.999	82.62
327.228	93.62
327.457	102.62
327.686	82.62
327.914	91.62
328.143	84.62
328.372	83.62
328.6	86.62
328.829	71.62
329.058	74.62
329.287	95.62
329.515	87.62
329.744	84.62
329.972	91.62
330.201	76.62
330.43	67.62
330.658	80.62
330.887	80.62
331.115	106.62
331.344	87.62
331.572	95.62
331.801	91.62
332.03	86.62
332.258	76.62
332.486	84.62
332.715	76.62
332.943	97.62
333.172	73.62
333.4	82.62
333.629	89.62
333.857	83.62
334.085	95.62
334.314	95.62
334.542	80.62
334.771	70.62
334.999	84.62
335.227	97.62
335.455	81.62
335.684	85.62
335.912	92.62
336.14	100.62
336.369	71.62
336.597	95.62
336.825	89.62
337.053	89.62
337.281	89.62
337.51	76.62
337.738	87.62
337.966	86.62
338.194	80.62
338.422	82.62
338.65	85.62
338.878	86.62
339.106	93.62
339.334	104.62
339.562	87.62
339.79	72.62
340.018	97.62
340.246	72.62
340.474	85.62
340.702	70.62
340.93	74.62
341.158	90.62
341.386	90.62
341.614	90.62
341.842	82.62
342.07	89.62
342.298	96.62
342.526	89.62
342.754	101.62
342.981	80.62
343.209	89.62
343.437	94.62
343.665	89.62
343.893	87.62
344.12	90.62
344.348	92.62
344.576	91.62
344.804	86.62
345.031	78.62
345.259	80.62
345.487	98.62
345.714	93.62
345.942	88.62
346.17	89.62
346.397	86.62
346.625	88.62
346.853	80.62
347.08	82.62
347.308	87.62
347.535	83.62
347.763	74.62
347.99	90.62
348.218	93.62
348.445	89.62
348.673	92.62
348.9	79.62
349.128	84.62
349.355	85.62
349.583	76.62
349.81	83.62
350.037	95.62
350.265	82.62
350.492	104.62
350.72	89.62
350.947	98.62
351.174	96.62
351.402	75.62
351.629	85.62
351.856	78.62
352.083	78.62
352.311	98.62
352.538	89.62
352.765	79.62
352.992	82.62
353.22	86.62
353.447	97.62
353.674	87.62
353.901	76.62
354.128	81.62
354.355	81.62
354.583	95.62
354.81	96.62
355.037	91.62
355.264	89.62
355.491	82.62
355.718	87.62
355.945	77.62
356.172	94.62
356.399	94.62
356.626	80.62
356.853	80.62
357.08	90.62
357.307	90.62
357.534	113.62
357.761	90.62
357.988	75.62
358.215	82.62
358.441	75.62
358.668	81.62
358.895	77.62
359.122	84.62
359.349	80.62
359.576	82.62
359.802	74.62
360.029	89.62
360.256	89.62
360.483	92.62
360.709	78.62
360.936	73.62
361.163	77.62
361.39	70.62
361.616	87.62
361.843	91.62
362.07	90.62
362.296	91.62
362.523	101.62
362.749	75.62
362.976	87.62
363.203	96.62
363.429	92.62
363.656	85.62
363.882	92.62
364.109	78.62
364.335	91.62
364.562	88.62
364.788	78.62
365.015	96.62
365.241	78.62
365.468	106.62
365.694	86.62
365.92	85.62
366.147	84.62
366.373	83.62
366.599	86.62
366.826	85.62
367.052	75.62
367.278	97.62
367.505	78.62
367.731	88.62
367.957	85.62
368.184	88.62
368.41	77.62
368.636	84.62
368.862	96.62
369.089	85.62
369.315	84.62
369.541	85.62
369.767	81.62
369.993	79.62
370.219	78.62
370.445	82.62
370.672	79.62
370.898	84.62
371.124	77.62
371.35	69.62
371.576	101.62
371.802	90.62
372.028	86.62
372.254	89.62
372.48	78.62
372.706	89.62
372.932	70.62
373.158	78.62
373.384	85.62
373.61	86.62
373.835	85.62
374.061	89.62
374.287	89.62
374.513	96.62
374.739	91.62
374.965	97.62
375.191	89.62
375.416	86.62
375.642	78.62
375.868	83.62
376.094	80.62
376.319	73.62
376.545	90.62
376.771	94.62
376.997	90.62
377.222	96.62
377.448	84.62
377.674	73.62
377.899	83.62
378.125	77.62
378.35	73.62
378.576	72.62
378.802	94.62
379.027	77.62
379.253	83.62
379.478	84.62
379.704	88.62
379.929	97.62
380.155	84.62
380.38	80.62
380.606	85.62
380.831	93.62
381.057	97.62
381.282	89.62
381.507	90.62
381.733	78.62
381.958	97.62
382.184	80.62
382.409	80.62
382.634	85.62
382.86	82.62
383.085	96.62
383.31	75.62
383.535	83.62
383.761	88.62
383.986	87.62
384.211	66.62
384.436	71.62
384.662	73.62
384.887	100.62
385.112	77.62
385.337	80.62
385.562	86.62
385.787	65.62
386.013	110.62
386.238	89.62
386.463	86.62
386.688	89.62
386.913	88.62
387.138	90.62
387.363	77.62
387.588	92.62
387.813	73.62
388.038	81.62
388.263	91.62
388.488	59.62
388.713	82.62
388.938	79.62
389.163	80.62
389.387	77.62
389.612	72.62
389.837	85.62
390.062	93.62
390.287	77.62
390.512	79.62
390.736	85.62
390.961	89.62
391.186	85.62
391.411	77.62
391.636	61.62
391.86	79.62
392.085	78.62
392.31	85.62
392.534	85.62
392.759	75.62
392.984	90.62
393.208	108.62
393.433	126.62
393.658	98.62
393.882	73.62
394.107	92.62
394.331	79.62
394.556	91.62
394.78	91.62
395.005	102.62
395.229	83.62
395.454	93.62
395.678	90.62
395.903	94.62
396.127	102.62
396.352	84.62
396.576	96.62
396.801	108.62
397.025	102.62
397.249	88.62
397.474	87.62
397.698	95.62
397.922	78.62
398.147	84.62
398.371	89.62
398.595	76.62
398.82	81.62
399.044	103.62
399.268	86.62
399.492	78.62
399.717	72.62
399.941	81.62
400.165	88.62
400.389	85.62
400.613	93.62
400.837	85.62
401.062	81.62
401.286	86.62
401.51	70.62
401.734	72.62
401.958	93.62
402.182	76.62
402.406	104.62
402.63	95.62
402.854	87.62
403.078	70.62
403.302	78.62
403.526	74.62
403.75	82.62
403.974	89.62
404.198	84.62
404.422	101.62
404.645	106.62
404.869	104.62
405.093	87.62
405.317	83.62
405.541	85.62
405.765	87.62
405.988	90.62
406.212	74.62
406.436	90.62
406.66	64.62
406.883	87.62
407.107	70.62
407.331	91.62
407.555	76.62
407.778	79.62
408.002	90.62
408.226	69.62
408.449	80.62
408.673	61.62
408.896	75.62
409.12	80.62
409.344	77.62
409.567	80.62
409.791	83.62
410.014	85.62
410.238	88.62
410.461	78.62
410.685	58.62
410.908	72.62
411.132	88.62
411.355	73.62
411.578	87.62
411.802	76.62
412.025	70.62
412.249	65.62
412.472	70.62
412.695	74.62
412.919	87.62
413.142	85.62
413.365	87.62
413.589	94.62
413.812	75.62
414.035	75.62
414.258	95.62
414.482	84.62
414.705	85.62
414.928	93.62
415.151	94.62
415.374	86.62
415.597	90.62
415.821	75.62
416.044	89.62
416.267	88.62
416.49	72.62
416.713	92.62
416.936	75.62
417.159	75.62
417.382	86.62
417.605	73.62
417.828	82.62
418.051	73.62
418.274	73.62
418.497	85.62
418.72	80.62
418.943	97.62
419.166	87.62
419.389	77.62
419.611	79.62
419.834	80.62
420.057	79.62
420.28	77.62
420.503	76.62
420.726	92.62
420.948	78.62
421.171	77.62
421.394	70.62
421.617	89.62
421.839	86.62
422.062	98.62
422.285	105.62
422.507	121.62
422.73	135.62
422.953	132.62
423.175	108.62
423.398	101.62
423.621	105.62
423.843	80.62
424.066	90.62
424.288	72.62
424.511	78.62
424.733	78.62
424.956	75.62
425.178	75.62
425.401	89.62
425.623	84.62
425.846	86.62
426.068	85.62
426.291	89.62
426.513	85.62
426.735	88.62
426.958	80.62
427.18	89.62
427.402	87.62
427.625	80.62
427.847	82.62
428.069	91.62
428.292	104.62
428.514	108.62
428.736	86.62
428.958	83.62
429.181	85.62
429.403	88.62
429.625	90.62
429.847	93.62
430.069	108.62
430.292	110.62
430.514	101.62
430.736	95.62
430.958	100.62
431.18	93.62
431.402	86.62
431.624	91.62
431.846	87.62
432.068	94.62
432.29	82.62
432.512	85.62
432.734	86.62
432.956	90.62
433.178	82.62
433.4	78.62
433.622	77.62
433.844	80.62
434.066	93.62
434.287	78.62
434.509	87.62
434.731	71.62
434.953	78.62
435.175	78.62
435.397	83.62
435.618	86.62
435.84	77.62
436.062	80.62
436.284	87.62
436.505	79.62
436.727	98.62
436.949	85.62
437.17	97.62
437.392	69.62
437.614	82.62
437.835	73.62
438.057	85.62
438.278	72.62
438.5	85.62
438.721	86.62
438.943	88.62
439.165	72.62
439.386	78.62
439.608	83.62
439.829	68.62
440.05	77.62
440.272	75.62
440.493	80.62
440.715	81.62
440.936	82.62
441.158	81.62
441.379	88.62
441.6	87.62
441.822	75.62
442.043	80.62
442.264	74.62
442.486	98.62
442.707	109.62
442.928	102.62
443.149	91.62
443.371	85.62
443.592	118.62
443.813	112.62
444.034	81.62
444.255	88.62
444.476	76.62
444.698	86.62
444.919	80.62
445.14	136.62
445.361	116.62
445.582	131.62
445.803	110.62
446.024	88.62
446.245	83.62
446.466	77.62
446.687	80.62
446.908	78.62
447.129	86.62
447.35	76.62
447.571	98.62
447.792	87.62
448.013	81.62
448.234	68.62
448.455	83.62
448.675	93.62
448.896	80.62
449.117	79.62
449.338	73.62
449.559	81.62
449.779	62.62
450	76.62
450.221	104.62
450.442	74.62
450.662	75.62
450.883	74.62
451.104	109.62
451.324	81.62
451.545	82.62
451.766	76.62
451.986	77.62
452.207	77.62
452.428	94.62
452.648	80.62
452.869	84.62
453.089	85.62
453.31	74.62
453.53	98.62
453.751	92.62
453.971	97.62
454.192	79.62
454.412	74.62
454.633	78.62
454.853	79.62
455.073	74.62
455.294	78.62
455.514	77.62
455.734	81.62
455.955	74.62
456.175	69.62
456.395	90.62
456.616	81.62
456.836	82.62
457.056	74.62
457.276	75.62
457.497	76.62
457.717	96.62
457.937	81.62
458.157	74.62
458.377	79.62
458.598	78.62
458.818	86.62
459.038	82.62
459.258	93.62
459.478	81.62
459.698	91.62
459.918	69.62
460.138	92.62
460.358	91.62
460.578	72.62
460.798	97.62
461.018	89.62
461.238	73.62
461.458	87.62
461.678	81.62
461.898	92.62
462.118	89.62
462.338	89.62
462.558	83.62
462.777	90.62
462.997	74.62
463.217	82.62
463.437	80.62
463.657	88.62
463.876	89.62
464.096	80.62
464.316	93.62
464.536	86.62
464.755	76.62
464.975	76.62
465.195	81.62
465.414	85.62
465.634	85.62
465.854	76.62
466.073	78.62
466.293	64.62
466.512	96.62
466.732	77.62
466.951	92.62
467.171	95.62
467.391	79.62
467.61	68.62
467.829	95.62
468.049	95.62
468.268	89.62
468.488	75.62
468.707	88.62
468.927	87.62
469.146	80.62
469.365	84.62
469.585	88.62
469.804	89.62
470.023	75.62
470.243	81.62
470.462	86.62
470.681	76.62
470.901	85.62
471.12	87.62
471.339	89.62
471.558	84.62
471.777	84.62
471.997	69.62
472.216	95.62
472.435	101.62
472.654	76.62
472.873	93.62
473.092	83.62
473.311	78.62
473.53	81.62
473.749	72.62
473.968	71.62
474.187	68.62
474.406	84.62
474.625	91.62
474.844	84.62
475.063	83.62
475.282	72.62
475.501	73.62
475.72	89.62
475.939	87.62
476.158	81.62
476.377	79.62
476.596	79.62
476.814	101.62
477.033	80.62
477.252	91.62
477.471	79.62
477.69	73.62
477.908	88.62
478.127	81.62
478.346	81.62
478.564	94.62
478.783	92.62
479.002	80.62
479.22	92.62
479.439	96.62
479.658	77.62
479.876	82.62
480.095	91.62
480.313	97.62
480.532	86.62
480.751	84.62
480.969	86.62
481.188	79.62
481.406	103.62
481.624	71.62
481.843	82.62
482.061	94.62
482.28	91.62
482.498	81.62
482.717	70.62
482.935	77.62
483.153	95.62
483.372	77.62
483.59	84.62
483.808	93.62
484.027	87.62
484.245	95.62
484.463	81.62
484.681	81.62
484.9	82.62
485.118	98.62
485.336	89.62
485.554	91.62
485.772	85.62
485.99	93.62
486.209	81.62
486.427	86.62
486.645	88.62
486.863	90.62
487.081	84.62
487.299	88.62
487.517	88.62
487.735	86.62
487.953	105.62
488.171	108.62
488.389	90.62
488.607	90.62
488.825	75.62
489.043	101.62
489.261	84.62
489.479	81.62
489.696	95.62
489.914	88.62
490.132	84.62
490.35	87.62
490.568	77.62
490.786	79.62
491.003	79.62
491.221	88.62
491.439	104.62
491.657	100.62
491.874	86.62
492.092	85.62
492.31	85.62
492.527	79.62
492.745	86.62
492.963	89.62
493.18	93.62
493.398	88.62
493.615	91.62
493.833	83.62
494.05	85.62
494.268	77.62
494.485	71.62
494.703	92.62
494.92	82.62
495.138	90.62
495.355	99.62
495.573	76.62
495.79	97.62
496.008	79.62
496.225	100.62
496.442	78.62
496.66	111.62
496.877	72.62
497.094	89.62
497.312	85.62
497.529	89.62
497.746	95.62
497.963	82.62
498.181	75.62
498.398	69.62
498.615	84.62
498.832	76.62
499.049	92.62
499.267	97.62
499.484	82.62
499.701	82.62
499.918	82.62
500.135	81.62
500.352	94.62
500.569	85.62
500.786	77.62
501.003	72.62
501.22	91.62
501.437	87.62
501.654	93.62
501.871	92.62
502.088	86.62
502.305	78.62
502.522	86.62
502.739	102.62
502.956	87.62
503.172	71.62
503.389	82.62
503.606	80.62
503.823	85.62
504.04	101.62
504.256	84.62
504.473	88.62
504.69	87.62
504.907	96.62
505.123	85.62
505.34	99.62
505.557	97.62
505.773	95.62
505.99	96.62
506.207	85.62
506.423	81.62
506.64	98.62
506.856	84.62
507.073	76.62
507.289	84.62
507.506	73.62
507.722	83.62
507.939	93.62
508.155	86.62
508.372	93.62
508.588	81.62
508.805	86.62
509.021	91.62
509.238	90.62
509.454	86.62
509.67	99.62
509.887	104.62
510.103	87.62
510.319	85.62
510.536	90.62
510.752	89.62
510.968	82.62
511.184	75.62
511.401	96.62
511.617	88.62
511.833	96.62
512.049	88.62
512.265	80.62
512.481	89.62
512.698	93.62
512.914	87.62
513.13	84.62
513.346	89.62
513.562	93.62
513.778	82.62
513.994	93.62
514.21	84.62
514.426	93.62
514.642	75.62
514.858	88.62
515.074	89.62
515.29	86.62
515.506	90.62
515.721	77.62
515.937	76.62
516.153	74.62
516.369	95.62
516.585	81.62
516.801	72.62
517.016	83.62
517.232	88.62
517.448	89.62
517.664	90.62
517.879	93.62
518.095	92.62
518.311	91.62
518.527	90.62
518.742	83.62
518.958	87.62
519.173	102.62
519.389	71.62
