Data from Mixheat1_HRD10591_00013.txt Node
Date: Fri Dec 27 15:06:56 EST 2024
User: Yrep
Spectrometer: HR+D1059
Trigger mode: 1
Integration Time (sec): 1.000000E-1
Scans to average: 1
Electric dark correction enabled: true
Nonlinearity correction enabled: false
Boxcar width: 0
XAxis mode: Wavelengths
Number of Pixels in Spectrum: 2048
>>>>>Begin Spectral Data<<<<<
223.165	-28.38
223.4	-28.38
223.635	-28.38
223.869	-11.38
224.104	-11.38
224.338	-4.38
224.573	-12.38
224.808	-23.38
225.042	-9.38
225.277	-25.38
225.511	-10.38
225.746	-4.38
225.98	14.62
226.215	14.62
226.449	21.62
226.683	23.62
226.918	29.62
227.152	36.62
227.387	38.62
227.621	54.62
227.856	50.62
228.09	55.62
228.324	55.62
228.559	61.62
228.793	65.62
229.027	62.62
229.262	51.62
229.496	72.62
229.73	65.62
229.964	68.62
230.199	60.62
230.433	71.62
230.667	78.62
230.901	72.62
231.136	72.62
231.37	77.62
231.604	88.62
231.838	79.62
232.072	93.62
232.306	82.62
232.541	87.62
232.775	76.62
233.009	81.62
233.243	87.62
233.477	68.62
233.711	82.62
233.945	78.62
234.179	89.62
234.413	95.62
234.647	72.62
234.881	75.62
235.115	86.62
235.349	79.62
235.583	80.62
235.817	82.62
236.051	73.62
236.285	85.62
236.519	84.62
236.753	84.62
236.987	86.62
237.221	74.62
237.455	75.62
237.689	66.62
237.922	83.62
238.156	74.62
238.39	62.62
238.624	71.62
238.858	77.62
239.091	83.62
239.325	81.62
239.559	70.62
239.793	65.62
240.027	82.62
240.26	69.62
240.494	85.62
240.728	76.62
240.961	90.62
241.195	67.62
241.429	78.62
241.662	78.62
241.896	75.62
242.13	89.62
242.363	83.62
242.597	69.62
242.83	72.62
243.064	79.62
243.298	84.62
243.531	75.62
243.765	80.62
243.998	72.62
244.232	75.62
244.465	72.62
244.699	69.62
244.932	74.62
245.166	60.62
245.399	73.62
245.633	68.62
245.866	77.62
246.099	70.62
246.333	72.62
246.566	82.62
246.8	63.62
247.033	79.62
247.266	71.62
247.5	79.62
247.733	72.62
247.966	81.62
248.2	70.62
248.433	68.62
248.666	62.62
248.899	90.62
249.133	79.62
249.366	74.62
249.599	77.62
249.832	76.62
250.066	71.62
250.299	80.62
250.532	85.62
250.765	81.62
250.998	95.62
251.231	74.62
251.465	74.62
251.698	80.62
251.931	92.62
252.164	78.62
252.397	78.62
252.63	87.62
252.863	70.62
253.096	65.62
253.329	73.62
253.562	86.62
253.795	76.62
254.028	82.62
254.261	78.62
254.494	71.62
254.727	81.62
254.96	74.62
255.193	88.62
255.426	83.62
255.659	66.62
255.892	81.62
256.124	79.62
256.357	77.62
256.59	84.62
256.823	82.62
257.056	76.62
257.289	87.62
257.521	89.62
257.754	72.62
257.987	82.62
258.22	70.62
258.452	76.62
258.685	86.62
258.918	83.62
259.151	85.62
259.383	85.62
259.616	95.62
259.849	81.62
260.081	87.62
260.314	81.62
260.547	84.62
260.779	85.62
261.012	85.62
261.244	91.62
261.477	85.62
261.71	85.62
261.942	59.62
262.175	75.62
262.407	85.62
262.64	80.62
262.872	98.62
263.105	80.62
263.337	92.62
263.57	69.62
263.802	74.62
264.035	81.62
264.267	86.62
264.499	78.62
264.732	93.62
264.964	86.62
265.197	82.62
265.429	78.62
265.661	87.62
265.894	58.62
266.126	79.62
266.358	87.62
266.591	88.62
266.823	90.62
267.055	82.62
267.287	76.62
267.52	84.62
267.752	71.62
267.984	88.62
268.216	80.62
268.448	74.62
268.681	82.62
268.913	74.62
269.145	83.62
269.377	86.62
269.609	83.62
269.841	80.62
270.073	91.62
270.306	85.62
270.538	72.62
270.77	78.62
271.002	87.62
271.234	72.62
271.466	95.62
271.698	99.62
271.93	79.62
272.162	79.62
272.394	88.62
272.626	78.62
272.858	82.62
273.09	85.62
273.322	83.62
273.553	72.62
273.785	80.62
274.017	72.62
274.249	81.62
274.481	78.62
274.713	80.62
274.945	90.62
275.176	93.62
275.408	76.62
275.64	96.62
275.872	79.62
276.104	68.62
276.335	79.62
276.567	73.62
276.799	85.62
277.031	80.62
277.262	80.62
277.494	88.62
277.726	85.62
277.957	77.62
278.189	90.62
278.421	85.62
278.652	79.62
278.884	80.62
279.115	72.62
279.347	79.62
279.579	91.62
279.81	90.62
280.042	74.62
280.273	88.62
280.505	95.62
280.736	78.62
280.968	79.62
281.199	98.62
281.431	83.62
281.662	100.62
281.894	85.62
282.125	100.62
282.356	84.62
282.588	87.62
282.819	88.62
283.051	75.62
283.282	74.62
283.513	95.62
283.745	93.62
283.976	90.62
284.207	69.62
284.439	84.62
284.67	91.62
284.901	85.62
285.132	88.62
285.364	80.62
285.595	84.62
285.826	83.62
286.057	89.62
286.288	80.62
286.52	87.62
286.751	86.62
286.982	88.62
287.213	92.62
287.444	81.62
287.675	81.62
287.906	82.62
288.138	86.62
288.369	78.62
288.6	78.62
288.831	85.62
289.062	80.62
289.293	92.62
289.524	80.62
289.755	84.62
289.986	93.62
290.217	93.62
290.448	77.62
290.679	92.62
290.91	89.62
291.141	89.62
291.371	87.62
291.602	73.62
291.833	75.62
292.064	86.62
292.295	92.62
292.526	95.62
292.757	68.62
292.987	81.62
293.218	87.62
293.449	82.62
293.68	81.62
293.91	89.62
294.141	83.62
294.372	84.62
294.603	99.62
294.833	89.62
295.064	86.62
295.295	99.62
295.525	88.62
295.756	66.62
295.987	85.62
296.217	89.62
296.448	94.62
296.679	87.62
296.909	91.62
297.14	80.62
297.37	87.62
297.601	80.62
297.831	77.62
298.062	87.62
298.292	70.62
298.523	75.62
298.753	90.62
298.984	91.62
299.214	79.62
299.445	79.62
299.675	90.62
299.905	97.62
300.136	83.62
300.366	86.62
300.597	90.62
300.827	70.62
301.057	71.62
301.288	88.62
301.518	74.62
301.748	86.62
301.979	87.62
302.209	77.62
302.439	84.62
302.669	85.62
302.9	105.62
303.13	78.62
303.36	95.62
303.59	87.62
303.82	72.62
304.051	80.62
304.281	88.62
304.511	92.62
304.741	90.62
304.971	85.62
305.201	76.62
305.431	90.62
305.661	96.62
305.891	85.62
306.121	84.62
306.352	82.62
306.582	81.62
306.812	76.62
307.042	79.62
307.272	71.62
307.502	83.62
307.731	85.62
307.961	85.62
308.191	93.62
308.421	89.62
308.651	97.62
308.881	88.62
309.111	78.62
309.341	74.62
309.571	84.62
309.8	68.62
310.03	74.62
310.26	87.62
310.49	88.62
310.72	79.62
310.949	80.62
311.179	76.62
311.409	78.62
311.639	90.62
311.868	81.62
312.098	104.62
312.328	91.62
312.557	94.62
312.787	77.62
313.017	72.62
313.246	79.62
313.476	76.62
313.706	74.62
313.935	85.62
314.165	88.62
314.394	77.62
314.624	79.62
314.853	74.62
315.083	79.62
315.312	90.62
315.542	82.62
315.771	74.62
316.001	79.62
316.23	75.62
316.46	92.62
316.689	91.62
316.919	79.62
317.148	73.62
317.377	79.62
317.607	107.62
317.836	87.62
318.065	104.62
318.295	68.62
318.524	75.62
318.753	72.62
318.983	86.62
319.212	87.62
319.441	78.62
319.67	74.62
319.9	83.62
320.129	94.62
320.358	90.62
320.587	96.62
320.816	83.62
321.046	80.62
321.275	80.62
321.504	85.62
321.733	87.62
321.962	74.62
322.191	75.62
322.42	77.62
322.649	83.62
322.878	84.62
323.108	80.62
323.337	75.62
323.566	88.62
323.795	76.62
324.024	82.62
324.253	90.62
324.482	87.62
324.71	96.62
324.939	93.62
325.168	89.62
325.397	91.62
325.626	81.62
325.855	89.62
326.084	89.62
326.313	92.62
326.542	71.62
326.77	91.62
326.999	88.62
327.228	78.62
327.457	85.62
327.686	99.62
327.914	89.62
328.143	106.62
328.372	97.62
328.6	106.62
328.829	86.62
329.058	87.62
329.287	86.62
329.515	88.62
329.744	90.62
329.972	80.62
330.201	94.62
330.43	91.62
330.658	86.62
330.887	91.62
331.115	80.62
331.344	82.62
331.572	98.62
331.801	77.62
332.03	77.62
332.258	94.62
332.486	86.62
332.715	80.62
332.943	100.62
333.172	89.62
333.4	101.62
333.629	80.62
333.857	92.62
334.085	84.62
334.314	77.62
334.542	83.62
334.771	86.62
334.999	85.62
335.227	83.62
335.455	89.62
335.684	86.62
335.912	78.62
336.14	77.62
336.369	69.62
336.597	88.62
336.825	81.62
337.053	94.62
337.281	78.62
337.51	76.62
337.738	85.62
337.966	90.62
338.194	74.62
338.422	74.62
338.65	92.62
338.878	92.62
339.106	94.62
339.334	82.62
339.562	76.62
339.79	80.62
340.018	82.62
340.246	78.62
340.474	81.62
340.702	100.62
340.93	78.62
341.158	87.62
341.386	76.62
341.614	74.62
341.842	60.62
342.07	89.62
342.298	79.62
342.526	73.62
342.754	77.62
342.981	88.62
343.209	95.62
343.437	102.62
343.665	87.62
343.893	91.62
344.12	86.62
344.348	84.62
344.576	88.62
344.804	86.62
345.031	91.62
345.259	88.62
345.487	86.62
345.714	89.62
345.942	72.62
346.17	89.62
346.397	63.62
346.625	79.62
346.853	89.62
347.08	82.62
347.308	87.62
347.535	83.62
347.763	77.62
347.99	82.62
348.218	87.62
348.445	78.62
348.673	69.62
348.9	83.62
349.128	83.62
349.355	97.62
349.583	79.62
349.81	83.62
350.037	87.62
350.265	88.62
350.492	77.62
350.72	83.62
350.947	74.62
351.174	85.62
351.402	73.62
351.629	78.62
351.856	82.62
352.083	87.62
352.311	62.62
352.538	80.62
352.765	94.62
352.992	79.62
353.22	86.62
353.447	78.62
353.674	77.62
353.901	95.62
354.128	79.62
354.355	74.62
354.583	78.62
354.81	79.62
355.037	96.62
355.264	90.62
355.491	85.62
355.718	77.62
355.945	82.62
356.172	102.62
356.399	88.62
356.626	81.62
356.853	80.62
357.08	89.62
357.307	82.62
357.534	79.62
357.761	78.62
357.988	85.62
358.215	94.62
358.441	88.62
358.668	96.62
358.895	75.62
359.122	83.62
359.349	99.62
359.576	89.62
359.802	82.62
360.029	83.62
360.256	82.62
360.483	91.62
360.709	87.62
360.936	92.62
361.163	87.62
361.39	82.62
361.616	75.62
361.843	70.62
362.07	87.62
362.296	87.62
362.523	92.62
362.749	92.62
362.976	92.62
363.203	105.62
363.429	87.62
363.656	74.62
363.882	93.62
364.109	93.62
364.335	90.62
364.562	82.62
364.788	90.62
365.015	80.62
365.241	75.62
365.468	78.62
365.694	85.62
365.92	77.62
366.147	92.62
366.373	78.62
366.599	86.62
366.826	76.62
367.052	80.62
367.278	90.62
367.505	97.62
367.731	103.62
367.957	82.62
368.184	90.62
368.41	76.62
368.636	90.62
368.862	86.62
369.089	78.62
369.315	91.62
369.541	84.62
369.767	72.62
369.993	76.62
370.219	82.62
370.445	92.62
370.672	84.62
370.898	82.62
371.124	89.62
371.35	91.62
371.576	91.62
371.802	88.62
372.028	75.62
372.254	86.62
372.48	93.62
372.706	88.62
372.932	84.62
373.158	96.62
373.384	95.62
373.61	89.62
373.835	81.62
374.061	84.62
374.287	76.62
374.513	78.62
374.739	79.62
374.965	83.62
375.191	82.62
375.416	75.62
375.642	82.62
375.868	94.62
376.094	81.62
376.319	80.62
376.545	81.62
376.771	79.62
376.997	75.62
377.222	85.62
377.448	78.62
377.674	81.62
377.899	75.62
378.125	91.62
378.35	89.62
378.576	67.62
378.802	95.62
379.027	95.62
379.253	94.62
379.478	79.62
379.704	80.62
379.929	76.62
380.155	75.62
380.38	79.62
380.606	72.62
380.831	86.62
381.057	86.62
381.282	82.62
381.507	78.62
381.733	83.62
381.958	86.62
382.184	85.62
382.409	87.62
382.634	87.62
382.86	77.62
383.085	78.62
383.31	91.62
383.535	80.62
383.761	87.62
383.986	78.62
384.211	75.62
384.436	80.62
384.662	70.62
384.887	76.62
385.112	83.62
385.337	92.62
385.562	92.62
385.787	85.62
386.013	79.62
386.238	80.62
386.463	89.62
386.688	108.62
386.913	98.62
387.138	89.62
387.363	82.62
387.588	97.62
387.813	85.62
388.038	74.62
388.263	94.62
388.488	84.62
388.713	88.62
388.938	91.62
389.163	78.62
389.387	70.62
389.612	87.62
389.837	86.62
390.062	91.62
390.287	78.62
390.512	66.62
390.736	74.62
390.961	80.62
391.186	91.62
391.411	97.62
391.636	98.62
391.86	76.62
392.085	82.62
392.31	75.62
392.534	86.62
392.759	79.62
392.984	90.62
393.208	102.62
393.433	117.62
393.658	101.62
393.882	86.62
394.107	77.62
394.331	70.62
394.556	105.62
394.78	84.62
395.005	95.62
395.229	79.62
395.454	85.62
395.678	88.62
395.903	91.62
396.127	109.62
396.352	84.62
396.576	91.62
396.801	99.62
397.025	100.62
397.249	88.62
397.474	100.62
397.698	90.62
397.922	78.62
398.147	90.62
398.371	88.62
398.595	73.62
398.82	84.62
399.044	94.62
399.268	84.62
399.492	86.62
399.717	95.62
399.941	93.62
400.165	95.62
400.389	82.62
400.613	88.62
400.837	90.62
401.062	83.62
401.286	87.62
401.51	89.62
401.734	79.62
401.958	75.62
402.182	94.62
402.406	76.62
402.63	75.62
402.854	89.62
403.078	92.62
403.302	84.62
403.526	86.62
403.75	83.62
403.974	83.62
404.198	91.62
404.422	91.62
404.645	126.62
404.869	105.62
405.093	96.62
405.317	82.62
405.541	78.62
405.765	92.62
405.988	91.62
406.212	84.62
406.436	91.62
406.66	85.62
406.883	84.62
407.107	84.62
407.331	95.62
407.555	78.62
407.778	77.62
408.002	86.62
408.226	72.62
408.449	79.62
408.673	73.62
408.896	81.62
409.12	83.62
409.344	84.62
409.567	92.62
409.791	85.62
410.014	84.62
410.238	86.62
410.461	90.62
410.685	78.62
410.908	83.62
411.132	65.62
411.355	80.62
411.578	88.62
411.802	77.62
412.025	85.62
412.249	70.62
412.472	82.62
412.695	80.62
412.919	76.62
413.142	67.62
413.365	86.62
413.589	81.62
413.812	76.62
414.035	71.62
414.258	85.62
414.482	82.62
414.705	73.62
414.928	87.62
415.151	87.62
415.374	79.62
415.597	93.62
415.821	88.62
416.044	86.62
416.267	89.62
416.49	90.62
416.713	79.62
416.936	79.62
417.159	90.62
417.382	86.62
417.605	79.62
417.828	75.62
418.051	93.62
418.274	84.62
418.497	79.62
418.72	74.62
418.943	75.62
419.166	91.62
419.389	84.62
419.611	88.62
419.834	98.62
420.057	88.62
420.28	85.62
420.503	86.62
420.726	88.62
420.948	79.62
421.171	80.62
421.394	74.62
421.617	75.62
421.839	89.62
422.062	85.62
422.285	99.62
422.507	110.62
422.73	138.62
422.953	138.62
423.175	100.62
423.398	92.62
423.621	103.62
423.843	97.62
424.066	75.62
424.288	80.62
424.511	97.62
424.733	72.62
424.956	81.62
425.178	79.62
425.401	87.62
425.623	69.62
425.846	65.62
426.068	83.62
426.291	76.62
426.513	87.62
426.735	76.62
426.958	85.62
427.18	84.62
427.402	78.62
427.625	89.62
427.847	73.62
428.069	79.62
428.292	87.62
428.514	105.62
428.736	83.62
428.958	82.62
429.181	81.62
429.403	95.62
429.625	80.62
429.847	84.62
430.069	102.62
430.292	107.62
430.514	101.62
430.736	94.62
430.958	92.62
431.18	80.62
431.402	83.62
431.624	76.62
431.846	98.62
432.068	87.62
432.29	69.62
432.512	83.62
432.734	72.62
432.956	83.62
433.178	83.62
433.4	86.62
433.622	82.62
433.844	70.62
434.066	88.62
434.287	73.62
434.509	100.62
434.731	70.62
434.953	87.62
435.175	88.62
435.397	76.62
435.618	80.62
435.84	87.62
436.062	85.62
436.284	90.62
436.505	82.62
436.727	97.62
436.949	77.62
437.17	87.62
437.392	95.62
437.614	84.62
437.835	77.62
438.057	74.62
438.278	82.62
438.5	87.62
438.721	76.62
438.943	83.62
439.165	84.62
439.386	80.62
439.608	84.62
439.829	89.62
440.05	77.62
440.272	92.62
440.493	88.62
440.715	88.62
440.936	82.62
441.158	75.62
441.379	74.62
441.6	87.62
441.822	74.62
442.043	82.62
442.264	71.62
442.486	105.62
442.707	97.62
442.928	112.62
443.149	98.62
443.371	103.62
443.592	107.62
443.813	111.62
444.034	91.62
444.255	89.62
444.476	72.62
444.698	99.62
444.919	92.62
445.14	129.62
445.361	126.62
445.582	128.62
445.803	107.62
446.024	90.62
446.245	102.62
446.466	77.62
446.687	82.62
446.908	67.62
447.129	84.62
447.35	76.62
447.571	92.62
447.792	78.62
448.013	93.62
448.234	81.62
448.455	71.62
448.675	88.62
448.896	73.62
449.117	85.62
449.338	72.62
449.559	74.62
449.779	86.62
450	87.62
450.221	82.62
450.442	77.62
450.662	85.62
450.883	90.62
451.104	85.62
451.324	84.62
451.545	75.62
451.766	74.62
451.986	77.62
452.207	84.62
452.428	81.62
452.648	69.62
452.869	82.62
453.089	64.62
453.31	77.62
453.53	86.62
453.751	75.62
453.971	73.62
454.192	85.62
454.412	84.62
454.633	83.62
454.853	75.62
455.073	80.62
455.294	88.62
455.514	82.62
455.734	75.62
455.955	87.62
456.175	81.62
456.395	91.62
456.616	70.62
456.836	92.62
457.056	87.62
457.276	98.62
457.497	85.62
457.717	76.62
457.937	82.62
458.157	82.62
458.377	80.62
458.598	77.62
458.818	82.62
459.038	85.62
459.258	84.62
459.478	90.62
459.698	71.62
459.918	90.62
460.138	74.62
460.358	86.62
460.578	80.62
460.798	82.62
461.018	95.62
461.238	77.62
461.458	79.62
461.678	77.62
461.898	78.62
462.118	85.62
462.338	91.62
462.558	88.62
462.777	81.62
462.997	82.62
463.217	73.62
463.437	72.62
463.657	89.62
463.876	91.62
464.096	78.62
464.316	81.62
464.536	91.62
464.755	95.62
464.975	73.62
465.195	75.62
465.414	93.62
465.634	96.62
465.854	88.62
466.073	80.62
466.293	92.62
466.512	73.62
466.732	90.62
466.951	82.62
467.171	74.62
467.391	76.62
467.61	84.62
467.829	70.62
468.049	88.62
468.268	82.62
468.488	97.62
468.707	84.62
468.927	74.62
469.146	75.62
469.365	100.62
469.585	75.62
469.804	80.62
470.023	87.62
470.243	87.62
470.462	85.62
470.681	79.62
470.901	83.62
471.12	82.62
471.339	93.62
471.558	82.62
471.777	84.62
471.997	87.62
472.216	80.62
472.435	76.62
472.654	61.62
472.873	82.62
473.092	79.62
473.311	106.62
473.53	79.62
473.749	91.62
473.968	82.62
474.187	81.62
474.406	83.62
474.625	85.62
474.844	78.62
475.063	90.62
475.282	79.62
475.501	84.62
475.72	86.62
475.939	74.62
476.158	88.62
476.377	75.62
476.596	75.62
476.814	64.62
477.033	87.62
477.252	88.62
477.471	84.62
477.69	86.62
477.908	87.62
478.127	83.62
478.346	88.62
478.564	92.62
478.783	79.62
479.002	72.62
479.22	81.62
479.439	88.62
479.658	83.62
479.876	88.62
480.095	80.62
480.313	91.62
480.532	82.62
480.751	87.62
480.969	80.62
481.188	88.62
481.406	89.62
481.624	85.62
481.843	67.62
482.061	81.62
482.28	98.62
482.498	66.62
482.717	80.62
482.935	78.62
483.153	87.62
483.372	79.62
483.59	84.62
483.808	79.62
484.027	86.62
484.245	79.62
484.463	84.62
484.681	87.62
484.9	74.62
485.118	78.62
485.336	86.62
485.554	70.62
485.772	91.62
485.99	87.62
486.209	79.62
486.427	99.62
486.645	86.62
486.863	78.62
487.081	73.62
487.299	97.62
487.517	102.62
487.735	93.62
487.953	103.62
488.171	104.62
488.389	78.62
488.607	92.62
488.825	86.62
489.043	86.62
489.261	84.62
489.479	93.62
489.696	75.62
489.914	72.62
490.132	89.62
490.35	90.62
490.568	86.62
490.786	82.62
491.003	77.62
491.221	81.62
491.439	84.62
491.657	87.62
491.874	80.62
492.092	68.62
492.31	79.62
492.527	78.62
492.745	88.62
492.963	91.62
493.18	90.62
493.398	80.62
493.615	87.62
493.833	85.62
494.05	90.62
494.268	79.62
494.485	82.62
494.703	61.62
494.92	94.62
495.138	91.62
495.355	91.62
495.573	92.62
495.79	88.62
496.008	90.62
496.225	91.62
496.442	87.62
496.66	91.62
496.877	84.62
497.094	83.62
497.312	70.62
497.529	88.62
497.746	80.62
497.963	73.62
498.181	91.62
498.398	79.62
498.615	114.62
498.832	88.62
499.049	76.62
499.267	74.62
499.484	76.62
499.701	83.62
499.918	89.62
500.135	83.62
500.352	85.62
500.569	78.62
500.786	80.62
501.003	87.62
501.22	95.62
501.437	77.62
501.654	88.62
501.871	84.62
502.088	107.62
502.305	80.62
502.522	95.62
502.739	65.62
502.956	86.62
503.172	91.62
503.389	84.62
503.606	82.62
503.823	83.62
504.04	96.62
504.256	84.62
504.473	93.62
504.69	84.62
504.907	98.62
505.123	88.62
505.34	93.62
505.557	92.62
505.773	98.62
505.99	86.62
506.207	76.62
506.423	95.62
506.64	81.62
506.856	77.62
507.073	78.62
507.289	85.62
507.506	84.62
507.722	87.62
507.939	78.62
508.155	73.62
508.372	76.62
508.588	73.62
508.805	76.62
509.021	106.62
509.238	80.62
509.454	86.62
509.67	75.62
509.887	84.62
510.103	99.62
510.319	91.62
510.536	102.62
510.752	95.62
510.968	88.62
511.184	91.62
511.401	89.62
511.617	76.62
511.833	79.62
512.049	75.62
512.265	95.62
512.481	83.62
512.698	88.62
512.914	94.62
513.13	96.62
513.346	77.62
513.562	85.62
513.778	90.62
513.994	102.62
514.21	76.62
514.426	98.62
514.642	89.62
514.858	91.62
515.074	87.62
515.29	92.62
515.506	76.62
515.721	86.62
515.937	79.62
516.153	82.62
516.369	98.62
516.585	70.62
516.801	90.62
517.016	75.62
517.232	88.62
517.448	98.62
517.664	84.62
517.879	82.62
518.095	82.62
518.311	87.62
518.527	79.62
518.742	74.62
518.958	94.62
519.173	101.62
519.389	85.62
