Data from Mixheat1_HRD10591_00001.txt Node
Date: Fri Dec 27 15:06:44 EST 2024
User: Yrep
Spectrometer: HR+D1059
Trigger mode: 1
Integration Time (sec): 1.000000E-1
Scans to average: 1
Electric dark correction enabled: true
Nonlinearity correction enabled: false
Boxcar width: 0
XAxis mode: Wavelengths
Number of Pixels in Spectrum: 2048
>>>>>Begin Spectral Data<<<<<
223.165	-28.69
223.4	-28.69
223.635	-28.69
223.869	-28.69
224.104	-20.69
224.338	8.31
224.573	-7.69
224.808	-11.69
225.042	-9.69
225.277	8.31
225.511	0.31
225.746	0.31
225.98	-5.69
226.215	-2.69
226.449	15.31
226.683	26.31
226.918	28.31
227.152	28.31
227.387	36.31
227.621	51.31
227.856	41.31
228.09	44.31
228.324	57.31
228.559	58.31
228.793	70.31
229.027	61.31
229.262	72.31
229.496	70.31
229.73	78.31
229.964	79.31
230.199	97.31
230.433	65.31
230.667	76.31
230.901	82.31
231.136	75.31
231.37	70.31
231.604	91.31
231.838	92.31
232.072	71.31
232.306	93.31
232.541	84.31
232.775	68.31
233.009	85.31
233.243	79.31
233.477	84.31
233.711	88.31
233.945	75.31
234.179	95.31
234.413	86.31
234.647	81.31
234.881	78.31
235.115	82.31
235.349	81.31
235.583	98.31
235.817	80.31
236.051	67.31
236.285	86.31
236.519	83.31
236.753	76.31
236.987	73.31
237.221	84.31
237.455	83.31
237.689	67.31
237.922	81.31
238.156	78.31
238.39	73.31
238.624	75.31
238.858	78.31
239.091	74.31
239.325	69.31
239.559	86.31
239.793	64.31
240.027	80.31
240.26	79.31
240.494	78.31
240.728	75.31
240.961	83.31
241.195	78.31
241.429	86.31
241.662	73.31
241.896	77.31
242.13	78.31
242.363	83.31
242.597	63.31
242.83	81.31
243.064	81.31
243.298	95.31
243.531	98.31
243.765	77.31
243.998	76.31
244.232	80.31
244.465	71.31
244.699	78.31
244.932	78.31
245.166	90.31
245.399	87.31
245.633	85.31
245.866	96.31
246.099	91.31
246.333	75.31
246.566	83.31
246.8	77.31
247.033	82.31
247.266	86.31
247.5	78.31
247.733	89.31
247.966	52.31
248.2	78.31
248.433	80.31
248.666	76.31
248.899	83.31
249.133	65.31
249.366	82.31
249.599	73.31
249.832	80.31
250.066	91.31
250.299	74.31
250.532	80.31
250.765	84.31
250.998	68.31
251.231	82.31
251.465	92.31
251.698	90.31
251.931	85.31
252.164	80.31
252.397	62.31
252.63	84.31
252.863	70.31
253.096	91.31
253.329	98.31
253.562	78.31
253.795	85.31
254.028	96.31
254.261	64.31
254.494	80.31
254.727	74.31
254.96	92.31
255.193	80.31
255.426	77.31
255.659	80.31
255.892	86.31
256.124	86.31
256.357	92.31
256.59	100.31
256.823	72.31
257.056	69.31
257.289	78.31
257.521	83.31
257.754	80.31
257.987	89.31
258.22	86.31
258.452	86.31
258.685	79.31
258.918	83.31
259.151	76.31
259.383	83.31
259.616	88.31
259.849	96.31
260.081	84.31
260.314	74.31
260.547	89.31
260.779	81.31
261.012	71.31
261.244	80.31
261.477	78.31
261.71	83.31
261.942	82.31
262.175	83.31
262.407	83.31
262.64	76.31
262.872	79.31
263.105	84.31
263.337	76.31
263.57	75.31
263.802	87.31
264.035	83.31
264.267	73.31
264.499	80.31
264.732	79.31
264.964	87.31
265.197	91.31
265.429	90.31
265.661	73.31
265.894	79.31
266.126	83.31
266.358	78.31
266.591	73.31
266.823	81.31
267.055	87.31
267.287	92.31
267.52	90.31
267.752	96.31
267.984	85.31
268.216	81.31
268.448	88.31
268.681	75.31
268.913	86.31
269.145	80.31
269.377	91.31
269.609	87.31
269.841	85.31
270.073	75.31
270.306	87.31
270.538	68.31
270.77	91.31
271.002	98.31
271.234	117.31
271.466	86.31
271.698	77.31
271.93	82.31
272.162	88.31
272.394	87.31
272.626	89.31
272.858	75.31
273.09	76.31
273.322	87.31
273.553	78.31
273.785	83.31
274.017	92.31
274.249	76.31
274.481	90.31
274.713	86.31
274.945	90.31
275.176	71.31
275.408	96.31
275.64	87.31
275.872	86.31
276.104	82.31
276.335	91.31
276.567	94.31
276.799	82.31
277.031	62.31
277.262	89.31
277.494	88.31
277.726	83.31
277.957	82.31
278.189	93.31
278.421	88.31
278.652	92.31
278.884	84.31
279.115	78.31
279.347	90.31
279.579	88.31
279.81	79.31
280.042	92.31
280.273	83.31
280.505	84.31
280.736	93.31
280.968	82.31
281.199	84.31
281.431	86.31
281.662	81.31
281.894	74.31
282.125	84.31
282.356	76.31
282.588	73.31
282.819	86.31
283.051	76.31
283.282	83.31
283.513	82.31
283.745	86.31
283.976	92.31
284.207	83.31
284.439	93.31
284.67	84.31
284.901	84.31
285.132	84.31
285.364	86.31
285.595	76.31
285.826	80.31
286.057	68.31
286.288	89.31
286.52	81.31
286.751	95.31
286.982	90.31
287.213	80.31
287.444	111.31
287.675	102.31
287.906	77.31
288.138	82.31
288.369	91.31
288.6	72.31
288.831	78.31
289.062	91.31
289.293	83.31
289.524	75.31
289.755	91.31
289.986	82.31
290.217	73.31
290.448	88.31
290.679	90.31
290.91	96.31
291.141	83.31
291.371	84.31
291.602	87.31
291.833	91.31
292.064	87.31
292.295	91.31
292.526	80.31
292.757	86.31
292.987	90.31
293.218	76.31
293.449	91.31
293.68	92.31
293.91	82.31
294.141	80.31
294.372	81.31
294.603	82.31
294.833	75.31
295.064	83.31
295.295	83.31
295.525	81.31
295.756	82.31
295.987	96.31
296.217	81.31
296.448	80.31
296.679	88.31
296.909	74.31
297.14	74.31
297.37	83.31
297.601	81.31
297.831	85.31
298.062	89.31
298.292	91.31
298.523	95.31
298.753	88.31
298.984	101.31
299.214	87.31
299.445	84.31
299.675	89.31
299.905	101.31
300.136	92.31
300.366	97.31
300.597	85.31
300.827	79.31
301.057	86.31
301.288	76.31
301.518	84.31
301.748	87.31
301.979	98.31
302.209	85.31
302.439	88.31
302.669	86.31
302.9	73.31
303.13	95.31
303.36	76.31
303.59	84.31
303.82	91.31
304.051	87.31
304.281	83.31
304.511	87.31
304.741	87.31
304.971	83.31
305.201	90.31
305.431	84.31
305.661	100.31
305.891	74.31
306.121	92.31
306.352	95.31
306.582	83.31
306.812	76.31
307.042	85.31
307.272	82.31
307.502	79.31
307.731	74.31
307.961	79.31
308.191	76.31
308.421	90.31
308.651	84.31
308.881	71.31
309.111	76.31
309.341	94.31
309.571	90.31
309.8	85.31
310.03	74.31
310.26	88.31
310.49	86.31
310.72	84.31
310.949	92.31
311.179	90.31
311.409	87.31
311.639	92.31
311.868	84.31
312.098	94.31
312.328	92.31
312.557	91.31
312.787	92.31
313.017	85.31
313.246	74.31
313.476	78.31
313.706	83.31
313.935	81.31
314.165	71.31
314.394	74.31
314.624	91.31
314.853	86.31
315.083	98.31
315.312	88.31
315.542	84.31
315.771	87.31
316.001	76.31
316.23	98.31
316.46	81.31
316.689	84.31
316.919	84.31
317.148	88.31
317.377	90.31
317.607	87.31
317.836	95.31
318.065	78.31
318.295	97.31
318.524	110.31
318.753	91.31
318.983	82.31
319.212	93.31
319.441	89.31
319.67	84.31
319.9	79.31
320.129	76.31
320.358	80.31
320.587	87.31
320.816	80.31
321.046	85.31
321.275	84.31
321.504	86.31
321.733	91.31
321.962	89.31
322.191	97.31
322.42	86.31
322.649	93.31
322.878	88.31
323.108	90.31
323.337	83.31
323.566	79.31
323.795	96.31
324.024	88.31
324.253	96.31
324.482	106.31
324.71	85.31
324.939	82.31
325.168	81.31
325.397	97.31
325.626	91.31
325.855	85.31
326.084	92.31
326.313	83.31
326.542	98.31
326.77	88.31
326.999	103.31
327.228	89.31
327.457	78.31
327.686	78.31
327.914	73.31
328.143	99.31
328.372	88.31
328.6	98.31
328.829	110.31
329.058	90.31
329.287	94.31
329.515	94.31
329.744	103.31
329.972	100.31
330.201	88.31
330.43	100.31
330.658	87.31
330.887	94.31
331.115	74.31
331.344	73.31
331.572	87.31
331.801	84.31
332.03	78.31
332.258	102.31
332.486	96.31
332.715	87.31
332.943	91.31
333.172	93.31
333.4	87.31
333.629	84.31
333.857	74.31
334.085	87.31
334.314	96.31
334.542	82.31
334.771	88.31
334.999	88.31
335.227	80.31
335.455	91.31
335.684	87.31
335.912	91.31
336.14	91.31
336.369	86.31
336.597	99.31
336.825	82.31
337.053	81.31
337.281	83.31
337.51	82.31
337.738	105.31
337.966	82.31
338.194	87.31
338.422	88.31
338.65	92.31
338.878	89.31
339.106	79.31
339.334	83.31
339.562	77.31
339.79	93.31
340.018	85.31
340.246	74.31
340.474	82.31
340.702	87.31
340.93	86.31
341.158	102.31
341.386	98.31
341.614	93.31
341.842	80.31
342.07	88.31
342.298	81.31
342.526	76.31
342.754	95.31
342.981	85.31
343.209	80.31
343.437	87.31
343.665	91.31
343.893	95.31
344.12	99.31
344.348	90.31
344.576	98.31
344.804	91.31
345.031	102.31
345.259	89.31
345.487	97.31
345.714	106.31
345.942	91.31
346.17	80.31
346.397	93.31
346.625	83.31
346.853	83.31
347.08	90.31
347.308	89.31
347.535	88.31
347.763	103.31
347.99	91.31
348.218	84.31
348.445	97.31
348.673	81.31
348.9	99.31
349.128	88.31
349.355	90.31
349.583	79.31
349.81	92.31
350.037	92.31
350.265	89.31
350.492	87.31
350.72	72.31
350.947	71.31
351.174	91.31
351.402	82.31
351.629	83.31
351.856	79.31
352.083	78.31
352.311	95.31
352.538	93.31
352.765	93.31
352.992	100.31
353.22	79.31
353.447	101.31
353.674	92.31
353.901	93.31
354.128	83.31
354.355	97.31
354.583	91.31
354.81	87.31
355.037	89.31
355.264	88.31
355.491	80.31
355.718	73.31
355.945	78.31
356.172	88.31
356.399	81.31
356.626	95.31
356.853	89.31
357.08	100.31
357.307	97.31
357.534	87.31
357.761	92.31
357.988	99.31
358.215	87.31
358.441	93.31
358.668	84.31
358.895	81.31
359.122	83.31
359.349	93.31
359.576	91.31
359.802	83.31
360.029	84.31
360.256	89.31
360.483	84.31
360.709	88.31
360.936	92.31
361.163	89.31
361.39	87.31
361.616	103.31
361.843	90.31
362.07	94.31
362.296	103.31
362.523	94.31
362.749	93.31
362.976	98.31
363.203	102.31
363.429	83.31
363.656	91.31
363.882	90.31
364.109	89.31
364.335	97.31
364.562	103.31
364.788	84.31
365.015	86.31
365.241	97.31
365.468	77.31
365.694	92.31
365.92	91.31
366.147	105.31
366.373	76.31
366.599	84.31
366.826	80.31
367.052	90.31
367.278	76.31
367.505	87.31
367.731	82.31
367.957	83.31
368.184	93.31
368.41	87.31
368.636	84.31
368.862	80.31
369.089	80.31
369.315	82.31
369.541	86.31
369.767	92.31
369.993	80.31
370.219	89.31
370.445	85.31
370.672	79.31
370.898	89.31
371.124	75.31
371.35	72.31
371.576	95.31
371.802	102.31
372.028	83.31
372.254	80.31
372.48	98.31
372.706	86.31
372.932	83.31
373.158	95.31
373.384	92.31
373.61	82.31
373.835	77.31
374.061	75.31
374.287	99.31
374.513	91.31
374.739	72.31
374.965	77.31
375.191	76.31
375.416	97.31
375.642	80.31
375.868	86.31
376.094	98.31
376.319	92.31
376.545	83.31
376.771	87.31
376.997	78.31
377.222	88.31
377.448	84.31
377.674	80.31
377.899	83.31
378.125	92.31
378.35	96.31
378.576	97.31
378.802	97.31
379.027	86.31
379.253	92.31
379.478	88.31
379.704	86.31
379.929	97.31
380.155	95.31
380.38	89.31
380.606	89.31
380.831	80.31
381.057	89.31
381.282	80.31
381.507	104.31
381.733	81.31
381.958	88.31
382.184	99.31
382.409	79.31
382.634	83.31
382.86	88.31
383.085	82.31
383.31	86.31
383.535	102.31
383.761	89.31
383.986	102.31
384.211	87.31
384.436	87.31
384.662	79.31
384.887	94.31
385.112	95.31
385.337	86.31
385.562	89.31
385.787	80.31
386.013	90.31
386.238	90.31
386.463	93.31
386.688	113.31
386.913	82.31
387.138	85.31
387.363	96.31
387.588	90.31
387.813	87.31
388.038	92.31
388.263	79.31
388.488	76.31
388.713	86.31
388.938	91.31
389.163	86.31
389.387	97.31
389.612	86.31
389.837	88.31
390.062	88.31
390.287	83.31
390.512	86.31
390.736	94.31
390.961	81.31
391.186	75.31
391.411	96.31
391.636	94.31
391.86	86.31
392.085	96.31
392.31	85.31
392.534	82.31
392.759	91.31
392.984	112.31
393.208	124.31
393.433	146.31
393.658	130.31
393.882	96.31
394.107	100.31
394.331	88.31
394.556	84.31
394.78	92.31
395.005	93.31
395.229	109.31
395.454	98.31
395.678	104.31
395.903	98.31
396.127	103.31
396.352	102.31
396.576	108.31
396.801	131.31
397.025	142.31
397.249	102.31
397.474	103.31
397.698	90.31
397.922	96.31
398.147	82.31
398.371	87.31
398.595	97.31
398.82	74.31
399.044	82.31
399.268	84.31
399.492	92.31
399.717	101.31
399.941	87.31
400.165	82.31
400.389	83.31
400.613	99.31
400.837	96.31
401.062	73.31
401.286	82.31
401.51	89.31
401.734	97.31
401.958	98.31
402.182	105.31
402.406	82.31
402.63	78.31
402.854	68.31
403.078	90.31
403.302	85.31
403.526	78.31
403.75	75.31
403.974	89.31
404.198	94.31
404.422	107.31
404.645	110.31
404.869	120.31
405.093	91.31
405.317	84.31
405.541	91.31
405.765	100.31
405.988	82.31
406.212	87.31
406.436	86.31
406.66	85.31
406.883	79.31
407.107	64.31
407.331	80.31
407.555	87.31
407.778	85.31
408.002	100.31
408.226	85.31
408.449	91.31
408.673	89.31
408.896	109.31
409.12	91.31
409.344	74.31
409.567	78.31
409.791	74.31
410.014	93.31
410.238	83.31
410.461	84.31
410.685	94.31
410.908	83.31
411.132	95.31
411.355	97.31
411.578	98.31
411.802	79.31
412.025	94.31
412.249	98.31
412.472	81.31
412.695	77.31
412.919	90.31
413.142	96.31
413.365	93.31
413.589	92.31
413.812	80.31
414.035	88.31
414.258	105.31
414.482	84.31
414.705	84.31
414.928	85.31
415.151	79.31
415.374	96.31
415.597	91.31
415.821	92.31
416.044	78.31
416.267	91.31
416.49	87.31
416.713	98.31
416.936	95.31
417.159	70.31
417.382	75.31
417.605	82.31
417.828	88.31
418.051	91.31
418.274	86.31
418.497	91.31
418.72	88.31
418.943	91.31
419.166	86.31
419.389	92.31
419.611	87.31
419.834	92.31
420.057	86.31
420.28	74.31
420.503	88.31
420.726	91.31
420.948	99.31
421.171	86.31
421.394	102.31
421.617	105.31
421.839	98.31
422.062	102.31
422.285	130.31
422.507	179.31
422.73	179.31
422.953	164.31
423.175	123.31
423.398	109.31
423.621	104.31
423.843	90.31
424.066	90.31
424.288	87.31
424.511	77.31
424.733	86.31
424.956	79.31
425.178	76.31
425.401	86.31
425.623	81.31
425.846	97.31
426.068	87.31
426.291	84.31
426.513	91.31
426.735	82.31
426.958	78.31
427.18	80.31
427.402	104.31
427.625	106.31
427.847	82.31
428.069	87.31
428.292	103.31
428.514	108.31
428.736	95.31
428.958	103.31
429.181	115.31
429.403	78.31
429.625	91.31
429.847	121.31
430.069	118.31
430.292	132.31
430.514	127.31
430.736	99.31
430.958	105.31
431.18	90.31
431.402	90.31
431.624	81.31
431.846	107.31
432.068	92.31
432.29	94.31
432.512	92.31
432.734	82.31
432.956	71.31
433.178	91.31
433.4	93.31
433.622	93.31
433.844	84.31
434.066	88.31
434.287	81.31
434.509	74.31
434.731	72.31
434.953	87.31
435.175	82.31
435.397	94.31
435.618	94.31
435.84	80.31
436.062	97.31
436.284	73.31
436.505	89.31
436.727	84.31
436.949	97.31
437.17	86.31
437.392	97.31
437.614	95.31
437.835	80.31
438.057	74.31
438.278	85.31
438.5	86.31
438.721	86.31
438.943	78.31
439.165	91.31
439.386	72.31
439.608	76.31
439.829	98.31
440.05	85.31
440.272	90.31
440.493	94.31
440.715	78.31
440.936	88.31
441.158	89.31
441.379	92.31
441.6	88.31
441.822	78.31
442.043	88.31
442.264	100.31
442.486	113.31
442.707	112.31
442.928	98.31
443.149	94.31
443.371	125.31
443.592	148.31
443.813	136.31
444.034	100.31
444.255	88.31
444.476	85.31
444.698	89.31
444.919	95.31
445.14	149.31
445.361	162.31
445.582	182.31
445.803	150.31
446.024	103.31
446.245	101.31
446.466	92.31
446.687	87.31
446.908	105.31
447.129	84.31
447.35	97.31
447.571	94.31
447.792	76.31
448.013	83.31
448.234	90.31
448.455	89.31
448.675	85.31
448.896	66.31
449.117	76.31
449.338	94.31
449.559	90.31
449.779	97.31
450	69.31
450.221	97.31
450.442	94.31
450.662	84.31
450.883	70.31
451.104	93.31
451.324	80.31
451.545	82.31
451.766	99.31
451.986	85.31
452.207	82.31
452.428	78.31
452.648	91.31
452.869	85.31
453.089	76.31
453.31	95.31
453.53	86.31
453.751	89.31
453.971	77.31
454.192	83.31
454.412	81.31
454.633	81.31
454.853	79.31
455.073	92.31
455.294	100.31
455.514	93.31
455.734	75.31
455.955	99.31
456.175	77.31
456.395	83.31
456.616	85.31
456.836	82.31
457.056	75.31
457.276	79.31
457.497	94.31
457.717	92.31
457.937	83.31
458.157	102.31
458.377	85.31
458.598	100.31
458.818	110.31
459.038	96.31
459.258	94.31
459.478	76.31
459.698	82.31
459.918	76.31
460.138	82.31
460.358	86.31
460.578	91.31
460.798	107.31
461.018	84.31
461.238	86.31
461.458	90.31
461.678	91.31
461.898	78.31
462.118	74.31
462.338	90.31
462.558	83.31
462.777	86.31
462.997	86.31
463.217	88.31
463.437	87.31
463.657	80.31
463.876	94.31
464.096	86.31
464.316	96.31
464.536	97.31
464.755	91.31
464.975	79.31
465.195	71.31
465.414	91.31
465.634	88.31
465.854	84.31
466.073	100.31
466.293	83.31
466.512	82.31
466.732	89.31
466.951	102.31
467.171	97.31
467.391	78.31
467.61	84.31
467.829	90.31
468.049	79.31
468.268	82.31
468.488	83.31
468.707	98.31
468.927	83.31
469.146	83.31
469.365	95.31
469.585	81.31
469.804	83.31
470.023	90.31
470.243	110.31
470.462	88.31
470.681	86.31
470.901	86.31
471.12	87.31
471.339	88.31
471.558	87.31
471.777	94.31
471.997	91.31
472.216	91.31
472.435	89.31
472.654	71.31
472.873	90.31
473.092	84.31
473.311	90.31
473.53	98.31
473.749	83.31
473.968	90.31
474.187	88.31
474.406	91.31
474.625	99.31
474.844	91.31
475.063	90.31
475.282	102.31
475.501	89.31
475.72	89.31
475.939	90.31
476.158	92.31
476.377	77.31
476.596	88.31
476.814	106.31
477.033	82.31
477.252	80.31
477.471	90.31
477.69	82.31
477.908	80.31
478.127	97.31
478.346	88.31
478.564	95.31
478.783	88.31
479.002	84.31
479.22	89.31
479.439	90.31
479.658	73.31
479.876	85.31
480.095	66.31
480.313	88.31
480.532	83.31
480.751	86.31
480.969	93.31
481.188	95.31
481.406	73.31
481.624	80.31
481.843	87.31
482.061	86.31
482.28	83.31
482.498	74.31
482.717	82.31
482.935	81.31
483.153	82.31
483.372	86.31
483.59	84.31
483.808	79.31
484.027	73.31
484.245	110.31
484.463	94.31
484.681	89.31
484.9	82.31
485.118	94.31
485.336	95.31
485.554	99.31
485.772	80.31
485.99	97.31
486.209	94.31
486.427	84.31
486.645	98.31
486.863	83.31
487.081	96.31
487.299	90.31
487.517	85.31
487.735	100.31
487.953	122.31
488.171	125.31
488.389	82.31
488.607	74.31
488.825	88.31
489.043	91.31
489.261	97.31
489.479	86.31
489.696	94.31
489.914	107.31
490.132	78.31
490.35	91.31
490.568	70.31
490.786	82.31
491.003	83.31
491.221	88.31
491.439	82.31
491.657	95.31
491.874	81.31
492.092	90.31
492.31	90.31
492.527	80.31
492.745	77.31
492.963	80.31
493.18	90.31
493.398	86.31
493.615	94.31
493.833	107.31
494.05	92.31
494.268	80.31
494.485	84.31
494.703	93.31
494.92	95.31
495.138	86.31
495.355	76.31
495.573	72.31
495.79	96.31
496.008	90.31
496.225	82.31
496.442	87.31
496.66	104.31
496.877	96.31
497.094	86.31
497.312	89.31
497.529	80.31
497.746	81.31
497.963	69.31
498.181	87.31
498.398	87.31
498.615	83.31
498.832	83.31
499.049	91.31
499.267	95.31
499.484	98.31
499.701	93.31
499.918	91.31
500.135	96.31
500.352	98.31
500.569	88.31
500.786	90.31
501.003	83.31
501.22	84.31
501.437	83.31
501.654	87.31
501.871	80.31
502.088	79.31
502.305	101.31
502.522	83.31
502.739	90.31
502.956	93.31
503.172	90.31
503.389	97.31
503.606	77.31
503.823	94.31
504.04	83.31
504.256	97.31
504.473	95.31
504.69	103.31
504.907	85.31
505.123	89.31
505.34	90.31
505.557	98.31
505.773	78.31
505.99	92.31
506.207	85.31
506.423	83.31
506.64	82.31
506.856	75.31
507.073	94.31
507.289	85.31
507.506	97.31
507.722	81.31
507.939	81.31
508.155	86.31
508.372	89.31
508.588	95.31
508.805	83.31
509.021	96.31
509.238	90.31
509.454	77.31
509.67	80.31
509.887	89.31
510.103	98.31
510.319	95.31
510.536	98.31
510.752	87.31
510.968	84.31
511.184	90.31
511.401	79.31
511.617	89.31
511.833	84.31
512.049	83.31
512.265	92.31
512.481	95.31
512.698	83.31
512.914	90.31
513.13	82.31
513.346	89.31
513.562	87.31
513.778	86.31
513.994	83.31
514.21	79.31
514.426	87.31
514.642	82.31
514.858	88.31
515.074	73.31
515.29	86.31
515.506	94.31
515.721	90.31
515.937	101.31
516.153	95.31
516.369	83.31
516.585	79.31
516.801	90.31
517.016	88.31
517.232	88.31
517.448	98.31
517.664	86.31
517.879	95.31
518.095	72.31
518.311	82.31
518.527	100.31
518.742	116.31
