Data from Mixheat1_HRD10591_00015.txt Node
Date: Fri Dec 27 15:06:58 EST 2024
User: Yrep
Spectrometer: HR+D1059
Trigger mode: 1
Integration Time (sec): 1.000000E-1
Scans to average: 1
Electric dark correction enabled: true
Nonlinearity correction enabled: false
Boxcar width: 0
XAxis mode: Wavelengths
Number of Pixels in Spectrum: 2048
>>>>>Begin Spectral Data<<<<<
223.165	-14.19
223.4	-14.19
223.635	-14.19
223.869	-33.19
224.104	-13.19
224.338	-23.19
224.573	-10.19
224.808	7.81
225.042	-6.19
225.277	-10.19
225.511	6.81
225.746	-9.19
225.98	18.81
226.215	12.81
226.449	13.81
226.683	0.81
226.918	31.81
227.152	26.81
227.387	26.81
227.621	36.81
227.856	30.81
228.09	57.81
228.324	42.81
228.559	58.81
228.793	56.81
229.027	49.81
229.262	60.81
229.496	69.81
229.73	73.81
229.964	58.81
230.199	73.81
230.433	73.81
230.667	78.81
230.901	74.81
231.136	82.81
231.37	69.81
231.604	69.81
231.838	86.81
232.072	90.81
232.306	88.81
232.541	60.81
232.775	75.81
233.009	64.81
233.243	75.81
233.477	90.81
233.711	82.81
233.945	77.81
234.179	80.81
234.413	87.81
234.647	84.81
234.881	81.81
235.115	87.81
235.349	89.81
235.583	81.81
235.817	78.81
236.051	86.81
236.285	68.81
236.519	67.81
236.753	80.81
236.987	83.81
237.221	74.81
237.455	77.81
237.689	82.81
237.922	71.81
238.156	80.81
238.39	73.81
238.624	69.81
238.858	76.81
239.091	74.81
239.325	79.81
239.559	58.81
239.793	74.81
240.027	87.81
240.26	84.81
240.494	67.81
240.728	76.81
240.961	75.81
241.195	75.81
241.429	79.81
241.662	69.81
241.896	82.81
242.13	77.81
242.363	73.81
242.597	65.81
242.83	63.81
243.064	70.81
243.298	68.81
243.531	84.81
243.765	76.81
243.998	71.81
244.232	76.81
244.465	66.81
244.699	73.81
244.932	78.81
245.166	87.81
245.399	76.81
245.633	71.81
245.866	75.81
246.099	74.81
246.333	56.81
246.566	82.81
246.8	76.81
247.033	67.81
247.266	82.81
247.5	67.81
247.733	65.81
247.966	78.81
248.2	69.81
248.433	80.81
248.666	77.81
248.899	61.81
249.133	83.81
249.366	90.81
249.599	77.81
249.832	68.81
250.066	71.81
250.299	79.81
250.532	88.81
250.765	75.81
250.998	77.81
251.231	73.81
251.465	81.81
251.698	79.81
251.931	80.81
252.164	91.81
252.397	82.81
252.63	76.81
252.863	68.81
253.096	79.81
253.329	85.81
253.562	80.81
253.795	87.81
254.028	80.81
254.261	75.81
254.494	84.81
254.727	86.81
254.96	75.81
255.193	68.81
255.426	92.81
255.659	72.81
255.892	74.81
256.124	73.81
256.357	77.81
256.59	79.81
256.823	73.81
257.056	74.81
257.289	80.81
257.521	64.81
257.754	70.81
257.987	80.81
258.22	79.81
258.452	64.81
258.685	83.81
258.918	85.81
259.151	65.81
259.383	84.81
259.616	73.81
259.849	81.81
260.081	91.81
260.314	88.81
260.547	79.81
260.779	82.81
261.012	77.81
261.244	95.81
261.477	94.81
261.71	81.81
261.942	74.81
262.175	87.81
262.407	72.81
262.64	70.81
262.872	74.81
263.105	90.81
263.337	88.81
263.57	76.81
263.802	84.81
264.035	76.81
264.267	80.81
264.499	69.81
264.732	82.81
264.964	77.81
265.197	69.81
265.429	69.81
265.661	82.81
265.894	82.81
266.126	89.81
266.358	80.81
266.591	75.81
266.823	75.81
267.055	83.81
267.287	74.81
267.52	87.81
267.752	80.81
267.984	74.81
268.216	80.81
268.448	87.81
268.681	84.81
268.913	77.81
269.145	79.81
269.377	79.81
269.609	91.81
269.841	98.81
270.073	78.81
270.306	79.81
270.538	71.81
270.77	70.81
271.002	87.81
271.234	93.81
271.466	87.81
271.698	88.81
271.93	75.81
272.162	83.81
272.394	76.81
272.626	78.81
272.858	78.81
273.09	87.81
273.322	85.81
273.553	71.81
273.785	86.81
274.017	82.81
274.249	79.81
274.481	76.81
274.713	83.81
274.945	86.81
275.176	88.81
275.408	66.81
275.64	63.81
275.872	74.81
276.104	90.81
276.335	76.81
276.567	82.81
276.799	86.81
277.031	80.81
277.262	73.81
277.494	82.81
277.726	84.81
277.957	92.81
278.189	79.81
278.421	73.81
278.652	78.81
278.884	70.81
279.115	84.81
279.347	86.81
279.579	68.81
279.81	80.81
280.042	82.81
280.273	93.81
280.505	99.81
280.736	87.81
280.968	67.81
281.199	75.81
281.431	65.81
281.662	90.81
281.894	87.81
282.125	71.81
282.356	86.81
282.588	76.81
282.819	79.81
283.051	85.81
283.282	76.81
283.513	75.81
283.745	82.81
283.976	75.81
284.207	79.81
284.439	79.81
284.67	88.81
284.901	82.81
285.132	68.81
285.364	91.81
285.595	87.81
285.826	97.81
286.057	89.81
286.288	72.81
286.52	82.81
286.751	70.81
286.982	69.81
287.213	71.81
287.444	96.81
287.675	82.81
287.906	91.81
288.138	82.81
288.369	89.81
288.6	95.81
288.831	78.81
289.062	67.81
289.293	75.81
289.524	79.81
289.755	86.81
289.986	72.81
290.217	79.81
290.448	87.81
290.679	71.81
290.91	93.81
291.141	82.81
291.371	108.81
291.602	76.81
291.833	84.81
292.064	84.81
292.295	80.81
292.526	102.81
292.757	81.81
292.987	84.81
293.218	98.81
293.449	75.81
293.68	70.81
293.91	83.81
294.141	86.81
294.372	82.81
294.603	90.81
294.833	71.81
295.064	84.81
295.295	77.81
295.525	75.81
295.756	87.81
295.987	84.81
296.217	71.81
296.448	85.81
296.679	82.81
296.909	85.81
297.14	89.81
297.37	98.81
297.601	95.81
297.831	101.81
298.062	78.81
298.292	80.81
298.523	98.81
298.753	89.81
298.984	79.81
299.214	77.81
299.445	84.81
299.675	83.81
299.905	101.81
300.136	90.81
300.366	77.81
300.597	93.81
300.827	86.81
301.057	85.81
301.288	93.81
301.518	92.81
301.748	84.81
301.979	93.81
302.209	91.81
302.439	70.81
302.669	82.81
302.9	97.81
303.13	94.81
303.36	87.81
303.59	94.81
303.82	80.81
304.051	95.81
304.281	85.81
304.511	87.81
304.741	79.81
304.971	79.81
305.201	72.81
305.431	78.81
305.661	88.81
305.891	82.81
306.121	91.81
306.352	74.81
306.582	81.81
306.812	70.81
307.042	83.81
307.272	82.81
307.502	84.81
307.731	90.81
307.961	88.81
308.191	79.81
308.421	94.81
308.651	85.81
308.881	85.81
309.111	75.81
309.341	85.81
309.571	95.81
309.8	93.81
310.03	98.81
310.26	80.81
310.49	76.81
310.72	84.81
310.949	82.81
311.179	91.81
311.409	76.81
311.639	88.81
311.868	84.81
312.098	95.81
312.328	72.81
312.557	88.81
312.787	86.81
313.017	94.81
313.246	90.81
313.476	76.81
313.706	70.81
313.935	84.81
314.165	88.81
314.394	84.81
314.624	70.81
314.853	58.81
315.083	76.81
315.312	79.81
315.542	82.81
315.771	80.81
316.001	94.81
316.23	87.81
316.46	85.81
316.689	83.81
316.919	76.81
317.148	98.81
317.377	82.81
317.607	87.81
317.836	86.81
318.065	87.81
318.295	102.81
318.524	74.81
318.753	94.81
318.983	89.81
319.212	80.81
319.441	72.81
319.67	85.81
319.9	72.81
320.129	83.81
320.358	79.81
320.587	84.81
320.816	75.81
321.046	86.81
321.275	79.81
321.504	79.81
321.733	94.81
321.962	87.81
322.191	87.81
322.42	87.81
322.649	93.81
322.878	93.81
323.108	88.81
323.337	84.81
323.566	80.81
323.795	77.81
324.024	96.81
324.253	95.81
324.482	93.81
324.71	85.81
324.939	75.81
325.168	80.81
325.397	87.81
325.626	86.81
325.855	83.81
326.084	81.81
326.313	90.81
326.542	89.81
326.77	84.81
326.999	78.81
327.228	84.81
327.457	80.81
327.686	86.81
327.914	90.81
328.143	78.81
328.372	73.81
328.6	98.81
328.829	87.81
329.058	88.81
329.287	78.81
329.515	81.81
329.744	87.81
329.972	65.81
330.201	83.81
330.43	87.81
330.658	67.81
330.887	85.81
331.115	95.81
331.344	73.81
331.572	96.81
331.801	92.81
332.03	83.81
332.258	93.81
332.486	87.81
332.715	74.81
332.943	73.81
333.172	74.81
333.4	94.81
333.629	90.81
333.857	75.81
334.085	72.81
334.314	79.81
334.542	83.81
334.771	82.81
334.999	84.81
335.227	87.81
335.455	89.81
335.684	82.81
335.912	90.81
336.14	87.81
336.369	99.81
336.597	70.81
336.825	90.81
337.053	78.81
337.281	84.81
337.51	79.81
337.738	90.81
337.966	82.81
338.194	77.81
338.422	80.81
338.65	98.81
338.878	76.81
339.106	98.81
339.334	94.81
339.562	78.81
339.79	82.81
340.018	92.81
340.246	103.81
340.474	90.81
340.702	91.81
340.93	91.81
341.158	90.81
341.386	82.81
341.614	84.81
341.842	90.81
342.07	83.81
342.298	75.81
342.526	78.81
342.754	82.81
342.981	66.81
343.209	79.81
343.437	91.81
343.665	83.81
343.893	82.81
344.12	82.81
344.348	82.81
344.576	91.81
344.804	74.81
345.031	74.81
345.259	77.81
345.487	97.81
345.714	72.81
345.942	86.81
346.17	94.81
346.397	73.81
346.625	88.81
346.853	84.81
347.08	83.81
347.308	78.81
347.535	67.81
347.763	65.81
347.99	88.81
348.218	80.81
348.445	83.81
348.673	81.81
348.9	73.81
349.128	80.81
349.355	86.81
349.583	76.81
349.81	85.81
350.037	91.81
350.265	77.81
350.492	99.81
350.72	83.81
350.947	79.81
351.174	86.81
351.402	85.81
351.629	85.81
351.856	85.81
352.083	91.81
352.311	87.81
352.538	75.81
352.765	85.81
352.992	96.81
353.22	82.81
353.447	90.81
353.674	84.81
353.901	83.81
354.128	90.81
354.355	75.81
354.583	90.81
354.81	83.81
355.037	82.81
355.264	81.81
355.491	85.81
355.718	75.81
355.945	78.81
356.172	93.81
356.399	75.81
356.626	72.81
356.853	82.81
357.08	86.81
357.307	75.81
357.534	92.81
357.761	87.81
357.988	98.81
358.215	97.81
358.441	79.81
358.668	74.81
358.895	88.81
359.122	73.81
359.349	74.81
359.576	78.81
359.802	94.81
360.029	95.81
360.256	70.81
360.483	83.81
360.709	77.81
360.936	84.81
361.163	79.81
361.39	83.81
361.616	74.81
361.843	89.81
362.07	81.81
362.296	78.81
362.523	71.81
362.749	82.81
362.976	78.81
363.203	90.81
363.429	84.81
363.656	71.81
363.882	77.81
364.109	92.81
364.335	82.81
364.562	75.81
364.788	78.81
365.015	86.81
365.241	78.81
365.468	94.81
365.694	84.81
365.92	73.81
366.147	89.81
366.373	81.81
366.599	89.81
366.826	94.81
367.052	104.81
367.278	84.81
367.505	81.81
367.731	94.81
367.957	82.81
368.184	92.81
368.41	79.81
368.636	99.81
368.862	82.81
369.089	87.81
369.315	72.81
369.541	69.81
369.767	84.81
369.993	84.81
370.219	66.81
370.445	82.81
370.672	89.81
370.898	87.81
371.124	88.81
371.35	106.81
371.576	97.81
371.802	80.81
372.028	81.81
372.254	87.81
372.48	76.81
372.706	68.81
372.932	85.81
373.158	100.81
373.384	95.81
373.61	83.81
373.835	90.81
374.061	82.81
374.287	84.81
374.513	80.81
374.739	83.81
374.965	82.81
375.191	90.81
375.416	81.81
375.642	82.81
375.868	93.81
376.094	69.81
376.319	77.81
376.545	85.81
376.771	70.81
376.997	86.81
377.222	82.81
377.448	93.81
377.674	84.81
377.899	78.81
378.125	88.81
378.35	88.81
378.576	82.81
378.802	76.81
379.027	99.81
379.253	93.81
379.478	93.81
379.704	82.81
379.929	79.81
380.155	83.81
380.38	86.81
380.606	82.81
380.831	83.81
381.057	88.81
381.282	91.81
381.507	82.81
381.733	86.81
381.958	87.81
382.184	72.81
382.409	82.81
382.634	81.81
382.86	90.81
383.085	88.81
383.31	74.81
383.535	81.81
383.761	76.81
383.986	93.81
384.211	91.81
384.436	79.81
384.662	69.81
384.887	96.81
385.112	74.81
385.337	82.81
385.562	76.81
385.787	72.81
386.013	80.81
386.238	91.81
386.463	90.81
386.688	100.81
386.913	86.81
387.138	91.81
387.363	80.81
387.588	81.81
387.813	95.81
388.038	76.81
388.263	78.81
388.488	78.81
388.713	87.81
388.938	85.81
389.163	82.81
389.387	63.81
389.612	68.81
389.837	69.81
390.062	79.81
390.287	79.81
390.512	58.81
390.736	70.81
390.961	77.81
391.186	83.81
391.411	80.81
391.636	74.81
391.86	84.81
392.085	85.81
392.31	79.81
392.534	78.81
392.759	97.81
392.984	77.81
393.208	114.81
393.433	126.81
393.658	108.81
393.882	90.81
394.107	89.81
394.331	79.81
394.556	88.81
394.78	84.81
395.005	78.81
395.229	91.81
395.454	89.81
395.678	78.81
395.903	87.81
396.127	93.81
396.352	101.81
396.576	103.81
396.801	115.81
397.025	106.81
397.249	75.81
397.474	91.81
397.698	81.81
397.922	79.81
398.147	76.81
398.371	79.81
398.595	78.81
398.82	92.81
399.044	76.81
399.268	83.81
399.492	75.81
399.717	84.81
399.941	100.81
400.165	106.81
400.389	98.81
400.613	74.81
400.837	90.81
401.062	71.81
401.286	70.81
401.51	90.81
401.734	83.81
401.958	82.81
402.182	62.81
402.406	68.81
402.63	80.81
402.854	69.81
403.078	65.81
403.302	97.81
403.526	80.81
403.75	86.81
403.974	77.81
404.198	79.81
404.422	117.81
404.645	106.81
404.869	102.81
405.093	95.81
405.317	97.81
405.541	85.81
405.765	87.81
405.988	73.81
406.212	70.81
406.436	75.81
406.66	99.81
406.883	90.81
407.107	77.81
407.331	84.81
407.555	88.81
407.778	77.81
408.002	102.81
408.226	90.81
408.449	82.81
408.673	98.81
408.896	76.81
409.12	97.81
409.344	78.81
409.567	71.81
409.791	70.81
410.014	78.81
410.238	85.81
410.461	95.81
410.685	70.81
410.908	94.81
411.132	86.81
411.355	83.81
411.578	92.81
411.802	83.81
412.025	82.81
412.249	82.81
412.472	87.81
412.695	71.81
412.919	92.81
413.142	83.81
413.365	83.81
413.589	92.81
413.812	74.81
414.035	77.81
414.258	82.81
414.482	81.81
414.705	87.81
414.928	87.81
415.151	90.81
415.374	71.81
415.597	88.81
415.821	73.81
416.044	80.81
416.267	67.81
416.49	86.81
416.713	77.81
416.936	82.81
417.159	74.81
417.382	89.81
417.605	99.81
417.828	83.81
418.051	71.81
418.274	79.81
418.497	91.81
418.72	84.81
418.943	77.81
419.166	74.81
419.389	102.81
419.611	92.81
419.834	87.81
420.057	85.81
420.28	84.81
420.503	88.81
420.726	88.81
420.948	85.81
421.171	71.81
421.394	88.81
421.617	88.81
421.839	86.81
422.062	92.81
422.285	86.81
422.507	123.81
422.73	146.81
422.953	134.81
423.175	98.81
423.398	87.81
423.621	86.81
423.843	75.81
424.066	72.81
424.288	85.81
424.511	77.81
424.733	86.81
424.956	89.81
425.178	90.81
425.401	99.81
425.623	90.81
425.846	91.81
426.068	82.81
426.291	89.81
426.513	101.81
426.735	77.81
426.958	84.81
427.18	74.81
427.402	85.81
427.625	91.81
427.847	78.81
428.069	97.81
428.292	99.81
428.514	88.81
428.736	76.81
428.958	88.81
429.181	91.81
429.403	88.81
429.625	82.81
429.847	86.81
430.069	101.81
430.292	103.81
430.514	107.81
430.736	90.81
430.958	102.81
431.18	71.81
431.402	79.81
431.624	86.81
431.846	92.81
432.068	89.81
432.29	86.81
432.512	75.81
432.734	89.81
432.956	80.81
433.178	97.81
433.4	78.81
433.622	77.81
433.844	93.81
434.066	84.81
434.287	82.81
434.509	77.81
434.731	83.81
434.953	80.81
435.175	76.81
435.397	88.81
435.618	83.81
435.84	79.81
436.062	85.81
436.284	79.81
436.505	82.81
436.727	74.81
436.949	81.81
437.17	79.81
437.392	78.81
437.614	76.81
437.835	70.81
438.057	66.81
438.278	80.81
438.5	91.81
438.721	80.81
438.943	68.81
439.165	70.81
439.386	75.81
439.608	91.81
439.829	80.81
440.05	74.81
440.272	92.81
440.493	76.81
440.715	87.81
440.936	87.81
441.158	92.81
441.379	75.81
441.6	74.81
441.822	79.81
442.043	83.81
442.264	84.81
442.486	98.81
442.707	98.81
442.928	81.81
443.149	81.81
443.371	94.81
443.592	113.81
443.813	101.81
444.034	91.81
444.255	79.81
444.476	71.81
444.698	91.81
444.919	76.81
445.14	142.81
445.361	135.81
445.582	140.81
445.803	104.81
446.024	85.81
446.245	96.81
446.466	76.81
446.687	86.81
446.908	88.81
447.129	88.81
447.35	75.81
447.571	88.81
447.792	82.81
448.013	81.81
448.234	74.81
448.455	79.81
448.675	77.81
448.896	79.81
449.117	81.81
449.338	74.81
449.559	87.81
449.779	70.81
450	78.81
450.221	84.81
450.442	66.81
450.662	79.81
450.883	88.81
451.104	82.81
451.324	82.81
451.545	76.81
451.766	83.81
451.986	90.81
452.207	67.81
452.428	86.81
452.648	86.81
452.869	78.81
453.089	70.81
453.31	83.81
453.53	82.81
453.751	91.81
453.971	92.81
454.192	71.81
454.412	86.81
454.633	79.81
454.853	80.81
455.073	76.81
455.294	68.81
455.514	84.81
455.734	75.81
455.955	75.81
456.175	81.81
456.395	81.81
456.616	77.81
456.836	74.81
457.056	66.81
457.276	86.81
457.497	87.81
457.717	91.81
457.937	81.81
458.157	82.81
458.377	95.81
458.598	97.81
458.818	92.81
459.038	83.81
459.258	80.81
459.478	79.81
459.698	76.81
459.918	76.81
460.138	79.81
460.358	83.81
460.578	84.81
460.798	92.81
461.018	85.81
461.238	85.81
461.458	63.81
461.678	82.81
461.898	78.81
462.118	85.81
462.338	90.81
462.558	82.81
462.777	84.81
462.997	87.81
463.217	84.81
463.437	79.81
463.657	90.81
463.876	71.81
464.096	84.81
464.316	68.81
464.536	75.81
464.755	84.81
464.975	68.81
465.195	80.81
465.414	73.81
465.634	100.81
465.854	76.81
466.073	75.81
466.293	84.81
466.512	79.81
466.732	89.81
466.951	88.81
467.171	81.81
467.391	82.81
467.61	79.81
467.829	74.81
468.049	86.81
468.268	78.81
468.488	77.81
468.707	81.81
468.927	83.81
469.146	97.81
469.365	91.81
469.585	89.81
469.804	73.81
470.023	83.81
470.243	95.81
470.462	88.81
470.681	81.81
470.901	79.81
471.12	74.81
471.339	76.81
471.558	77.81
471.777	85.81
471.997	85.81
472.216	88.81
472.435	75.81
472.654	80.81
472.873	83.81
473.092	85.81
473.311	91.81
473.53	71.81
473.749	75.81
473.968	88.81
474.187	99.81
474.406	85.81
474.625	81.81
474.844	77.81
475.063	94.81
475.282	85.81
475.501	86.81
475.72	87.81
475.939	75.81
476.158	82.81
476.377	89.81
476.596	88.81
476.814	84.81
477.033	86.81
477.252	75.81
477.471	74.81
477.69	76.81
477.908	90.81
478.127	86.81
478.346	77.81
478.564	98.81
478.783	68.81
479.002	72.81
479.22	67.81
479.439	88.81
479.658	80.81
479.876	84.81
480.095	75.81
480.313	86.81
480.532	87.81
480.751	94.81
480.969	68.81
481.188	84.81
481.406	91.81
481.624	76.81
481.843	84.81
482.061	79.81
482.28	79.81
482.498	62.81
482.717	77.81
482.935	84.81
483.153	83.81
483.372	88.81
483.59	72.81
483.808	79.81
484.027	83.81
484.245	83.81
484.463	82.81
484.681	96.81
484.9	75.81
485.118	72.81
485.336	91.81
485.554	83.81
485.772	80.81
485.99	72.81
486.209	78.81
486.427	73.81
486.645	89.81
486.863	80.81
487.081	74.81
487.299	95.81
487.517	77.81
487.735	100.81
487.953	88.81
488.171	82.81
488.389	82.81
488.607	74.81
488.825	80.81
489.043	78.81
489.261	79.81
489.479	87.81
489.696	79.81
489.914	89.81
490.132	85.81
490.35	93.81
490.568	70.81
490.786	76.81
491.003	77.81
491.221	91.81
491.439	92.81
491.657	90.81
491.874	72.81
492.092	77.81
492.31	71.81
492.527	67.81
492.745	91.81
492.963	93.81
493.18	91.81
493.398	80.81
493.615	79.81
493.833	79.81
494.05	87.81
494.268	76.81
494.485	82.81
494.703	108.81
494.92	88.81
495.138	84.81
495.355	66.81
495.573	88.81
495.79	88.81
496.008	84.81
496.225	75.81
496.442	82.81
496.66	84.81
496.877	82.81
497.094	91.81
497.312	70.81
497.529	74.81
497.746	93.81
497.963	73.81
498.181	87.81
498.398	87.81
498.615	86.81
498.832	72.81
499.049	83.81
499.267	87.81
499.484	96.81
499.701	85.81
499.918	86.81
500.135	74.81
500.352	84.81
500.569	82.81
500.786	81.81
501.003	87.81
501.22	82.81
501.437	83.81
501.654	83.81
501.871	87.81
502.088	79.81
502.305	90.81
502.522	80.81
502.739	83.81
502.956	98.81
503.172	87.81
503.389	77.81
503.606	88.81
503.823	80.81
504.04	91.81
504.256	82.81
504.473	89.81
504.69	91.81
504.907	101.81
505.123	76.81
505.34	75.81
505.557	81.81
505.773	81.81
505.99	84.81
506.207	86.81
506.423	70.81
506.64	84.81
506.856	83.81
507.073	76.81
507.289	86.81
507.506	92.81
507.722	78.81
507.939	86.81
508.155	78.81
508.372	82.81
508.588	89.81
508.805	90.81
509.021	77.81
509.238	91.81
509.454	77.81
509.67	76.81
509.887	93.81
510.103	65.81
510.319	76.81
510.536	86.81
510.752	94.81
510.968	76.81
511.184	94.81
511.401	90.81
511.617	75.81
511.833	81.81
512.049	77.81
512.265	82.81
512.481	86.81
512.698	76.81
512.914	87.81
513.13	80.81
513.346	75.81
513.562	74.81
513.778	79.81
513.994	79.81
514.21	86.81
514.426	86.81
514.642	76.81
514.858	82.81
515.074	93.81
515.29	76.81
515.506	85.81
515.721	75.81
515.937	86.81
516.153	107.81
516.369	96.81
516.585	84.81
516.801	77.81
517.016	103.81
517.232	71.81
517.448	91.81
517.664	77.81
517.879	77.81
518.095	93.81
518.311	92.81
518.527	83.81
518.742	85.81
518.958	85.81
519.173	92.81
519.389	77.81
519.605	80.81
