Data from Mixheat1_HRD10591_00003.txt Node
Date: Fri Dec 27 15:06:46 EST 2024
User: Yrep
Spectrometer: HR+D1059
Trigger mode: 1
Integration Time (sec): 1.000000E-1
Scans to average: 1
Electric dark correction enabled: true
Nonlinearity correction enabled: false
Boxcar width: 0
XAxis mode: Wavelengths
Number of Pixels in Spectrum: 2048
>>>>>Begin Spectral Data<<<<<
223.165	-10.31
223.4	-10.31
223.635	-10.31
223.869	-14.31
224.104	-16.31
224.338	-15.31
224.573	-26.31
224.808	-10.31
225.042	0.69
225.277	-14.31
225.511	9.69
225.746	2.69
225.98	22.69
226.215	13.69
226.449	5.69
226.683	18.69
226.918	10.69
227.152	22.69
227.387	42.69
227.621	20.69
227.856	38.69
228.09	51.69
228.324	58.69
228.559	50.69
228.793	53.69
229.027	61.69
229.262	64.69
229.496	53.69
229.73	84.69
229.964	78.69
230.199	87.69
230.433	79.69
230.667	73.69
230.901	79.69
231.136	67.69
231.37	74.69
231.604	82.69
231.838	77.69
232.072	86.69
232.306	73.69
232.541	62.69
232.775	77.69
233.009	91.69
233.243	84.69
233.477	77.69
233.711	81.69
233.945	99.69
234.179	71.69
234.413	89.69
234.647	86.69
234.881	79.69
235.115	89.69
235.349	78.69
235.583	81.69
235.817	69.69
236.051	80.69
236.285	72.69
236.519	97.69
236.753	77.69
236.987	84.69
237.221	90.69
237.455	90.69
237.689	74.69
237.922	69.69
238.156	89.69
238.39	69.69
238.624	66.69
238.858	80.69
239.091	85.69
239.325	80.69
239.559	77.69
239.793	65.69
240.027	85.69
240.26	73.69
240.494	72.69
240.728	68.69
240.961	86.69
241.195	71.69
241.429	84.69
241.662	70.69
241.896	84.69
242.13	76.69
242.363	74.69
242.597	76.69
242.83	76.69
243.064	73.69
243.298	72.69
243.531	77.69
243.765	74.69
243.998	76.69
244.232	86.69
244.465	76.69
244.699	71.69
244.932	62.69
245.166	72.69
245.399	65.69
245.633	72.69
245.866	85.69
246.099	76.69
246.333	75.69
246.566	87.69
246.8	88.69
247.033	78.69
247.266	89.69
247.5	74.69
247.733	68.69
247.966	88.69
248.2	80.69
248.433	81.69
248.666	73.69
248.899	70.69
249.133	59.69
249.366	78.69
249.599	74.69
249.832	90.69
250.066	75.69
250.299	73.69
250.532	66.69
250.765	78.69
250.998	88.69
251.231	72.69
251.465	77.69
251.698	79.69
251.931	74.69
252.164	73.69
252.397	76.69
252.63	80.69
252.863	85.69
253.096	68.69
253.329	90.69
253.562	81.69
253.795	63.69
254.028	77.69
254.261	82.69
254.494	82.69
254.727	86.69
254.96	85.69
255.193	81.69
255.426	76.69
255.659	76.69
255.892	94.69
256.124	84.69
256.357	80.69
256.59	77.69
256.823	81.69
257.056	79.69
257.289	78.69
257.521	89.69
257.754	86.69
257.987	80.69
258.22	81.69
258.452	85.69
258.685	85.69
258.918	75.69
259.151	67.69
259.383	81.69
259.616	94.69
259.849	92.69
260.081	92.69
260.314	82.69
260.547	86.69
260.779	76.69
261.012	96.69
261.244	67.69
261.477	88.69
261.71	83.69
261.942	78.69
262.175	73.69
262.407	80.69
262.64	93.69
262.872	71.69
263.105	78.69
263.337	88.69
263.57	73.69
263.802	86.69
264.035	84.69
264.267	90.69
264.499	78.69
264.732	86.69
264.964	76.69
265.197	72.69
265.429	83.69
265.661	64.69
265.894	82.69
266.126	95.69
266.358	85.69
266.591	82.69
266.823	76.69
267.055	82.69
267.287	65.69
267.52	72.69
267.752	72.69
267.984	91.69
268.216	76.69
268.448	90.69
268.681	86.69
268.913	77.69
269.145	104.69
269.377	67.69
269.609	66.69
269.841	72.69
270.073	74.69
270.306	80.69
270.538	91.69
270.77	84.69
271.002	72.69
271.234	74.69
271.466	71.69
271.698	92.69
271.93	90.69
272.162	94.69
272.394	89.69
272.626	84.69
272.858	72.69
273.09	88.69
273.322	85.69
273.553	76.69
273.785	82.69
274.017	81.69
274.249	65.69
274.481	91.69
274.713	90.69
274.945	83.69
275.176	73.69
275.408	79.69
275.64	93.69
275.872	91.69
276.104	78.69
276.335	79.69
276.567	81.69
276.799	86.69
277.031	79.69
277.262	72.69
277.494	81.69
277.726	90.69
277.957	84.69
278.189	72.69
278.421	90.69
278.652	98.69
278.884	86.69
279.115	93.69
279.347	77.69
279.579	81.69
279.81	93.69
280.042	84.69
280.273	79.69
280.505	73.69
280.736	71.69
280.968	78.69
281.199	63.69
281.431	88.69
281.662	80.69
281.894	89.69
282.125	87.69
282.356	82.69
282.588	74.69
282.819	83.69
283.051	89.69
283.282	86.69
283.513	72.69
283.745	85.69
283.976	73.69
284.207	85.69
284.439	73.69
284.67	73.69
284.901	93.69
285.132	92.69
285.364	87.69
285.595	91.69
285.826	79.69
286.057	97.69
286.288	84.69
286.52	94.69
286.751	79.69
286.982	73.69
287.213	96.69
287.444	93.69
287.675	93.69
287.906	70.69
288.138	92.69
288.369	90.69
288.6	77.69
288.831	73.69
289.062	88.69
289.293	89.69
289.524	88.69
289.755	90.69
289.986	87.69
290.217	79.69
290.448	88.69
290.679	86.69
290.91	90.69
291.141	76.69
291.371	89.69
291.602	81.69
291.833	80.69
292.064	86.69
292.295	77.69
292.526	61.69
292.757	101.69
292.987	97.69
293.218	76.69
293.449	86.69
293.68	86.69
293.91	77.69
294.141	94.69
294.372	97.69
294.603	87.69
294.833	88.69
295.064	73.69
295.295	72.69
295.525	79.69
295.756	89.69
295.987	81.69
296.217	87.69
296.448	84.69
296.679	85.69
296.909	89.69
297.14	73.69
297.37	87.69
297.601	79.69
297.831	85.69
298.062	97.69
298.292	83.69
298.523	77.69
298.753	81.69
298.984	95.69
299.214	86.69
299.445	79.69
299.675	89.69
299.905	89.69
300.136	82.69
300.366	85.69
300.597	81.69
300.827	87.69
301.057	90.69
301.288	87.69
301.518	92.69
301.748	77.69
301.979	101.69
302.209	90.69
302.439	95.69
302.669	95.69
302.9	93.69
303.13	94.69
303.36	76.69
303.59	77.69
303.82	86.69
304.051	92.69
304.281	81.69
304.511	93.69
304.741	86.69
304.971	89.69
305.201	90.69
305.431	96.69
305.661	89.69
305.891	83.69
306.121	89.69
306.352	77.69
306.582	94.69
306.812	91.69
307.042	91.69
307.272	81.69
307.502	89.69
307.731	94.69
307.961	81.69
308.191	88.69
308.421	68.69
308.651	94.69
308.881	86.69
309.111	89.69
309.341	82.69
309.571	86.69
309.8	84.69
310.03	92.69
310.26	93.69
310.49	108.69
310.72	92.69
310.949	88.69
311.179	88.69
311.409	75.69
311.639	84.69
311.868	81.69
312.098	92.69
312.328	76.69
312.557	89.69
312.787	92.69
313.017	81.69
313.246	79.69
313.476	70.69
313.706	87.69
313.935	80.69
314.165	95.69
314.394	89.69
314.624	87.69
314.853	108.69
315.083	84.69
315.312	78.69
315.542	96.69
315.771	88.69
316.001	87.69
316.23	87.69
316.46	80.69
316.689	89.69
316.919	92.69
317.148	93.69
317.377	72.69
317.607	93.69
317.836	79.69
318.065	78.69
318.295	88.69
318.524	87.69
318.753	81.69
318.983	84.69
319.212	77.69
319.441	77.69
319.67	81.69
319.9	84.69
320.129	79.69
320.358	86.69
320.587	83.69
320.816	86.69
321.046	84.69
321.275	89.69
321.504	84.69
321.733	94.69
321.962	68.69
322.191	84.69
322.42	67.69
322.649	63.69
322.878	92.69
323.108	74.69
323.337	91.69
323.566	98.69
323.795	76.69
324.024	82.69
324.253	89.69
324.482	77.69
324.71	85.69
324.939	87.69
325.168	78.69
325.397	90.69
325.626	77.69
325.855	83.69
326.084	72.69
326.313	89.69
326.542	70.69
326.77	72.69
326.999	106.69
327.228	82.69
327.457	92.69
327.686	83.69
327.914	82.69
328.143	93.69
328.372	101.69
328.6	74.69
328.829	79.69
329.058	81.69
329.287	96.69
329.515	95.69
329.744	91.69
329.972	86.69
330.201	88.69
330.43	73.69
330.658	88.69
330.887	88.69
331.115	84.69
331.344	80.69
331.572	101.69
331.801	80.69
332.03	84.69
332.258	108.69
332.486	84.69
332.715	79.69
332.943	95.69
333.172	92.69
333.4	86.69
333.629	93.69
333.857	94.69
334.085	79.69
334.314	81.69
334.542	83.69
334.771	78.69
334.999	95.69
335.227	87.69
335.455	93.69
335.684	82.69
335.912	97.69
336.14	87.69
336.369	104.69
336.597	83.69
336.825	100.69
337.053	95.69
337.281	98.69
337.51	84.69
337.738	81.69
337.966	70.69
338.194	78.69
338.422	80.69
338.65	85.69
338.878	85.69
339.106	75.69
339.334	85.69
339.562	90.69
339.79	73.69
340.018	77.69
340.246	80.69
340.474	76.69
340.702	75.69
340.93	106.69
341.158	74.69
341.386	93.69
341.614	86.69
341.842	72.69
342.07	94.69
342.298	98.69
342.526	100.69
342.754	93.69
342.981	75.69
343.209	68.69
343.437	104.69
343.665	94.69
343.893	90.69
344.12	88.69
344.348	94.69
344.576	94.69
344.804	79.69
345.031	96.69
345.259	77.69
345.487	100.69
345.714	85.69
345.942	85.69
346.17	88.69
346.397	80.69
346.625	81.69
346.853	82.69
347.08	89.69
347.308	84.69
347.535	85.69
347.763	79.69
347.99	83.69
348.218	80.69
348.445	87.69
348.673	76.69
348.9	90.69
349.128	70.69
349.355	94.69
349.583	81.69
349.81	86.69
350.037	91.69
350.265	77.69
350.492	88.69
350.72	84.69
350.947	87.69
351.174	78.69
351.402	77.69
351.629	100.69
351.856	94.69
352.083	80.69
352.311	85.69
352.538	77.69
352.765	98.69
352.992	80.69
353.22	81.69
353.447	86.69
353.674	93.69
353.901	90.69
354.128	73.69
354.355	76.69
354.583	86.69
354.81	74.69
355.037	84.69
355.264	77.69
355.491	86.69
355.718	88.69
355.945	95.69
356.172	90.69
356.399	89.69
356.626	80.69
356.853	90.69
357.08	80.69
357.307	92.69
357.534	75.69
357.761	81.69
357.988	84.69
358.215	89.69
358.441	87.69
358.668	86.69
358.895	94.69
359.122	93.69
359.349	85.69
359.576	92.69
359.802	97.69
360.029	74.69
360.256	94.69
360.483	88.69
360.709	84.69
360.936	90.69
361.163	86.69
361.39	88.69
361.616	74.69
361.843	87.69
362.07	97.69
362.296	95.69
362.523	86.69
362.749	83.69
362.976	82.69
363.203	87.69
363.429	84.69
363.656	88.69
363.882	84.69
364.109	104.69
364.335	96.69
364.562	93.69
364.788	101.69
365.015	94.69
365.241	90.69
365.468	71.69
365.694	73.69
365.92	71.69
366.147	78.69
366.373	91.69
366.599	73.69
366.826	78.69
367.052	57.69
367.278	84.69
367.505	92.69
367.731	103.69
367.957	80.69
368.184	78.69
368.41	82.69
368.636	83.69
368.862	94.69
369.089	79.69
369.315	94.69
369.541	84.69
369.767	79.69
369.993	96.69
370.219	87.69
370.445	82.69
370.672	92.69
370.898	86.69
371.124	89.69
371.35	97.69
371.576	87.69
371.802	86.69
372.028	82.69
372.254	81.69
372.48	89.69
372.706	77.69
372.932	81.69
373.158	83.69
373.384	91.69
373.61	94.69
373.835	88.69
374.061	77.69
374.287	76.69
374.513	78.69
374.739	72.69
374.965	83.69
375.191	77.69
375.416	92.69
375.642	77.69
375.868	95.69
376.094	93.69
376.319	82.69
376.545	93.69
376.771	83.69
376.997	83.69
377.222	85.69
377.448	96.69
377.674	78.69
377.899	91.69
378.125	96.69
378.35	78.69
378.576	85.69
378.802	74.69
379.027	81.69
379.253	78.69
379.478	86.69
379.704	93.69
379.929	83.69
380.155	92.69
380.38	93.69
380.606	79.69
380.831	93.69
381.057	78.69
381.282	85.69
381.507	82.69
381.733	86.69
381.958	79.69
382.184	91.69
382.409	82.69
382.634	100.69
382.86	78.69
383.085	76.69
383.31	80.69
383.535	85.69
383.761	97.69
383.986	85.69
384.211	91.69
384.436	98.69
384.662	94.69
384.887	79.69
385.112	82.69
385.337	87.69
385.562	88.69
385.787	101.69
386.013	80.69
386.238	84.69
386.463	83.69
386.688	104.69
386.913	97.69
387.138	90.69
387.363	83.69
387.588	94.69
387.813	100.69
388.038	93.69
388.263	80.69
388.488	91.69
388.713	98.69
388.938	81.69
389.163	92.69
389.387	78.69
389.612	83.69
389.837	86.69
390.062	72.69
390.287	85.69
390.512	82.69
390.736	89.69
390.961	71.69
391.186	89.69
391.411	89.69
391.636	85.69
391.86	77.69
392.085	99.69
392.31	89.69
392.534	101.69
392.759	91.69
392.984	114.69
393.208	122.69
393.433	138.69
393.658	129.69
393.882	100.69
394.107	97.69
394.331	93.69
394.556	107.69
394.78	100.69
395.005	111.69
395.229	89.69
395.454	85.69
395.678	89.69
395.903	100.69
396.127	104.69
396.352	106.69
396.576	112.69
396.801	130.69
397.025	141.69
397.249	103.69
397.474	94.69
397.698	81.69
397.922	79.69
398.147	81.69
398.371	87.69
398.595	99.69
398.82	94.69
399.044	96.69
399.268	81.69
399.492	100.69
399.717	88.69
399.941	91.69
400.165	98.69
400.389	88.69
400.613	89.69
400.837	77.69
401.062	86.69
401.286	85.69
401.51	93.69
401.734	77.69
401.958	68.69
402.182	75.69
402.406	85.69
402.63	84.69
402.854	82.69
403.078	82.69
403.302	86.69
403.526	93.69
403.75	83.69
403.974	102.69
404.198	96.69
404.422	114.69
404.645	121.69
404.869	117.69
405.093	107.69
405.317	104.69
405.541	76.69
405.765	90.69
405.988	86.69
406.212	87.69
406.436	82.69
406.66	97.69
406.883	81.69
407.107	87.69
407.331	97.69
407.555	92.69
407.778	86.69
408.002	92.69
408.226	92.69
408.449	78.69
408.673	85.69
408.896	86.69
409.12	93.69
409.344	92.69
409.567	77.69
409.791	102.69
410.014	79.69
410.238	88.69
410.461	82.69
410.685	80.69
410.908	81.69
411.132	87.69
411.355	87.69
411.578	88.69
411.802	80.69
412.025	82.69
412.249	86.69
412.472	85.69
412.695	85.69
412.919	82.69
413.142	71.69
413.365	83.69
413.589	78.69
413.812	83.69
414.035	78.69
414.258	81.69
414.482	78.69
414.705	91.69
414.928	82.69
415.151	79.69
415.374	88.69
415.597	87.69
415.821	92.69
416.044	79.69
416.267	82.69
416.49	69.69
416.713	74.69
416.936	74.69
417.159	64.69
417.382	80.69
417.605	83.69
417.828	80.69
418.051	76.69
418.274	95.69
418.497	71.69
418.72	71.69
418.943	72.69
419.166	91.69
419.389	83.69
419.611	78.69
419.834	86.69
420.057	96.69
420.28	88.69
420.503	78.69
420.726	72.69
420.948	81.69
421.171	91.69
421.394	93.69
421.617	92.69
421.839	95.69
422.062	96.69
422.285	125.69
422.507	158.69
422.73	207.69
422.953	177.69
423.175	131.69
423.398	91.69
423.621	100.69
423.843	74.69
424.066	81.69
424.288	84.69
424.511	92.69
424.733	87.69
424.956	90.69
425.178	85.69
425.401	84.69
425.623	89.69
425.846	83.69
426.068	72.69
426.291	71.69
426.513	84.69
426.735	93.69
426.958	102.69
427.18	86.69
427.402	77.69
427.625	92.69
427.847	100.69
428.069	84.69
428.292	97.69
428.514	104.69
428.736	98.69
428.958	109.69
429.181	96.69
429.403	73.69
429.625	108.69
429.847	104.69
430.069	117.69
430.292	142.69
430.514	112.69
430.736	100.69
430.958	100.69
431.18	97.69
431.402	83.69
431.624	108.69
431.846	106.69
432.068	110.69
432.29	75.69
432.512	102.69
432.734	81.69
432.956	80.69
433.178	72.69
433.4	95.69
433.622	84.69
433.844	85.69
434.066	96.69
434.287	81.69
434.509	88.69
434.731	95.69
434.953	92.69
435.175	82.69
435.397	82.69
435.618	81.69
435.84	92.69
436.062	83.69
436.284	74.69
436.505	81.69
436.727	80.69
436.949	93.69
437.17	81.69
437.392	67.69
437.614	72.69
437.835	76.69
438.057	80.69
438.278	89.69
438.5	96.69
438.721	82.69
438.943	85.69
439.165	94.69
439.386	84.69
439.608	62.69
439.829	86.69
440.05	77.69
440.272	79.69
440.493	77.69
440.715	86.69
440.936	88.69
441.158	90.69
441.379	70.69
441.6	82.69
441.822	97.69
442.043	73.69
442.264	84.69
442.486	108.69
442.707	110.69
442.928	110.69
443.149	107.69
443.371	123.69
443.592	177.69
443.813	132.69
444.034	90.69
444.255	96.69
444.476	90.69
444.698	88.69
444.919	98.69
445.14	153.69
445.361	165.69
445.582	155.69
445.803	150.69
446.024	108.69
446.245	83.69
446.466	89.69
446.687	86.69
446.908	85.69
447.129	91.69
447.35	87.69
447.571	80.69
447.792	89.69
448.013	93.69
448.234	86.69
448.455	85.69
448.675	88.69
448.896	75.69
449.117	86.69
449.338	72.69
449.559	91.69
449.779	92.69
450	87.69
450.221	93.69
450.442	80.69
450.662	87.69
450.883	85.69
451.104	75.69
451.324	72.69
451.545	83.69
451.766	80.69
451.986	72.69
452.207	88.69
452.428	70.69
452.648	94.69
452.869	98.69
453.089	71.69
453.31	79.69
453.53	94.69
453.751	87.69
453.971	87.69
454.192	85.69
454.412	77.69
454.633	88.69
454.853	96.69
455.073	85.69
455.294	82.69
455.514	75.69
455.734	88.69
455.955	91.69
456.175	84.69
456.395	84.69
456.616	94.69
456.836	81.69
457.056	83.69
457.276	89.69
457.497	82.69
457.717	74.69
457.937	94.69
458.157	93.69
458.377	93.69
458.598	104.69
458.818	104.69
459.038	81.69
459.258	82.69
459.478	80.69
459.698	96.69
459.918	86.69
460.138	86.69
460.358	80.69
460.578	76.69
460.798	108.69
461.018	93.69
461.238	90.69
461.458	73.69
461.678	76.69
461.898	85.69
462.118	86.69
462.338	81.69
462.558	80.69
462.777	86.69
462.997	91.69
463.217	82.69
463.437	84.69
463.657	86.69
463.876	79.69
464.096	83.69
464.316	83.69
464.536	101.69
464.755	86.69
464.975	85.69
465.195	92.69
465.414	80.69
465.634	71.69
465.854	75.69
466.073	88.69
466.293	90.69
466.512	76.69
466.732	92.69
466.951	76.69
467.171	88.69
467.391	95.69
467.61	92.69
467.829	83.69
468.049	72.69
468.268	88.69
468.488	87.69
468.707	81.69
468.927	86.69
469.146	109.69
469.365	86.69
469.585	96.69
469.804	81.69
470.023	88.69
470.243	91.69
470.462	82.69
470.681	91.69
470.901	92.69
471.12	80.69
471.339	93.69
471.558	89.69
471.777	89.69
471.997	82.69
472.216	89.69
472.435	86.69
472.654	90.69
472.873	93.69
473.092	76.69
473.311	88.69
473.53	94.69
473.749	88.69
473.968	94.69
474.187	88.69
474.406	74.69
474.625	86.69
474.844	89.69
475.063	76.69
475.282	79.69
475.501	88.69
475.72	104.69
475.939	82.69
476.158	80.69
476.377	72.69
476.596	100.69
476.814	87.69
477.033	94.69
477.252	89.69
477.471	65.69
477.69	95.69
477.908	93.69
478.127	75.69
478.346	81.69
478.564	76.69
478.783	84.69
479.002	95.69
479.22	76.69
479.439	93.69
479.658	85.69
479.876	96.69
480.095	87.69
480.313	89.69
480.532	77.69
480.751	89.69
480.969	76.69
481.188	93.69
481.406	76.69
481.624	86.69
481.843	85.69
482.061	89.69
482.28	88.69
482.498	85.69
482.717	94.69
482.935	84.69
483.153	81.69
483.372	73.69
483.59	97.69
483.808	87.69
484.027	88.69
484.245	87.69
484.463	95.69
484.681	93.69
484.9	86.69
485.118	75.69
485.336	90.69
485.554	97.69
485.772	91.69
485.99	103.69
486.209	74.69
486.427	63.69
486.645	81.69
486.863	89.69
487.081	88.69
487.299	78.69
487.517	82.69
487.735	105.69
487.953	117.69
488.171	100.69
488.389	91.69
488.607	92.69
488.825	105.69
489.043	84.69
489.261	74.69
489.479	65.69
489.696	81.69
489.914	89.69
490.132	75.69
490.35	88.69
490.568	78.69
490.786	70.69
491.003	78.69
491.221	81.69
491.439	87.69
491.657	86.69
491.874	96.69
492.092	89.69
492.31	90.69
492.527	88.69
492.745	75.69
492.963	90.69
493.18	79.69
493.398	93.69
493.615	96.69
493.833	102.69
494.05	88.69
494.268	100.69
494.485	92.69
494.703	86.69
494.92	90.69
495.138	74.69
495.355	81.69
495.573	83.69
495.79	90.69
496.008	94.69
496.225	94.69
496.442	83.69
496.66	97.69
496.877	88.69
497.094	84.69
497.312	77.69
497.529	90.69
497.746	92.69
497.963	70.69
498.181	81.69
498.398	84.69
498.615	76.69
498.832	80.69
499.049	72.69
499.267	77.69
499.484	87.69
499.701	98.69
499.918	80.69
500.135	86.69
500.352	87.69
500.569	85.69
500.786	90.69
501.003	77.69
501.22	98.69
501.437	88.69
501.654	80.69
501.871	83.69
502.088	80.69
502.305	95.69
502.522	88.69
502.739	109.69
502.956	86.69
503.172	93.69
503.389	81.69
503.606	88.69
503.823	90.69
504.04	101.69
504.256	100.69
504.473	87.69
504.69	89.69
504.907	97.69
505.123	92.69
505.34	79.69
505.557	95.69
505.773	92.69
505.99	86.69
506.207	88.69
506.423	85.69
506.64	94.69
506.856	91.69
507.073	90.69
507.289	88.69
507.506	93.69
507.722	85.69
507.939	69.69
508.155	81.69
508.372	84.69
508.588	97.69
508.805	87.69
509.021	79.69
509.238	83.69
509.454	88.69
509.67	78.69
509.887	84.69
510.103	86.69
510.319	76.69
510.536	101.69
510.752	92.69
510.968	93.69
511.184	78.69
511.401	82.69
511.617	85.69
511.833	91.69
512.049	110.69
512.265	81.69
512.481	86.69
512.698	94.69
512.914	80.69
513.13	91.69
513.346	79.69
513.562	93.69
513.778	80.69
513.994	90.69
514.21	102.69
514.426	82.69
514.642	65.69
514.858	80.69
515.074	85.69
515.29	102.69
515.506	86.69
515.721	104.69
515.937	80.69
516.153	89.69
516.369	89.69
516.585	92.69
516.801	101.69
517.016	90.69
517.232	92.69
517.448	92.69
517.664	88.69
517.879	77.69
518.095	76.69
518.311	94.69
518.527	94.69
518.742	106.69
