Data from Mixheat1_HRD10591_00019.txt Node
Date: Fri Dec 27 15:07:02 EST 2024
User: Yrep
Spectrometer: HR+D1059
Trigger mode: 1
Integration Time (sec): 1.000000E-1
Scans to average: 1
Electric dark correction enabled: true
Nonlinearity correction enabled: false
Boxcar width: 0
XAxis mode: Wavelengths
Number of Pixels in Spectrum: 2048
>>>>>Begin Spectral Data<<<<<
223.165	-18.75
223.4	-18.75
223.635	-18.75
223.869	-18.75
224.104	-17.75
224.338	0.25
224.573	-22.75
224.808	-7.75
225.042	-9.75
225.277	-10.75
225.511	14.25
225.746	4.25
225.98	4.25
226.215	9.25
226.449	10.25
226.683	24.25
226.918	28.25
227.152	11.25
227.387	45.25
227.621	47.25
227.856	56.25
228.09	53.25
228.324	54.25
228.559	61.25
228.793	60.25
229.027	69.25
229.262	62.25
229.496	72.25
229.73	74.25
229.964	77.25
230.199	83.25
230.433	82.25
230.667	82.25
230.901	85.25
231.136	87.25
231.37	78.25
231.604	92.25
231.838	89.25
232.072	81.25
232.306	78.25
232.541	79.25
232.775	86.25
233.009	93.25
233.243	105.25
233.477	60.25
233.711	86.25
233.945	87.25
234.179	73.25
234.413	83.25
234.647	95.25
234.881	86.25
235.115	74.25
235.349	71.25
235.583	79.25
235.817	79.25
236.051	76.25
236.285	77.25
236.519	69.25
236.753	99.25
236.987	78.25
237.221	68.25
237.455	84.25
237.689	77.25
237.922	64.25
238.156	76.25
238.39	73.25
238.624	80.25
238.858	75.25
239.091	65.25
239.325	83.25
239.559	66.25
239.793	86.25
240.027	80.25
240.26	83.25
240.494	82.25
240.728	66.25
240.961	74.25
241.195	81.25
241.429	72.25
241.662	77.25
241.896	89.25
242.13	75.25
242.363	75.25
242.597	77.25
242.83	78.25
243.064	93.25
243.298	77.25
243.531	75.25
243.765	68.25
243.998	77.25
244.232	76.25
244.465	81.25
244.699	75.25
244.932	70.25
245.166	70.25
245.399	84.25
245.633	85.25
245.866	82.25
246.099	80.25
246.333	61.25
246.566	76.25
246.8	86.25
247.033	67.25
247.266	90.25
247.5	82.25
247.733	82.25
247.966	81.25
248.2	82.25
248.433	82.25
248.666	72.25
248.899	80.25
249.133	77.25
249.366	86.25
249.599	90.25
249.832	81.25
250.066	89.25
250.299	69.25
250.532	85.25
250.765	82.25
250.998	81.25
251.231	80.25
251.465	81.25
251.698	83.25
251.931	85.25
252.164	87.25
252.397	84.25
252.63	77.25
252.863	87.25
253.096	74.25
253.329	71.25
253.562	89.25
253.795	85.25
254.028	89.25
254.261	84.25
254.494	70.25
254.727	82.25
254.96	72.25
255.193	87.25
255.426	76.25
255.659	73.25
255.892	69.25
256.124	82.25
256.357	68.25
256.59	69.25
256.823	77.25
257.056	88.25
257.289	82.25
257.521	92.25
257.754	70.25
257.987	69.25
258.22	82.25
258.452	83.25
258.685	74.25
258.918	73.25
259.151	94.25
259.383	104.25
259.616	98.25
259.849	94.25
260.081	78.25
260.314	80.25
260.547	83.25
260.779	75.25
261.012	69.25
261.244	73.25
261.477	99.25
261.71	83.25
261.942	99.25
262.175	81.25
262.407	84.25
262.64	68.25
262.872	82.25
263.105	94.25
263.337	79.25
263.57	86.25
263.802	74.25
264.035	74.25
264.267	87.25
264.499	74.25
264.732	75.25
264.964	81.25
265.197	71.25
265.429	85.25
265.661	71.25
265.894	90.25
266.126	68.25
266.358	97.25
266.591	93.25
266.823	73.25
267.055	77.25
267.287	97.25
267.52	75.25
267.752	83.25
267.984	86.25
268.216	76.25
268.448	65.25
268.681	77.25
268.913	79.25
269.145	99.25
269.377	76.25
269.609	78.25
269.841	89.25
270.073	87.25
270.306	73.25
270.538	84.25
270.77	72.25
271.002	85.25
271.234	82.25
271.466	70.25
271.698	78.25
271.93	73.25
272.162	72.25
272.394	88.25
272.626	82.25
272.858	78.25
273.09	83.25
273.322	74.25
273.553	89.25
273.785	78.25
274.017	95.25
274.249	90.25
274.481	87.25
274.713	86.25
274.945	82.25
275.176	93.25
275.408	81.25
275.64	68.25
275.872	85.25
276.104	81.25
276.335	71.25
276.567	77.25
276.799	88.25
277.031	79.25
277.262	79.25
277.494	93.25
277.726	80.25
277.957	75.25
278.189	79.25
278.421	78.25
278.652	84.25
278.884	77.25
279.115	72.25
279.347	77.25
279.579	83.25
279.81	86.25
280.042	92.25
280.273	70.25
280.505	79.25
280.736	89.25
280.968	85.25
281.199	95.25
281.431	80.25
281.662	80.25
281.894	93.25
282.125	87.25
282.356	107.25
282.588	85.25
282.819	85.25
283.051	78.25
283.282	90.25
283.513	87.25
283.745	84.25
283.976	83.25
284.207	86.25
284.439	86.25
284.67	90.25
284.901	93.25
285.132	96.25
285.364	92.25
285.595	81.25
285.826	86.25
286.057	97.25
286.288	89.25
286.52	84.25
286.751	83.25
286.982	75.25
287.213	86.25
287.444	88.25
287.675	101.25
287.906	81.25
288.138	95.25
288.369	89.25
288.6	92.25
288.831	90.25
289.062	86.25
289.293	78.25
289.524	92.25
289.755	87.25
289.986	85.25
290.217	100.25
290.448	83.25
290.679	76.25
290.91	90.25
291.141	80.25
291.371	81.25
291.602	86.25
291.833	71.25
292.064	91.25
292.295	85.25
292.526	83.25
292.757	87.25
292.987	86.25
293.218	67.25
293.449	87.25
293.68	76.25
293.91	90.25
294.141	79.25
294.372	83.25
294.603	79.25
294.833	95.25
295.064	81.25
295.295	85.25
295.525	73.25
295.756	88.25
295.987	82.25
296.217	73.25
296.448	82.25
296.679	88.25
296.909	89.25
297.14	81.25
297.37	88.25
297.601	95.25
297.831	91.25
298.062	86.25
298.292	79.25
298.523	101.25
298.753	104.25
298.984	95.25
299.214	79.25
299.445	89.25
299.675	92.25
299.905	92.25
300.136	83.25
300.366	83.25
300.597	81.25
300.827	74.25
301.057	90.25
301.288	93.25
301.518	95.25
301.748	92.25
301.979	96.25
302.209	84.25
302.439	98.25
302.669	78.25
302.9	79.25
303.13	92.25
303.36	79.25
303.59	90.25
303.82	83.25
304.051	94.25
304.281	94.25
304.511	86.25
304.741	75.25
304.971	87.25
305.201	88.25
305.431	93.25
305.661	90.25
305.891	99.25
306.121	79.25
306.352	93.25
306.582	87.25
306.812	86.25
307.042	97.25
307.272	90.25
307.502	87.25
307.731	87.25
307.961	101.25
308.191	84.25
308.421	94.25
308.651	95.25
308.881	95.25
309.111	77.25
309.341	81.25
309.571	71.25
309.8	87.25
310.03	77.25
310.26	80.25
310.49	83.25
310.72	79.25
310.949	89.25
311.179	86.25
311.409	74.25
311.639	79.25
311.868	89.25
312.098	88.25
312.328	85.25
312.557	80.25
312.787	70.25
313.017	87.25
313.246	76.25
313.476	95.25
313.706	85.25
313.935	101.25
314.165	94.25
314.394	93.25
314.624	90.25
314.853	89.25
315.083	82.25
315.312	74.25
315.542	88.25
315.771	71.25
316.001	89.25
316.23	78.25
316.46	88.25
316.689	92.25
316.919	95.25
317.148	84.25
317.377	87.25
317.607	89.25
317.836	86.25
318.065	73.25
318.295	93.25
318.524	93.25
318.753	80.25
318.983	89.25
319.212	81.25
319.441	87.25
319.67	88.25
319.9	70.25
320.129	99.25
320.358	72.25
320.587	78.25
320.816	92.25
321.046	81.25
321.275	88.25
321.504	92.25
321.733	92.25
321.962	89.25
322.191	82.25
322.42	82.25
322.649	78.25
322.878	107.25
323.108	94.25
323.337	86.25
323.566	92.25
323.795	96.25
324.024	83.25
324.253	89.25
324.482	84.25
324.71	91.25
324.939	74.25
325.168	82.25
325.397	96.25
325.626	88.25
325.855	81.25
326.084	87.25
326.313	91.25
326.542	98.25
326.77	82.25
326.999	88.25
327.228	89.25
327.457	90.25
327.686	84.25
327.914	81.25
328.143	93.25
328.372	85.25
328.6	81.25
328.829	96.25
329.058	94.25
329.287	84.25
329.515	83.25
329.744	84.25
329.972	89.25
330.201	81.25
330.43	83.25
330.658	81.25
330.887	92.25
331.115	81.25
331.344	89.25
331.572	95.25
331.801	79.25
332.03	94.25
332.258	82.25
332.486	92.25
332.715	86.25
332.943	94.25
333.172	72.25
333.4	86.25
333.629	92.25
333.857	78.25
334.085	89.25
334.314	83.25
334.542	80.25
334.771	97.25
334.999	83.25
335.227	78.25
335.455	100.25
335.684	92.25
335.912	88.25
336.14	76.25
336.369	81.25
336.597	75.25
336.825	87.25
337.053	87.25
337.281	77.25
337.51	83.25
337.738	85.25
337.966	79.25
338.194	85.25
338.422	98.25
338.65	78.25
338.878	87.25
339.106	83.25
339.334	88.25
339.562	85.25
339.79	93.25
340.018	77.25
340.246	71.25
340.474	85.25
340.702	90.25
340.93	101.25
341.158	85.25
341.386	82.25
341.614	92.25
341.842	86.25
342.07	84.25
342.298	89.25
342.526	98.25
342.754	83.25
342.981	90.25
343.209	86.25
343.437	91.25
343.665	91.25
343.893	81.25
344.12	94.25
344.348	97.25
344.576	92.25
344.804	85.25
345.031	93.25
345.259	65.25
345.487	77.25
345.714	76.25
345.942	91.25
346.17	85.25
346.397	81.25
346.625	91.25
346.853	88.25
347.08	91.25
347.308	94.25
347.535	92.25
347.763	93.25
347.99	81.25
348.218	92.25
348.445	87.25
348.673	86.25
348.9	76.25
349.128	89.25
349.355	78.25
349.583	97.25
349.81	89.25
350.037	89.25
350.265	102.25
350.492	81.25
350.72	95.25
350.947	89.25
351.174	92.25
351.402	87.25
351.629	81.25
351.856	94.25
352.083	63.25
352.311	86.25
352.538	88.25
352.765	96.25
352.992	98.25
353.22	90.25
353.447	89.25
353.674	79.25
353.901	101.25
354.128	82.25
354.355	81.25
354.583	77.25
354.81	75.25
355.037	92.25
355.264	78.25
355.491	78.25
355.718	96.25
355.945	95.25
356.172	84.25
356.399	73.25
356.626	64.25
356.853	86.25
357.08	78.25
357.307	79.25
357.534	78.25
357.761	97.25
357.988	82.25
358.215	85.25
358.441	81.25
358.668	81.25
358.895	87.25
359.122	87.25
359.349	88.25
359.576	88.25
359.802	78.25
360.029	75.25
360.256	88.25
360.483	79.25
360.709	91.25
360.936	81.25
361.163	74.25
361.39	80.25
361.616	90.25
361.843	89.25
362.07	102.25
362.296	88.25
362.523	93.25
362.749	92.25
362.976	78.25
363.203	95.25
363.429	97.25
363.656	86.25
363.882	72.25
364.109	87.25
364.335	92.25
364.562	90.25
364.788	98.25
365.015	103.25
365.241	86.25
365.468	94.25
365.694	98.25
365.92	89.25
366.147	83.25
366.373	91.25
366.599	77.25
366.826	88.25
367.052	85.25
367.278	85.25
367.505	90.25
367.731	76.25
367.957	67.25
368.184	86.25
368.41	84.25
368.636	81.25
368.862	75.25
369.089	77.25
369.315	85.25
369.541	83.25
369.767	82.25
369.993	87.25
370.219	86.25
370.445	85.25
370.672	96.25
370.898	90.25
371.124	86.25
371.35	85.25
371.576	91.25
371.802	85.25
372.028	101.25
372.254	92.25
372.48	82.25
372.706	81.25
372.932	72.25
373.158	83.25
373.384	85.25
373.61	87.25
373.835	89.25
374.061	98.25
374.287	75.25
374.513	85.25
374.739	80.25
374.965	82.25
375.191	82.25
375.416	98.25
375.642	95.25
375.868	79.25
376.094	84.25
376.319	87.25
376.545	89.25
376.771	61.25
376.997	74.25
377.222	86.25
377.448	81.25
377.674	82.25
377.899	92.25
378.125	98.25
378.35	93.25
378.576	94.25
378.802	95.25
379.027	81.25
379.253	101.25
379.478	87.25
379.704	91.25
379.929	86.25
380.155	87.25
380.38	78.25
380.606	82.25
380.831	74.25
381.057	86.25
381.282	81.25
381.507	79.25
381.733	68.25
381.958	89.25
382.184	73.25
382.409	88.25
382.634	75.25
382.86	68.25
383.085	85.25
383.31	85.25
383.535	89.25
383.761	81.25
383.986	94.25
384.211	101.25
384.436	96.25
384.662	92.25
384.887	63.25
385.112	85.25
385.337	72.25
385.562	83.25
385.787	84.25
386.013	96.25
386.238	82.25
386.463	90.25
386.688	103.25
386.913	77.25
387.138	85.25
387.363	86.25
387.588	76.25
387.813	85.25
388.038	93.25
388.263	78.25
388.488	87.25
388.713	84.25
388.938	75.25
389.163	86.25
389.387	77.25
389.612	94.25
389.837	73.25
390.062	98.25
390.287	83.25
390.512	91.25
390.736	92.25
390.961	93.25
391.186	82.25
391.411	84.25
391.636	76.25
391.86	93.25
392.085	88.25
392.31	89.25
392.534	79.25
392.759	83.25
392.984	84.25
393.208	123.25
393.433	125.25
393.658	104.25
393.882	96.25
394.107	87.25
394.331	104.25
394.556	92.25
394.78	108.25
395.005	97.25
395.229	76.25
395.454	86.25
395.678	90.25
395.903	99.25
396.127	97.25
396.352	96.25
396.576	93.25
396.801	97.25
397.025	110.25
397.249	93.25
397.474	83.25
397.698	95.25
397.922	84.25
398.147	98.25
398.371	89.25
398.595	92.25
398.82	95.25
399.044	85.25
399.268	75.25
399.492	93.25
399.717	78.25
399.941	92.25
400.165	92.25
400.389	88.25
400.613	69.25
400.837	84.25
401.062	93.25
401.286	100.25
401.51	92.25
401.734	88.25
401.958	77.25
402.182	91.25
402.406	82.25
402.63	81.25
402.854	77.25
403.078	93.25
403.302	76.25
403.526	100.25
403.75	109.25
403.974	76.25
404.198	86.25
404.422	113.25
404.645	111.25
404.869	112.25
405.093	91.25
405.317	98.25
405.541	95.25
405.765	84.25
405.988	82.25
406.212	87.25
406.436	98.25
406.66	94.25
406.883	71.25
407.107	80.25
407.331	87.25
407.555	102.25
407.778	103.25
408.002	81.25
408.226	88.25
408.449	83.25
408.673	86.25
408.896	78.25
409.12	73.25
409.344	86.25
409.567	79.25
409.791	92.25
410.014	76.25
410.238	80.25
410.461	82.25
410.685	94.25
410.908	73.25
411.132	66.25
411.355	84.25
411.578	84.25
411.802	82.25
412.025	93.25
412.249	79.25
412.472	96.25
412.695	85.25
412.919	89.25
413.142	81.25
413.365	78.25
413.589	90.25
413.812	75.25
414.035	82.25
414.258	83.25
414.482	84.25
414.705	81.25
414.928	84.25
415.151	80.25
415.374	91.25
415.597	84.25
415.821	92.25
416.044	87.25
416.267	70.25
416.49	81.25
416.713	79.25
416.936	96.25
417.159	72.25
417.382	90.25
417.605	68.25
417.828	104.25
418.051	73.25
418.274	83.25
418.497	81.25
418.72	85.25
418.943	97.25
419.166	83.25
419.389	91.25
419.611	88.25
419.834	85.25
420.057	77.25
420.28	98.25
420.503	95.25
420.726	86.25
420.948	75.25
421.171	85.25
421.394	92.25
421.617	88.25
421.839	107.25
422.062	108.25
422.285	98.25
422.507	119.25
422.73	149.25
422.953	134.25
423.175	118.25
423.398	101.25
423.621	77.25
423.843	76.25
424.066	79.25
424.288	103.25
424.511	98.25
424.733	71.25
424.956	90.25
425.178	83.25
425.401	78.25
425.623	77.25
425.846	81.25
426.068	88.25
426.291	77.25
426.513	80.25
426.735	97.25
426.958	85.25
427.18	82.25
427.402	79.25
427.625	88.25
427.847	75.25
428.069	82.25
428.292	75.25
428.514	101.25
428.736	86.25
428.958	106.25
429.181	85.25
429.403	89.25
429.625	92.25
429.847	78.25
430.069	108.25
430.292	113.25
430.514	101.25
430.736	94.25
430.958	96.25
431.18	95.25
431.402	95.25
431.624	90.25
431.846	93.25
432.068	103.25
432.29	97.25
432.512	101.25
432.734	81.25
432.956	87.25
433.178	84.25
433.4	92.25
433.622	86.25
433.844	87.25
434.066	80.25
434.287	81.25
434.509	75.25
434.731	77.25
434.953	83.25
435.175	82.25
435.397	78.25
435.618	70.25
435.84	89.25
436.062	93.25
436.284	68.25
436.505	82.25
436.727	98.25
436.949	85.25
437.17	81.25
437.392	85.25
437.614	72.25
437.835	76.25
438.057	86.25
438.278	71.25
438.5	86.25
438.721	82.25
438.943	78.25
439.165	92.25
439.386	78.25
439.608	77.25
439.829	72.25
440.05	74.25
440.272	77.25
440.493	87.25
440.715	92.25
440.936	83.25
441.158	107.25
441.379	85.25
441.6	75.25
441.822	93.25
442.043	84.25
442.264	68.25
442.486	85.25
442.707	98.25
442.928	89.25
443.149	92.25
443.371	105.25
443.592	100.25
443.813	109.25
444.034	91.25
444.255	81.25
444.476	106.25
444.698	91.25
444.919	97.25
445.14	162.25
445.361	148.25
445.582	129.25
445.803	104.25
446.024	87.25
446.245	91.25
446.466	86.25
446.687	75.25
446.908	86.25
447.129	83.25
447.35	101.25
447.571	95.25
447.792	75.25
448.013	81.25
448.234	81.25
448.455	91.25
448.675	80.25
448.896	68.25
449.117	85.25
449.338	85.25
449.559	80.25
449.779	82.25
450	84.25
450.221	85.25
450.442	94.25
450.662	94.25
450.883	72.25
451.104	87.25
451.324	88.25
451.545	88.25
451.766	81.25
451.986	75.25
452.207	92.25
452.428	99.25
452.648	99.25
452.869	89.25
453.089	92.25
453.31	84.25
453.53	83.25
453.751	72.25
453.971	86.25
454.192	87.25
454.412	74.25
454.633	90.25
454.853	96.25
455.073	89.25
455.294	72.25
455.514	89.25
455.734	83.25
455.955	82.25
456.175	81.25
456.395	74.25
456.616	80.25
456.836	91.25
457.056	88.25
457.276	86.25
457.497	82.25
457.717	70.25
457.937	88.25
458.157	98.25
458.377	97.25
458.598	101.25
458.818	96.25
459.038	85.25
459.258	93.25
459.478	87.25
459.698	78.25
459.918	91.25
460.138	77.25
460.358	81.25
460.578	79.25
460.798	92.25
461.018	87.25
461.238	77.25
461.458	78.25
461.678	76.25
461.898	80.25
462.118	74.25
462.338	98.25
462.558	75.25
462.777	77.25
462.997	92.25
463.217	82.25
463.437	90.25
463.657	92.25
463.876	85.25
464.096	89.25
464.316	75.25
464.536	76.25
464.755	81.25
464.975	89.25
465.195	95.25
465.414	70.25
465.634	76.25
465.854	96.25
466.073	76.25
466.293	75.25
466.512	75.25
466.732	81.25
466.951	101.25
467.171	68.25
467.391	69.25
467.61	96.25
467.829	98.25
468.049	85.25
468.268	90.25
468.488	82.25
468.707	100.25
468.927	80.25
469.146	88.25
469.365	72.25
469.585	89.25
469.804	90.25
470.023	86.25
470.243	83.25
470.462	88.25
470.681	79.25
470.901	86.25
471.12	81.25
471.339	74.25
471.558	78.25
471.777	95.25
471.997	87.25
472.216	77.25
472.435	82.25
472.654	78.25
472.873	80.25
473.092	85.25
473.311	94.25
473.53	86.25
473.749	71.25
473.968	83.25
474.187	92.25
474.406	86.25
474.625	95.25
474.844	93.25
475.063	86.25
475.282	87.25
475.501	80.25
475.72	87.25
475.939	96.25
476.158	67.25
476.377	79.25
476.596	86.25
476.814	76.25
477.033	90.25
477.252	82.25
477.471	82.25
477.69	97.25
477.908	88.25
478.127	83.25
478.346	75.25
478.564	82.25
478.783	88.25
479.002	80.25
479.22	84.25
479.439	92.25
479.658	81.25
479.876	86.25
480.095	90.25
480.313	85.25
480.532	96.25
480.751	87.25
480.969	75.25
481.188	85.25
481.406	98.25
481.624	84.25
481.843	82.25
482.061	81.25
482.28	85.25
482.498	87.25
482.717	82.25
482.935	94.25
483.153	98.25
483.372	89.25
483.59	63.25
483.808	92.25
484.027	89.25
484.245	90.25
484.463	78.25
484.681	95.25
484.9	81.25
485.118	80.25
485.336	87.25
485.554	83.25
485.772	92.25
485.99	86.25
486.209	83.25
486.427	89.25
486.645	93.25
486.863	82.25
487.081	73.25
487.299	94.25
487.517	95.25
487.735	94.25
487.953	95.25
488.171	104.25
488.389	79.25
488.607	87.25
488.825	81.25
489.043	95.25
489.261	104.25
489.479	81.25
489.696	82.25
489.914	82.25
490.132	80.25
490.35	90.25
490.568	65.25
490.786	83.25
491.003	88.25
491.221	81.25
491.439	75.25
491.657	86.25
491.874	83.25
492.092	89.25
492.31	95.25
492.527	83.25
492.745	97.25
492.963	90.25
493.18	78.25
493.398	96.25
493.615	93.25
493.833	85.25
494.05	82.25
494.268	83.25
494.485	84.25
494.703	78.25
494.92	96.25
495.138	87.25
495.355	80.25
495.573	94.25
495.79	86.25
496.008	87.25
496.225	97.25
496.442	93.25
496.66	88.25
496.877	86.25
497.094	87.25
497.312	83.25
497.529	93.25
497.746	89.25
497.963	81.25
498.181	91.25
498.398	83.25
498.615	96.25
498.832	80.25
499.049	81.25
499.267	82.25
499.484	87.25
499.701	82.25
499.918	88.25
500.135	105.25
500.352	85.25
500.569	68.25
500.786	97.25
501.003	77.25
501.22	88.25
501.437	76.25
501.654	79.25
501.871	71.25
502.088	83.25
502.305	92.25
502.522	81.25
502.739	90.25
502.956	91.25
503.172	82.25
503.389	79.25
503.606	96.25
503.823	111.25
504.04	89.25
504.256	104.25
504.473	86.25
504.69	81.25
504.907	91.25
505.123	91.25
505.34	95.25
505.557	80.25
505.773	102.25
505.99	85.25
506.207	81.25
506.423	96.25
506.64	104.25
506.856	90.25
507.073	91.25
507.289	82.25
507.506	82.25
507.722	82.25
507.939	82.25
508.155	75.25
508.372	78.25
508.588	82.25
508.805	83.25
509.021	89.25
509.238	80.25
509.454	88.25
509.67	80.25
509.887	91.25
510.103	99.25
510.319	104.25
510.536	107.25
510.752	94.25
510.968	80.25
511.184	83.25
511.401	95.25
511.617	86.25
511.833	89.25
512.049	85.25
512.265	78.25
512.481	93.25
512.698	85.25
512.914	87.25
513.13	88.25
513.346	82.25
513.562	94.25
513.778	86.25
513.994	85.25
514.21	91.25
514.426	88.25
514.642	83.25
514.858	83.25
515.074	107.25
515.29	87.25
515.506	95.25
515.721	94.25
515.937	81.25
516.153	73.25
516.369	91.25
516.585	89.25
516.801	97.25
517.016	96.25
517.232	67.25
517.448	81.25
517.664	79.25
517.879	90.25
518.095	90.25
518.311	81.25
518.527	87.25
518.742	91.25
518.958	80.25
519.173	105.25
