Data from Mixheat1_HRD10591_00020.txt Node
Date: Fri Dec 27 15:07:03 EST 2024
User: Yrep
Spectrometer: HR+D1059
Trigger mode: 1
Integration Time (sec): 1.000000E-1
Scans to average: 1
Electric dark correction enabled: true
Nonlinearity correction enabled: false
Boxcar width: 0
XAxis mode: Wavelengths
Number of Pixels in Spectrum: 2048
>>>>>Begin Spectral Data<<<<<
223.165	-10.25
223.4	-10.25
223.635	-10.25
223.869	-1.25
224.104	-17.25
224.338	-7.25
224.573	-21.25
224.808	-14.25
225.042	-0.25
225.277	-4.25
225.511	-7.25
225.746	-8.25
225.98	11.75
226.215	5.75
226.449	9.75
226.683	10.75
226.918	21.75
227.152	31.75
227.387	38.75
227.621	48.75
227.856	50.75
228.09	58.75
228.324	64.75
228.559	74.75
228.793	62.75
229.027	54.75
229.262	73.75
229.496	69.75
229.73	57.75
229.964	65.75
230.199	78.75
230.433	52.75
230.667	73.75
230.901	88.75
231.136	79.75
231.37	84.75
231.604	81.75
231.838	67.75
232.072	98.75
232.306	75.75
232.541	84.75
232.775	90.75
233.009	82.75
233.243	80.75
233.477	68.75
233.711	79.75
233.945	84.75
234.179	90.75
234.413	75.75
234.647	79.75
234.881	87.75
235.115	81.75
235.349	94.75
235.583	73.75
235.817	81.75
236.051	70.75
236.285	79.75
236.519	72.75
236.753	61.75
236.987	72.75
237.221	62.75
237.455	68.75
237.689	88.75
237.922	83.75
238.156	67.75
238.39	85.75
238.624	78.75
238.858	72.75
239.091	77.75
239.325	78.75
239.559	70.75
239.793	72.75
240.027	84.75
240.26	74.75
240.494	84.75
240.728	76.75
240.961	65.75
241.195	79.75
241.429	82.75
241.662	70.75
241.896	77.75
242.13	73.75
242.363	84.75
242.597	70.75
242.83	82.75
243.064	74.75
243.298	77.75
243.531	82.75
243.765	84.75
243.998	70.75
244.232	76.75
244.465	72.75
244.699	78.75
244.932	79.75
245.166	77.75
245.399	82.75
245.633	76.75
245.866	83.75
246.099	81.75
246.333	82.75
246.566	70.75
246.8	78.75
247.033	80.75
247.266	81.75
247.5	78.75
247.733	86.75
247.966	69.75
248.2	66.75
248.433	79.75
248.666	82.75
248.899	78.75
249.133	72.75
249.366	88.75
249.599	74.75
249.832	70.75
250.066	74.75
250.299	70.75
250.532	87.75
250.765	72.75
250.998	80.75
251.231	86.75
251.465	89.75
251.698	84.75
251.931	90.75
252.164	74.75
252.397	70.75
252.63	100.75
252.863	92.75
253.096	82.75
253.329	77.75
253.562	73.75
253.795	85.75
254.028	75.75
254.261	85.75
254.494	87.75
254.727	79.75
254.96	88.75
255.193	79.75
255.426	90.75
255.659	82.75
255.892	74.75
256.124	71.75
256.357	68.75
256.59	76.75
256.823	75.75
257.056	67.75
257.289	77.75
257.521	71.75
257.754	72.75
257.987	91.75
258.22	87.75
258.452	76.75
258.685	80.75
258.918	71.75
259.151	80.75
259.383	85.75
259.616	80.75
259.849	77.75
260.081	82.75
260.314	82.75
260.547	82.75
260.779	78.75
261.012	76.75
261.244	87.75
261.477	89.75
261.71	82.75
261.942	77.75
262.175	76.75
262.407	91.75
262.64	92.75
262.872	83.75
263.105	70.75
263.337	83.75
263.57	82.75
263.802	77.75
264.035	70.75
264.267	73.75
264.499	88.75
264.732	77.75
264.964	77.75
265.197	71.75
265.429	84.75
265.661	82.75
265.894	83.75
266.126	104.75
266.358	77.75
266.591	89.75
266.823	99.75
267.055	90.75
267.287	80.75
267.52	79.75
267.752	86.75
267.984	86.75
268.216	70.75
268.448	100.75
268.681	79.75
268.913	87.75
269.145	85.75
269.377	87.75
269.609	74.75
269.841	91.75
270.073	80.75
270.306	85.75
270.538	67.75
270.77	82.75
271.002	66.75
271.234	78.75
271.466	84.75
271.698	81.75
271.93	79.75
272.162	70.75
272.394	90.75
272.626	82.75
272.858	83.75
273.09	78.75
273.322	63.75
273.553	95.75
273.785	78.75
274.017	77.75
274.249	101.75
274.481	89.75
274.713	93.75
274.945	88.75
275.176	78.75
275.408	82.75
275.64	91.75
275.872	79.75
276.104	94.75
276.335	81.75
276.567	84.75
276.799	74.75
277.031	82.75
277.262	77.75
277.494	86.75
277.726	77.75
277.957	76.75
278.189	86.75
278.421	72.75
278.652	91.75
278.884	89.75
279.115	84.75
279.347	89.75
279.579	82.75
279.81	83.75
280.042	81.75
280.273	90.75
280.505	78.75
280.736	88.75
280.968	87.75
281.199	80.75
281.431	75.75
281.662	102.75
281.894	90.75
282.125	68.75
282.356	90.75
282.588	87.75
282.819	72.75
283.051	81.75
283.282	71.75
283.513	86.75
283.745	91.75
283.976	70.75
284.207	79.75
284.439	89.75
284.67	94.75
284.901	86.75
285.132	91.75
285.364	100.75
285.595	100.75
285.826	74.75
286.057	71.75
286.288	74.75
286.52	90.75
286.751	84.75
286.982	80.75
287.213	90.75
287.444	72.75
287.675	91.75
287.906	96.75
288.138	83.75
288.369	96.75
288.6	78.75
288.831	87.75
289.062	89.75
289.293	84.75
289.524	84.75
289.755	89.75
289.986	80.75
290.217	73.75
290.448	81.75
290.679	90.75
290.91	99.75
291.141	90.75
291.371	88.75
291.602	78.75
291.833	74.75
292.064	72.75
292.295	84.75
292.526	95.75
292.757	79.75
292.987	80.75
293.218	91.75
293.449	82.75
293.68	86.75
293.91	81.75
294.141	94.75
294.372	85.75
294.603	80.75
294.833	102.75
295.064	89.75
295.295	79.75
295.525	82.75
295.756	90.75
295.987	78.75
296.217	91.75
296.448	87.75
296.679	78.75
296.909	85.75
297.14	79.75
297.37	80.75
297.601	81.75
297.831	90.75
298.062	101.75
298.292	82.75
298.523	77.75
298.753	99.75
298.984	77.75
299.214	77.75
299.445	79.75
299.675	87.75
299.905	87.75
300.136	100.75
300.366	75.75
300.597	82.75
300.827	84.75
301.057	87.75
301.288	86.75
301.518	74.75
301.748	85.75
301.979	112.75
302.209	92.75
302.439	72.75
302.669	71.75
302.9	78.75
303.13	79.75
303.36	82.75
303.59	92.75
303.82	87.75
304.051	84.75
304.281	80.75
304.511	77.75
304.741	74.75
304.971	76.75
305.201	79.75
305.431	71.75
305.661	94.75
305.891	100.75
306.121	86.75
306.352	78.75
306.582	89.75
306.812	85.75
307.042	75.75
307.272	86.75
307.502	77.75
307.731	69.75
307.961	89.75
308.191	74.75
308.421	84.75
308.651	84.75
308.881	76.75
309.111	90.75
309.341	79.75
309.571	79.75
309.8	94.75
310.03	80.75
310.26	95.75
310.49	80.75
310.72	84.75
310.949	83.75
311.179	76.75
311.409	85.75
311.639	77.75
311.868	86.75
312.098	85.75
312.328	81.75
312.557	96.75
312.787	90.75
313.017	79.75
313.246	91.75
313.476	88.75
313.706	70.75
313.935	81.75
314.165	83.75
314.394	83.75
314.624	91.75
314.853	92.75
315.083	79.75
315.312	94.75
315.542	87.75
315.771	98.75
316.001	88.75
316.23	106.75
316.46	76.75
316.689	61.75
316.919	80.75
317.148	78.75
317.377	82.75
317.607	84.75
317.836	88.75
318.065	77.75
318.295	80.75
318.524	84.75
318.753	77.75
318.983	82.75
319.212	88.75
319.441	71.75
319.67	79.75
319.9	81.75
320.129	70.75
320.358	87.75
320.587	95.75
320.816	76.75
321.046	87.75
321.275	90.75
321.504	79.75
321.733	76.75
321.962	92.75
322.191	85.75
322.42	82.75
322.649	92.75
322.878	84.75
323.108	71.75
323.337	81.75
323.566	92.75
323.795	94.75
324.024	90.75
324.253	79.75
324.482	80.75
324.71	82.75
324.939	94.75
325.168	85.75
325.397	89.75
325.626	91.75
325.855	77.75
326.084	98.75
326.313	92.75
326.542	86.75
326.77	78.75
326.999	76.75
327.228	73.75
327.457	84.75
327.686	85.75
327.914	74.75
328.143	82.75
328.372	85.75
328.6	92.75
328.829	78.75
329.058	65.75
329.287	87.75
329.515	70.75
329.744	81.75
329.972	99.75
330.201	91.75
330.43	95.75
330.658	90.75
330.887	80.75
331.115	59.75
331.344	68.75
331.572	80.75
331.801	81.75
332.03	75.75
332.258	78.75
332.486	72.75
332.715	82.75
332.943	74.75
333.172	82.75
333.4	78.75
333.629	86.75
333.857	95.75
334.085	85.75
334.314	74.75
334.542	91.75
334.771	90.75
334.999	73.75
335.227	79.75
335.455	75.75
335.684	90.75
335.912	87.75
336.14	80.75
336.369	83.75
336.597	76.75
336.825	81.75
337.053	78.75
337.281	85.75
337.51	90.75
337.738	79.75
337.966	85.75
338.194	86.75
338.422	79.75
338.65	89.75
338.878	78.75
339.106	95.75
339.334	98.75
339.562	75.75
339.79	79.75
340.018	87.75
340.246	92.75
340.474	86.75
340.702	79.75
340.93	91.75
341.158	80.75
341.386	84.75
341.614	72.75
341.842	77.75
342.07	83.75
342.298	68.75
342.526	83.75
342.754	89.75
342.981	87.75
343.209	71.75
343.437	101.75
343.665	94.75
343.893	85.75
344.12	73.75
344.348	84.75
344.576	97.75
344.804	93.75
345.031	98.75
345.259	90.75
345.487	89.75
345.714	89.75
345.942	90.75
346.17	78.75
346.397	87.75
346.625	67.75
346.853	76.75
347.08	94.75
347.308	80.75
347.535	92.75
347.763	69.75
347.99	84.75
348.218	91.75
348.445	88.75
348.673	93.75
348.9	88.75
349.128	82.75
349.355	83.75
349.583	76.75
349.81	94.75
350.037	88.75
350.265	82.75
350.492	79.75
350.72	83.75
350.947	79.75
351.174	90.75
351.402	96.75
351.629	78.75
351.856	87.75
352.083	80.75
352.311	78.75
352.538	75.75
352.765	64.75
352.992	74.75
353.22	76.75
353.447	72.75
353.674	84.75
353.901	83.75
354.128	86.75
354.355	66.75
354.583	84.75
354.81	92.75
355.037	92.75
355.264	74.75
355.491	83.75
355.718	90.75
355.945	82.75
356.172	83.75
356.399	82.75
356.626	80.75
356.853	91.75
357.08	68.75
357.307	93.75
357.534	81.75
357.761	71.75
357.988	71.75
358.215	87.75
358.441	92.75
358.668	79.75
358.895	80.75
359.122	73.75
359.349	80.75
359.576	86.75
359.802	71.75
360.029	78.75
360.256	88.75
360.483	68.75
360.709	90.75
360.936	89.75
361.163	89.75
361.39	88.75
361.616	86.75
361.843	93.75
362.07	88.75
362.296	93.75
362.523	93.75
362.749	93.75
362.976	83.75
363.203	94.75
363.429	82.75
363.656	79.75
363.882	90.75
364.109	91.75
364.335	85.75
364.562	94.75
364.788	75.75
365.015	79.75
365.241	86.75
365.468	80.75
365.694	88.75
365.92	96.75
366.147	71.75
366.373	88.75
366.599	85.75
366.826	78.75
367.052	88.75
367.278	85.75
367.505	88.75
367.731	98.75
367.957	79.75
368.184	70.75
368.41	87.75
368.636	86.75
368.862	90.75
369.089	72.75
369.315	86.75
369.541	91.75
369.767	96.75
369.993	84.75
370.219	77.75
370.445	89.75
370.672	76.75
370.898	90.75
371.124	88.75
371.35	85.75
371.576	74.75
371.802	77.75
372.028	86.75
372.254	98.75
372.48	74.75
372.706	82.75
372.932	93.75
373.158	78.75
373.384	83.75
373.61	92.75
373.835	81.75
374.061	81.75
374.287	81.75
374.513	81.75
374.739	70.75
374.965	67.75
375.191	98.75
375.416	84.75
375.642	80.75
375.868	98.75
376.094	78.75
376.319	63.75
376.545	84.75
376.771	83.75
376.997	72.75
377.222	76.75
377.448	84.75
377.674	92.75
377.899	79.75
378.125	81.75
378.35	85.75
378.576	87.75
378.802	77.75
379.027	76.75
379.253	95.75
379.478	81.75
379.704	78.75
379.929	85.75
380.155	68.75
380.38	80.75
380.606	76.75
380.831	76.75
381.057	94.75
381.282	83.75
381.507	81.75
381.733	68.75
381.958	78.75
382.184	81.75
382.409	75.75
382.634	79.75
382.86	93.75
383.085	92.75
383.31	83.75
383.535	73.75
383.761	84.75
383.986	75.75
384.211	84.75
384.436	80.75
384.662	63.75
384.887	76.75
385.112	84.75
385.337	86.75
385.562	83.75
385.787	92.75
386.013	81.75
386.238	77.75
386.463	99.75
386.688	90.75
386.913	82.75
387.138	80.75
387.363	91.75
387.588	79.75
387.813	92.75
388.038	82.75
388.263	73.75
388.488	93.75
388.713	89.75
388.938	73.75
389.163	59.75
389.387	92.75
389.612	84.75
389.837	92.75
390.062	83.75
390.287	77.75
390.512	74.75
390.736	78.75
390.961	88.75
391.186	77.75
391.411	82.75
391.636	95.75
391.86	73.75
392.085	84.75
392.31	91.75
392.534	94.75
392.759	85.75
392.984	83.75
393.208	104.75
393.433	114.75
393.658	94.75
393.882	95.75
394.107	80.75
394.331	85.75
394.556	87.75
394.78	100.75
395.005	89.75
395.229	84.75
395.454	81.75
395.678	80.75
395.903	95.75
396.127	101.75
396.352	91.75
396.576	84.75
396.801	104.75
397.025	103.75
397.249	87.75
397.474	79.75
397.698	85.75
397.922	75.75
398.147	74.75
398.371	89.75
398.595	88.75
398.82	76.75
399.044	76.75
399.268	81.75
399.492	88.75
399.717	93.75
399.941	74.75
400.165	89.75
400.389	74.75
400.613	90.75
400.837	102.75
401.062	71.75
401.286	65.75
401.51	79.75
401.734	73.75
401.958	91.75
402.182	81.75
402.406	86.75
402.63	92.75
402.854	77.75
403.078	88.75
403.302	81.75
403.526	66.75
403.75	89.75
403.974	85.75
404.198	91.75
404.422	108.75
404.645	108.75
404.869	94.75
405.093	92.75
405.317	80.75
405.541	85.75
405.765	88.75
405.988	95.75
406.212	69.75
406.436	69.75
406.66	79.75
406.883	71.75
407.107	75.75
407.331	83.75
407.555	82.75
407.778	86.75
408.002	87.75
408.226	68.75
408.449	74.75
408.673	78.75
408.896	96.75
409.12	75.75
409.344	83.75
409.567	78.75
409.791	78.75
410.014	76.75
410.238	87.75
410.461	78.75
410.685	78.75
410.908	78.75
411.132	79.75
411.355	75.75
411.578	91.75
411.802	93.75
412.025	87.75
412.249	80.75
412.472	90.75
412.695	89.75
412.919	83.75
413.142	93.75
413.365	75.75
413.589	69.75
413.812	79.75
414.035	78.75
414.258	87.75
414.482	80.75
414.705	85.75
414.928	90.75
415.151	72.75
415.374	81.75
415.597	85.75
415.821	98.75
416.044	84.75
416.267	80.75
416.49	70.75
416.713	74.75
416.936	83.75
417.159	67.75
417.382	72.75
417.605	80.75
417.828	77.75
418.051	77.75
418.274	82.75
418.497	73.75
418.72	91.75
418.943	87.75
419.166	70.75
419.389	90.75
419.611	96.75
419.834	81.75
420.057	80.75
420.28	80.75
420.503	102.75
420.726	91.75
420.948	78.75
421.171	73.75
421.394	82.75
421.617	75.75
421.839	81.75
422.062	93.75
422.285	93.75
422.507	119.75
422.73	130.75
422.953	128.75
423.175	109.75
423.398	89.75
423.621	74.75
423.843	73.75
424.066	76.75
424.288	91.75
424.511	91.75
424.733	92.75
424.956	74.75
425.178	72.75
425.401	93.75
425.623	76.75
425.846	91.75
426.068	91.75
426.291	77.75
426.513	72.75
426.735	80.75
426.958	88.75
427.18	91.75
427.402	88.75
427.625	99.75
427.847	70.75
428.069	79.75
428.292	87.75
428.514	98.75
428.736	79.75
428.958	90.75
429.181	88.75
429.403	74.75
429.625	79.75
429.847	103.75
430.069	102.75
430.292	106.75
430.514	110.75
430.736	105.75
430.958	92.75
431.18	70.75
431.402	86.75
431.624	88.75
431.846	103.75
432.068	81.75
432.29	72.75
432.512	89.75
432.734	77.75
432.956	79.75
433.178	96.75
433.4	89.75
433.622	89.75
433.844	90.75
434.066	84.75
434.287	91.75
434.509	74.75
434.731	69.75
434.953	69.75
435.175	87.75
435.397	69.75
435.618	80.75
435.84	70.75
436.062	96.75
436.284	91.75
436.505	91.75
436.727	72.75
436.949	66.75
437.17	66.75
437.392	91.75
437.614	84.75
437.835	76.75
438.057	77.75
438.278	89.75
438.5	76.75
438.721	86.75
438.943	89.75
439.165	85.75
439.386	85.75
439.608	83.75
439.829	85.75
440.05	103.75
440.272	84.75
440.493	69.75
440.715	83.75
440.936	95.75
441.158	81.75
441.379	86.75
441.6	84.75
441.822	85.75
442.043	76.75
442.264	79.75
442.486	83.75
442.707	90.75
442.928	82.75
443.149	88.75
443.371	98.75
443.592	118.75
443.813	101.75
444.034	82.75
444.255	102.75
444.476	92.75
444.698	78.75
444.919	87.75
445.14	137.75
445.361	124.75
445.582	137.75
445.803	104.75
446.024	98.75
446.245	88.75
446.466	98.75
446.687	88.75
446.908	83.75
447.129	66.75
447.35	93.75
447.571	73.75
447.792	64.75
448.013	79.75
448.234	86.75
448.455	85.75
448.675	78.75
448.896	78.75
449.117	64.75
449.338	69.75
449.559	84.75
449.779	84.75
450	73.75
450.221	80.75
450.442	89.75
450.662	85.75
450.883	83.75
451.104	86.75
451.324	85.75
451.545	83.75
451.766	93.75
451.986	86.75
452.207	77.75
452.428	89.75
452.648	93.75
452.869	86.75
453.089	88.75
453.31	93.75
453.53	81.75
453.751	79.75
453.971	76.75
454.192	76.75
454.412	71.75
454.633	84.75
454.853	73.75
455.073	87.75
455.294	82.75
455.514	82.75
455.734	73.75
455.955	81.75
456.175	89.75
456.395	92.75
456.616	79.75
456.836	82.75
457.056	87.75
457.276	92.75
457.497	78.75
457.717	85.75
457.937	73.75
458.157	77.75
458.377	82.75
458.598	76.75
458.818	78.75
459.038	93.75
459.258	81.75
459.478	88.75
459.698	94.75
459.918	82.75
460.138	72.75
460.358	78.75
460.578	79.75
460.798	90.75
461.018	99.75
461.238	73.75
461.458	92.75
461.678	77.75
461.898	89.75
462.118	90.75
462.338	83.75
462.558	87.75
462.777	94.75
462.997	68.75
463.217	85.75
463.437	89.75
463.657	70.75
463.876	83.75
464.096	74.75
464.316	85.75
464.536	92.75
464.755	87.75
464.975	86.75
465.195	85.75
465.414	88.75
465.634	84.75
465.854	76.75
466.073	82.75
466.293	85.75
466.512	79.75
466.732	82.75
466.951	84.75
467.171	85.75
467.391	82.75
467.61	92.75
467.829	82.75
468.049	84.75
468.268	80.75
468.488	81.75
468.707	79.75
468.927	81.75
469.146	93.75
469.365	93.75
469.585	80.75
469.804	97.75
470.023	83.75
470.243	82.75
470.462	79.75
470.681	79.75
470.901	98.75
471.12	96.75
471.339	78.75
471.558	84.75
471.777	77.75
471.997	86.75
472.216	81.75
472.435	99.75
472.654	97.75
472.873	86.75
473.092	81.75
473.311	87.75
473.53	84.75
473.749	94.75
473.968	82.75
474.187	90.75
474.406	72.75
474.625	92.75
474.844	98.75
475.063	76.75
475.282	91.75
475.501	77.75
475.72	89.75
475.939	85.75
476.158	98.75
476.377	92.75
476.596	84.75
476.814	94.75
477.033	79.75
477.252	71.75
477.471	84.75
477.69	85.75
477.908	75.75
478.127	80.75
478.346	66.75
478.564	97.75
478.783	104.75
479.002	82.75
479.22	82.75
479.439	91.75
479.658	106.75
479.876	100.75
480.095	92.75
480.313	93.75
480.532	98.75
480.751	86.75
480.969	83.75
481.188	92.75
481.406	91.75
481.624	97.75
481.843	89.75
482.061	87.75
482.28	84.75
482.498	89.75
482.717	68.75
482.935	72.75
483.153	84.75
483.372	80.75
483.59	90.75
483.808	89.75
484.027	92.75
484.245	92.75
484.463	80.75
484.681	98.75
484.9	92.75
485.118	102.75
485.336	78.75
485.554	91.75
485.772	89.75
485.99	96.75
486.209	89.75
486.427	76.75
486.645	83.75
486.863	92.75
487.081	81.75
487.299	94.75
487.517	91.75
487.735	90.75
487.953	88.75
488.171	97.75
488.389	85.75
488.607	88.75
488.825	95.75
489.043	82.75
489.261	84.75
489.479	94.75
489.696	87.75
489.914	80.75
490.132	93.75
490.35	97.75
490.568	82.75
490.786	91.75
491.003	96.75
491.221	86.75
491.439	85.75
491.657	78.75
491.874	82.75
492.092	81.75
492.31	95.75
492.527	95.75
492.745	91.75
492.963	94.75
493.18	81.75
493.398	78.75
493.615	88.75
493.833	96.75
494.05	76.75
494.268	91.75
494.485	84.75
494.703	98.75
494.92	90.75
495.138	74.75
495.355	73.75
495.573	89.75
495.79	79.75
496.008	81.75
496.225	84.75
496.442	98.75
496.66	100.75
496.877	94.75
497.094	88.75
497.312	82.75
497.529	86.75
497.746	88.75
497.963	88.75
498.181	76.75
498.398	87.75
498.615	98.75
498.832	87.75
499.049	79.75
499.267	86.75
499.484	80.75
499.701	77.75
499.918	86.75
500.135	86.75
500.352	101.75
500.569	80.75
500.786	88.75
501.003	80.75
501.22	84.75
501.437	100.75
501.654	85.75
501.871	99.75
502.088	91.75
502.305	88.75
502.522	84.75
502.739	72.75
502.956	80.75
503.172	84.75
503.389	72.75
503.606	89.75
503.823	91.75
504.04	79.75
504.256	105.75
504.473	87.75
504.69	82.75
504.907	99.75
505.123	89.75
505.34	91.75
505.557	68.75
505.773	94.75
505.99	86.75
506.207	89.75
506.423	92.75
506.64	82.75
506.856	86.75
507.073	93.75
507.289	92.75
507.506	95.75
507.722	100.75
507.939	81.75
508.155	84.75
508.372	86.75
508.588	77.75
508.805	104.75
509.021	82.75
509.238	103.75
509.454	91.75
509.67	85.75
509.887	86.75
510.103	85.75
510.319	101.75
510.536	85.75
510.752	91.75
510.968	75.75
511.184	87.75
511.401	80.75
511.617	85.75
511.833	92.75
512.049	80.75
512.265	74.75
512.481	91.75
512.698	89.75
512.914	85.75
513.13	85.75
513.346	76.75
513.562	88.75
513.778	86.75
513.994	85.75
514.21	82.75
514.426	87.75
514.642	83.75
514.858	94.75
515.074	82.75
515.29	86.75
515.506	86.75
515.721	92.75
515.937	76.75
516.153	84.75
516.369	84.75
516.585	95.75
516.801	75.75
517.016	87.75
517.232	83.75
517.448	86.75
517.664	83.75
517.879	80.75
518.095	94.75
518.311	70.75
518.527	102.75
518.742	95.75
518.958	97.75
519.173	82.75
519.389	89.75
519.605	91.75
