Data from Mixheat1_HRD10591_00002.txt Node
Date: Fri Dec 27 15:06:45 EST 2024
User: Yrep
Spectrometer: HR+D1059
Trigger mode: 1
Integration Time (sec): 1.000000E-1
Scans to average: 1
Electric dark correction enabled: true
Nonlinearity correction enabled: false
Boxcar width: 0
XAxis mode: Wavelengths
Number of Pixels in Spectrum: 2048
>>>>>Begin Spectral Data<<<<<
223.165	-22.19
223.4	-22.19
223.635	-22.19
223.869	-5.19
224.104	-33.19
224.338	-11.19
224.573	-15.19
224.808	-18.19
225.042	-4.19
225.277	-11.19
225.511	-0.19
225.746	-5.19
225.98	11.81
226.215	9.81
226.449	10.81
226.683	28.81
226.918	32.81
227.152	31.81
227.387	36.81
227.621	32.81
227.856	37.81
228.09	45.81
228.324	70.81
228.559	57.81
228.793	52.81
229.027	63.81
229.262	81.81
229.496	74.81
229.73	72.81
229.964	67.81
230.199	75.81
230.433	75.81
230.667	93.81
230.901	73.81
231.136	73.81
231.37	61.81
231.604	65.81
231.838	73.81
232.072	74.81
232.306	69.81
232.541	86.81
232.775	80.81
233.009	89.81
233.243	85.81
233.477	81.81
233.711	77.81
233.945	86.81
234.179	64.81
234.413	84.81
234.647	83.81
234.881	80.81
235.115	74.81
235.349	86.81
235.583	72.81
235.817	85.81
236.051	76.81
236.285	65.81
236.519	80.81
236.753	89.81
236.987	68.81
237.221	77.81
237.455	74.81
237.689	85.81
237.922	77.81
238.156	74.81
238.39	75.81
238.624	73.81
238.858	54.81
239.091	78.81
239.325	72.81
239.559	63.81
239.793	69.81
240.027	89.81
240.26	72.81
240.494	67.81
240.728	74.81
240.961	72.81
241.195	72.81
241.429	69.81
241.662	83.81
241.896	79.81
242.13	88.81
242.363	79.81
242.597	71.81
242.83	90.81
243.064	75.81
243.298	79.81
243.531	68.81
243.765	70.81
243.998	71.81
244.232	83.81
244.465	90.81
244.699	84.81
244.932	80.81
245.166	66.81
245.399	72.81
245.633	70.81
245.866	63.81
246.099	77.81
246.333	76.81
246.566	75.81
246.8	80.81
247.033	88.81
247.266	85.81
247.5	79.81
247.733	78.81
247.966	80.81
248.2	91.81
248.433	81.81
248.666	80.81
248.899	78.81
249.133	81.81
249.366	84.81
249.599	75.81
249.832	65.81
250.066	77.81
250.299	87.81
250.532	70.81
250.765	82.81
250.998	88.81
251.231	84.81
251.465	81.81
251.698	86.81
251.931	72.81
252.164	73.81
252.397	70.81
252.63	79.81
252.863	87.81
253.096	67.81
253.329	76.81
253.562	76.81
253.795	76.81
254.028	69.81
254.261	77.81
254.494	65.81
254.727	91.81
254.96	73.81
255.193	66.81
255.426	74.81
255.659	90.81
255.892	66.81
256.124	70.81
256.357	75.81
256.59	96.81
256.823	81.81
257.056	76.81
257.289	77.81
257.521	89.81
257.754	80.81
257.987	79.81
258.22	79.81
258.452	68.81
258.685	80.81
258.918	78.81
259.151	78.81
259.383	83.81
259.616	77.81
259.849	73.81
260.081	87.81
260.314	78.81
260.547	72.81
260.779	92.81
261.012	80.81
261.244	88.81
261.477	85.81
261.71	90.81
261.942	87.81
262.175	94.81
262.407	81.81
262.64	86.81
262.872	76.81
263.105	85.81
263.337	77.81
263.57	76.81
263.802	82.81
264.035	71.81
264.267	94.81
264.499	82.81
264.732	106.81
264.964	85.81
265.197	82.81
265.429	69.81
265.661	75.81
265.894	78.81
266.126	94.81
266.358	84.81
266.591	73.81
266.823	81.81
267.055	73.81
267.287	85.81
267.52	89.81
267.752	88.81
267.984	74.81
268.216	78.81
268.448	74.81
268.681	94.81
268.913	100.81
269.145	84.81
269.377	80.81
269.609	75.81
269.841	101.81
270.073	67.81
270.306	84.81
270.538	79.81
270.77	74.81
271.002	90.81
271.234	87.81
271.466	69.81
271.698	97.81
271.93	77.81
272.162	77.81
272.394	92.81
272.626	81.81
272.858	75.81
273.09	89.81
273.322	93.81
273.553	82.81
273.785	91.81
274.017	86.81
274.249	80.81
274.481	93.81
274.713	67.81
274.945	91.81
275.176	73.81
275.408	91.81
275.64	87.81
275.872	90.81
276.104	77.81
276.335	71.81
276.567	92.81
276.799	84.81
277.031	89.81
277.262	75.81
277.494	86.81
277.726	88.81
277.957	89.81
278.189	82.81
278.421	84.81
278.652	76.81
278.884	67.81
279.115	71.81
279.347	71.81
279.579	74.81
279.81	93.81
280.042	89.81
280.273	78.81
280.505	82.81
280.736	84.81
280.968	83.81
281.199	79.81
281.431	82.81
281.662	69.81
281.894	77.81
282.125	81.81
282.356	88.81
282.588	82.81
282.819	82.81
283.051	69.81
283.282	90.81
283.513	72.81
283.745	78.81
283.976	82.81
284.207	71.81
284.439	78.81
284.67	88.81
284.901	81.81
285.132	87.81
285.364	75.81
285.595	94.81
285.826	81.81
286.057	76.81
286.288	85.81
286.52	87.81
286.751	94.81
286.982	84.81
287.213	87.81
287.444	75.81
287.675	86.81
287.906	82.81
288.138	83.81
288.369	89.81
288.6	89.81
288.831	85.81
289.062	81.81
289.293	79.81
289.524	88.81
289.755	83.81
289.986	96.81
290.217	87.81
290.448	76.81
290.679	91.81
290.91	75.81
291.141	100.81
291.371	92.81
291.602	85.81
291.833	92.81
292.064	85.81
292.295	93.81
292.526	93.81
292.757	90.81
292.987	85.81
293.218	84.81
293.449	103.81
293.68	81.81
293.91	85.81
294.141	78.81
294.372	74.81
294.603	70.81
294.833	74.81
295.064	82.81
295.295	87.81
295.525	70.81
295.756	89.81
295.987	88.81
296.217	74.81
296.448	79.81
296.679	81.81
296.909	92.81
297.14	93.81
297.37	70.81
297.601	69.81
297.831	79.81
298.062	87.81
298.292	76.81
298.523	89.81
298.753	60.81
298.984	76.81
299.214	87.81
299.445	98.81
299.675	97.81
299.905	95.81
300.136	79.81
300.366	76.81
300.597	72.81
300.827	101.81
301.057	77.81
301.288	92.81
301.518	94.81
301.748	73.81
301.979	86.81
302.209	84.81
302.439	82.81
302.669	86.81
302.9	78.81
303.13	90.81
303.36	78.81
303.59	65.81
303.82	93.81
304.051	85.81
304.281	84.81
304.511	81.81
304.741	84.81
304.971	83.81
305.201	80.81
305.431	75.81
305.661	76.81
305.891	77.81
306.121	72.81
306.352	68.81
306.582	87.81
306.812	96.81
307.042	83.81
307.272	100.81
307.502	89.81
307.731	89.81
307.961	74.81
308.191	90.81
308.421	81.81
308.651	89.81
308.881	92.81
309.111	81.81
309.341	81.81
309.571	86.81
309.8	75.81
310.03	68.81
310.26	96.81
310.49	93.81
310.72	80.81
310.949	94.81
311.179	89.81
311.409	81.81
311.639	101.81
311.868	86.81
312.098	98.81
312.328	78.81
312.557	84.81
312.787	86.81
313.017	88.81
313.246	85.81
313.476	92.81
313.706	73.81
313.935	85.81
314.165	80.81
314.394	93.81
314.624	96.81
314.853	92.81
315.083	80.81
315.312	84.81
315.542	102.81
315.771	76.81
316.001	96.81
316.23	89.81
316.46	66.81
316.689	84.81
316.919	80.81
317.148	83.81
317.377	86.81
317.607	90.81
317.836	85.81
318.065	97.81
318.295	92.81
318.524	86.81
318.753	92.81
318.983	89.81
319.212	87.81
319.441	86.81
319.67	79.81
319.9	74.81
320.129	92.81
320.358	82.81
320.587	83.81
320.816	75.81
321.046	95.81
321.275	89.81
321.504	74.81
321.733	87.81
321.962	88.81
322.191	87.81
322.42	87.81
322.649	87.81
322.878	85.81
323.108	90.81
323.337	83.81
323.566	76.81
323.795	70.81
324.024	78.81
324.253	77.81
324.482	90.81
324.71	93.81
324.939	92.81
325.168	84.81
325.397	86.81
325.626	95.81
325.855	93.81
326.084	83.81
326.313	81.81
326.542	92.81
326.77	88.81
326.999	88.81
327.228	86.81
327.457	81.81
327.686	97.81
327.914	107.81
328.143	101.81
328.372	78.81
328.6	72.81
328.829	76.81
329.058	85.81
329.287	89.81
329.515	90.81
329.744	89.81
329.972	76.81
330.201	91.81
330.43	79.81
330.658	89.81
330.887	81.81
331.115	89.81
331.344	79.81
331.572	90.81
331.801	76.81
332.03	82.81
332.258	92.81
332.486	89.81
332.715	98.81
332.943	80.81
333.172	88.81
333.4	83.81
333.629	97.81
333.857	82.81
334.085	93.81
334.314	79.81
334.542	78.81
334.771	91.81
334.999	84.81
335.227	83.81
335.455	93.81
335.684	97.81
335.912	80.81
336.14	85.81
336.369	72.81
336.597	70.81
336.825	94.81
337.053	94.81
337.281	82.81
337.51	83.81
337.738	93.81
337.966	91.81
338.194	80.81
338.422	86.81
338.65	88.81
338.878	86.81
339.106	88.81
339.334	81.81
339.562	82.81
339.79	100.81
340.018	93.81
340.246	95.81
340.474	75.81
340.702	87.81
340.93	88.81
341.158	78.81
341.386	70.81
341.614	94.81
341.842	81.81
342.07	80.81
342.298	78.81
342.526	86.81
342.754	89.81
342.981	82.81
343.209	75.81
343.437	94.81
343.665	90.81
343.893	84.81
344.12	70.81
344.348	101.81
344.576	94.81
344.804	80.81
345.031	95.81
345.259	85.81
345.487	76.81
345.714	77.81
345.942	73.81
346.17	91.81
346.397	89.81
346.625	83.81
346.853	85.81
347.08	70.81
347.308	86.81
347.535	88.81
347.763	69.81
347.99	84.81
348.218	97.81
348.445	84.81
348.673	79.81
348.9	88.81
349.128	81.81
349.355	80.81
349.583	77.81
349.81	77.81
350.037	77.81
350.265	88.81
350.492	82.81
350.72	71.81
350.947	79.81
351.174	82.81
351.402	95.81
351.629	90.81
351.856	71.81
352.083	81.81
352.311	93.81
352.538	76.81
352.765	96.81
352.992	87.81
353.22	74.81
353.447	82.81
353.674	84.81
353.901	88.81
354.128	77.81
354.355	82.81
354.583	79.81
354.81	81.81
355.037	90.81
355.264	76.81
355.491	93.81
355.718	79.81
355.945	101.81
356.172	86.81
356.399	84.81
356.626	77.81
356.853	90.81
357.08	94.81
357.307	82.81
357.534	84.81
357.761	80.81
357.988	95.81
358.215	93.81
358.441	92.81
358.668	83.81
358.895	87.81
359.122	82.81
359.349	81.81
359.576	79.81
359.802	107.81
360.029	84.81
360.256	76.81
360.483	82.81
360.709	103.81
360.936	98.81
361.163	78.81
361.39	102.81
361.616	87.81
361.843	78.81
362.07	92.81
362.296	85.81
362.523	102.81
362.749	93.81
362.976	84.81
363.203	80.81
363.429	88.81
363.656	95.81
363.882	92.81
364.109	94.81
364.335	98.81
364.562	85.81
364.788	87.81
365.015	94.81
365.241	76.81
365.468	92.81
365.694	74.81
365.92	85.81
366.147	74.81
366.373	87.81
366.599	86.81
366.826	85.81
367.052	78.81
367.278	79.81
367.505	76.81
367.731	80.81
367.957	92.81
368.184	85.81
368.41	91.81
368.636	71.81
368.862	81.81
369.089	75.81
369.315	85.81
369.541	87.81
369.767	89.81
369.993	93.81
370.219	73.81
370.445	85.81
370.672	92.81
370.898	85.81
371.124	88.81
371.35	75.81
371.576	96.81
371.802	86.81
372.028	93.81
372.254	82.81
372.48	77.81
372.706	81.81
372.932	81.81
373.158	73.81
373.384	81.81
373.61	89.81
373.835	77.81
374.061	90.81
374.287	103.81
374.513	84.81
374.739	88.81
374.965	82.81
375.191	82.81
375.416	84.81
375.642	75.81
375.868	85.81
376.094	75.81
376.319	80.81
376.545	88.81
376.771	88.81
376.997	89.81
377.222	81.81
377.448	77.81
377.674	71.81
377.899	76.81
378.125	77.81
378.35	90.81
378.576	95.81
378.802	72.81
379.027	76.81
379.253	93.81
379.478	88.81
379.704	75.81
379.929	76.81
380.155	77.81
380.38	96.81
380.606	87.81
380.831	81.81
381.057	82.81
381.282	82.81
381.507	81.81
381.733	98.81
381.958	84.81
382.184	91.81
382.409	91.81
382.634	79.81
382.86	86.81
383.085	89.81
383.31	93.81
383.535	100.81
383.761	85.81
383.986	93.81
384.211	69.81
384.436	68.81
384.662	77.81
384.887	80.81
385.112	72.81
385.337	81.81
385.562	88.81
385.787	73.81
386.013	80.81
386.238	82.81
386.463	80.81
386.688	104.81
386.913	80.81
387.138	81.81
387.363	90.81
387.588	77.81
387.813	88.81
388.038	85.81
388.263	89.81
388.488	85.81
388.713	90.81
388.938	64.81
389.163	92.81
389.387	81.81
389.612	78.81
389.837	77.81
390.062	87.81
390.287	86.81
390.512	81.81
390.736	80.81
390.961	73.81
391.186	97.81
391.411	85.81
391.636	82.81
391.86	82.81
392.085	87.81
392.31	78.81
392.534	81.81
392.759	80.81
392.984	105.81
393.208	117.81
393.433	116.81
393.658	98.81
393.882	98.81
394.107	88.81
394.331	90.81
394.556	93.81
394.78	92.81
395.005	77.81
395.229	81.81
395.454	81.81
395.678	89.81
395.903	96.81
396.127	102.81
396.352	102.81
396.576	85.81
396.801	104.81
397.025	108.81
397.249	83.81
397.474	92.81
397.698	95.81
397.922	82.81
398.147	96.81
398.371	75.81
398.595	84.81
398.82	77.81
399.044	71.81
399.268	78.81
399.492	92.81
399.717	89.81
399.941	77.81
400.165	84.81
400.389	80.81
400.613	76.81
400.837	85.81
401.062	86.81
401.286	72.81
401.51	75.81
401.734	91.81
401.958	78.81
402.182	85.81
402.406	79.81
402.63	65.81
402.854	102.81
403.078	84.81
403.302	94.81
403.526	74.81
403.75	89.81
403.974	96.81
404.198	101.81
404.422	114.81
404.645	125.81
404.869	110.81
405.093	97.81
405.317	100.81
405.541	83.81
405.765	86.81
405.988	81.81
406.212	82.81
406.436	81.81
406.66	88.81
406.883	82.81
407.107	77.81
407.331	81.81
407.555	87.81
407.778	76.81
408.002	77.81
408.226	83.81
408.449	80.81
408.673	86.81
408.896	76.81
409.12	77.81
409.344	101.81
409.567	82.81
409.791	74.81
410.014	83.81
410.238	73.81
410.461	88.81
410.685	85.81
410.908	74.81
411.132	88.81
411.355	91.81
411.578	84.81
411.802	94.81
412.025	75.81
412.249	86.81
412.472	88.81
412.695	89.81
412.919	74.81
413.142	77.81
413.365	82.81
413.589	78.81
413.812	86.81
414.035	94.81
414.258	86.81
414.482	74.81
414.705	79.81
414.928	90.81
415.151	63.81
415.374	86.81
415.597	65.81
415.821	82.81
416.044	83.81
416.267	85.81
416.49	87.81
416.713	90.81
416.936	94.81
417.159	77.81
417.382	95.81
417.605	78.81
417.828	99.81
418.051	74.81
418.274	78.81
418.497	85.81
418.72	77.81
418.943	92.81
419.166	72.81
419.389	92.81
419.611	94.81
419.834	87.81
420.057	87.81
420.28	71.81
420.503	80.81
420.726	90.81
420.948	85.81
421.171	97.81
421.394	81.81
421.617	90.81
421.839	86.81
422.062	84.81
422.285	105.81
422.507	146.81
422.73	178.81
422.953	150.81
423.175	121.81
423.398	94.81
423.621	87.81
423.843	69.81
424.066	94.81
424.288	96.81
424.511	72.81
424.733	89.81
424.956	77.81
425.178	94.81
425.401	73.81
425.623	97.81
425.846	88.81
426.068	70.81
426.291	86.81
426.513	96.81
426.735	78.81
426.958	87.81
427.18	91.81
427.402	93.81
427.625	88.81
427.847	83.81
428.069	91.81
428.292	86.81
428.514	98.81
428.736	94.81
428.958	96.81
429.181	111.81
429.403	94.81
429.625	82.81
429.847	101.81
430.069	96.81
430.292	116.81
430.514	111.81
430.736	91.81
430.958	97.81
431.18	82.81
431.402	69.81
431.624	76.81
431.846	102.81
432.068	96.81
432.29	92.81
432.512	77.81
432.734	93.81
432.956	91.81
433.178	92.81
433.4	80.81
433.622	98.81
433.844	77.81
434.066	86.81
434.287	86.81
434.509	89.81
434.731	100.81
434.953	78.81
435.175	80.81
435.397	62.81
435.618	81.81
435.84	84.81
436.062	81.81
436.284	80.81
436.505	96.81
436.727	72.81
436.949	77.81
437.17	91.81
437.392	84.81
437.614	88.81
437.835	92.81
438.057	84.81
438.278	87.81
438.5	69.81
438.721	86.81
438.943	84.81
439.165	73.81
439.386	84.81
439.608	82.81
439.829	82.81
440.05	79.81
440.272	68.81
440.493	85.81
440.715	88.81
440.936	78.81
441.158	79.81
441.379	72.81
441.6	84.81
441.822	84.81
442.043	96.81
442.264	85.81
442.486	100.81
442.707	116.81
442.928	92.81
443.149	86.81
443.371	111.81
443.592	110.81
443.813	111.81
444.034	77.81
444.255	75.81
444.476	87.81
444.698	86.81
444.919	97.81
445.14	146.81
445.361	154.81
445.582	152.81
445.803	112.81
446.024	84.81
446.245	82.81
446.466	70.81
446.687	74.81
446.908	92.81
447.129	83.81
447.35	88.81
447.571	90.81
447.792	90.81
448.013	84.81
448.234	79.81
448.455	84.81
448.675	82.81
448.896	84.81
449.117	83.81
449.338	84.81
449.559	77.81
449.779	71.81
450	93.81
450.221	68.81
450.442	83.81
450.662	82.81
450.883	88.81
451.104	97.81
451.324	70.81
451.545	91.81
451.766	77.81
451.986	85.81
452.207	87.81
452.428	77.81
452.648	85.81
452.869	78.81
453.089	86.81
453.31	84.81
453.53	74.81
453.751	93.81
453.971	87.81
454.192	82.81
454.412	85.81
454.633	76.81
454.853	83.81
455.073	71.81
455.294	87.81
455.514	83.81
455.734	76.81
455.955	84.81
456.175	77.81
456.395	74.81
456.616	78.81
456.836	82.81
457.056	70.81
457.276	95.81
457.497	90.81
457.717	92.81
457.937	93.81
458.157	98.81
458.377	104.81
458.598	81.81
458.818	86.81
459.038	81.81
459.258	93.81
459.478	79.81
459.698	93.81
459.918	75.81
460.138	81.81
460.358	71.81
460.578	101.81
460.798	106.81
461.018	88.81
461.238	79.81
461.458	90.81
461.678	80.81
461.898	86.81
462.118	92.81
462.338	86.81
462.558	91.81
462.777	79.81
462.997	77.81
463.217	93.81
463.437	84.81
463.657	81.81
463.876	90.81
464.096	86.81
464.316	84.81
464.536	85.81
464.755	80.81
464.975	83.81
465.195	78.81
465.414	86.81
465.634	73.81
465.854	71.81
466.073	93.81
466.293	94.81
466.512	65.81
466.732	87.81
466.951	98.81
467.171	91.81
467.391	92.81
467.61	90.81
467.829	86.81
468.049	74.81
468.268	84.81
468.488	86.81
468.707	98.81
468.927	70.81
469.146	89.81
469.365	88.81
469.585	76.81
469.804	93.81
470.023	72.81
470.243	84.81
470.462	92.81
470.681	97.81
470.901	96.81
471.12	92.81
471.339	113.81
471.558	91.81
471.777	93.81
471.997	93.81
472.216	91.81
472.435	82.81
472.654	90.81
472.873	80.81
473.092	84.81
473.311	96.81
473.53	81.81
473.749	90.81
473.968	86.81
474.187	86.81
474.406	97.81
474.625	86.81
474.844	85.81
475.063	77.81
475.282	69.81
475.501	90.81
475.72	87.81
475.939	97.81
476.158	73.81
476.377	84.81
476.596	76.81
476.814	94.81
477.033	83.81
477.252	90.81
477.471	89.81
477.69	84.81
477.908	78.81
478.127	82.81
478.346	78.81
478.564	100.81
478.783	82.81
479.002	86.81
479.22	72.81
479.439	87.81
479.658	81.81
479.876	92.81
480.095	88.81
480.313	85.81
480.532	83.81
480.751	80.81
480.969	77.81
481.188	66.81
481.406	89.81
481.624	78.81
481.843	88.81
482.061	80.81
482.28	76.81
482.498	85.81
482.717	86.81
482.935	102.81
483.153	81.81
483.372	97.81
483.59	93.81
483.808	93.81
484.027	95.81
484.245	88.81
484.463	82.81
484.681	107.81
484.9	83.81
485.118	64.81
485.336	71.81
485.554	74.81
485.772	90.81
485.99	96.81
486.209	89.81
486.427	66.81
486.645	90.81
486.863	95.81
487.081	77.81
487.299	76.81
487.517	97.81
487.735	104.81
487.953	106.81
488.171	99.81
488.389	87.81
488.607	81.81
488.825	86.81
489.043	78.81
489.261	102.81
489.479	85.81
489.696	87.81
489.914	78.81
490.132	90.81
490.35	93.81
490.568	87.81
490.786	89.81
491.003	86.81
491.221	82.81
491.439	78.81
491.657	88.81
491.874	87.81
492.092	96.81
492.31	98.81
492.527	74.81
492.745	91.81
492.963	93.81
493.18	90.81
493.398	73.81
493.615	76.81
493.833	81.81
494.05	86.81
494.268	94.81
494.485	105.81
494.703	88.81
494.92	93.81
495.138	96.81
495.355	90.81
495.573	95.81
495.79	81.81
496.008	100.81
496.225	83.81
496.442	72.81
496.66	92.81
496.877	81.81
497.094	93.81
497.312	84.81
497.529	82.81
497.746	91.81
497.963	90.81
498.181	81.81
498.398	78.81
498.615	82.81
498.832	78.81
499.049	77.81
499.267	92.81
499.484	84.81
499.701	92.81
499.918	82.81
500.135	88.81
500.352	77.81
500.569	85.81
500.786	88.81
501.003	98.81
501.22	87.81
501.437	103.81
501.654	92.81
501.871	76.81
502.088	77.81
502.305	92.81
502.522	97.81
502.739	86.81
502.956	79.81
503.172	94.81
503.389	88.81
503.606	84.81
503.823	93.81
504.04	87.81
504.256	86.81
504.473	92.81
504.69	103.81
504.907	99.81
505.123	85.81
505.34	97.81
505.557	92.81
505.773	85.81
505.99	80.81
506.207	92.81
506.423	80.81
506.64	84.81
506.856	97.81
507.073	88.81
507.289	95.81
507.506	62.81
507.722	87.81
507.939	76.81
508.155	74.81
508.372	80.81
508.588	81.81
508.805	90.81
509.021	87.81
509.238	87.81
509.454	94.81
509.67	91.81
509.887	77.81
510.103	77.81
510.319	99.81
510.536	91.81
510.752	78.81
510.968	73.81
511.184	77.81
511.401	84.81
511.617	86.81
511.833	81.81
512.049	96.81
512.265	85.81
512.481	92.81
512.698	81.81
512.914	95.81
513.13	86.81
513.346	79.81
513.562	88.81
513.778	89.81
513.994	92.81
514.21	78.81
514.426	89.81
514.642	91.81
514.858	99.81
515.074	78.81
515.29	92.81
515.506	84.81
515.721	86.81
515.937	103.81
516.153	95.81
516.369	75.81
516.585	92.81
516.801	78.81
517.016	98.81
517.232	91.81
517.448	91.81
517.664	95.81
517.879	81.81
518.095	79.81
518.311	91.81
518.527	97.81
518.742	98.81
518.958	109.81
519.173	86.81
