Data from Mixheat1_HRD10591_00017.txt Node
Date: Fri Dec 27 15:07:00 EST 2024
User: Yrep
Spectrometer: HR+D1059
Trigger mode: 1
Integration Time (sec): 1.000000E-1
Scans to average: 1
Electric dark correction enabled: true
Nonlinearity correction enabled: false
Boxcar width: 0
XAxis mode: Wavelengths
Number of Pixels in Spectrum: 2048
>>>>>Begin Spectral Data<<<<<
223.165	-30.5
223.4	-30.5
223.635	-30.5
223.869	-10.5
224.104	-13.5
224.338	-12.5
224.573	-2.5
224.808	-5.5
225.042	-6.5
225.277	-12.5
225.511	-1.5
225.746	3.5
225.98	4.5
226.215	12.5
226.449	14.5
226.683	13.5
226.918	15.5
227.152	31.5
227.387	45.5
227.621	47.5
227.856	61.5
228.09	40.5
228.324	54.5
228.559	68.5
228.793	59.5
229.027	57.5
229.262	56.5
229.496	72.5
229.73	73.5
229.964	71.5
230.199	86.5
230.433	74.5
230.667	60.5
230.901	82.5
231.136	80.5
231.37	81.5
231.604	85.5
231.838	81.5
232.072	72.5
232.306	80.5
232.541	92.5
232.775	67.5
233.009	88.5
233.243	88.5
233.477	80.5
233.711	75.5
233.945	86.5
234.179	87.5
234.413	90.5
234.647	90.5
234.881	86.5
235.115	79.5
235.349	73.5
235.583	79.5
235.817	93.5
236.051	88.5
236.285	88.5
236.519	86.5
236.753	82.5
236.987	68.5
237.221	91.5
237.455	81.5
237.689	79.5
237.922	87.5
238.156	70.5
238.39	75.5
238.624	96.5
238.858	77.5
239.091	82.5
239.325	84.5
239.559	81.5
239.793	70.5
240.027	78.5
240.26	75.5
240.494	87.5
240.728	69.5
240.961	76.5
241.195	82.5
241.429	77.5
241.662	81.5
241.896	83.5
242.13	75.5
242.363	76.5
242.597	79.5
242.83	90.5
243.064	76.5
243.298	77.5
243.531	88.5
243.765	81.5
243.998	93.5
244.232	78.5
244.465	74.5
244.699	83.5
244.932	89.5
245.166	93.5
245.399	89.5
245.633	81.5
245.866	86.5
246.099	71.5
246.333	78.5
246.566	67.5
246.8	79.5
247.033	75.5
247.266	70.5
247.5	74.5
247.733	76.5
247.966	91.5
248.2	84.5
248.433	64.5
248.666	66.5
248.899	94.5
249.133	90.5
249.366	99.5
249.599	81.5
249.832	82.5
250.066	78.5
250.299	84.5
250.532	97.5
250.765	90.5
250.998	103.5
251.231	81.5
251.465	88.5
251.698	83.5
251.931	82.5
252.164	85.5
252.397	79.5
252.63	80.5
252.863	90.5
253.096	94.5
253.329	76.5
253.562	87.5
253.795	70.5
254.028	74.5
254.261	86.5
254.494	87.5
254.727	83.5
254.96	88.5
255.193	73.5
255.426	78.5
255.659	81.5
255.892	87.5
256.124	76.5
256.357	77.5
256.59	85.5
256.823	90.5
257.056	77.5
257.289	78.5
257.521	86.5
257.754	77.5
257.987	86.5
258.22	91.5
258.452	85.5
258.685	87.5
258.918	88.5
259.151	78.5
259.383	91.5
259.616	88.5
259.849	94.5
260.081	73.5
260.314	105.5
260.547	94.5
260.779	95.5
261.012	85.5
261.244	72.5
261.477	88.5
261.71	86.5
261.942	75.5
262.175	83.5
262.407	80.5
262.64	93.5
262.872	85.5
263.105	90.5
263.337	89.5
263.57	81.5
263.802	78.5
264.035	85.5
264.267	92.5
264.499	88.5
264.732	94.5
264.964	88.5
265.197	89.5
265.429	94.5
265.661	78.5
265.894	96.5
266.126	91.5
266.358	87.5
266.591	87.5
266.823	83.5
267.055	77.5
267.287	85.5
267.52	63.5
267.752	94.5
267.984	98.5
268.216	92.5
268.448	94.5
268.681	83.5
268.913	88.5
269.145	87.5
269.377	108.5
269.609	71.5
269.841	80.5
270.073	89.5
270.306	78.5
270.538	79.5
270.77	72.5
271.002	84.5
271.234	85.5
271.466	84.5
271.698	79.5
271.93	87.5
272.162	87.5
272.394	87.5
272.626	79.5
272.858	57.5
273.09	81.5
273.322	85.5
273.553	83.5
273.785	89.5
274.017	85.5
274.249	75.5
274.481	80.5
274.713	78.5
274.945	81.5
275.176	96.5
275.408	88.5
275.64	83.5
275.872	78.5
276.104	82.5
276.335	83.5
276.567	79.5
276.799	102.5
277.031	85.5
277.262	82.5
277.494	85.5
277.726	98.5
277.957	91.5
278.189	88.5
278.421	94.5
278.652	82.5
278.884	80.5
279.115	80.5
279.347	75.5
279.579	74.5
279.81	70.5
280.042	79.5
280.273	80.5
280.505	85.5
280.736	82.5
280.968	88.5
281.199	71.5
281.431	76.5
281.662	95.5
281.894	82.5
282.125	91.5
282.356	92.5
282.588	87.5
282.819	85.5
283.051	82.5
283.282	87.5
283.513	86.5
283.745	70.5
283.976	78.5
284.207	83.5
284.439	71.5
284.67	82.5
284.901	88.5
285.132	71.5
285.364	90.5
285.595	96.5
285.826	73.5
286.057	99.5
286.288	89.5
286.52	81.5
286.751	91.5
286.982	106.5
287.213	87.5
287.444	89.5
287.675	95.5
287.906	79.5
288.138	76.5
288.369	87.5
288.6	99.5
288.831	97.5
289.062	92.5
289.293	94.5
289.524	98.5
289.755	77.5
289.986	91.5
290.217	77.5
290.448	91.5
290.679	90.5
290.91	95.5
291.141	84.5
291.371	84.5
291.602	98.5
291.833	85.5
292.064	94.5
292.295	89.5
292.526	79.5
292.757	89.5
292.987	81.5
293.218	93.5
293.449	79.5
293.68	86.5
293.91	96.5
294.141	101.5
294.372	83.5
294.603	75.5
294.833	90.5
295.064	78.5
295.295	81.5
295.525	82.5
295.756	80.5
295.987	101.5
296.217	81.5
296.448	81.5
296.679	89.5
296.909	89.5
297.14	86.5
297.37	73.5
297.601	79.5
297.831	90.5
298.062	89.5
298.292	94.5
298.523	81.5
298.753	74.5
298.984	82.5
299.214	86.5
299.445	85.5
299.675	90.5
299.905	90.5
300.136	81.5
300.366	85.5
300.597	82.5
300.827	87.5
301.057	80.5
301.288	91.5
301.518	91.5
301.748	76.5
301.979	101.5
302.209	93.5
302.439	76.5
302.669	88.5
302.9	97.5
303.13	76.5
303.36	96.5
303.59	81.5
303.82	72.5
304.051	73.5
304.281	78.5
304.511	85.5
304.741	90.5
304.971	84.5
305.201	83.5
305.431	81.5
305.661	78.5
305.891	91.5
306.121	83.5
306.352	73.5
306.582	78.5
306.812	88.5
307.042	96.5
307.272	89.5
307.502	85.5
307.731	90.5
307.961	94.5
308.191	95.5
308.421	102.5
308.651	77.5
308.881	88.5
309.111	87.5
309.341	73.5
309.571	92.5
309.8	81.5
310.03	83.5
310.26	97.5
310.49	99.5
310.72	77.5
310.949	95.5
311.179	82.5
311.409	77.5
311.639	84.5
311.868	84.5
312.098	77.5
312.328	94.5
312.557	92.5
312.787	82.5
313.017	77.5
313.246	91.5
313.476	93.5
313.706	85.5
313.935	86.5
314.165	87.5
314.394	91.5
314.624	94.5
314.853	80.5
315.083	85.5
315.312	84.5
315.542	81.5
315.771	79.5
316.001	80.5
316.23	91.5
316.46	75.5
316.689	72.5
316.919	98.5
317.148	75.5
317.377	83.5
317.607	83.5
317.836	85.5
318.065	87.5
318.295	92.5
318.524	83.5
318.753	95.5
318.983	78.5
319.212	91.5
319.441	97.5
319.67	75.5
319.9	86.5
320.129	89.5
320.358	68.5
320.587	93.5
320.816	93.5
321.046	89.5
321.275	78.5
321.504	82.5
321.733	81.5
321.962	90.5
322.191	81.5
322.42	103.5
322.649	91.5
322.878	82.5
323.108	94.5
323.337	87.5
323.566	97.5
323.795	87.5
324.024	76.5
324.253	80.5
324.482	95.5
324.71	95.5
324.939	86.5
325.168	90.5
325.397	85.5
325.626	79.5
325.855	79.5
326.084	75.5
326.313	78.5
326.542	79.5
326.77	94.5
326.999	91.5
327.228	81.5
327.457	92.5
327.686	94.5
327.914	90.5
328.143	92.5
328.372	86.5
328.6	81.5
328.829	75.5
329.058	85.5
329.287	80.5
329.515	90.5
329.744	98.5
329.972	85.5
330.201	93.5
330.43	94.5
330.658	98.5
330.887	72.5
331.115	106.5
331.344	94.5
331.572	83.5
331.801	86.5
332.03	89.5
332.258	89.5
332.486	93.5
332.715	76.5
332.943	78.5
333.172	86.5
333.4	91.5
333.629	96.5
333.857	88.5
334.085	77.5
334.314	75.5
334.542	78.5
334.771	76.5
334.999	89.5
335.227	87.5
335.455	90.5
335.684	103.5
335.912	89.5
336.14	81.5
336.369	83.5
336.597	79.5
336.825	79.5
337.053	85.5
337.281	80.5
337.51	104.5
337.738	94.5
337.966	94.5
338.194	81.5
338.422	82.5
338.65	75.5
338.878	75.5
339.106	68.5
339.334	103.5
339.562	95.5
339.79	78.5
340.018	103.5
340.246	90.5
340.474	91.5
340.702	87.5
340.93	88.5
341.158	92.5
341.386	84.5
341.614	91.5
341.842	87.5
342.07	87.5
342.298	89.5
342.526	88.5
342.754	68.5
342.981	91.5
343.209	87.5
343.437	115.5
343.665	95.5
343.893	95.5
344.12	87.5
344.348	99.5
344.576	86.5
344.804	94.5
345.031	70.5
345.259	72.5
345.487	86.5
345.714	88.5
345.942	84.5
346.17	104.5
346.397	85.5
346.625	87.5
346.853	88.5
347.08	98.5
347.308	74.5
347.535	86.5
347.763	91.5
347.99	91.5
348.218	76.5
348.445	85.5
348.673	79.5
348.9	79.5
349.128	90.5
349.355	75.5
349.583	97.5
349.81	85.5
350.037	85.5
350.265	94.5
350.492	78.5
350.72	80.5
350.947	82.5
351.174	91.5
351.402	93.5
351.629	92.5
351.856	77.5
352.083	86.5
352.311	78.5
352.538	85.5
352.765	94.5
352.992	85.5
353.22	83.5
353.447	85.5
353.674	95.5
353.901	79.5
354.128	75.5
354.355	85.5
354.583	71.5
354.81	92.5
355.037	85.5
355.264	93.5
355.491	90.5
355.718	92.5
355.945	73.5
356.172	75.5
356.399	75.5
356.626	71.5
356.853	83.5
357.08	87.5
357.307	90.5
357.534	99.5
357.761	77.5
357.988	96.5
358.215	86.5
358.441	65.5
358.668	78.5
358.895	88.5
359.122	86.5
359.349	80.5
359.576	87.5
359.802	93.5
360.029	84.5
360.256	84.5
360.483	79.5
360.709	81.5
360.936	93.5
361.163	88.5
361.39	77.5
361.616	94.5
361.843	99.5
362.07	101.5
362.296	101.5
362.523	88.5
362.749	87.5
362.976	99.5
363.203	97.5
363.429	75.5
363.656	72.5
363.882	79.5
364.109	89.5
364.335	84.5
364.562	78.5
364.788	78.5
365.015	85.5
365.241	93.5
365.468	88.5
365.694	93.5
365.92	85.5
366.147	85.5
366.373	75.5
366.599	77.5
366.826	78.5
367.052	85.5
367.278	82.5
367.505	87.5
367.731	83.5
367.957	89.5
368.184	90.5
368.41	82.5
368.636	93.5
368.862	77.5
369.089	63.5
369.315	91.5
369.541	90.5
369.767	91.5
369.993	79.5
370.219	97.5
370.445	88.5
370.672	103.5
370.898	104.5
371.124	82.5
371.35	86.5
371.576	91.5
371.802	90.5
372.028	79.5
372.254	79.5
372.48	96.5
372.706	82.5
372.932	70.5
373.158	77.5
373.384	82.5
373.61	93.5
373.835	87.5
374.061	84.5
374.287	94.5
374.513	94.5
374.739	87.5
374.965	92.5
375.191	95.5
375.416	109.5
375.642	74.5
375.868	86.5
376.094	93.5
376.319	90.5
376.545	78.5
376.771	94.5
376.997	89.5
377.222	71.5
377.448	86.5
377.674	93.5
377.899	87.5
378.125	73.5
378.35	92.5
378.576	93.5
378.802	76.5
379.027	94.5
379.253	91.5
379.478	102.5
379.704	89.5
379.929	81.5
380.155	73.5
380.38	89.5
380.606	78.5
380.831	80.5
381.057	81.5
381.282	94.5
381.507	87.5
381.733	72.5
381.958	89.5
382.184	84.5
382.409	73.5
382.634	94.5
382.86	98.5
383.085	89.5
383.31	78.5
383.535	74.5
383.761	82.5
383.986	90.5
384.211	88.5
384.436	89.5
384.662	83.5
384.887	81.5
385.112	85.5
385.337	91.5
385.562	88.5
385.787	70.5
386.013	90.5
386.238	80.5
386.463	81.5
386.688	94.5
386.913	89.5
387.138	85.5
387.363	84.5
387.588	83.5
387.813	92.5
388.038	94.5
388.263	84.5
388.488	86.5
388.713	74.5
388.938	88.5
389.163	91.5
389.387	80.5
389.612	84.5
389.837	91.5
390.062	102.5
390.287	89.5
390.512	81.5
390.736	87.5
390.961	95.5
391.186	89.5
391.411	75.5
391.636	79.5
391.86	79.5
392.085	95.5
392.31	84.5
392.534	78.5
392.759	94.5
392.984	83.5
393.208	119.5
393.433	101.5
393.658	98.5
393.882	96.5
394.107	82.5
394.331	95.5
394.556	86.5
394.78	87.5
395.005	88.5
395.229	90.5
395.454	78.5
395.678	82.5
395.903	88.5
396.127	95.5
396.352	104.5
396.576	96.5
396.801	111.5
397.025	108.5
397.249	104.5
397.474	97.5
397.698	76.5
397.922	74.5
398.147	75.5
398.371	77.5
398.595	102.5
398.82	90.5
399.044	83.5
399.268	81.5
399.492	86.5
399.717	93.5
399.941	72.5
400.165	93.5
400.389	83.5
400.613	80.5
400.837	77.5
401.062	81.5
401.286	103.5
401.51	96.5
401.734	90.5
401.958	91.5
402.182	86.5
402.406	102.5
402.63	93.5
402.854	92.5
403.078	97.5
403.302	90.5
403.526	91.5
403.75	79.5
403.974	95.5
404.198	102.5
404.422	111.5
404.645	105.5
404.869	110.5
405.093	89.5
405.317	87.5
405.541	79.5
405.765	85.5
405.988	82.5
406.212	83.5
406.436	72.5
406.66	89.5
406.883	74.5
407.107	88.5
407.331	101.5
407.555	97.5
407.778	89.5
408.002	93.5
408.226	83.5
408.449	85.5
408.673	91.5
408.896	85.5
409.12	75.5
409.344	95.5
409.567	77.5
409.791	93.5
410.014	91.5
410.238	85.5
410.461	86.5
410.685	89.5
410.908	78.5
411.132	99.5
411.355	92.5
411.578	86.5
411.802	88.5
412.025	75.5
412.249	77.5
412.472	77.5
412.695	95.5
412.919	82.5
413.142	87.5
413.365	95.5
413.589	69.5
413.812	92.5
414.035	92.5
414.258	92.5
414.482	75.5
414.705	80.5
414.928	75.5
415.151	91.5
415.374	76.5
415.597	90.5
415.821	94.5
416.044	81.5
416.267	75.5
416.49	89.5
416.713	82.5
416.936	93.5
417.159	86.5
417.382	88.5
417.605	90.5
417.828	73.5
418.051	83.5
418.274	85.5
418.497	85.5
418.72	83.5
418.943	84.5
419.166	85.5
419.389	88.5
419.611	86.5
419.834	75.5
420.057	94.5
420.28	87.5
420.503	95.5
420.726	89.5
420.948	80.5
421.171	93.5
421.394	78.5
421.617	78.5
421.839	91.5
422.062	104.5
422.285	93.5
422.507	121.5
422.73	129.5
422.953	129.5
423.175	99.5
423.398	105.5
423.621	81.5
423.843	79.5
424.066	86.5
424.288	89.5
424.511	94.5
424.733	86.5
424.956	85.5
425.178	98.5
425.401	99.5
425.623	83.5
425.846	86.5
426.068	101.5
426.291	91.5
426.513	69.5
426.735	77.5
426.958	98.5
427.18	74.5
427.402	89.5
427.625	91.5
427.847	72.5
428.069	93.5
428.292	92.5
428.514	97.5
428.736	87.5
428.958	99.5
429.181	108.5
429.403	75.5
429.625	90.5
429.847	96.5
430.069	113.5
430.292	124.5
430.514	89.5
430.736	107.5
430.958	88.5
431.18	83.5
431.402	88.5
431.624	80.5
431.846	76.5
432.068	88.5
432.29	92.5
432.512	79.5
432.734	88.5
432.956	87.5
433.178	78.5
433.4	85.5
433.622	87.5
433.844	75.5
434.066	94.5
434.287	96.5
434.509	81.5
434.731	83.5
434.953	89.5
435.175	81.5
435.397	83.5
435.618	89.5
435.84	91.5
436.062	83.5
436.284	86.5
436.505	80.5
436.727	82.5
436.949	74.5
437.17	73.5
437.392	71.5
437.614	73.5
437.835	83.5
438.057	82.5
438.278	74.5
438.5	87.5
438.721	77.5
438.943	84.5
439.165	91.5
439.386	93.5
439.608	93.5
439.829	98.5
440.05	82.5
440.272	89.5
440.493	80.5
440.715	92.5
440.936	97.5
441.158	82.5
441.379	82.5
441.6	80.5
441.822	82.5
442.043	101.5
442.264	75.5
442.486	93.5
442.707	101.5
442.928	80.5
443.149	89.5
443.371	93.5
443.592	121.5
443.813	95.5
444.034	81.5
444.255	86.5
444.476	106.5
444.698	104.5
444.919	90.5
445.14	156.5
445.361	124.5
445.582	138.5
445.803	113.5
446.024	74.5
446.245	87.5
446.466	85.5
446.687	77.5
446.908	88.5
447.129	81.5
447.35	76.5
447.571	87.5
447.792	91.5
448.013	84.5
448.234	90.5
448.455	91.5
448.675	71.5
448.896	81.5
449.117	75.5
449.338	90.5
449.559	94.5
449.779	90.5
450	70.5
450.221	90.5
450.442	79.5
450.662	91.5
450.883	81.5
451.104	89.5
451.324	82.5
451.545	88.5
451.766	95.5
451.986	98.5
452.207	93.5
452.428	85.5
452.648	88.5
452.869	83.5
453.089	84.5
453.31	82.5
453.53	87.5
453.751	87.5
453.971	73.5
454.192	79.5
454.412	76.5
454.633	79.5
454.853	86.5
455.073	76.5
455.294	83.5
455.514	92.5
455.734	81.5
455.955	92.5
456.175	80.5
456.395	95.5
456.616	96.5
456.836	76.5
457.056	86.5
457.276	95.5
457.497	70.5
457.717	79.5
457.937	82.5
458.157	90.5
458.377	88.5
458.598	80.5
458.818	90.5
459.038	86.5
459.258	71.5
459.478	87.5
459.698	95.5
459.918	78.5
460.138	89.5
460.358	81.5
460.578	97.5
460.798	97.5
461.018	101.5
461.238	92.5
461.458	85.5
461.678	84.5
461.898	89.5
462.118	93.5
462.338	87.5
462.558	90.5
462.777	63.5
462.997	89.5
463.217	82.5
463.437	92.5
463.657	96.5
463.876	83.5
464.096	86.5
464.316	86.5
464.536	84.5
464.755	86.5
464.975	82.5
465.195	80.5
465.414	85.5
465.634	101.5
465.854	77.5
466.073	88.5
466.293	84.5
466.512	81.5
466.732	76.5
466.951	86.5
467.171	96.5
467.391	84.5
467.61	92.5
467.829	84.5
468.049	90.5
468.268	83.5
468.488	78.5
468.707	93.5
468.927	88.5
469.146	78.5
469.365	86.5
469.585	74.5
469.804	84.5
470.023	91.5
470.243	79.5
470.462	100.5
470.681	77.5
470.901	92.5
471.12	81.5
471.339	94.5
471.558	94.5
471.777	86.5
471.997	94.5
472.216	87.5
472.435	90.5
472.654	89.5
472.873	68.5
473.092	86.5
473.311	79.5
473.53	88.5
473.749	98.5
473.968	86.5
474.187	87.5
474.406	77.5
474.625	76.5
474.844	87.5
475.063	89.5
475.282	91.5
475.501	71.5
475.72	79.5
475.939	72.5
476.158	87.5
476.377	84.5
476.596	86.5
476.814	83.5
477.033	91.5
477.252	79.5
477.471	88.5
477.69	83.5
477.908	92.5
478.127	89.5
478.346	95.5
478.564	90.5
478.783	81.5
479.002	85.5
479.22	81.5
479.439	79.5
479.658	89.5
479.876	95.5
480.095	75.5
480.313	89.5
480.532	92.5
480.751	88.5
480.969	76.5
481.188	86.5
481.406	96.5
481.624	72.5
481.843	92.5
482.061	77.5
482.28	89.5
482.498	90.5
482.717	80.5
482.935	95.5
483.153	86.5
483.372	95.5
483.59	86.5
483.808	81.5
484.027	92.5
484.245	91.5
484.463	92.5
484.681	99.5
484.9	107.5
485.118	97.5
485.336	92.5
485.554	91.5
485.772	81.5
485.99	79.5
486.209	96.5
486.427	80.5
486.645	96.5
486.863	87.5
487.081	84.5
487.299	77.5
487.517	91.5
487.735	78.5
487.953	92.5
488.171	95.5
488.389	80.5
488.607	83.5
488.825	86.5
489.043	75.5
489.261	91.5
489.479	85.5
489.696	95.5
489.914	76.5
490.132	101.5
490.35	94.5
490.568	94.5
490.786	93.5
491.003	86.5
491.221	77.5
491.439	97.5
491.657	71.5
491.874	86.5
492.092	75.5
492.31	87.5
492.527	91.5
492.745	90.5
492.963	95.5
493.18	92.5
493.398	78.5
493.615	90.5
493.833	91.5
494.05	92.5
494.268	94.5
494.485	100.5
494.703	85.5
494.92	80.5
495.138	92.5
495.355	84.5
495.573	86.5
495.79	89.5
496.008	78.5
496.225	78.5
496.442	100.5
496.66	99.5
496.877	85.5
497.094	88.5
497.312	84.5
497.529	78.5
497.746	92.5
497.963	95.5
498.181	89.5
498.398	84.5
498.615	78.5
498.832	81.5
499.049	90.5
499.267	95.5
499.484	93.5
499.701	82.5
499.918	87.5
500.135	85.5
500.352	89.5
500.569	97.5
500.786	103.5
501.003	98.5
501.22	91.5
501.437	85.5
501.654	80.5
501.871	102.5
502.088	80.5
502.305	90.5
502.522	75.5
502.739	83.5
502.956	91.5
503.172	104.5
503.389	101.5
503.606	95.5
503.823	88.5
504.04	89.5
504.256	91.5
504.473	94.5
504.69	95.5
504.907	83.5
505.123	87.5
505.34	89.5
505.557	84.5
505.773	97.5
505.99	82.5
506.207	83.5
506.423	78.5
506.64	98.5
506.856	94.5
507.073	87.5
507.289	81.5
507.506	90.5
507.722	87.5
507.939	88.5
508.155	78.5
508.372	95.5
508.588	79.5
508.805	90.5
509.021	90.5
509.238	78.5
509.454	92.5
509.67	95.5
509.887	82.5
510.103	92.5
510.319	87.5
510.536	92.5
510.752	82.5
510.968	80.5
511.184	82.5
511.401	84.5
511.617	89.5
511.833	79.5
512.049	94.5
512.265	96.5
512.481	92.5
512.698	106.5
512.914	86.5
513.13	90.5
513.346	91.5
513.562	102.5
513.778	91.5
513.994	79.5
514.21	82.5
514.426	85.5
514.642	85.5
514.858	83.5
515.074	91.5
515.29	102.5
515.506	89.5
515.721	77.5
515.937	83.5
516.153	82.5
516.369	97.5
516.585	82.5
516.801	86.5
517.016	90.5
517.232	88.5
517.448	93.5
517.664	93.5
517.879	91.5
518.095	96.5
518.311	93.5
518.527	85.5
518.742	82.5
518.958	98.5
519.173	97.5
519.389	95.5
519.605	78.5
519.82	80.5
520.036	89.5
520.251	97.5
520.467	93.5
520.682	95.5
520.898	87.5
521.113	86.5
521.329	90.5
521.544	91.5
521.76	98.5
521.975	80.5
522.19	86.5
522.406	95.5
522.621	90.5
522.836	86.5
523.052	89.5
523.267	102.5
523.482	95.5
523.698	89.5
523.913	89.5
524.128	92.5
524.343	78.5
524.559	97.5
524.774	82.5
524.989	84.5
525.204	75.5
525.419	90.5
525.634	77.5
525.849	91.5
526.064	96.5
526.28	107.5
526.495	109.5
526.71	114.5
526.925	98.5
527.14	109.5
527.355	105.5
527.57	83.5
527.785	89.5
527.999	86.5
528.214	74.5
528.429	89.5
528.644	89.5
528.859	98.5
529.074	80.5
529.289	92.5
529.503	91.5
529.718	91.5
529.933	76.5
530.148	80.5
530.363	91.5
530.577	92.5
530.792	81.5
531.007	67.5
531.221	91.5
531.436	90.5
531.651	88.5
531.865	86.5
532.08	84.5
532.295	108.5
532.509	87.5
532.724	85.5
532.938	89.5
533.153	88.5
533.367	93.5
533.582	92.5
533.796	78.5
534.011	95.5
534.225	98.5
534.44	85.5
534.654	88.5
534.868	99.5
535.083	110.5
535.297	105.5
535.511	80.5
535.726	94.5
535.94	91.5
536.154	101.5
536.369	90.5
536.583	89.5
536.797	84.5
537.011	89.5
537.225	102.5
537.44	87.5
537.654	88.5
537.868	81.5
538.082	95.5
538.296	89.5
538.51	88.5
538.724	85.5
538.938	90.5
539.153	94.5
539.367	92.5
