Data from Mixheat1_HRD10591_00005.txt Node
Date: Fri Dec 27 15:06:48 EST 2024
User: Yrep
Spectrometer: HR+D1059
Trigger mode: 1
Integration Time (sec): 1.000000E-1
Scans to average: 1
Electric dark correction enabled: true
Nonlinearity correction enabled: false
Boxcar width: 0
XAxis mode: Wavelengths
Number of Pixels in Spectrum: 2048
>>>>>Begin Spectral Data<<<<<
223.165	-13.06
223.4	-13.06
223.635	-13.06
223.869	-20.06
224.104	-8.06
224.338	-24.06
224.573	-16.06
224.808	-12.06
225.042	-6.06
225.277	-6.06
225.511	13.94
225.746	-6.06
225.98	-2.06
226.215	9.94
226.449	21.94
226.683	16.94
226.918	25.94
227.152	24.94
227.387	23.94
227.621	51.94
227.856	55.94
228.09	46.94
228.324	45.94
228.559	63.94
228.793	64.94
229.027	62.94
229.262	66.94
229.496	60.94
229.73	62.94
229.964	72.94
230.199	82.94
230.433	65.94
230.667	87.94
230.901	68.94
231.136	77.94
231.37	68.94
231.604	77.94
231.838	73.94
232.072	77.94
232.306	81.94
232.541	96.94
232.775	74.94
233.009	84.94
233.243	77.94
233.477	86.94
233.711	93.94
233.945	78.94
234.179	80.94
234.413	82.94
234.647	83.94
234.881	85.94
235.115	76.94
235.349	68.94
235.583	77.94
235.817	81.94
236.051	77.94
236.285	68.94
236.519	76.94
236.753	58.94
236.987	87.94
237.221	76.94
237.455	82.94
237.689	69.94
237.922	72.94
238.156	58.94
238.39	66.94
238.624	74.94
238.858	74.94
239.091	72.94
239.325	74.94
239.559	70.94
239.793	81.94
240.027	73.94
240.26	72.94
240.494	84.94
240.728	76.94
240.961	68.94
241.195	95.94
241.429	83.94
241.662	75.94
241.896	88.94
242.13	72.94
242.363	77.94
242.597	63.94
242.83	70.94
243.064	76.94
243.298	82.94
243.531	86.94
243.765	78.94
243.998	99.94
244.232	89.94
244.465	80.94
244.699	90.94
244.932	85.94
245.166	78.94
245.399	75.94
245.633	78.94
245.866	86.94
246.099	73.94
246.333	75.94
246.566	74.94
246.8	75.94
247.033	70.94
247.266	71.94
247.5	64.94
247.733	63.94
247.966	74.94
248.2	79.94
248.433	82.94
248.666	79.94
248.899	74.94
249.133	78.94
249.366	86.94
249.599	89.94
249.832	76.94
250.066	90.94
250.299	68.94
250.532	86.94
250.765	71.94
250.998	77.94
251.231	78.94
251.465	75.94
251.698	70.94
251.931	75.94
252.164	86.94
252.397	82.94
252.63	79.94
252.863	81.94
253.096	68.94
253.329	78.94
253.562	92.94
253.795	107.94
254.028	78.94
254.261	77.94
254.494	88.94
254.727	71.94
254.96	62.94
255.193	73.94
255.426	83.94
255.659	80.94
255.892	68.94
256.124	80.94
256.357	82.94
256.59	72.94
256.823	74.94
257.056	67.94
257.289	89.94
257.521	86.94
257.754	81.94
257.987	70.94
258.22	83.94
258.452	72.94
258.685	77.94
258.918	74.94
259.151	84.94
259.383	77.94
259.616	81.94
259.849	83.94
260.081	84.94
260.314	91.94
260.547	77.94
260.779	77.94
261.012	73.94
261.244	79.94
261.477	77.94
261.71	96.94
261.942	76.94
262.175	76.94
262.407	79.94
262.64	75.94
262.872	81.94
263.105	79.94
263.337	94.94
263.57	88.94
263.802	73.94
264.035	69.94
264.267	74.94
264.499	80.94
264.732	95.94
264.964	73.94
265.197	82.94
265.429	75.94
265.661	88.94
265.894	69.94
266.126	92.94
266.358	84.94
266.591	87.94
266.823	83.94
267.055	81.94
267.287	87.94
267.52	87.94
267.752	82.94
267.984	82.94
268.216	73.94
268.448	98.94
268.681	95.94
268.913	94.94
269.145	83.94
269.377	82.94
269.609	84.94
269.841	82.94
270.073	81.94
270.306	89.94
270.538	75.94
270.77	79.94
271.002	83.94
271.234	89.94
271.466	83.94
271.698	89.94
271.93	88.94
272.162	71.94
272.394	76.94
272.626	74.94
272.858	76.94
273.09	80.94
273.322	66.94
273.553	78.94
273.785	80.94
274.017	80.94
274.249	91.94
274.481	92.94
274.713	74.94
274.945	84.94
275.176	83.94
275.408	87.94
275.64	89.94
275.872	81.94
276.104	98.94
276.335	86.94
276.567	81.94
276.799	86.94
277.031	95.94
277.262	88.94
277.494	73.94
277.726	78.94
277.957	89.94
278.189	73.94
278.421	83.94
278.652	74.94
278.884	65.94
279.115	83.94
279.347	83.94
279.579	83.94
279.81	71.94
280.042	73.94
280.273	77.94
280.505	71.94
280.736	78.94
280.968	78.94
281.199	90.94
281.431	87.94
281.662	90.94
281.894	95.94
282.125	88.94
282.356	77.94
282.588	71.94
282.819	79.94
283.051	63.94
283.282	83.94
283.513	79.94
283.745	103.94
283.976	80.94
284.207	86.94
284.439	82.94
284.67	81.94
284.901	80.94
285.132	83.94
285.364	89.94
285.595	86.94
285.826	76.94
286.057	89.94
286.288	79.94
286.52	84.94
286.751	75.94
286.982	89.94
287.213	85.94
287.444	91.94
287.675	81.94
287.906	85.94
288.138	95.94
288.369	95.94
288.6	85.94
288.831	70.94
289.062	77.94
289.293	83.94
289.524	85.94
289.755	86.94
289.986	96.94
290.217	85.94
290.448	95.94
290.679	81.94
290.91	71.94
291.141	72.94
291.371	89.94
291.602	77.94
291.833	85.94
292.064	99.94
292.295	69.94
292.526	73.94
292.757	85.94
292.987	95.94
293.218	89.94
293.449	86.94
293.68	81.94
293.91	80.94
294.141	91.94
294.372	92.94
294.603	83.94
294.833	89.94
295.064	78.94
295.295	87.94
295.525	68.94
295.756	81.94
295.987	107.94
296.217	90.94
296.448	76.94
296.679	79.94
296.909	84.94
297.14	72.94
297.37	78.94
297.601	92.94
297.831	87.94
298.062	86.94
298.292	81.94
298.523	83.94
298.753	84.94
298.984	88.94
299.214	80.94
299.445	82.94
299.675	87.94
299.905	81.94
300.136	96.94
300.366	86.94
300.597	71.94
300.827	80.94
301.057	84.94
301.288	83.94
301.518	89.94
301.748	72.94
301.979	89.94
302.209	84.94
302.439	88.94
302.669	81.94
302.9	89.94
303.13	77.94
303.36	83.94
303.59	85.94
303.82	87.94
304.051	91.94
304.281	95.94
304.511	72.94
304.741	90.94
304.971	85.94
305.201	91.94
305.431	78.94
305.661	87.94
305.891	84.94
306.121	87.94
306.352	85.94
306.582	82.94
306.812	96.94
307.042	71.94
307.272	74.94
307.502	94.94
307.731	79.94
307.961	87.94
308.191	97.94
308.421	97.94
308.651	73.94
308.881	87.94
309.111	71.94
309.341	89.94
309.571	98.94
309.8	75.94
310.03	85.94
310.26	108.94
310.49	86.94
310.72	76.94
310.949	77.94
311.179	72.94
311.409	90.94
311.639	81.94
311.868	84.94
312.098	84.94
312.328	104.94
312.557	109.94
312.787	95.94
313.017	75.94
313.246	87.94
313.476	101.94
313.706	86.94
313.935	79.94
314.165	103.94
314.394	80.94
314.624	79.94
314.853	82.94
315.083	76.94
315.312	83.94
315.542	84.94
315.771	76.94
316.001	93.94
316.23	82.94
316.46	99.94
316.689	89.94
316.919	76.94
317.148	89.94
317.377	83.94
317.607	89.94
317.836	90.94
318.065	89.94
318.295	92.94
318.524	88.94
318.753	84.94
318.983	82.94
319.212	91.94
319.441	80.94
319.67	92.94
319.9	79.94
320.129	87.94
320.358	84.94
320.587	75.94
320.816	92.94
321.046	86.94
321.275	80.94
321.504	81.94
321.733	77.94
321.962	75.94
322.191	77.94
322.42	78.94
322.649	74.94
322.878	92.94
323.108	87.94
323.337	87.94
323.566	90.94
323.795	93.94
324.024	84.94
324.253	82.94
324.482	97.94
324.71	84.94
324.939	89.94
325.168	72.94
325.397	77.94
325.626	83.94
325.855	71.94
326.084	84.94
326.313	84.94
326.542	78.94
326.77	86.94
326.999	88.94
327.228	81.94
327.457	89.94
327.686	79.94
327.914	79.94
328.143	89.94
328.372	77.94
328.6	87.94
328.829	75.94
329.058	88.94
329.287	88.94
329.515	75.94
329.744	84.94
329.972	75.94
330.201	71.94
330.43	81.94
330.658	80.94
330.887	87.94
331.115	86.94
331.344	101.94
331.572	103.94
331.801	91.94
332.03	83.94
332.258	88.94
332.486	81.94
332.715	83.94
332.943	79.94
333.172	75.94
333.4	80.94
333.629	84.94
333.857	91.94
334.085	88.94
334.314	75.94
334.542	74.94
334.771	96.94
334.999	89.94
335.227	87.94
335.455	80.94
335.684	94.94
335.912	91.94
336.14	87.94
336.369	94.94
336.597	78.94
336.825	86.94
337.053	100.94
337.281	85.94
337.51	70.94
337.738	93.94
337.966	73.94
338.194	88.94
338.422	85.94
338.65	74.94
338.878	85.94
339.106	75.94
339.334	96.94
339.562	79.94
339.79	82.94
340.018	75.94
340.246	80.94
340.474	86.94
340.702	91.94
340.93	97.94
341.158	84.94
341.386	90.94
341.614	91.94
341.842	85.94
342.07	97.94
342.298	87.94
342.526	89.94
342.754	83.94
342.981	90.94
343.209	81.94
343.437	109.94
343.665	91.94
343.893	88.94
344.12	88.94
344.348	84.94
344.576	78.94
344.804	82.94
345.031	89.94
345.259	72.94
345.487	87.94
345.714	90.94
345.942	72.94
346.17	83.94
346.397	81.94
346.625	78.94
346.853	79.94
347.08	88.94
347.308	95.94
347.535	91.94
347.763	99.94
347.99	86.94
348.218	85.94
348.445	79.94
348.673	75.94
348.9	85.94
349.128	79.94
349.355	88.94
349.583	89.94
349.81	84.94
350.037	102.94
350.265	91.94
350.492	80.94
350.72	87.94
350.947	83.94
351.174	84.94
351.402	92.94
351.629	96.94
351.856	77.94
352.083	77.94
352.311	83.94
352.538	67.94
352.765	80.94
352.992	87.94
353.22	81.94
353.447	87.94
353.674	99.94
353.901	78.94
354.128	87.94
354.355	88.94
354.583	91.94
354.81	80.94
355.037	77.94
355.264	81.94
355.491	82.94
355.718	85.94
355.945	83.94
356.172	86.94
356.399	72.94
356.626	89.94
356.853	104.94
357.08	89.94
357.307	81.94
357.534	89.94
357.761	87.94
357.988	88.94
358.215	105.94
358.441	91.94
358.668	77.94
358.895	103.94
359.122	96.94
359.349	81.94
359.576	94.94
359.802	81.94
360.029	85.94
360.256	87.94
360.483	75.94
360.709	92.94
360.936	86.94
361.163	91.94
361.39	84.94
361.616	84.94
361.843	90.94
362.07	87.94
362.296	82.94
362.523	82.94
362.749	99.94
362.976	72.94
363.203	88.94
363.429	89.94
363.656	91.94
363.882	88.94
364.109	94.94
364.335	87.94
364.562	72.94
364.788	90.94
365.015	83.94
365.241	80.94
365.468	87.94
365.694	75.94
365.92	102.94
366.147	77.94
366.373	65.94
366.599	81.94
366.826	64.94
367.052	79.94
367.278	90.94
367.505	91.94
367.731	102.94
367.957	79.94
368.184	88.94
368.41	84.94
368.636	96.94
368.862	103.94
369.089	90.94
369.315	91.94
369.541	86.94
369.767	89.94
369.993	81.94
370.219	78.94
370.445	97.94
370.672	64.94
370.898	77.94
371.124	87.94
371.35	81.94
371.576	78.94
371.802	101.94
372.028	79.94
372.254	84.94
372.48	87.94
372.706	87.94
372.932	82.94
373.158	92.94
373.384	90.94
373.61	85.94
373.835	86.94
374.061	75.94
374.287	90.94
374.513	94.94
374.739	93.94
374.965	85.94
375.191	88.94
375.416	74.94
375.642	83.94
375.868	90.94
376.094	81.94
376.319	77.94
376.545	68.94
376.771	79.94
376.997	78.94
377.222	91.94
377.448	90.94
377.674	77.94
377.899	64.94
378.125	93.94
378.35	73.94
378.576	78.94
378.802	69.94
379.027	75.94
379.253	86.94
379.478	83.94
379.704	80.94
379.929	85.94
380.155	84.94
380.38	74.94
380.606	62.94
380.831	80.94
381.057	93.94
381.282	90.94
381.507	86.94
381.733	86.94
381.958	74.94
382.184	83.94
382.409	80.94
382.634	81.94
382.86	75.94
383.085	88.94
383.31	80.94
383.535	72.94
383.761	81.94
383.986	82.94
384.211	73.94
384.436	87.94
384.662	83.94
384.887	82.94
385.112	82.94
385.337	80.94
385.562	69.94
385.787	92.94
386.013	86.94
386.238	97.94
386.463	93.94
386.688	96.94
386.913	86.94
387.138	72.94
387.363	74.94
387.588	69.94
387.813	82.94
388.038	84.94
388.263	90.94
388.488	83.94
388.713	85.94
388.938	92.94
389.163	100.94
389.387	79.94
389.612	71.94
389.837	83.94
390.062	94.94
390.287	86.94
390.512	83.94
390.736	80.94
390.961	94.94
391.186	90.94
391.411	87.94
391.636	90.94
391.86	77.94
392.085	93.94
392.31	68.94
392.534	81.94
392.759	84.94
392.984	102.94
393.208	103.94
393.433	100.94
393.658	89.94
393.882	77.94
394.107	87.94
394.331	95.94
394.556	84.94
394.78	96.94
395.005	86.94
395.229	85.94
395.454	81.94
395.678	92.94
395.903	97.94
396.127	89.94
396.352	110.94
396.576	93.94
396.801	107.94
397.025	110.94
397.249	79.94
397.474	101.94
397.698	94.94
397.922	84.94
398.147	78.94
398.371	72.94
398.595	76.94
398.82	79.94
399.044	84.94
399.268	83.94
399.492	77.94
399.717	83.94
399.941	64.94
400.165	75.94
400.389	87.94
400.613	88.94
400.837	90.94
401.062	99.94
401.286	61.94
401.51	91.94
401.734	79.94
401.958	86.94
402.182	97.94
402.406	94.94
402.63	63.94
402.854	92.94
403.078	92.94
403.302	84.94
403.526	80.94
403.75	79.94
403.974	88.94
404.198	98.94
404.422	101.94
404.645	111.94
404.869	103.94
405.093	79.94
405.317	87.94
405.541	83.94
405.765	91.94
405.988	94.94
406.212	81.94
406.436	86.94
406.66	95.94
406.883	84.94
407.107	82.94
407.331	100.94
407.555	80.94
407.778	98.94
408.002	91.94
408.226	94.94
408.449	81.94
408.673	73.94
408.896	96.94
409.12	76.94
409.344	79.94
409.567	74.94
409.791	88.94
410.014	95.94
410.238	69.94
410.461	71.94
410.685	74.94
410.908	78.94
411.132	82.94
411.355	79.94
411.578	100.94
411.802	87.94
412.025	79.94
412.249	92.94
412.472	77.94
412.695	86.94
412.919	79.94
413.142	96.94
413.365	84.94
413.589	69.94
413.812	87.94
414.035	85.94
414.258	83.94
414.482	80.94
414.705	70.94
414.928	83.94
415.151	70.94
415.374	103.94
415.597	76.94
415.821	64.94
416.044	93.94
416.267	77.94
416.49	96.94
416.713	72.94
416.936	81.94
417.159	74.94
417.382	75.94
417.605	87.94
417.828	83.94
418.051	78.94
418.274	85.94
418.497	96.94
418.72	86.94
418.943	79.94
419.166	87.94
419.389	89.94
419.611	87.94
419.834	82.94
420.057	85.94
420.28	86.94
420.503	88.94
420.726	83.94
420.948	76.94
421.171	87.94
421.394	94.94
421.617	90.94
421.839	86.94
422.062	91.94
422.285	88.94
422.507	117.94
422.73	148.94
422.953	125.94
423.175	99.94
423.398	71.94
423.621	88.94
423.843	79.94
424.066	80.94
424.288	81.94
424.511	89.94
424.733	76.94
424.956	69.94
425.178	76.94
425.401	84.94
425.623	87.94
425.846	77.94
426.068	79.94
426.291	82.94
426.513	95.94
426.735	99.94
426.958	95.94
427.18	92.94
427.402	79.94
427.625	85.94
427.847	93.94
428.069	91.94
428.292	97.94
428.514	100.94
428.736	94.94
428.958	91.94
429.181	86.94
429.403	76.94
429.625	75.94
429.847	91.94
430.069	104.94
430.292	115.94
430.514	92.94
430.736	91.94
430.958	92.94
431.18	80.94
431.402	91.94
431.624	85.94
431.846	77.94
432.068	100.94
432.29	86.94
432.512	87.94
432.734	84.94
432.956	90.94
433.178	91.94
433.4	77.94
433.622	83.94
433.844	72.94
434.066	75.94
434.287	71.94
434.509	71.94
434.731	101.94
434.953	86.94
435.175	81.94
435.397	81.94
435.618	89.94
435.84	87.94
436.062	71.94
436.284	76.94
436.505	97.94
436.727	87.94
436.949	95.94
437.17	88.94
437.392	86.94
437.614	90.94
437.835	90.94
438.057	78.94
438.278	91.94
438.5	87.94
438.721	87.94
438.943	85.94
439.165	88.94
439.386	92.94
439.608	76.94
439.829	83.94
440.05	84.94
440.272	87.94
440.493	90.94
440.715	84.94
440.936	81.94
441.158	78.94
441.379	78.94
441.6	84.94
441.822	93.94
442.043	78.94
442.264	83.94
442.486	83.94
442.707	99.94
442.928	87.94
443.149	84.94
443.371	108.94
443.592	107.94
443.813	109.94
444.034	87.94
444.255	84.94
444.476	70.94
444.698	88.94
444.919	95.94
445.14	135.94
445.361	123.94
445.582	117.94
445.803	103.94
446.024	93.94
446.245	88.94
446.466	85.94
446.687	66.94
446.908	81.94
447.129	78.94
447.35	90.94
447.571	79.94
447.792	87.94
448.013	81.94
448.234	84.94
448.455	61.94
448.675	76.94
448.896	81.94
449.117	90.94
449.338	87.94
449.559	81.94
449.779	74.94
450	80.94
450.221	84.94
450.442	82.94
450.662	77.94
450.883	88.94
451.104	71.94
451.324	84.94
451.545	68.94
451.766	82.94
451.986	84.94
452.207	79.94
452.428	93.94
452.648	95.94
452.869	83.94
453.089	83.94
453.31	89.94
453.53	77.94
453.751	98.94
453.971	76.94
454.192	72.94
454.412	91.94
454.633	92.94
454.853	82.94
455.073	73.94
455.294	89.94
455.514	72.94
455.734	81.94
455.955	87.94
456.175	81.94
456.395	78.94
456.616	76.94
456.836	80.94
457.056	77.94
457.276	77.94
457.497	87.94
457.717	84.94
457.937	94.94
458.157	103.94
458.377	88.94
458.598	91.94
458.818	86.94
459.038	81.94
459.258	83.94
459.478	73.94
459.698	83.94
459.918	85.94
460.138	84.94
460.358	96.94
460.578	91.94
460.798	83.94
461.018	89.94
461.238	84.94
461.458	80.94
461.678	77.94
461.898	88.94
462.118	94.94
462.338	88.94
462.558	87.94
462.777	89.94
462.997	85.94
463.217	64.94
463.437	79.94
463.657	76.94
463.876	88.94
464.096	86.94
464.316	80.94
464.536	73.94
464.755	76.94
464.975	68.94
465.195	86.94
465.414	86.94
465.634	77.94
465.854	77.94
466.073	89.94
466.293	77.94
466.512	75.94
466.732	86.94
466.951	83.94
467.171	94.94
467.391	81.94
467.61	82.94
467.829	86.94
468.049	65.94
468.268	87.94
468.488	83.94
468.707	70.94
468.927	89.94
469.146	92.94
469.365	81.94
469.585	83.94
469.804	72.94
470.023	73.94
470.243	87.94
470.462	77.94
470.681	80.94
470.901	79.94
471.12	82.94
471.339	85.94
471.558	80.94
471.777	87.94
471.997	87.94
472.216	84.94
472.435	80.94
472.654	84.94
472.873	89.94
473.092	76.94
473.311	67.94
473.53	83.94
473.749	87.94
473.968	94.94
474.187	76.94
474.406	87.94
474.625	93.94
474.844	76.94
475.063	65.94
475.282	89.94
475.501	73.94
475.72	72.94
475.939	83.94
476.158	80.94
476.377	80.94
476.596	83.94
476.814	85.94
477.033	87.94
477.252	76.94
477.471	66.94
477.69	81.94
477.908	93.94
478.127	89.94
478.346	72.94
478.564	85.94
478.783	76.94
479.002	84.94
479.22	89.94
479.439	89.94
479.658	75.94
479.876	81.94
480.095	82.94
480.313	98.94
480.532	100.94
480.751	84.94
480.969	91.94
481.188	88.94
481.406	81.94
481.624	85.94
481.843	79.94
482.061	99.94
482.28	84.94
482.498	90.94
482.717	86.94
482.935	68.94
483.153	75.94
483.372	92.94
483.59	88.94
483.808	73.94
484.027	85.94
484.245	94.94
484.463	85.94
484.681	88.94
484.9	72.94
485.118	86.94
485.336	74.94
485.554	92.94
485.772	66.94
485.99	95.94
486.209	81.94
486.427	92.94
486.645	76.94
486.863	83.94
487.081	54.94
487.299	82.94
487.517	99.94
487.735	67.94
487.953	94.94
488.171	87.94
488.389	96.94
488.607	80.94
488.825	79.94
489.043	86.94
489.261	76.94
489.479	80.94
489.696	74.94
489.914	96.94
490.132	83.94
490.35	85.94
490.568	76.94
490.786	87.94
491.003	78.94
491.221	80.94
491.439	92.94
491.657	82.94
491.874	88.94
492.092	85.94
492.31	91.94
492.527	93.94
492.745	64.94
492.963	85.94
493.18	93.94
493.398	73.94
493.615	76.94
493.833	79.94
494.05	76.94
494.268	88.94
494.485	78.94
494.703	78.94
494.92	87.94
495.138	68.94
495.355	90.94
495.573	87.94
495.79	74.94
496.008	88.94
496.225	77.94
496.442	83.94
496.66	88.94
496.877	98.94
497.094	81.94
497.312	83.94
497.529	79.94
497.746	90.94
497.963	87.94
498.181	91.94
498.398	79.94
498.615	85.94
498.832	78.94
499.049	75.94
499.267	87.94
499.484	86.94
499.701	94.94
499.918	96.94
500.135	84.94
500.352	89.94
500.569	75.94
500.786	97.94
501.003	75.94
501.22	85.94
501.437	85.94
501.654	83.94
501.871	105.94
502.088	93.94
502.305	80.94
502.522	77.94
502.739	92.94
502.956	94.94
503.172	85.94
503.389	84.94
503.606	101.94
503.823	90.94
504.04	89.94
504.256	79.94
504.473	90.94
504.69	70.94
504.907	82.94
505.123	82.94
505.34	81.94
505.557	83.94
505.773	97.94
505.99	83.94
506.207	87.94
506.423	83.94
506.64	86.94
506.856	85.94
507.073	89.94
507.289	82.94
507.506	73.94
507.722	88.94
507.939	80.94
508.155	85.94
508.372	83.94
508.588	85.94
508.805	77.94
509.021	81.94
509.238	67.94
509.454	75.94
509.67	73.94
509.887	89.94
510.103	88.94
510.319	82.94
510.536	93.94
510.752	80.94
510.968	94.94
511.184	81.94
511.401	77.94
511.617	82.94
511.833	85.94
512.049	83.94
512.265	89.94
512.481	92.94
512.698	93.94
512.914	83.94
513.13	83.94
513.346	93.94
513.562	80.94
513.778	95.94
513.994	78.94
514.21	75.94
514.426	71.94
514.642	99.94
514.858	76.94
515.074	89.94
515.29	76.94
515.506	64.94
515.721	83.94
515.937	79.94
516.153	79.94
516.369	66.94
516.585	84.94
516.801	74.94
517.016	91.94
517.232	91.94
517.448	93.94
517.664	64.94
517.879	88.94
518.095	73.94
518.311	96.94
518.527	93.94
518.742	100.94
518.958	101.94
519.173	101.94
519.389	84.94
