Data from Mixheat1_HRD10591_00007.txt Node
Date: Fri Dec 27 15:06:50 EST 2024
User: Yrep
Spectrometer: HR+D1059
Trigger mode: 1
Integration Time (sec): 1.000000E-1
Scans to average: 1
Electric dark correction enabled: true
Nonlinearity correction enabled: false
Boxcar width: 0
XAxis mode: Wavelengths
Number of Pixels in Spectrum: 2048
>>>>>Begin Spectral Data<<<<<
223.165	-8
223.4	-8
223.635	-8
223.869	-21
224.104	-22
224.338	-27
224.573	-8
224.808	-24
225.042	-16
225.277	-2
225.511	-12
225.746	-1
225.98	13
226.215	15
226.449	28
226.683	24
226.918	24
227.152	37
227.387	39
227.621	43
227.856	46
228.09	45
228.324	43
228.559	48
228.793	54
229.027	57
229.262	69
229.496	69
229.73	51
229.964	79
230.199	62
230.433	59
230.667	75
230.901	92
231.136	75
231.37	72
231.604	87
231.838	83
232.072	78
232.306	75
232.541	89
232.775	95
233.009	83
233.243	75
233.477	88
233.711	83
233.945	77
234.179	98
234.413	91
234.647	74
234.881	74
235.115	76
235.349	80
235.583	73
235.817	65
236.051	69
236.285	88
236.519	76
236.753	70
236.987	74
237.221	88
237.455	73
237.689	74
237.922	75
238.156	78
238.39	69
238.624	79
238.858	68
239.091	69
239.325	73
239.559	74
239.793	70
240.027	71
240.26	83
240.494	71
240.728	70
240.961	78
241.195	85
241.429	70
241.662	71
241.896	71
242.13	74
242.363	73
242.597	70
242.83	72
243.064	79
243.298	69
243.531	66
243.765	80
243.998	81
244.232	73
244.465	71
244.699	65
244.932	64
245.166	83
245.399	80
245.633	84
245.866	79
246.099	80
246.333	72
246.566	73
246.8	71
247.033	70
247.266	77
247.5	69
247.733	80
247.966	75
248.2	75
248.433	80
248.666	79
248.899	66
249.133	63
249.366	81
249.599	65
249.832	77
250.066	73
250.299	81
250.532	86
250.765	71
250.998	83
251.231	78
251.465	76
251.698	86
251.931	75
252.164	84
252.397	74
252.63	84
252.863	76
253.096	64
253.329	87
253.562	83
253.795	79
254.028	84
254.261	79
254.494	79
254.727	81
254.96	78
255.193	79
255.426	78
255.659	73
255.892	67
256.124	68
256.357	84
256.59	71
256.823	67
257.056	81
257.289	76
257.521	76
257.754	79
257.987	80
258.22	79
258.452	68
258.685	84
258.918	84
259.151	85
259.383	83
259.616	67
259.849	86
260.081	72
260.314	82
260.547	91
260.779	83
261.012	86
261.244	78
261.477	78
261.71	72
261.942	66
262.175	87
262.407	87
262.64	79
262.872	79
263.105	81
263.337	85
263.57	80
263.802	73
264.035	80
264.267	60
264.499	66
264.732	75
264.964	75
265.197	76
265.429	79
265.661	77
265.894	85
266.126	90
266.358	88
266.591	68
266.823	87
267.055	78
267.287	77
267.52	90
267.752	83
267.984	75
268.216	80
268.448	91
268.681	92
268.913	76
269.145	80
269.377	78
269.609	84
269.841	86
270.073	78
270.306	74
270.538	77
270.77	75
271.002	76
271.234	83
271.466	86
271.698	87
271.93	79
272.162	75
272.394	79
272.626	74
272.858	81
273.09	91
273.322	85
273.553	91
273.785	87
274.017	74
274.249	93
274.481	78
274.713	82
274.945	86
275.176	97
275.408	80
275.64	79
275.872	74
276.104	81
276.335	70
276.567	79
276.799	81
277.031	73
277.262	82
277.494	75
277.726	72
277.957	76
278.189	83
278.421	70
278.652	88
278.884	81
279.115	92
279.347	75
279.579	84
279.81	70
280.042	91
280.273	93
280.505	84
280.736	78
280.968	91
281.199	79
281.431	75
281.662	85
281.894	83
282.125	93
282.356	81
282.588	74
282.819	83
283.051	76
283.282	87
283.513	94
283.745	85
283.976	73
284.207	94
284.439	85
284.67	79
284.901	85
285.132	81
285.364	92
285.595	88
285.826	89
286.057	91
286.288	77
286.52	75
286.751	77
286.982	84
287.213	82
287.444	84
287.675	91
287.906	82
288.138	95
288.369	70
288.6	90
288.831	72
289.062	77
289.293	84
289.524	73
289.755	76
289.986	91
290.217	83
290.448	80
290.679	83
290.91	85
291.141	88
291.371	79
291.602	72
291.833	72
292.064	86
292.295	79
292.526	88
292.757	87
292.987	79
293.218	73
293.449	88
293.68	80
293.91	93
294.141	87
294.372	80
294.603	81
294.833	73
295.064	75
295.295	81
295.525	81
295.756	86
295.987	107
296.217	93
296.448	88
296.679	83
296.909	85
297.14	96
297.37	86
297.601	79
297.831	80
298.062	84
298.292	89
298.523	86
298.753	86
298.984	73
299.214	86
299.445	84
299.675	88
299.905	89
300.136	99
300.366	81
300.597	86
300.827	91
301.057	87
301.288	88
301.518	87
301.748	83
301.979	102
302.209	80
302.439	68
302.669	80
302.9	81
303.13	87
303.36	79
303.59	77
303.82	92
304.051	88
304.281	77
304.511	84
304.741	84
304.971	81
305.201	79
305.431	89
305.661	94
305.891	69
306.121	92
306.352	88
306.582	90
306.812	83
307.042	65
307.272	87
307.502	76
307.731	94
307.961	83
308.191	86
308.421	77
308.651	93
308.881	85
309.111	82
309.341	78
309.571	67
309.8	75
310.03	82
310.26	87
310.49	99
310.72	71
310.949	77
311.179	83
311.409	80
311.639	92
311.868	94
312.098	75
312.328	97
312.557	78
312.787	73
313.017	90
313.246	86
313.476	84
313.706	91
313.935	70
314.165	86
314.394	89
314.624	90
314.853	84
315.083	75
315.312	83
315.542	74
315.771	87
316.001	100
316.23	90
316.46	81
316.689	95
316.919	89
317.148	88
317.377	89
317.607	92
317.836	83
318.065	86
318.295	97
318.524	87
318.753	90
318.983	67
319.212	88
319.441	85
319.67	82
319.9	89
320.129	84
320.358	76
320.587	66
320.816	90
321.046	72
321.275	93
321.504	82
321.733	65
321.962	83
322.191	81
322.42	88
322.649	86
322.878	78
323.108	75
323.337	78
323.566	90
323.795	95
324.024	89
324.253	99
324.482	78
324.71	75
324.939	101
325.168	88
325.397	72
325.626	82
325.855	84
326.084	96
326.313	92
326.542	88
326.77	85
326.999	86
327.228	75
327.457	88
327.686	81
327.914	80
328.143	98
328.372	81
328.6	101
328.829	87
329.058	78
329.287	76
329.515	93
329.744	89
329.972	91
330.201	83
330.43	83
330.658	75
330.887	80
331.115	73
331.344	89
331.572	88
331.801	85
332.03	81
332.258	94
332.486	82
332.715	92
332.943	83
333.172	83
333.4	104
333.629	87
333.857	94
334.085	86
334.314	83
334.542	75
334.771	82
334.999	83
335.227	93
335.455	88
335.684	90
335.912	87
336.14	101
336.369	80
336.597	87
336.825	105
337.053	76
337.281	103
337.51	81
337.738	81
337.966	83
338.194	85
338.422	77
338.65	77
338.878	84
339.106	70
339.334	84
339.562	82
339.79	87
340.018	80
340.246	76
340.474	86
340.702	85
340.93	91
341.158	85
341.386	70
341.614	87
341.842	94
342.07	84
342.298	96
342.526	86
342.754	76
342.981	92
343.209	83
343.437	91
343.665	88
343.893	86
344.12	83
344.348	76
344.576	77
344.804	95
345.031	94
345.259	70
345.487	73
345.714	81
345.942	86
346.17	85
346.397	84
346.625	80
346.853	95
347.08	66
347.308	89
347.535	80
347.763	92
347.99	100
348.218	105
348.445	84
348.673	81
348.9	95
349.128	81
349.355	100
349.583	80
349.81	79
350.037	80
350.265	80
350.492	77
350.72	87
350.947	81
351.174	89
351.402	86
351.629	77
351.856	82
352.083	76
352.311	95
352.538	86
352.765	92
352.992	99
353.22	83
353.447	84
353.674	82
353.901	80
354.128	81
354.355	64
354.583	87
354.81	89
355.037	88
355.264	89
355.491	81
355.718	83
355.945	75
356.172	79
356.399	77
356.626	76
356.853	68
357.08	86
357.307	83
357.534	89
357.761	87
357.988	104
358.215	93
358.441	94
358.668	76
358.895	77
359.122	73
359.349	81
359.576	87
359.802	90
360.029	86
360.256	81
360.483	78
360.709	91
360.936	88
361.163	75
361.39	96
361.616	86
361.843	84
362.07	92
362.296	96
362.523	86
362.749	88
362.976	77
363.203	87
363.429	85
363.656	92
363.882	103
364.109	80
364.335	98
364.562	96
364.788	87
365.015	88
365.241	70
365.468	81
365.694	74
365.92	77
366.147	85
366.373	81
366.599	72
366.826	77
367.052	81
367.278	91
367.505	78
367.731	110
367.957	85
368.184	79
368.41	80
368.636	80
368.862	81
369.089	94
369.315	75
369.541	70
369.767	88
369.993	93
370.219	85
370.445	98
370.672	93
370.898	75
371.124	94
371.35	72
371.576	89
371.802	79
372.028	91
372.254	83
372.48	87
372.706	77
372.932	97
373.158	86
373.384	85
373.61	85
373.835	75
374.061	93
374.287	83
374.513	79
374.739	84
374.965	75
375.191	90
375.416	88
375.642	86
375.868	85
376.094	84
376.319	83
376.545	86
376.771	78
376.997	92
377.222	71
377.448	74
377.674	76
377.899	71
378.125	75
378.35	79
378.576	82
378.802	89
379.027	93
379.253	87
379.478	94
379.704	85
379.929	77
380.155	86
380.38	84
380.606	79
380.831	87
381.057	94
381.282	79
381.507	74
381.733	84
381.958	88
382.184	80
382.409	83
382.634	74
382.86	95
383.085	89
383.31	93
383.535	88
383.761	87
383.986	89
384.211	89
384.436	89
384.662	79
384.887	87
385.112	72
385.337	74
385.562	78
385.787	91
386.013	74
386.238	88
386.463	88
386.688	97
386.913	84
387.138	88
387.363	75
387.588	78
387.813	80
388.038	83
388.263	75
388.488	69
388.713	70
388.938	78
389.163	85
389.387	74
389.612	84
389.837	63
390.062	83
390.287	94
390.512	84
390.736	87
390.961	81
391.186	85
391.411	84
391.636	104
391.86	87
392.085	79
392.31	96
392.534	90
392.759	77
392.984	108
393.208	104
393.433	115
393.658	103
393.882	92
394.107	78
394.331	96
394.556	98
394.78	89
395.005	99
395.229	86
395.454	90
395.678	85
395.903	92
396.127	96
396.352	97
396.576	102
396.801	105
397.025	99
397.249	91
397.474	93
397.698	80
397.922	78
398.147	75
398.371	76
398.595	77
398.82	94
399.044	90
399.268	74
399.492	83
399.717	90
399.941	77
400.165	83
400.389	80
400.613	85
400.837	79
401.062	69
401.286	80
401.51	81
401.734	80
401.958	68
402.182	74
402.406	102
402.63	71
402.854	80
403.078	84
403.302	75
403.526	83
403.75	74
403.974	94
404.198	79
404.422	88
404.645	96
404.869	86
405.093	92
405.317	86
405.541	89
405.765	81
405.988	86
406.212	75
406.436	74
406.66	75
406.883	64
407.107	83
407.331	78
407.555	89
407.778	89
408.002	93
408.226	73
408.449	81
408.673	90
408.896	73
409.12	90
409.344	84
409.567	80
409.791	103
410.014	83
410.238	85
410.461	85
410.685	82
410.908	80
411.132	91
411.355	85
411.578	83
411.802	71
412.025	93
412.249	77
412.472	73
412.695	82
412.919	79
413.142	75
413.365	77
413.589	95
413.812	82
414.035	83
414.258	82
414.482	70
414.705	79
414.928	85
415.151	88
415.374	83
415.597	83
415.821	92
416.044	84
416.267	71
416.49	77
416.713	76
416.936	72
417.159	76
417.382	94
417.605	84
417.828	81
418.051	86
418.274	72
418.497	80
418.72	77
418.943	65
419.166	84
419.389	80
419.611	75
419.834	71
420.057	77
420.28	95
420.503	76
420.726	83
420.948	77
421.171	70
421.394	85
421.617	79
421.839	75
422.062	84
422.285	91
422.507	124
422.73	125
422.953	134
423.175	96
423.398	86
423.621	81
423.843	86
424.066	82
424.288	84
424.511	94
424.733	81
424.956	78
425.178	89
425.401	93
425.623	84
425.846	79
426.068	89
426.291	77
426.513	74
426.735	72
426.958	73
427.18	66
427.402	85
427.625	92
427.847	92
428.069	76
428.292	83
428.514	83
428.736	85
428.958	88
429.181	93
429.403	78
429.625	93
429.847	87
430.069	99
430.292	111
430.514	105
430.736	99
430.958	91
431.18	73
431.402	82
431.624	80
431.846	96
432.068	103
432.29	81
432.512	73
432.734	80
432.956	83
433.178	81
433.4	79
433.622	74
433.844	73
434.066	91
434.287	89
434.509	61
434.731	87
434.953	76
435.175	80
435.397	88
435.618	84
435.84	77
436.062	69
436.284	79
436.505	71
436.727	75
436.949	85
437.17	81
437.392	95
437.614	76
437.835	99
438.057	94
438.278	84
438.5	78
438.721	77
438.943	72
439.165	77
439.386	91
439.608	80
439.829	84
440.05	77
440.272	80
440.493	90
440.715	75
440.936	83
441.158	89
441.379	74
441.6	80
441.822	73
442.043	62
442.264	90
442.486	94
442.707	113
442.928	91
443.149	97
443.371	107
443.592	128
443.813	103
444.034	80
444.255	77
444.476	79
444.698	79
444.919	93
445.14	146
445.361	141
445.582	132
445.803	122
446.024	96
446.245	90
446.466	97
446.687	102
446.908	93
447.129	94
447.35	83
447.571	83
447.792	87
448.013	89
448.234	90
448.455	84
448.675	70
448.896	93
449.117	85
449.338	75
449.559	83
449.779	81
450	87
450.221	71
450.442	90
450.662	92
450.883	77
451.104	66
451.324	93
451.545	81
451.766	91
451.986	80
452.207	92
452.428	80
452.648	103
452.869	75
453.089	88
453.31	72
453.53	86
453.751	85
453.971	80
454.192	78
454.412	80
454.633	83
454.853	85
455.073	73
455.294	78
455.514	94
455.734	82
455.955	83
456.175	80
456.395	73
456.616	76
456.836	92
457.056	70
457.276	77
457.497	78
457.717	94
457.937	87
458.157	88
458.377	85
458.598	80
458.818	92
459.038	72
459.258	89
459.478	94
459.698	83
459.918	72
460.138	86
460.358	77
460.578	81
460.798	95
461.018	104
461.238	83
461.458	80
461.678	77
461.898	87
462.118	77
462.338	91
462.558	90
462.777	82
462.997	83
463.217	85
463.437	76
463.657	83
463.876	91
464.096	86
464.316	84
464.536	92
464.755	95
464.975	91
465.195	80
465.414	101
465.634	86
465.854	82
466.073	72
466.293	71
466.512	81
466.732	88
466.951	88
467.171	88
467.391	85
467.61	80
467.829	80
468.049	85
468.268	87
468.488	79
468.707	83
468.927	76
469.146	80
469.365	85
469.585	90
469.804	82
470.023	72
470.243	77
470.462	89
470.681	93
470.901	76
471.12	79
471.339	80
471.558	89
471.777	85
471.997	85
472.216	83
472.435	86
472.654	91
472.873	76
473.092	75
473.311	106
473.53	79
473.749	87
473.968	75
474.187	86
474.406	78
474.625	104
474.844	91
475.063	79
475.282	78
475.501	91
475.72	88
475.939	82
476.158	86
476.377	91
476.596	95
476.814	79
477.033	86
477.252	70
477.471	86
477.69	86
477.908	93
478.127	86
478.346	91
478.564	79
478.783	94
479.002	82
479.22	85
479.439	92
479.658	82
479.876	79
480.095	73
480.313	96
480.532	98
480.751	89
480.969	88
481.188	93
481.406	99
481.624	77
481.843	85
482.061	87
482.28	85
482.498	72
482.717	86
482.935	72
483.153	76
483.372	88
483.59	80
483.808	86
484.027	95
484.245	80
484.463	76
484.681	109
484.9	85
485.118	66
485.336	80
485.554	100
485.772	74
485.99	87
486.209	103
486.427	84
486.645	77
486.863	74
487.081	85
487.299	92
487.517	89
487.735	103
487.953	90
488.171	100
488.389	95
488.607	89
488.825	89
489.043	83
489.261	96
489.479	80
489.696	88
489.914	86
490.132	100
490.35	89
490.568	88
490.786	83
491.003	76
491.221	91
491.439	82
491.657	92
491.874	84
492.092	71
492.31	90
492.527	81
492.745	88
492.963	93
493.18	95
493.398	73
493.615	83
493.833	86
494.05	92
494.268	79
494.485	80
494.703	100
494.92	80
495.138	80
495.355	87
495.573	79
495.79	94
496.008	94
496.225	90
496.442	65
496.66	93
496.877	98
497.094	100
497.312	89
497.529	91
497.746	85
497.963	92
498.181	73
498.398	93
498.615	89
498.832	75
499.049	89
499.267	81
499.484	82
499.701	84
499.918	94
500.135	80
500.352	86
500.569	82
500.786	93
501.003	81
501.22	76
501.437	71
501.654	72
501.871	92
502.088	99
502.305	89
502.522	82
502.739	76
502.956	78
503.172	88
503.389	78
503.606	75
503.823	91
504.04	87
504.256	77
504.473	92
504.69	79
504.907	93
505.123	81
505.34	86
505.557	98
505.773	95
505.99	75
506.207	79
506.423	76
506.64	77
506.856	82
507.073	81
507.289	86
507.506	75
507.722	99
507.939	84
508.155	86
508.372	92
508.588	90
508.805	91
509.021	90
509.238	78
509.454	95
509.67	95
509.887	85
510.103	77
510.319	88
510.536	102
510.752	88
510.968	78
511.184	88
511.401	84
511.617	83
511.833	101
512.049	95
512.265	102
512.481	88
512.698	73
512.914	97
513.13	87
513.346	77
513.562	87
513.778	86
513.994	88
514.21	98
514.426	76
514.642	82
514.858	90
515.074	80
515.29	93
515.506	84
515.721	85
515.937	92
516.153	87
516.369	73
516.585	76
516.801	87
517.016	90
517.232	87
517.448	88
517.664	82
517.879	78
518.095	76
518.311	88
518.527	77
518.742	76
518.958	98
519.173	96
519.389	87
519.605	104
519.82	89
520.036	94
520.251	73
520.467	88
520.682	74
520.898	93
521.113	91
521.329	83
521.544	71
521.76	95
521.975	89
522.19	87
522.406	103
522.621	73
522.836	83
523.052	90
523.267	72
523.482	87
523.698	97
523.913	81
524.128	75
524.343	74
524.559	87
524.774	85
524.989	75
525.204	73
525.419	76
525.634	87
525.849	84
526.064	92
526.28	120
526.495	134
526.71	132
526.925	104
527.14	138
527.355	121
527.57	89
527.785	87
527.999	89
528.214	92
528.429	84
528.644	73
528.859	86
529.074	80
529.289	91
529.503	78
529.718	83
529.933	89
530.148	73
530.363	86
530.577	84
530.792	86
531.007	99
531.221	94
531.436	69
531.651	83
531.865	81
532.08	77
532.295	83
532.509	97
532.724	87
532.938	92
533.153	89
533.367	73
533.582	102
533.796	91
534.011	98
534.225	89
534.44	99
534.654	97
534.868	91
535.083	111
535.297	85
535.511	84
535.726	92
535.94	79
536.154	83
536.369	83
536.583	87
536.797	89
537.011	90
537.225	96
537.44	80
537.654	93
537.868	80
538.082	78
538.296	93
538.51	94
538.724	88
538.938	87
539.153	95
539.367	81
539.581	88
539.795	89
540.009	95
540.222	89
540.436	85
540.65	85
540.864	94
541.078	83
541.292	94
541.506	94
541.72	96
541.934	100
542.147	90
542.361	95
542.575	83
542.789	91
543.002	81
543.216	89
543.43	80
543.644	89
543.857	75
544.071	91
544.285	86
544.498	85
544.712	92
544.925	106
545.139	99
545.352	77
545.566	76
545.779	79
545.993	91
546.206	81
546.42	94
546.633	88
546.847	88
547.06	90
547.274	94
547.487	107
547.7	98
547.914	93
548.127	86
548.34	81
548.554	94
548.767	94
548.98	96
549.193	99
549.407	87
549.62	101
549.833	93
550.046	96
550.259	112
550.473	98
550.686	107
550.899	113
551.112	125
551.325	125
551.538	115
551.751	112
551.964	109
552.177	116
552.39	101
552.603	111
552.816	116
553.029	111
553.242	109
553.455	132
553.667	141
553.88	125
554.093	110
554.306	122
554.519	123
554.732	126
554.944	127
555.157	117
555.37	119
555.583	126
555.795	126
556.008	115
556.221	118
556.433	100
556.646	103
556.859	98
557.071	116
557.284	108
557.496	105
557.709	92
557.921	90
558.134	98
558.346	117
558.559	105
558.771	108
558.984	147
559.196	133
559.409	120
559.621	152
559.833	127
560.046	140
560.258	129
560.47	113
560.683	100
560.895	96
561.107	84
561.32	91
561.532	89
561.744	88
561.956	84
562.168	87
562.381	85
562.593	96
562.805	100
563.017	87
563.229	91
563.441	85
563.653	84
563.865	84
564.077	89
564.289	91
564.501	82
564.713	81
564.925	89
565.137	94
565.349	88
565.561	93
565.773	93
565.985	77
566.197	87
566.408	96
566.62	87
566.832	85
567.044	76
567.255	93
567.467	84
567.679	90
567.891	99
568.102	85
568.314	103
568.526	92
568.737	91
568.949	85
569.161	86
569.372	86
569.584	94
569.795	76
570.007	93
570.218	80
570.43	87
570.641	97
570.853	93
571.064	99
571.276	92
571.487	89
571.698	82
571.91	78
572.121	79
572.333	80
572.544	81
572.755	79
572.966	80
573.178	86
573.389	73
573.6	92
573.811	89
574.023	73
574.234	91
574.445	76
574.656	84
574.867	94
575.078	83
575.289	86
575.501	89
575.712	77
575.923	85
576.134	92
576.345	91
576.556	91
576.767	96
576.978	86
577.188	85
577.399	96
577.61	80
577.821	86
578.032	88
578.243	86
578.454	95
578.665	81
578.875	90
579.086	93
579.297	104
579.508	79
579.718	88
579.929	80
580.14	72
580.35	93
580.561	94
580.772	87
580.982	84
581.193	88
581.403	80
581.614	95
581.825	89
582.035	97
582.246	91
582.456	80
582.667	89
582.877	91
583.087	89
583.298	94
583.508	89
583.719	76
583.929	93
584.139	93
584.35	86
584.56	81
584.77	85
584.981	75
585.191	84
585.401	91
585.611	90
585.821	111
586.032	104
586.242	90
586.452	85
586.662	82
586.872	100
587.082	95
587.292	95
587.502	90
587.713	109
587.923	87
588.133	84
588.343	88
588.553	81
588.762	103
588.972	103
