Data from Mixheat1_HRD10591_00008.txt Node
Date: Fri Dec 27 15:06:51 EST 2024
User: Yrep
Spectrometer: HR+D1059
Trigger mode: 1
Integration Time (sec): 1.000000E-1
Scans to average: 1
Electric dark correction enabled: true
Nonlinearity correction enabled: false
Boxcar width: 0
XAxis mode: Wavelengths
Number of Pixels in Spectrum: 2048
>>>>>Begin Spectral Data<<<<<
223.165	-17.94
223.4	-17.94
223.635	-17.94
223.869	-13.94
224.104	-24.94
224.338	-9.94
224.573	-12.94
224.808	-27.94
225.042	0.06
225.277	4.06
225.511	-7.94
225.746	0.06
225.98	12.06
226.215	7.06
226.449	4.06
226.683	25.06
226.918	23.06
227.152	40.06
227.387	27.06
227.621	26.06
227.856	38.06
228.09	66.06
228.324	53.06
228.559	56.06
228.793	60.06
229.027	59.06
229.262	66.06
229.496	64.06
229.73	61.06
229.964	77.06
230.199	78.06
230.433	73.06
230.667	84.06
230.901	76.06
231.136	79.06
231.37	84.06
231.604	76.06
231.838	92.06
232.072	77.06
232.306	86.06
232.541	74.06
232.775	76.06
233.009	87.06
233.243	90.06
233.477	70.06
233.711	99.06
233.945	76.06
234.179	74.06
234.413	71.06
234.647	71.06
234.881	87.06
235.115	77.06
235.349	85.06
235.583	101.06
235.817	73.06
236.051	86.06
236.285	80.06
236.519	72.06
236.753	84.06
236.987	76.06
237.221	75.06
237.455	76.06
237.689	85.06
237.922	73.06
238.156	77.06
238.39	74.06
238.624	71.06
238.858	73.06
239.091	72.06
239.325	75.06
239.559	77.06
239.793	68.06
240.027	84.06
240.26	74.06
240.494	74.06
240.728	59.06
240.961	83.06
241.195	71.06
241.429	71.06
241.662	72.06
241.896	80.06
242.13	80.06
242.363	74.06
242.597	79.06
242.83	71.06
243.064	70.06
243.298	73.06
243.531	90.06
243.765	82.06
243.998	71.06
244.232	82.06
244.465	70.06
244.699	80.06
244.932	76.06
245.166	76.06
245.399	74.06
245.633	77.06
245.866	72.06
246.099	78.06
246.333	63.06
246.566	79.06
246.8	76.06
247.033	75.06
247.266	85.06
247.5	84.06
247.733	72.06
247.966	78.06
248.2	93.06
248.433	69.06
248.666	89.06
248.899	87.06
249.133	87.06
249.366	81.06
249.599	77.06
249.832	83.06
250.066	85.06
250.299	81.06
250.532	85.06
250.765	78.06
250.998	81.06
251.231	67.06
251.465	81.06
251.698	68.06
251.931	87.06
252.164	63.06
252.397	69.06
252.63	65.06
252.863	69.06
253.096	84.06
253.329	73.06
253.562	75.06
253.795	86.06
254.028	86.06
254.261	85.06
254.494	75.06
254.727	73.06
254.96	77.06
255.193	79.06
255.426	64.06
255.659	86.06
255.892	75.06
256.124	82.06
256.357	76.06
256.59	74.06
256.823	68.06
257.056	93.06
257.289	75.06
257.521	76.06
257.754	74.06
257.987	79.06
258.22	83.06
258.452	81.06
258.685	76.06
258.918	62.06
259.151	92.06
259.383	83.06
259.616	66.06
259.849	79.06
260.081	78.06
260.314	78.06
260.547	75.06
260.779	72.06
261.012	80.06
261.244	77.06
261.477	72.06
261.71	75.06
261.942	78.06
262.175	77.06
262.407	81.06
262.64	78.06
262.872	92.06
263.105	58.06
263.337	76.06
263.57	78.06
263.802	76.06
264.035	74.06
264.267	78.06
264.499	71.06
264.732	77.06
264.964	76.06
265.197	87.06
265.429	73.06
265.661	62.06
265.894	96.06
266.126	91.06
266.358	83.06
266.591	73.06
266.823	94.06
267.055	92.06
267.287	84.06
267.52	79.06
267.752	73.06
267.984	84.06
268.216	74.06
268.448	62.06
268.681	76.06
268.913	81.06
269.145	86.06
269.377	75.06
269.609	80.06
269.841	66.06
270.073	88.06
270.306	86.06
270.538	74.06
270.77	83.06
271.002	93.06
271.234	76.06
271.466	102.06
271.698	81.06
271.93	72.06
272.162	102.06
272.394	92.06
272.626	70.06
272.858	104.06
273.09	82.06
273.322	94.06
273.553	84.06
273.785	79.06
274.017	73.06
274.249	84.06
274.481	91.06
274.713	77.06
274.945	96.06
275.176	85.06
275.408	89.06
275.64	81.06
275.872	82.06
276.104	84.06
276.335	60.06
276.567	85.06
276.799	77.06
277.031	90.06
277.262	81.06
277.494	70.06
277.726	75.06
277.957	88.06
278.189	99.06
278.421	84.06
278.652	88.06
278.884	78.06
279.115	86.06
279.347	95.06
279.579	78.06
279.81	86.06
280.042	91.06
280.273	88.06
280.505	81.06
280.736	84.06
280.968	78.06
281.199	91.06
281.431	83.06
281.662	89.06
281.894	91.06
282.125	75.06
282.356	74.06
282.588	86.06
282.819	87.06
283.051	87.06
283.282	76.06
283.513	87.06
283.745	89.06
283.976	88.06
284.207	81.06
284.439	84.06
284.67	89.06
284.901	92.06
285.132	93.06
285.364	80.06
285.595	94.06
285.826	85.06
286.057	70.06
286.288	82.06
286.52	82.06
286.751	75.06
286.982	78.06
287.213	67.06
287.444	80.06
287.675	80.06
287.906	87.06
288.138	82.06
288.369	87.06
288.6	74.06
288.831	78.06
289.062	93.06
289.293	84.06
289.524	90.06
289.755	86.06
289.986	64.06
290.217	70.06
290.448	85.06
290.679	76.06
290.91	75.06
291.141	84.06
291.371	80.06
291.602	98.06
291.833	70.06
292.064	78.06
292.295	83.06
292.526	88.06
292.757	83.06
292.987	80.06
293.218	80.06
293.449	74.06
293.68	85.06
293.91	81.06
294.141	86.06
294.372	77.06
294.603	93.06
294.833	89.06
295.064	87.06
295.295	87.06
295.525	78.06
295.756	88.06
295.987	87.06
296.217	68.06
296.448	89.06
296.679	87.06
296.909	77.06
297.14	84.06
297.37	80.06
297.601	81.06
297.831	79.06
298.062	88.06
298.292	81.06
298.523	82.06
298.753	72.06
298.984	64.06
299.214	100.06
299.445	87.06
299.675	77.06
299.905	77.06
300.136	83.06
300.366	83.06
300.597	92.06
300.827	83.06
301.057	82.06
301.288	75.06
301.518	72.06
301.748	88.06
301.979	108.06
302.209	86.06
302.439	80.06
302.669	94.06
302.9	87.06
303.13	89.06
303.36	75.06
303.59	77.06
303.82	88.06
304.051	70.06
304.281	82.06
304.511	90.06
304.741	81.06
304.971	92.06
305.201	88.06
305.431	71.06
305.661	86.06
305.891	107.06
306.121	95.06
306.352	93.06
306.582	85.06
306.812	81.06
307.042	81.06
307.272	89.06
307.502	75.06
307.731	86.06
307.961	87.06
308.191	79.06
308.421	81.06
308.651	83.06
308.881	87.06
309.111	95.06
309.341	82.06
309.571	84.06
309.8	87.06
310.03	71.06
310.26	71.06
310.49	86.06
310.72	73.06
310.949	85.06
311.179	81.06
311.409	83.06
311.639	74.06
311.868	85.06
312.098	85.06
312.328	75.06
312.557	94.06
312.787	71.06
313.017	77.06
313.246	93.06
313.476	86.06
313.706	77.06
313.935	87.06
314.165	79.06
314.394	82.06
314.624	83.06
314.853	84.06
315.083	90.06
315.312	86.06
315.542	86.06
315.771	93.06
316.001	80.06
316.23	93.06
316.46	99.06
316.689	80.06
316.919	79.06
317.148	84.06
317.377	81.06
317.607	95.06
317.836	88.06
318.065	88.06
318.295	85.06
318.524	83.06
318.753	87.06
318.983	74.06
319.212	79.06
319.441	67.06
319.67	65.06
319.9	99.06
320.129	79.06
320.358	87.06
320.587	81.06
320.816	79.06
321.046	84.06
321.275	80.06
321.504	82.06
321.733	90.06
321.962	102.06
322.191	78.06
322.42	73.06
322.649	74.06
322.878	87.06
323.108	83.06
323.337	83.06
323.566	74.06
323.795	86.06
324.024	87.06
324.253	74.06
324.482	76.06
324.71	79.06
324.939	72.06
325.168	81.06
325.397	83.06
325.626	72.06
325.855	82.06
326.084	86.06
326.313	91.06
326.542	88.06
326.77	90.06
326.999	73.06
327.228	89.06
327.457	103.06
327.686	71.06
327.914	76.06
328.143	82.06
328.372	83.06
328.6	88.06
328.829	94.06
329.058	84.06
329.287	85.06
329.515	78.06
329.744	93.06
329.972	87.06
330.201	88.06
330.43	75.06
330.658	93.06
330.887	78.06
331.115	88.06
331.344	82.06
331.572	82.06
331.801	86.06
332.03	83.06
332.258	92.06
332.486	85.06
332.715	83.06
332.943	75.06
333.172	99.06
333.4	74.06
333.629	91.06
333.857	89.06
334.085	87.06
334.314	92.06
334.542	88.06
334.771	88.06
334.999	93.06
335.227	86.06
335.455	90.06
335.684	88.06
335.912	96.06
336.14	95.06
336.369	72.06
336.597	88.06
336.825	79.06
337.053	79.06
337.281	79.06
337.51	63.06
337.738	87.06
337.966	86.06
338.194	55.06
338.422	71.06
338.65	83.06
338.878	109.06
339.106	81.06
339.334	74.06
339.562	87.06
339.79	91.06
340.018	81.06
340.246	75.06
340.474	87.06
340.702	79.06
340.93	73.06
341.158	71.06
341.386	65.06
341.614	85.06
341.842	87.06
342.07	82.06
342.298	70.06
342.526	96.06
342.754	87.06
342.981	87.06
343.209	79.06
343.437	94.06
343.665	84.06
343.893	85.06
344.12	96.06
344.348	94.06
344.576	73.06
344.804	102.06
345.031	89.06
345.259	88.06
345.487	88.06
345.714	84.06
345.942	91.06
346.17	84.06
346.397	74.06
346.625	94.06
346.853	85.06
347.08	70.06
347.308	83.06
347.535	85.06
347.763	86.06
347.99	87.06
348.218	79.06
348.445	82.06
348.673	65.06
348.9	89.06
349.128	87.06
349.355	94.06
349.583	94.06
349.81	83.06
350.037	84.06
350.265	76.06
350.492	82.06
350.72	88.06
350.947	79.06
351.174	78.06
351.402	89.06
351.629	88.06
351.856	77.06
352.083	76.06
352.311	99.06
352.538	84.06
352.765	94.06
352.992	92.06
353.22	83.06
353.447	91.06
353.674	94.06
353.901	78.06
354.128	91.06
354.355	86.06
354.583	83.06
354.81	90.06
355.037	83.06
355.264	88.06
355.491	78.06
355.718	88.06
355.945	90.06
356.172	69.06
356.399	86.06
356.626	83.06
356.853	73.06
357.08	86.06
357.307	79.06
357.534	87.06
357.761	98.06
357.988	72.06
358.215	87.06
358.441	86.06
358.668	72.06
358.895	85.06
359.122	88.06
359.349	83.06
359.576	74.06
359.802	95.06
360.029	74.06
360.256	89.06
360.483	88.06
360.709	67.06
360.936	82.06
361.163	86.06
361.39	87.06
361.616	96.06
361.843	87.06
362.07	79.06
362.296	77.06
362.523	89.06
362.749	90.06
362.976	91.06
363.203	90.06
363.429	93.06
363.656	78.06
363.882	79.06
364.109	90.06
364.335	84.06
364.562	91.06
364.788	70.06
365.015	91.06
365.241	75.06
365.468	76.06
365.694	80.06
365.92	89.06
366.147	95.06
366.373	93.06
366.599	75.06
366.826	78.06
367.052	86.06
367.278	81.06
367.505	76.06
367.731	75.06
367.957	76.06
368.184	74.06
368.41	88.06
368.636	84.06
368.862	77.06
369.089	86.06
369.315	77.06
369.541	93.06
369.767	89.06
369.993	81.06
370.219	81.06
370.445	86.06
370.672	85.06
370.898	76.06
371.124	83.06
371.35	72.06
371.576	82.06
371.802	69.06
372.028	74.06
372.254	91.06
372.48	70.06
372.706	72.06
372.932	71.06
373.158	78.06
373.384	76.06
373.61	83.06
373.835	96.06
374.061	74.06
374.287	89.06
374.513	83.06
374.739	79.06
374.965	72.06
375.191	72.06
375.416	77.06
375.642	90.06
375.868	90.06
376.094	84.06
376.319	86.06
376.545	97.06
376.771	83.06
376.997	82.06
377.222	86.06
377.448	87.06
377.674	82.06
377.899	86.06
378.125	85.06
378.35	82.06
378.576	85.06
378.802	80.06
379.027	89.06
379.253	83.06
379.478	79.06
379.704	78.06
379.929	78.06
380.155	78.06
380.38	97.06
380.606	70.06
380.831	82.06
381.057	88.06
381.282	83.06
381.507	88.06
381.733	90.06
381.958	85.06
382.184	80.06
382.409	87.06
382.634	76.06
382.86	83.06
383.085	80.06
383.31	82.06
383.535	95.06
383.761	101.06
383.986	83.06
384.211	79.06
384.436	72.06
384.662	76.06
384.887	82.06
385.112	71.06
385.337	95.06
385.562	84.06
385.787	82.06
386.013	90.06
386.238	69.06
386.463	78.06
386.688	93.06
386.913	91.06
387.138	78.06
387.363	81.06
387.588	72.06
387.813	79.06
388.038	87.06
388.263	78.06
388.488	77.06
388.713	79.06
388.938	64.06
389.163	73.06
389.387	88.06
389.612	74.06
389.837	74.06
390.062	92.06
390.287	79.06
390.512	90.06
390.736	82.06
390.961	74.06
391.186	89.06
391.411	88.06
391.636	89.06
391.86	83.06
392.085	102.06
392.31	78.06
392.534	88.06
392.759	90.06
392.984	89.06
393.208	111.06
393.433	118.06
393.658	103.06
393.882	73.06
394.107	96.06
394.331	81.06
394.556	89.06
394.78	109.06
395.005	70.06
395.229	75.06
395.454	87.06
395.678	78.06
395.903	91.06
396.127	84.06
396.352	92.06
396.576	91.06
396.801	108.06
397.025	102.06
397.249	93.06
397.474	91.06
397.698	79.06
397.922	82.06
398.147	84.06
398.371	86.06
398.595	93.06
398.82	76.06
399.044	70.06
399.268	87.06
399.492	87.06
399.717	84.06
399.941	78.06
400.165	88.06
400.389	80.06
400.613	79.06
400.837	100.06
401.062	76.06
401.286	85.06
401.51	86.06
401.734	88.06
401.958	92.06
402.182	86.06
402.406	78.06
402.63	82.06
402.854	69.06
403.078	84.06
403.302	80.06
403.526	81.06
403.75	87.06
403.974	91.06
404.198	98.06
404.422	110.06
404.645	103.06
404.869	101.06
405.093	88.06
405.317	75.06
405.541	82.06
405.765	85.06
405.988	84.06
406.212	75.06
406.436	82.06
406.66	89.06
406.883	91.06
407.107	87.06
407.331	75.06
407.555	92.06
407.778	86.06
408.002	83.06
408.226	83.06
408.449	88.06
408.673	80.06
408.896	85.06
409.12	78.06
409.344	87.06
409.567	78.06
409.791	88.06
410.014	81.06
410.238	73.06
410.461	83.06
410.685	70.06
410.908	79.06
411.132	103.06
411.355	80.06
411.578	68.06
411.802	90.06
412.025	74.06
412.249	85.06
412.472	78.06
412.695	83.06
412.919	91.06
413.142	86.06
413.365	71.06
413.589	75.06
413.812	84.06
414.035	71.06
414.258	83.06
414.482	79.06
414.705	75.06
414.928	83.06
415.151	90.06
415.374	93.06
415.597	87.06
415.821	82.06
416.044	75.06
416.267	78.06
416.49	90.06
416.713	99.06
416.936	81.06
417.159	80.06
417.382	81.06
417.605	83.06
417.828	72.06
418.051	72.06
418.274	98.06
418.497	86.06
418.72	78.06
418.943	86.06
419.166	68.06
419.389	92.06
419.611	78.06
419.834	64.06
420.057	100.06
420.28	98.06
420.503	86.06
420.726	72.06
420.948	77.06
421.171	89.06
421.394	96.06
421.617	84.06
421.839	76.06
422.062	94.06
422.285	108.06
422.507	123.06
422.73	142.06
422.953	130.06
423.175	116.06
423.398	89.06
423.621	86.06
423.843	79.06
424.066	99.06
424.288	73.06
424.511	88.06
424.733	80.06
424.956	86.06
425.178	72.06
425.401	78.06
425.623	80.06
425.846	78.06
426.068	86.06
426.291	87.06
426.513	70.06
426.735	80.06
426.958	76.06
427.18	73.06
427.402	74.06
427.625	77.06
427.847	77.06
428.069	79.06
428.292	94.06
428.514	78.06
428.736	91.06
428.958	87.06
429.181	93.06
429.403	82.06
429.625	73.06
429.847	101.06
430.069	102.06
430.292	109.06
430.514	110.06
430.736	101.06
430.958	93.06
431.18	81.06
431.402	76.06
431.624	85.06
431.846	98.06
432.068	98.06
432.29	94.06
432.512	78.06
432.734	86.06
432.956	78.06
433.178	83.06
433.4	96.06
433.622	90.06
433.844	83.06
434.066	81.06
434.287	87.06
434.509	69.06
434.731	104.06
434.953	81.06
435.175	74.06
435.397	95.06
435.618	93.06
435.84	90.06
436.062	95.06
436.284	91.06
436.505	88.06
436.727	76.06
436.949	83.06
437.17	88.06
437.392	73.06
437.614	81.06
437.835	84.06
438.057	88.06
438.278	73.06
438.5	86.06
438.721	93.06
438.943	92.06
439.165	76.06
439.386	64.06
439.608	80.06
439.829	71.06
440.05	79.06
440.272	75.06
440.493	79.06
440.715	80.06
440.936	89.06
441.158	87.06
441.379	84.06
441.6	87.06
441.822	84.06
442.043	86.06
442.264	72.06
442.486	100.06
442.707	106.06
442.928	94.06
443.149	84.06
443.371	94.06
443.592	123.06
443.813	103.06
444.034	88.06
444.255	85.06
444.476	85.06
444.698	105.06
444.919	85.06
445.14	134.06
445.361	133.06
445.582	134.06
445.803	118.06
446.024	91.06
446.245	88.06
446.466	70.06
446.687	84.06
446.908	84.06
447.129	85.06
447.35	79.06
447.571	93.06
447.792	82.06
448.013	84.06
448.234	74.06
448.455	83.06
448.675	72.06
448.896	82.06
449.117	82.06
449.338	81.06
449.559	77.06
449.779	89.06
450	74.06
450.221	83.06
450.442	64.06
450.662	73.06
450.883	77.06
451.104	80.06
451.324	79.06
451.545	85.06
451.766	80.06
451.986	87.06
452.207	80.06
452.428	84.06
452.648	78.06
452.869	81.06
453.089	94.06
453.31	95.06
453.53	71.06
453.751	82.06
453.971	73.06
454.192	72.06
454.412	91.06
454.633	82.06
454.853	73.06
455.073	69.06
455.294	90.06
455.514	87.06
455.734	76.06
455.955	84.06
456.175	76.06
456.395	87.06
456.616	85.06
456.836	110.06
457.056	72.06
457.276	69.06
457.497	77.06
457.717	71.06
457.937	83.06
458.157	94.06
458.377	94.06
458.598	70.06
458.818	90.06
459.038	90.06
459.258	87.06
459.478	104.06
459.698	89.06
459.918	72.06
460.138	84.06
460.358	86.06
460.578	79.06
460.798	96.06
461.018	92.06
461.238	92.06
461.458	79.06
461.678	78.06
461.898	80.06
462.118	84.06
462.338	84.06
462.558	78.06
462.777	83.06
462.997	63.06
463.217	74.06
463.437	77.06
463.657	82.06
463.876	68.06
464.096	86.06
464.316	76.06
464.536	88.06
464.755	81.06
464.975	73.06
465.195	95.06
465.414	82.06
465.634	80.06
465.854	80.06
466.073	86.06
466.293	74.06
466.512	81.06
466.732	75.06
466.951	70.06
467.171	84.06
467.391	76.06
467.61	65.06
467.829	75.06
468.049	86.06
468.268	93.06
468.488	79.06
468.707	78.06
468.927	87.06
469.146	81.06
469.365	100.06
469.585	94.06
469.804	82.06
470.023	76.06
470.243	64.06
470.462	89.06
470.681	82.06
470.901	79.06
471.12	76.06
471.339	71.06
471.558	87.06
471.777	69.06
471.997	91.06
472.216	84.06
472.435	78.06
472.654	79.06
472.873	82.06
473.092	91.06
473.311	77.06
473.53	73.06
473.749	80.06
473.968	83.06
474.187	76.06
474.406	82.06
474.625	89.06
474.844	89.06
475.063	81.06
475.282	86.06
475.501	87.06
475.72	90.06
475.939	71.06
476.158	92.06
476.377	93.06
476.596	80.06
476.814	74.06
477.033	109.06
477.252	73.06
477.471	74.06
477.69	75.06
477.908	88.06
478.127	87.06
478.346	72.06
478.564	96.06
478.783	77.06
479.002	84.06
479.22	69.06
479.439	72.06
479.658	68.06
479.876	83.06
480.095	86.06
480.313	67.06
480.532	88.06
480.751	87.06
480.969	73.06
481.188	83.06
481.406	80.06
481.624	85.06
481.843	80.06
482.061	91.06
482.28	98.06
482.498	82.06
482.717	92.06
482.935	78.06
483.153	89.06
483.372	83.06
483.59	90.06
483.808	83.06
484.027	80.06
484.245	95.06
484.463	82.06
484.681	90.06
484.9	68.06
485.118	86.06
485.336	91.06
485.554	86.06
485.772	74.06
485.99	77.06
486.209	80.06
486.427	82.06
486.645	80.06
486.863	85.06
487.081	84.06
487.299	85.06
487.517	90.06
487.735	91.06
487.953	93.06
488.171	99.06
488.389	83.06
488.607	83.06
488.825	87.06
489.043	87.06
489.261	83.06
489.479	74.06
489.696	85.06
489.914	80.06
490.132	88.06
490.35	77.06
490.568	82.06
490.786	85.06
491.003	90.06
491.221	72.06
491.439	85.06
491.657	87.06
491.874	82.06
492.092	77.06
492.31	88.06
492.527	72.06
492.745	71.06
492.963	88.06
493.18	77.06
493.398	80.06
493.615	86.06
493.833	71.06
494.05	78.06
494.268	83.06
494.485	94.06
494.703	69.06
494.92	91.06
495.138	95.06
495.355	77.06
495.573	93.06
495.79	84.06
496.008	90.06
496.225	78.06
496.442	84.06
496.66	82.06
496.877	94.06
497.094	95.06
497.312	72.06
497.529	91.06
497.746	83.06
497.963	77.06
498.181	82.06
498.398	87.06
498.615	77.06
498.832	89.06
499.049	91.06
499.267	93.06
499.484	95.06
499.701	76.06
499.918	100.06
500.135	90.06
500.352	89.06
500.569	95.06
500.786	82.06
501.003	74.06
501.22	83.06
501.437	91.06
501.654	92.06
501.871	88.06
502.088	91.06
502.305	80.06
502.522	85.06
502.739	83.06
502.956	70.06
503.172	87.06
503.389	84.06
503.606	91.06
503.823	84.06
504.04	87.06
504.256	99.06
504.473	85.06
504.69	82.06
504.907	92.06
505.123	83.06
505.34	96.06
505.557	75.06
505.773	79.06
505.99	81.06
506.207	82.06
506.423	77.06
506.64	76.06
506.856	86.06
507.073	74.06
507.289	88.06
507.506	83.06
507.722	78.06
507.939	87.06
508.155	78.06
508.372	82.06
508.588	77.06
508.805	78.06
509.021	78.06
509.238	73.06
509.454	78.06
509.67	76.06
509.887	80.06
510.103	87.06
510.319	73.06
510.536	90.06
510.752	77.06
510.968	76.06
511.184	91.06
511.401	85.06
511.617	98.06
511.833	84.06
512.049	93.06
512.265	88.06
512.481	76.06
512.698	85.06
512.914	74.06
513.13	79.06
513.346	77.06
513.562	76.06
513.778	75.06
513.994	94.06
514.21	83.06
514.426	83.06
514.642	86.06
514.858	82.06
515.074	76.06
515.29	89.06
515.506	84.06
515.721	68.06
515.937	74.06
516.153	85.06
516.369	75.06
516.585	84.06
516.801	93.06
517.016	81.06
517.232	72.06
517.448	86.06
517.664	82.06
517.879	73.06
518.095	84.06
518.311	83.06
518.527	100.06
518.742	84.06
518.958	100.06
519.173	86.06
519.389	83.06
519.605	83.06
