Data from Mixheat1_HRD10591_00014.txt Node
Date: Fri Dec 27 15:06:57 EST 2024
User: Yrep
Spectrometer: HR+D1059
Trigger mode: 1
Integration Time (sec): 1.000000E-1
Scans to average: 1
Electric dark correction enabled: true
Nonlinearity correction enabled: false
Boxcar width: 0
XAxis mode: Wavelengths
Number of Pixels in Spectrum: 2048
>>>>>Begin Spectral Data<<<<<
223.165	-2.5
223.4	-2.5
223.635	-2.5
223.869	-18.5
224.104	-30.5
224.338	-7.5
224.573	-19.5
224.808	-4.5
225.042	0.5
225.277	0.5
225.511	-1.5
225.746	-3.5
225.98	-3.5
226.215	12.5
226.449	14.5
226.683	16.5
226.918	27.5
227.152	19.5
227.387	34.5
227.621	49.5
227.856	40.5
228.09	52.5
228.324	48.5
228.559	71.5
228.793	67.5
229.027	56.5
229.262	67.5
229.496	68.5
229.73	56.5
229.964	51.5
230.199	70.5
230.433	68.5
230.667	71.5
230.901	71.5
231.136	82.5
231.37	90.5
231.604	81.5
231.838	79.5
232.072	80.5
232.306	76.5
232.541	81.5
232.775	66.5
233.009	85.5
233.243	75.5
233.477	71.5
233.711	84.5
233.945	77.5
234.179	76.5
234.413	88.5
234.647	72.5
234.881	77.5
235.115	74.5
235.349	66.5
235.583	72.5
235.817	80.5
236.051	88.5
236.285	81.5
236.519	84.5
236.753	80.5
236.987	78.5
237.221	75.5
237.455	72.5
237.689	60.5
237.922	80.5
238.156	79.5
238.39	79.5
238.624	69.5
238.858	89.5
239.091	66.5
239.325	81.5
239.559	70.5
239.793	80.5
240.027	75.5
240.26	77.5
240.494	87.5
240.728	80.5
240.961	66.5
241.195	81.5
241.429	85.5
241.662	72.5
241.896	82.5
242.13	78.5
242.363	78.5
242.597	78.5
242.83	67.5
243.064	81.5
243.298	78.5
243.531	74.5
243.765	76.5
243.998	70.5
244.232	68.5
244.465	82.5
244.699	79.5
244.932	75.5
245.166	85.5
245.399	81.5
245.633	71.5
245.866	82.5
246.099	59.5
246.333	65.5
246.566	64.5
246.8	72.5
247.033	69.5
247.266	86.5
247.5	81.5
247.733	68.5
247.966	89.5
248.2	74.5
248.433	70.5
248.666	74.5
248.899	90.5
249.133	82.5
249.366	77.5
249.599	77.5
249.832	73.5
250.066	87.5
250.299	75.5
250.532	96.5
250.765	79.5
250.998	85.5
251.231	71.5
251.465	67.5
251.698	86.5
251.931	71.5
252.164	79.5
252.397	85.5
252.63	79.5
252.863	77.5
253.096	74.5
253.329	74.5
253.562	87.5
253.795	83.5
254.028	94.5
254.261	74.5
254.494	75.5
254.727	85.5
254.96	77.5
255.193	73.5
255.426	63.5
255.659	68.5
255.892	62.5
256.124	82.5
256.357	83.5
256.59	67.5
256.823	75.5
257.056	82.5
257.289	87.5
257.521	90.5
257.754	80.5
257.987	79.5
258.22	81.5
258.452	89.5
258.685	90.5
258.918	81.5
259.151	80.5
259.383	83.5
259.616	79.5
259.849	84.5
260.081	81.5
260.314	78.5
260.547	81.5
260.779	69.5
261.012	65.5
261.244	87.5
261.477	88.5
261.71	76.5
261.942	69.5
262.175	67.5
262.407	69.5
262.64	72.5
262.872	72.5
263.105	95.5
263.337	90.5
263.57	93.5
263.802	97.5
264.035	81.5
264.267	86.5
264.499	84.5
264.732	81.5
264.964	78.5
265.197	71.5
265.429	81.5
265.661	80.5
265.894	73.5
266.126	73.5
266.358	89.5
266.591	80.5
266.823	75.5
267.055	82.5
267.287	79.5
267.52	73.5
267.752	98.5
267.984	83.5
268.216	69.5
268.448	100.5
268.681	90.5
268.913	81.5
269.145	83.5
269.377	85.5
269.609	88.5
269.841	92.5
270.073	78.5
270.306	85.5
270.538	77.5
270.77	78.5
271.002	82.5
271.234	84.5
271.466	80.5
271.698	77.5
271.93	85.5
272.162	80.5
272.394	94.5
272.626	76.5
272.858	74.5
273.09	69.5
273.322	72.5
273.553	78.5
273.785	70.5
274.017	79.5
274.249	81.5
274.481	84.5
274.713	86.5
274.945	84.5
275.176	77.5
275.408	85.5
275.64	88.5
275.872	80.5
276.104	86.5
276.335	92.5
276.567	78.5
276.799	81.5
277.031	85.5
277.262	85.5
277.494	92.5
277.726	105.5
277.957	100.5
278.189	71.5
278.421	91.5
278.652	90.5
278.884	78.5
279.115	86.5
279.347	90.5
279.579	78.5
279.81	81.5
280.042	71.5
280.273	93.5
280.505	87.5
280.736	74.5
280.968	74.5
281.199	92.5
281.431	87.5
281.662	85.5
281.894	98.5
282.125	73.5
282.356	72.5
282.588	78.5
282.819	90.5
283.051	80.5
283.282	69.5
283.513	96.5
283.745	76.5
283.976	85.5
284.207	82.5
284.439	93.5
284.67	85.5
284.901	81.5
285.132	86.5
285.364	85.5
285.595	77.5
285.826	83.5
286.057	77.5
286.288	81.5
286.52	77.5
286.751	88.5
286.982	66.5
287.213	66.5
287.444	81.5
287.675	85.5
287.906	92.5
288.138	73.5
288.369	92.5
288.6	71.5
288.831	80.5
289.062	95.5
289.293	80.5
289.524	71.5
289.755	89.5
289.986	82.5
290.217	83.5
290.448	72.5
290.679	88.5
290.91	90.5
291.141	78.5
291.371	76.5
291.602	77.5
291.833	84.5
292.064	86.5
292.295	97.5
292.526	93.5
292.757	82.5
292.987	81.5
293.218	87.5
293.449	94.5
293.68	89.5
293.91	89.5
294.141	88.5
294.372	83.5
294.603	84.5
294.833	81.5
295.064	86.5
295.295	90.5
295.525	85.5
295.756	78.5
295.987	96.5
296.217	84.5
296.448	95.5
296.679	88.5
296.909	92.5
297.14	66.5
297.37	89.5
297.601	86.5
297.831	78.5
298.062	83.5
298.292	86.5
298.523	89.5
298.753	90.5
298.984	89.5
299.214	75.5
299.445	84.5
299.675	82.5
299.905	86.5
300.136	89.5
300.366	80.5
300.597	84.5
300.827	78.5
301.057	90.5
301.288	73.5
301.518	85.5
301.748	70.5
301.979	104.5
302.209	96.5
302.439	84.5
302.669	86.5
302.9	93.5
303.13	80.5
303.36	94.5
303.59	70.5
303.82	81.5
304.051	88.5
304.281	79.5
304.511	82.5
304.741	86.5
304.971	90.5
305.201	82.5
305.431	87.5
305.661	89.5
305.891	81.5
306.121	93.5
306.352	84.5
306.582	73.5
306.812	81.5
307.042	85.5
307.272	94.5
307.502	91.5
307.731	81.5
307.961	86.5
308.191	85.5
308.421	71.5
308.651	83.5
308.881	89.5
309.111	88.5
309.341	84.5
309.571	88.5
309.8	88.5
310.03	82.5
310.26	72.5
310.49	100.5
310.72	87.5
310.949	80.5
311.179	87.5
311.409	85.5
311.639	84.5
311.868	83.5
312.098	90.5
312.328	96.5
312.557	91.5
312.787	76.5
313.017	94.5
313.246	89.5
313.476	73.5
313.706	92.5
313.935	72.5
314.165	75.5
314.394	95.5
314.624	84.5
314.853	86.5
315.083	82.5
315.312	74.5
315.542	81.5
315.771	78.5
316.001	77.5
316.23	87.5
316.46	83.5
316.689	91.5
316.919	90.5
317.148	78.5
317.377	85.5
317.607	89.5
317.836	94.5
318.065	86.5
318.295	89.5
318.524	70.5
318.753	87.5
318.983	86.5
319.212	78.5
319.441	76.5
319.67	95.5
319.9	87.5
320.129	84.5
320.358	95.5
320.587	87.5
320.816	87.5
321.046	76.5
321.275	90.5
321.504	87.5
321.733	81.5
321.962	94.5
322.191	92.5
322.42	92.5
322.649	78.5
322.878	80.5
323.108	97.5
323.337	85.5
323.566	92.5
323.795	90.5
324.024	91.5
324.253	96.5
324.482	90.5
324.71	94.5
324.939	93.5
325.168	91.5
325.397	96.5
325.626	77.5
325.855	92.5
326.084	84.5
326.313	88.5
326.542	80.5
326.77	94.5
326.999	73.5
327.228	85.5
327.457	85.5
327.686	93.5
327.914	94.5
328.143	85.5
328.372	93.5
328.6	84.5
328.829	86.5
329.058	80.5
329.287	92.5
329.515	96.5
329.744	91.5
329.972	86.5
330.201	76.5
330.43	77.5
330.658	85.5
330.887	76.5
331.115	100.5
331.344	94.5
331.572	90.5
331.801	93.5
332.03	87.5
332.258	82.5
332.486	95.5
332.715	71.5
332.943	77.5
333.172	86.5
333.4	89.5
333.629	90.5
333.857	84.5
334.085	83.5
334.314	81.5
334.542	92.5
334.771	84.5
334.999	70.5
335.227	78.5
335.455	87.5
335.684	91.5
335.912	77.5
336.14	83.5
336.369	82.5
336.597	82.5
336.825	92.5
337.053	87.5
337.281	85.5
337.51	89.5
337.738	86.5
337.966	85.5
338.194	92.5
338.422	94.5
338.65	89.5
338.878	89.5
339.106	70.5
339.334	81.5
339.562	81.5
339.79	78.5
340.018	79.5
340.246	80.5
340.474	94.5
340.702	81.5
340.93	92.5
341.158	64.5
341.386	84.5
341.614	77.5
341.842	82.5
342.07	96.5
342.298	86.5
342.526	87.5
342.754	81.5
342.981	83.5
343.209	88.5
343.437	97.5
343.665	91.5
343.893	94.5
344.12	84.5
344.348	101.5
344.576	91.5
344.804	90.5
345.031	71.5
345.259	68.5
345.487	71.5
345.714	86.5
345.942	85.5
346.17	86.5
346.397	77.5
346.625	86.5
346.853	80.5
347.08	75.5
347.308	91.5
347.535	88.5
347.763	73.5
347.99	95.5
348.218	83.5
348.445	82.5
348.673	97.5
348.9	88.5
349.128	85.5
349.355	94.5
349.583	97.5
349.81	85.5
350.037	81.5
350.265	92.5
350.492	86.5
350.72	97.5
350.947	83.5
351.174	81.5
351.402	75.5
351.629	87.5
351.856	95.5
352.083	87.5
352.311	87.5
352.538	81.5
352.765	85.5
352.992	98.5
353.22	79.5
353.447	96.5
353.674	86.5
353.901	79.5
354.128	92.5
354.355	87.5
354.583	89.5
354.81	79.5
355.037	90.5
355.264	81.5
355.491	93.5
355.718	82.5
355.945	88.5
356.172	90.5
356.399	87.5
356.626	81.5
356.853	73.5
357.08	89.5
357.307	92.5
357.534	80.5
357.761	83.5
357.988	100.5
358.215	86.5
358.441	83.5
358.668	75.5
358.895	89.5
359.122	85.5
359.349	96.5
359.576	82.5
359.802	85.5
360.029	95.5
360.256	77.5
360.483	85.5
360.709	82.5
360.936	96.5
361.163	94.5
361.39	75.5
361.616	93.5
361.843	77.5
362.07	79.5
362.296	84.5
362.523	95.5
362.749	78.5
362.976	85.5
363.203	91.5
363.429	86.5
363.656	83.5
363.882	89.5
364.109	102.5
364.335	94.5
364.562	84.5
364.788	90.5
365.015	77.5
365.241	84.5
365.468	74.5
365.694	75.5
365.92	80.5
366.147	81.5
366.373	79.5
366.599	87.5
366.826	94.5
367.052	88.5
367.278	70.5
367.505	98.5
367.731	88.5
367.957	85.5
368.184	82.5
368.41	77.5
368.636	80.5
368.862	81.5
369.089	80.5
369.315	79.5
369.541	76.5
369.767	64.5
369.993	96.5
370.219	95.5
370.445	80.5
370.672	76.5
370.898	77.5
371.124	86.5
371.35	85.5
371.576	85.5
371.802	74.5
372.028	71.5
372.254	80.5
372.48	88.5
372.706	89.5
372.932	83.5
373.158	86.5
373.384	89.5
373.61	84.5
373.835	85.5
374.061	83.5
374.287	78.5
374.513	76.5
374.739	90.5
374.965	97.5
375.191	99.5
375.416	83.5
375.642	89.5
375.868	92.5
376.094	94.5
376.319	87.5
376.545	84.5
376.771	80.5
376.997	79.5
377.222	74.5
377.448	86.5
377.674	91.5
377.899	94.5
378.125	84.5
378.35	83.5
378.576	87.5
378.802	82.5
379.027	75.5
379.253	85.5
379.478	81.5
379.704	86.5
379.929	76.5
380.155	81.5
380.38	79.5
380.606	78.5
380.831	83.5
381.057	96.5
381.282	84.5
381.507	90.5
381.733	102.5
381.958	86.5
382.184	73.5
382.409	79.5
382.634	105.5
382.86	89.5
383.085	83.5
383.31	85.5
383.535	87.5
383.761	90.5
383.986	86.5
384.211	94.5
384.436	93.5
384.662	81.5
384.887	84.5
385.112	82.5
385.337	82.5
385.562	82.5
385.787	83.5
386.013	84.5
386.238	85.5
386.463	83.5
386.688	110.5
386.913	94.5
387.138	87.5
387.363	86.5
387.588	97.5
387.813	85.5
388.038	83.5
388.263	89.5
388.488	76.5
388.713	81.5
388.938	101.5
389.163	80.5
389.387	101.5
389.612	89.5
389.837	100.5
390.062	90.5
390.287	91.5
390.512	82.5
390.736	94.5
390.961	96.5
391.186	74.5
391.411	71.5
391.636	87.5
391.86	93.5
392.085	93.5
392.31	92.5
392.534	80.5
392.759	89.5
392.984	102.5
393.208	114.5
393.433	125.5
393.658	118.5
393.882	82.5
394.107	89.5
394.331	104.5
394.556	85.5
394.78	82.5
395.005	90.5
395.229	93.5
395.454	85.5
395.678	88.5
395.903	94.5
396.127	84.5
396.352	111.5
396.576	92.5
396.801	102.5
397.025	104.5
397.249	102.5
397.474	97.5
397.698	97.5
397.922	73.5
398.147	78.5
398.371	78.5
398.595	84.5
398.82	78.5
399.044	98.5
399.268	82.5
399.492	72.5
399.717	76.5
399.941	101.5
400.165	80.5
400.389	78.5
400.613	76.5
400.837	82.5
401.062	93.5
401.286	76.5
401.51	89.5
401.734	99.5
401.958	76.5
402.182	83.5
402.406	79.5
402.63	94.5
402.854	89.5
403.078	79.5
403.302	96.5
403.526	110.5
403.75	93.5
403.974	93.5
404.198	102.5
404.422	106.5
404.645	110.5
404.869	93.5
405.093	88.5
405.317	81.5
405.541	81.5
405.765	73.5
405.988	79.5
406.212	81.5
406.436	93.5
406.66	81.5
406.883	94.5
407.107	91.5
407.331	87.5
407.555	83.5
407.778	82.5
408.002	92.5
408.226	78.5
408.449	81.5
408.673	63.5
408.896	82.5
409.12	85.5
409.344	79.5
409.567	88.5
409.791	84.5
410.014	90.5
410.238	90.5
410.461	74.5
410.685	85.5
410.908	78.5
411.132	91.5
411.355	77.5
411.578	91.5
411.802	83.5
412.025	76.5
412.249	70.5
412.472	86.5
412.695	81.5
412.919	80.5
413.142	76.5
413.365	79.5
413.589	67.5
413.812	76.5
414.035	82.5
414.258	81.5
414.482	86.5
414.705	73.5
414.928	85.5
415.151	76.5
415.374	93.5
415.597	85.5
415.821	89.5
416.044	83.5
416.267	83.5
416.49	92.5
416.713	90.5
416.936	101.5
417.159	84.5
417.382	87.5
417.605	89.5
417.828	87.5
418.051	87.5
418.274	78.5
418.497	89.5
418.72	67.5
418.943	73.5
419.166	79.5
419.389	88.5
419.611	68.5
419.834	85.5
420.057	90.5
420.28	78.5
420.503	82.5
420.726	76.5
420.948	82.5
421.171	87.5
421.394	98.5
421.617	104.5
421.839	92.5
422.062	88.5
422.285	93.5
422.507	114.5
422.73	149.5
422.953	134.5
423.175	114.5
423.398	93.5
423.621	82.5
423.843	78.5
424.066	77.5
424.288	77.5
424.511	83.5
424.733	92.5
424.956	102.5
425.178	88.5
425.401	76.5
425.623	82.5
425.846	80.5
426.068	71.5
426.291	80.5
426.513	81.5
426.735	79.5
426.958	86.5
427.18	95.5
427.402	88.5
427.625	102.5
427.847	94.5
428.069	100.5
428.292	89.5
428.514	95.5
428.736	87.5
428.958	97.5
429.181	103.5
429.403	109.5
429.625	89.5
429.847	72.5
430.069	108.5
430.292	118.5
430.514	107.5
430.736	97.5
430.958	106.5
431.18	88.5
431.402	89.5
431.624	63.5
431.846	83.5
432.068	80.5
432.29	84.5
432.512	92.5
432.734	92.5
432.956	81.5
433.178	83.5
433.4	90.5
433.622	80.5
433.844	100.5
434.066	83.5
434.287	88.5
434.509	74.5
434.731	72.5
434.953	91.5
435.175	100.5
435.397	88.5
435.618	80.5
435.84	73.5
436.062	79.5
436.284	83.5
436.505	70.5
436.727	71.5
436.949	82.5
437.17	71.5
437.392	77.5
437.614	78.5
437.835	72.5
438.057	108.5
438.278	75.5
438.5	102.5
438.721	83.5
438.943	80.5
439.165	79.5
439.386	71.5
439.608	96.5
439.829	73.5
440.05	78.5
440.272	80.5
440.493	73.5
440.715	79.5
440.936	86.5
441.158	84.5
441.379	81.5
441.6	83.5
441.822	78.5
442.043	76.5
442.264	85.5
442.486	105.5
442.707	94.5
442.928	94.5
443.149	82.5
443.371	101.5
443.592	112.5
443.813	122.5
444.034	88.5
444.255	100.5
444.476	91.5
444.698	80.5
444.919	89.5
445.14	148.5
445.361	138.5
445.582	148.5
445.803	108.5
446.024	103.5
446.245	70.5
446.466	88.5
446.687	78.5
446.908	80.5
447.129	68.5
447.35	86.5
447.571	90.5
447.792	79.5
448.013	87.5
448.234	104.5
448.455	86.5
448.675	79.5
448.896	86.5
449.117	87.5
449.338	79.5
449.559	81.5
449.779	84.5
450	67.5
450.221	80.5
450.442	76.5
450.662	77.5
450.883	74.5
451.104	99.5
451.324	80.5
451.545	76.5
451.766	88.5
451.986	77.5
452.207	87.5
452.428	80.5
452.648	80.5
452.869	93.5
453.089	90.5
453.31	73.5
453.53	86.5
453.751	79.5
453.971	88.5
454.192	73.5
454.412	78.5
454.633	79.5
454.853	81.5
455.073	77.5
455.294	86.5
455.514	82.5
455.734	99.5
455.955	86.5
456.175	85.5
456.395	80.5
456.616	90.5
456.836	80.5
457.056	90.5
457.276	74.5
457.497	87.5
457.717	88.5
457.937	92.5
458.157	89.5
458.377	82.5
458.598	76.5
458.818	78.5
459.038	87.5
459.258	94.5
459.478	85.5
459.698	84.5
459.918	84.5
460.138	72.5
460.358	89.5
460.578	95.5
460.798	88.5
461.018	90.5
461.238	90.5
461.458	86.5
461.678	87.5
461.898	89.5
462.118	86.5
462.338	85.5
462.558	83.5
462.777	75.5
462.997	80.5
463.217	74.5
463.437	80.5
463.657	73.5
463.876	71.5
464.096	75.5
464.316	86.5
464.536	72.5
464.755	90.5
464.975	76.5
465.195	86.5
465.414	101.5
465.634	76.5
465.854	65.5
466.073	85.5
466.293	75.5
466.512	78.5
466.732	72.5
466.951	88.5
467.171	79.5
467.391	81.5
467.61	97.5
467.829	84.5
468.049	83.5
468.268	81.5
468.488	81.5
468.707	90.5
468.927	86.5
469.146	73.5
469.365	97.5
469.585	80.5
469.804	87.5
470.023	78.5
470.243	82.5
470.462	88.5
470.681	86.5
470.901	100.5
471.12	84.5
471.339	88.5
471.558	94.5
471.777	70.5
471.997	88.5
472.216	92.5
472.435	98.5
472.654	91.5
472.873	82.5
473.092	74.5
473.311	92.5
473.53	81.5
473.749	86.5
473.968	86.5
474.187	74.5
474.406	84.5
474.625	75.5
474.844	87.5
475.063	93.5
475.282	92.5
475.501	86.5
475.72	91.5
475.939	70.5
476.158	87.5
476.377	84.5
476.596	78.5
476.814	73.5
477.033	85.5
477.252	72.5
477.471	94.5
477.69	85.5
477.908	86.5
478.127	94.5
478.346	87.5
478.564	81.5
478.783	85.5
479.002	84.5
479.22	77.5
479.439	84.5
479.658	83.5
479.876	69.5
480.095	75.5
480.313	89.5
480.532	85.5
480.751	86.5
480.969	100.5
481.188	74.5
481.406	90.5
481.624	84.5
481.843	89.5
482.061	76.5
482.28	77.5
482.498	79.5
482.717	71.5
482.935	81.5
483.153	91.5
483.372	83.5
483.59	80.5
483.808	87.5
484.027	79.5
484.245	72.5
484.463	67.5
484.681	90.5
484.9	96.5
485.118	89.5
485.336	97.5
485.554	77.5
485.772	80.5
485.99	74.5
486.209	76.5
486.427	69.5
486.645	72.5
486.863	88.5
487.081	84.5
487.299	73.5
487.517	98.5
487.735	80.5
487.953	93.5
488.171	94.5
488.389	91.5
488.607	94.5
488.825	85.5
489.043	85.5
489.261	90.5
489.479	88.5
489.696	90.5
489.914	78.5
490.132	80.5
490.35	94.5
490.568	95.5
490.786	80.5
491.003	89.5
491.221	81.5
491.439	87.5
491.657	98.5
491.874	100.5
492.092	70.5
492.31	88.5
492.527	87.5
492.745	72.5
492.963	78.5
493.18	80.5
493.398	86.5
493.615	88.5
493.833	80.5
494.05	93.5
494.268	76.5
494.485	75.5
494.703	65.5
494.92	80.5
495.138	85.5
495.355	84.5
495.573	93.5
495.79	64.5
496.008	80.5
496.225	78.5
496.442	97.5
496.66	82.5
496.877	82.5
497.094	94.5
497.312	96.5
497.529	80.5
497.746	81.5
497.963	75.5
498.181	84.5
498.398	61.5
498.615	74.5
498.832	76.5
499.049	84.5
499.267	86.5
499.484	83.5
499.701	80.5
499.918	83.5
500.135	78.5
500.352	86.5
500.569	93.5
500.786	80.5
501.003	78.5
501.22	84.5
501.437	90.5
501.654	90.5
501.871	82.5
502.088	77.5
502.305	85.5
502.522	79.5
502.739	75.5
502.956	73.5
503.172	88.5
503.389	84.5
503.606	70.5
503.823	79.5
504.04	81.5
504.256	92.5
504.473	73.5
504.69	78.5
504.907	89.5
505.123	96.5
505.34	87.5
505.557	85.5
505.773	102.5
505.99	83.5
506.207	91.5
506.423	90.5
506.64	80.5
506.856	78.5
507.073	90.5
507.289	86.5
507.506	90.5
507.722	88.5
507.939	94.5
508.155	94.5
508.372	87.5
508.588	76.5
508.805	90.5
509.021	73.5
509.238	80.5
509.454	73.5
509.67	76.5
509.887	102.5
510.103	97.5
510.319	86.5
510.536	74.5
510.752	88.5
510.968	85.5
511.184	81.5
511.401	79.5
511.617	90.5
511.833	79.5
512.049	90.5
512.265	80.5
512.481	77.5
512.698	84.5
512.914	70.5
513.13	76.5
513.346	89.5
513.562	76.5
513.778	109.5
513.994	78.5
514.21	82.5
514.426	72.5
514.642	81.5
514.858	88.5
515.074	81.5
515.29	75.5
515.506	81.5
515.721	78.5
515.937	75.5
516.153	87.5
516.369	89.5
516.585	76.5
516.801	76.5
517.016	72.5
517.232	92.5
517.448	94.5
517.664	82.5
517.879	92.5
518.095	86.5
518.311	88.5
518.527	83.5
518.742	86.5
518.958	87.5
519.173	105.5
519.389	82.5
519.605	90.5
519.82	90.5
520.036	74.5
520.251	87.5
520.467	92.5
520.682	74.5
520.898	91.5
521.113	97.5
521.329	92.5
521.544	71.5
521.76	84.5
521.975	88.5
522.19	96.5
522.406	80.5
522.621	73.5
522.836	75.5
523.052	90.5
523.267	86.5
523.482	73.5
523.698	96.5
523.913	85.5
524.128	86.5
524.343	85.5
524.559	94.5
524.774	72.5
524.989	74.5
525.204	81.5
525.419	87.5
525.634	81.5
525.849	85.5
526.064	81.5
526.28	118.5
526.495	130.5
526.71	155.5
526.925	130.5
527.14	123.5
527.355	114.5
527.57	78.5
527.785	82.5
527.999	84.5
528.214	93.5
528.429	78.5
528.644	83.5
528.859	84.5
529.074	86.5
529.289	75.5
529.503	86.5
529.718	88.5
529.933	81.5
530.148	92.5
530.363	82.5
530.577	93.5
530.792	82.5
531.007	81.5
531.221	86.5
531.436	85.5
531.651	106.5
531.865	79.5
532.08	87.5
532.295	85.5
532.509	79.5
532.724	78.5
532.938	77.5
533.153	89.5
533.367	86.5
533.582	80.5
533.796	81.5
534.011	89.5
534.225	86.5
534.44	87.5
534.654	95.5
534.868	92.5
535.083	117.5
535.297	100.5
535.511	83.5
535.726	95.5
535.94	92.5
536.154	87.5
536.369	96.5
536.583	94.5
536.797	86.5
537.011	113.5
537.225	84.5
537.44	91.5
537.654	111.5
537.868	67.5
538.082	73.5
538.296	105.5
538.51	84.5
538.724	92.5
538.938	91.5
539.153	83.5
539.367	75.5
539.581	91.5
