Data from Mixheat1_HRD10591_00009.txt Node
Date: Fri Dec 27 15:06:52 EST 2024
User: Yrep
Spectrometer: HR+D1059
Trigger mode: 1
Integration Time (sec): 1.000000E-1
Scans to average: 1
Electric dark correction enabled: true
Nonlinearity correction enabled: false
Boxcar width: 0
XAxis mode: Wavelengths
Number of Pixels in Spectrum: 2048
>>>>>Begin Spectral Data<<<<<
223.165	-12.12
223.4	-12.12
223.635	-12.12
223.869	-13.12
224.104	-32.12
224.338	-12.12
224.573	-8.12
224.808	-11.12
225.042	-10.12
225.277	-0.12
225.511	-0.12
225.746	-0.12
225.98	11.88
226.215	9.88
226.449	10.88
226.683	23.88
226.918	27.88
227.152	14.88
227.387	34.88
227.621	39.88
227.856	46.88
228.09	44.88
228.324	42.88
228.559	56.88
228.793	56.88
229.027	64.88
229.262	67.88
229.496	70.88
229.73	70.88
229.964	68.88
230.199	67.88
230.433	73.88
230.667	75.88
230.901	91.88
231.136	71.88
231.37	83.88
231.604	82.88
231.838	62.88
232.072	68.88
232.306	93.88
232.541	85.88
232.775	88.88
233.009	84.88
233.243	80.88
233.477	78.88
233.711	85.88
233.945	77.88
234.179	73.88
234.413	77.88
234.647	75.88
234.881	82.88
235.115	72.88
235.349	82.88
235.583	60.88
235.817	74.88
236.051	78.88
236.285	91.88
236.519	86.88
236.753	74.88
236.987	89.88
237.221	74.88
237.455	82.88
237.689	73.88
237.922	80.88
238.156	70.88
238.39	71.88
238.624	69.88
238.858	76.88
239.091	52.88
239.325	67.88
239.559	90.88
239.793	75.88
240.027	78.88
240.26	76.88
240.494	61.88
240.728	66.88
240.961	60.88
241.195	64.88
241.429	79.88
241.662	71.88
241.896	77.88
242.13	63.88
242.363	75.88
242.597	62.88
242.83	69.88
243.064	75.88
243.298	75.88
243.531	71.88
243.765	75.88
243.998	77.88
244.232	61.88
244.465	79.88
244.699	80.88
244.932	73.88
245.166	69.88
245.399	78.88
245.633	76.88
245.866	67.88
246.099	72.88
246.333	82.88
246.566	78.88
246.8	65.88
247.033	63.88
247.266	63.88
247.5	85.88
247.733	81.88
247.966	71.88
248.2	72.88
248.433	80.88
248.666	73.88
248.899	73.88
249.133	77.88
249.366	71.88
249.599	74.88
249.832	89.88
250.066	81.88
250.299	83.88
250.532	85.88
250.765	70.88
250.998	62.88
251.231	78.88
251.465	81.88
251.698	81.88
251.931	73.88
252.164	73.88
252.397	73.88
252.63	74.88
252.863	68.88
253.096	93.88
253.329	101.88
253.562	71.88
253.795	79.88
254.028	85.88
254.261	78.88
254.494	89.88
254.727	88.88
254.96	71.88
255.193	73.88
255.426	64.88
255.659	74.88
255.892	74.88
256.124	79.88
256.357	65.88
256.59	72.88
256.823	68.88
257.056	89.88
257.289	85.88
257.521	76.88
257.754	77.88
257.987	68.88
258.22	83.88
258.452	77.88
258.685	75.88
258.918	79.88
259.151	76.88
259.383	81.88
259.616	74.88
259.849	79.88
260.081	79.88
260.314	82.88
260.547	81.88
260.779	63.88
261.012	63.88
261.244	68.88
261.477	68.88
261.71	92.88
261.942	91.88
262.175	75.88
262.407	78.88
262.64	78.88
262.872	83.88
263.105	67.88
263.337	83.88
263.57	69.88
263.802	77.88
264.035	84.88
264.267	75.88
264.499	79.88
264.732	92.88
264.964	80.88
265.197	79.88
265.429	64.88
265.661	83.88
265.894	79.88
266.126	78.88
266.358	77.88
266.591	72.88
266.823	74.88
267.055	77.88
267.287	66.88
267.52	72.88
267.752	85.88
267.984	85.88
268.216	85.88
268.448	88.88
268.681	79.88
268.913	70.88
269.145	83.88
269.377	77.88
269.609	78.88
269.841	91.88
270.073	68.88
270.306	63.88
270.538	61.88
270.77	92.88
271.002	71.88
271.234	83.88
271.466	95.88
271.698	82.88
271.93	81.88
272.162	86.88
272.394	89.88
272.626	73.88
272.858	101.88
273.09	78.88
273.322	84.88
273.553	69.88
273.785	83.88
274.017	82.88
274.249	86.88
274.481	76.88
274.713	80.88
274.945	85.88
275.176	78.88
275.408	90.88
275.64	92.88
275.872	72.88
276.104	78.88
276.335	82.88
276.567	75.88
276.799	85.88
277.031	82.88
277.262	62.88
277.494	73.88
277.726	81.88
277.957	76.88
278.189	85.88
278.421	83.88
278.652	77.88
278.884	75.88
279.115	78.88
279.347	85.88
279.579	92.88
279.81	70.88
280.042	79.88
280.273	72.88
280.505	63.88
280.736	77.88
280.968	74.88
281.199	71.88
281.431	90.88
281.662	95.88
281.894	72.88
282.125	81.88
282.356	90.88
282.588	91.88
282.819	75.88
283.051	77.88
283.282	79.88
283.513	93.88
283.745	83.88
283.976	79.88
284.207	82.88
284.439	73.88
284.67	90.88
284.901	86.88
285.132	85.88
285.364	87.88
285.595	80.88
285.826	96.88
286.057	85.88
286.288	83.88
286.52	99.88
286.751	74.88
286.982	85.88
287.213	84.88
287.444	81.88
287.675	86.88
287.906	74.88
288.138	75.88
288.369	78.88
288.6	87.88
288.831	76.88
289.062	97.88
289.293	85.88
289.524	74.88
289.755	94.88
289.986	76.88
290.217	75.88
290.448	78.88
290.679	93.88
290.91	82.88
291.141	87.88
291.371	77.88
291.602	85.88
291.833	94.88
292.064	94.88
292.295	88.88
292.526	95.88
292.757	76.88
292.987	76.88
293.218	73.88
293.449	65.88
293.68	87.88
293.91	87.88
294.141	89.88
294.372	85.88
294.603	76.88
294.833	90.88
295.064	72.88
295.295	88.88
295.525	77.88
295.756	79.88
295.987	81.88
296.217	67.88
296.448	81.88
296.679	78.88
296.909	74.88
297.14	91.88
297.37	81.88
297.601	77.88
297.831	84.88
298.062	81.88
298.292	78.88
298.523	102.88
298.753	83.88
298.984	80.88
299.214	76.88
299.445	91.88
299.675	83.88
299.905	85.88
300.136	77.88
300.366	94.88
300.597	86.88
300.827	76.88
301.057	89.88
301.288	82.88
301.518	84.88
301.748	74.88
301.979	88.88
302.209	85.88
302.439	77.88
302.669	81.88
302.9	71.88
303.13	72.88
303.36	75.88
303.59	75.88
303.82	85.88
304.051	87.88
304.281	83.88
304.511	86.88
304.741	89.88
304.971	68.88
305.201	101.88
305.431	74.88
305.661	84.88
305.891	78.88
306.121	91.88
306.352	86.88
306.582	82.88
306.812	83.88
307.042	86.88
307.272	84.88
307.502	93.88
307.731	67.88
307.961	82.88
308.191	72.88
308.421	87.88
308.651	98.88
308.881	86.88
309.111	83.88
309.341	86.88
309.571	85.88
309.8	83.88
310.03	84.88
310.26	80.88
310.49	98.88
310.72	84.88
310.949	65.88
311.179	91.88
311.409	79.88
311.639	74.88
311.868	70.88
312.098	77.88
312.328	87.88
312.557	78.88
312.787	79.88
313.017	81.88
313.246	68.88
313.476	64.88
313.706	70.88
313.935	86.88
314.165	77.88
314.394	79.88
314.624	90.88
314.853	90.88
315.083	90.88
315.312	87.88
315.542	75.88
315.771	70.88
316.001	64.88
316.23	71.88
316.46	89.88
316.689	64.88
316.919	70.88
317.148	67.88
317.377	86.88
317.607	71.88
317.836	72.88
318.065	92.88
318.295	78.88
318.524	90.88
318.753	97.88
318.983	83.88
319.212	81.88
319.441	80.88
319.67	96.88
319.9	89.88
320.129	89.88
320.358	74.88
320.587	83.88
320.816	90.88
321.046	96.88
321.275	86.88
321.504	81.88
321.733	79.88
321.962	91.88
322.191	92.88
322.42	90.88
322.649	82.88
322.878	84.88
323.108	82.88
323.337	88.88
323.566	83.88
323.795	91.88
324.024	103.88
324.253	83.88
324.482	77.88
324.71	81.88
324.939	90.88
325.168	77.88
325.397	85.88
325.626	87.88
325.855	90.88
326.084	86.88
326.313	87.88
326.542	75.88
326.77	77.88
326.999	73.88
327.228	85.88
327.457	84.88
327.686	93.88
327.914	97.88
328.143	95.88
328.372	81.88
328.6	83.88
328.829	88.88
329.058	85.88
329.287	78.88
329.515	80.88
329.744	88.88
329.972	90.88
330.201	91.88
330.43	84.88
330.658	77.88
330.887	78.88
331.115	78.88
331.344	72.88
331.572	86.88
331.801	92.88
332.03	88.88
332.258	90.88
332.486	82.88
332.715	88.88
332.943	78.88
333.172	74.88
333.4	81.88
333.629	72.88
333.857	78.88
334.085	76.88
334.314	81.88
334.542	102.88
334.771	83.88
334.999	95.88
335.227	75.88
335.455	87.88
335.684	77.88
335.912	95.88
336.14	75.88
336.369	85.88
336.597	75.88
336.825	77.88
337.053	91.88
337.281	82.88
337.51	79.88
337.738	76.88
337.966	77.88
338.194	76.88
338.422	75.88
338.65	97.88
338.878	77.88
339.106	81.88
339.334	87.88
339.562	73.88
339.79	75.88
340.018	66.88
340.246	75.88
340.474	80.88
340.702	86.88
340.93	90.88
341.158	73.88
341.386	88.88
341.614	72.88
341.842	94.88
342.07	76.88
342.298	83.88
342.526	74.88
342.754	73.88
342.981	76.88
343.209	84.88
343.437	91.88
343.665	85.88
343.893	92.88
344.12	92.88
344.348	76.88
344.576	73.88
344.804	76.88
345.031	72.88
345.259	69.88
345.487	87.88
345.714	78.88
345.942	82.88
346.17	82.88
346.397	82.88
346.625	84.88
346.853	93.88
347.08	79.88
347.308	82.88
347.535	85.88
347.763	61.88
347.99	79.88
348.218	93.88
348.445	77.88
348.673	82.88
348.9	78.88
349.128	86.88
349.355	79.88
349.583	85.88
349.81	92.88
350.037	92.88
350.265	74.88
350.492	92.88
350.72	72.88
350.947	71.88
351.174	88.88
351.402	78.88
351.629	81.88
351.856	77.88
352.083	83.88
352.311	76.88
352.538	70.88
352.765	90.88
352.992	98.88
353.22	75.88
353.447	74.88
353.674	74.88
353.901	79.88
354.128	84.88
354.355	69.88
354.583	94.88
354.81	82.88
355.037	72.88
355.264	89.88
355.491	74.88
355.718	84.88
355.945	80.88
356.172	82.88
356.399	78.88
356.626	73.88
356.853	91.88
357.08	89.88
357.307	74.88
357.534	72.88
357.761	76.88
357.988	70.88
358.215	78.88
358.441	78.88
358.668	74.88
358.895	87.88
359.122	78.88
359.349	64.88
359.576	92.88
359.802	79.88
360.029	94.88
360.256	80.88
360.483	83.88
360.709	86.88
360.936	90.88
361.163	79.88
361.39	73.88
361.616	83.88
361.843	89.88
362.07	83.88
362.296	89.88
362.523	86.88
362.749	83.88
362.976	76.88
363.203	79.88
363.429	92.88
363.656	72.88
363.882	79.88
364.109	89.88
364.335	78.88
364.562	79.88
364.788	86.88
365.015	86.88
365.241	97.88
365.468	85.88
365.694	93.88
365.92	70.88
366.147	85.88
366.373	86.88
366.599	73.88
366.826	83.88
367.052	81.88
367.278	82.88
367.505	76.88
367.731	94.88
367.957	60.88
368.184	62.88
368.41	77.88
368.636	89.88
368.862	88.88
369.089	84.88
369.315	78.88
369.541	92.88
369.767	85.88
369.993	65.88
370.219	79.88
370.445	86.88
370.672	85.88
370.898	79.88
371.124	88.88
371.35	92.88
371.576	71.88
371.802	88.88
372.028	99.88
372.254	86.88
372.48	90.88
372.706	71.88
372.932	90.88
373.158	75.88
373.384	90.88
373.61	98.88
373.835	94.88
374.061	80.88
374.287	86.88
374.513	79.88
374.739	82.88
374.965	73.88
375.191	85.88
375.416	76.88
375.642	93.88
375.868	78.88
376.094	94.88
376.319	81.88
376.545	82.88
376.771	85.88
376.997	84.88
377.222	75.88
377.448	77.88
377.674	88.88
377.899	67.88
378.125	84.88
378.35	89.88
378.576	75.88
378.802	80.88
379.027	85.88
379.253	68.88
379.478	73.88
379.704	79.88
379.929	79.88
380.155	83.88
380.38	82.88
380.606	67.88
380.831	80.88
381.057	81.88
381.282	78.88
381.507	77.88
381.733	91.88
381.958	83.88
382.184	75.88
382.409	82.88
382.634	97.88
382.86	76.88
383.085	75.88
383.31	77.88
383.535	82.88
383.761	93.88
383.986	81.88
384.211	82.88
384.436	85.88
384.662	69.88
384.887	78.88
385.112	75.88
385.337	96.88
385.562	78.88
385.787	91.88
386.013	87.88
386.238	80.88
386.463	93.88
386.688	89.88
386.913	78.88
387.138	76.88
387.363	65.88
387.588	82.88
387.813	83.88
388.038	86.88
388.263	82.88
388.488	76.88
388.713	91.88
388.938	86.88
389.163	84.88
389.387	87.88
389.612	79.88
389.837	64.88
390.062	77.88
390.287	106.88
390.512	82.88
390.736	75.88
390.961	84.88
391.186	69.88
391.411	74.88
391.636	82.88
391.86	63.88
392.085	87.88
392.31	101.88
392.534	85.88
392.759	89.88
392.984	91.88
393.208	95.88
393.433	123.88
393.658	117.88
393.882	83.88
394.107	81.88
394.331	87.88
394.556	84.88
394.78	82.88
395.005	78.88
395.229	77.88
395.454	81.88
395.678	92.88
395.903	74.88
396.127	86.88
396.352	78.88
396.576	82.88
396.801	98.88
397.025	88.88
397.249	98.88
397.474	91.88
397.698	81.88
397.922	78.88
398.147	88.88
398.371	78.88
398.595	83.88
398.82	75.88
399.044	77.88
399.268	85.88
399.492	74.88
399.717	75.88
399.941	76.88
400.165	83.88
400.389	85.88
400.613	78.88
400.837	83.88
401.062	82.88
401.286	88.88
401.51	93.88
401.734	96.88
401.958	97.88
402.182	71.88
402.406	82.88
402.63	90.88
402.854	88.88
403.078	70.88
403.302	83.88
403.526	88.88
403.75	71.88
403.974	78.88
404.198	100.88
404.422	80.88
404.645	111.88
404.869	100.88
405.093	91.88
405.317	83.88
405.541	76.88
405.765	92.88
405.988	86.88
406.212	80.88
406.436	94.88
406.66	84.88
406.883	88.88
407.107	93.88
407.331	75.88
407.555	84.88
407.778	74.88
408.002	81.88
408.226	86.88
408.449	87.88
408.673	88.88
408.896	65.88
409.12	74.88
409.344	82.88
409.567	85.88
409.791	83.88
410.014	90.88
410.238	76.88
410.461	86.88
410.685	90.88
410.908	82.88
411.132	86.88
411.355	78.88
411.578	70.88
411.802	86.88
412.025	69.88
412.249	84.88
412.472	77.88
412.695	68.88
412.919	63.88
413.142	85.88
413.365	70.88
413.589	70.88
413.812	77.88
414.035	89.88
414.258	86.88
414.482	82.88
414.705	71.88
414.928	77.88
415.151	72.88
415.374	76.88
415.597	82.88
415.821	81.88
416.044	74.88
416.267	89.88
416.49	87.88
416.713	84.88
416.936	92.88
417.159	89.88
417.382	79.88
417.605	71.88
417.828	90.88
418.051	73.88
418.274	70.88
418.497	82.88
418.72	68.88
418.943	79.88
419.166	88.88
419.389	91.88
419.611	75.88
419.834	69.88
420.057	71.88
420.28	93.88
420.503	82.88
420.726	85.88
420.948	90.88
421.171	78.88
421.394	71.88
421.617	66.88
421.839	84.88
422.062	91.88
422.285	97.88
422.507	107.88
422.73	135.88
422.953	136.88
423.175	107.88
423.398	76.88
423.621	89.88
423.843	79.88
424.066	94.88
424.288	88.88
424.511	78.88
424.733	92.88
424.956	84.88
425.178	88.88
425.401	79.88
425.623	81.88
425.846	88.88
426.068	87.88
426.291	69.88
426.513	84.88
426.735	88.88
426.958	89.88
427.18	82.88
427.402	79.88
427.625	66.88
427.847	79.88
428.069	81.88
428.292	95.88
428.514	94.88
428.736	72.88
428.958	101.88
429.181	101.88
429.403	81.88
429.625	78.88
429.847	85.88
430.069	110.88
430.292	99.88
430.514	90.88
430.736	83.88
430.958	91.88
431.18	79.88
431.402	98.88
431.624	83.88
431.846	81.88
432.068	82.88
432.29	70.88
432.512	77.88
432.734	85.88
432.956	73.88
433.178	81.88
433.4	89.88
433.622	79.88
433.844	68.88
434.066	79.88
434.287	75.88
434.509	72.88
434.731	69.88
434.953	80.88
435.175	78.88
435.397	75.88
435.618	75.88
435.84	77.88
436.062	92.88
436.284	73.88
436.505	78.88
436.727	70.88
436.949	70.88
437.17	73.88
437.392	88.88
437.614	81.88
437.835	71.88
438.057	84.88
438.278	82.88
438.5	78.88
438.721	83.88
438.943	77.88
439.165	75.88
439.386	75.88
439.608	77.88
439.829	62.88
440.05	84.88
440.272	97.88
440.493	82.88
440.715	75.88
440.936	90.88
441.158	67.88
441.379	73.88
441.6	87.88
441.822	82.88
442.043	100.88
442.264	87.88
442.486	85.88
442.707	97.88
442.928	84.88
443.149	77.88
443.371	94.88
443.592	117.88
443.813	90.88
444.034	84.88
444.255	84.88
444.476	94.88
444.698	79.88
444.919	85.88
445.14	145.88
445.361	127.88
445.582	115.88
445.803	101.88
446.024	97.88
446.245	89.88
446.466	99.88
446.687	89.88
446.908	84.88
447.129	94.88
447.35	85.88
447.571	70.88
447.792	79.88
448.013	87.88
448.234	83.88
448.455	74.88
448.675	71.88
448.896	84.88
449.117	70.88
449.338	75.88
449.559	79.88
449.779	85.88
450	89.88
450.221	77.88
450.442	85.88
450.662	86.88
450.883	74.88
451.104	83.88
451.324	87.88
451.545	73.88
451.766	72.88
451.986	69.88
452.207	77.88
452.428	85.88
452.648	89.88
452.869	84.88
453.089	82.88
453.31	83.88
453.53	79.88
453.751	81.88
453.971	87.88
454.192	77.88
454.412	80.88
454.633	75.88
454.853	83.88
455.073	88.88
455.294	81.88
455.514	73.88
455.734	78.88
455.955	69.88
456.175	81.88
456.395	75.88
456.616	83.88
456.836	77.88
457.056	78.88
457.276	87.88
457.497	78.88
457.717	70.88
457.937	84.88
458.157	94.88
458.377	82.88
458.598	76.88
458.818	95.88
459.038	76.88
459.258	81.88
459.478	71.88
459.698	74.88
459.918	65.88
460.138	84.88
460.358	71.88
460.578	81.88
460.798	108.88
461.018	89.88
461.238	79.88
461.458	70.88
461.678	87.88
461.898	85.88
462.118	70.88
462.338	89.88
462.558	88.88
462.777	82.88
462.997	69.88
463.217	85.88
463.437	91.88
463.657	82.88
463.876	85.88
464.096	90.88
464.316	89.88
464.536	74.88
464.755	74.88
464.975	77.88
465.195	99.88
465.414	83.88
465.634	70.88
465.854	91.88
466.073	100.88
466.293	83.88
466.512	65.88
466.732	77.88
466.951	77.88
467.171	81.88
467.391	75.88
467.61	83.88
467.829	77.88
468.049	75.88
468.268	58.88
468.488	77.88
468.707	100.88
468.927	81.88
469.146	83.88
469.365	87.88
469.585	88.88
469.804	84.88
470.023	75.88
470.243	82.88
470.462	80.88
470.681	72.88
470.901	90.88
471.12	76.88
471.339	77.88
471.558	74.88
471.777	92.88
471.997	83.88
472.216	83.88
472.435	79.88
472.654	83.88
472.873	91.88
473.092	86.88
473.311	89.88
473.53	86.88
473.749	85.88
473.968	88.88
474.187	66.88
474.406	73.88
474.625	71.88
474.844	83.88
475.063	78.88
475.282	88.88
475.501	84.88
475.72	84.88
475.939	84.88
476.158	80.88
476.377	74.88
476.596	88.88
476.814	77.88
477.033	85.88
477.252	90.88
477.471	92.88
477.69	86.88
477.908	87.88
478.127	84.88
478.346	78.88
478.564	85.88
478.783	78.88
479.002	84.88
479.22	69.88
479.439	71.88
479.658	80.88
479.876	71.88
480.095	75.88
480.313	89.88
480.532	82.88
480.751	76.88
480.969	83.88
481.188	93.88
481.406	83.88
481.624	77.88
481.843	93.88
482.061	85.88
482.28	82.88
482.498	77.88
482.717	71.88
482.935	84.88
483.153	86.88
483.372	74.88
483.59	83.88
483.808	85.88
484.027	90.88
484.245	84.88
484.463	80.88
484.681	95.88
484.9	77.88
485.118	81.88
485.336	83.88
485.554	75.88
485.772	78.88
485.99	100.88
486.209	96.88
486.427	83.88
486.645	82.88
486.863	52.88
487.081	89.88
487.299	82.88
487.517	84.88
487.735	77.88
487.953	90.88
488.171	91.88
488.389	80.88
488.607	73.88
488.825	59.88
489.043	78.88
489.261	81.88
489.479	79.88
489.696	82.88
489.914	71.88
490.132	79.88
490.35	81.88
490.568	75.88
490.786	81.88
491.003	86.88
491.221	77.88
491.439	86.88
491.657	83.88
491.874	86.88
492.092	93.88
492.31	86.88
492.527	86.88
492.745	63.88
492.963	73.88
493.18	88.88
493.398	79.88
493.615	77.88
493.833	83.88
494.05	72.88
494.268	67.88
494.485	89.88
494.703	77.88
494.92	66.88
495.138	73.88
495.355	81.88
495.573	78.88
495.79	106.88
496.008	90.88
496.225	77.88
496.442	85.88
496.66	75.88
496.877	78.88
497.094	89.88
497.312	75.88
497.529	75.88
497.746	70.88
497.963	73.88
498.181	73.88
498.398	91.88
498.615	86.88
498.832	76.88
499.049	82.88
499.267	74.88
499.484	74.88
499.701	97.88
499.918	83.88
500.135	78.88
500.352	86.88
500.569	73.88
500.786	81.88
501.003	75.88
501.22	70.88
501.437	75.88
501.654	74.88
501.871	89.88
502.088	76.88
502.305	90.88
502.522	82.88
502.739	88.88
502.956	78.88
503.172	92.88
503.389	63.88
503.606	81.88
503.823	80.88
504.04	81.88
504.256	84.88
504.473	84.88
504.69	85.88
504.907	92.88
505.123	85.88
505.34	86.88
505.557	95.88
505.773	86.88
505.99	93.88
506.207	80.88
506.423	73.88
506.64	86.88
506.856	90.88
507.073	81.88
507.289	81.88
507.506	83.88
507.722	87.88
507.939	85.88
508.155	71.88
508.372	91.88
508.588	95.88
508.805	86.88
509.021	90.88
509.238	85.88
509.454	88.88
509.67	74.88
509.887	78.88
510.103	90.88
510.319	74.88
510.536	92.88
510.752	90.88
510.968	85.88
511.184	82.88
511.401	74.88
511.617	85.88
511.833	89.88
512.049	84.88
512.265	99.88
512.481	88.88
512.698	81.88
512.914	73.88
513.13	76.88
513.346	74.88
513.562	86.88
513.778	88.88
513.994	94.88
514.21	81.88
514.426	83.88
514.642	98.88
514.858	81.88
515.074	72.88
515.29	84.88
515.506	84.88
515.721	77.88
515.937	64.88
516.153	85.88
516.369	86.88
516.585	73.88
516.801	99.88
517.016	86.88
517.232	86.88
517.448	92.88
517.664	89.88
517.879	80.88
518.095	80.88
518.311	89.88
518.527	79.88
518.742	83.88
518.958	97.88
519.173	98.88
519.389	84.88
519.605	84.88
519.82	73.88
