Data from Mixheat1_HRD10591_00016.txt Node
Date: Fri Dec 27 15:06:59 EST 2024
User: Yrep
Spectrometer: HR+D1059
Trigger mode: 1
Integration Time (sec): 1.000000E-1
Scans to average: 1
Electric dark correction enabled: true
Nonlinearity correction enabled: false
Boxcar width: 0
XAxis mode: Wavelengths
Number of Pixels in Spectrum: 2048
>>>>>Begin Spectral Data<<<<<
223.165	-12
223.4	-12
223.635	-12
223.869	-22
224.104	-30
224.338	-10
224.573	-19
224.808	-22
225.042	-16
225.277	-1
225.511	-3
225.746	7
225.98	3
226.215	8
226.449	18
226.683	22
226.918	28
227.152	49
227.387	38
227.621	45
227.856	57
228.09	56
228.324	49
228.559	38
228.793	65
229.027	66
229.262	45
229.496	71
229.73	72
229.964	69
230.199	80
230.433	87
230.667	69
230.901	84
231.136	75
231.37	84
231.604	77
231.838	82
232.072	69
232.306	98
232.541	82
232.775	80
233.009	70
233.243	77
233.477	91
233.711	84
233.945	86
234.179	81
234.413	75
234.647	84
234.881	91
235.115	86
235.349	90
235.583	64
235.817	88
236.051	102
236.285	72
236.519	74
236.753	79
236.987	78
237.221	81
237.455	82
237.689	80
237.922	83
238.156	68
238.39	67
238.624	59
238.858	85
239.091	82
239.325	78
239.559	67
239.793	70
240.027	78
240.26	75
240.494	73
240.728	79
240.961	76
241.195	73
241.429	66
241.662	78
241.896	68
242.13	73
242.363	86
242.597	85
242.83	58
243.064	75
243.298	72
243.531	72
243.765	79
243.998	80
244.232	83
244.465	90
244.699	73
244.932	63
245.166	83
245.399	79
245.633	82
245.866	65
246.099	83
246.333	71
246.566	76
246.8	78
247.033	65
247.266	74
247.5	77
247.733	87
247.966	80
248.2	76
248.433	102
248.666	87
248.899	71
249.133	72
249.366	79
249.599	81
249.832	88
250.066	81
250.299	62
250.532	80
250.765	76
250.998	78
251.231	73
251.465	72
251.698	74
251.931	78
252.164	76
252.397	76
252.63	88
252.863	78
253.096	84
253.329	75
253.562	68
253.795	68
254.028	83
254.261	78
254.494	86
254.727	87
254.96	87
255.193	89
255.426	77
255.659	83
255.892	80
256.124	72
256.357	73
256.59	78
256.823	73
257.056	71
257.289	87
257.521	69
257.754	94
257.987	70
258.22	82
258.452	86
258.685	82
258.918	76
259.151	91
259.383	75
259.616	91
259.849	78
260.081	72
260.314	86
260.547	86
260.779	87
261.012	84
261.244	62
261.477	81
261.71	82
261.942	73
262.175	81
262.407	93
262.64	76
262.872	94
263.105	85
263.337	78
263.57	57
263.802	79
264.035	84
264.267	84
264.499	80
264.732	87
264.964	88
265.197	87
265.429	83
265.661	69
265.894	80
266.126	77
266.358	76
266.591	86
266.823	94
267.055	83
267.287	90
267.52	83
267.752	71
267.984	84
268.216	94
268.448	89
268.681	80
268.913	89
269.145	78
269.377	87
269.609	75
269.841	95
270.073	74
270.306	79
270.538	77
270.77	71
271.002	93
271.234	85
271.466	90
271.698	90
271.93	98
272.162	91
272.394	90
272.626	72
272.858	86
273.09	87
273.322	90
273.553	85
273.785	86
274.017	88
274.249	82
274.481	82
274.713	85
274.945	91
275.176	84
275.408	72
275.64	86
275.872	80
276.104	84
276.335	86
276.567	73
276.799	63
277.031	72
277.262	68
277.494	74
277.726	89
277.957	79
278.189	86
278.421	91
278.652	81
278.884	74
279.115	84
279.347	74
279.579	80
279.81	77
280.042	86
280.273	84
280.505	82
280.736	79
280.968	103
281.199	90
281.431	72
281.662	83
281.894	84
282.125	87
282.356	87
282.588	72
282.819	79
283.051	87
283.282	86
283.513	87
283.745	88
283.976	83
284.207	78
284.439	91
284.67	78
284.901	79
285.132	85
285.364	90
285.595	106
285.826	91
286.057	78
286.288	89
286.52	87
286.751	85
286.982	91
287.213	92
287.444	86
287.675	92
287.906	79
288.138	71
288.369	82
288.6	83
288.831	77
289.062	76
289.293	101
289.524	80
289.755	79
289.986	88
290.217	84
290.448	84
290.679	94
290.91	96
291.141	90
291.371	80
291.602	85
291.833	82
292.064	96
292.295	92
292.526	84
292.757	72
292.987	78
293.218	81
293.449	80
293.68	91
293.91	91
294.141	88
294.372	84
294.603	78
294.833	79
295.064	79
295.295	92
295.525	104
295.756	85
295.987	92
296.217	87
296.448	86
296.679	90
296.909	80
297.14	81
297.37	82
297.601	88
297.831	76
298.062	85
298.292	87
298.523	81
298.753	84
298.984	87
299.214	82
299.445	77
299.675	79
299.905	85
300.136	89
300.366	80
300.597	92
300.827	88
301.057	89
301.288	76
301.518	100
301.748	79
301.979	92
302.209	92
302.439	79
302.669	82
302.9	79
303.13	89
303.36	81
303.59	94
303.82	79
304.051	81
304.281	72
304.511	90
304.741	92
304.971	88
305.201	96
305.431	85
305.661	93
305.891	75
306.121	81
306.352	84
306.582	78
306.812	84
307.042	89
307.272	89
307.502	80
307.731	85
307.961	82
308.191	85
308.421	86
308.651	85
308.881	93
309.111	79
309.341	84
309.571	77
309.8	83
310.03	86
310.26	87
310.49	70
310.72	73
310.949	61
311.179	74
311.409	88
311.639	83
311.868	89
312.098	83
312.328	80
312.557	98
312.787	86
313.017	88
313.246	89
313.476	80
313.706	85
313.935	88
314.165	91
314.394	90
314.624	84
314.853	90
315.083	92
315.312	84
315.542	77
315.771	94
316.001	83
316.23	87
316.46	79
316.689	72
316.919	68
317.148	99
317.377	91
317.607	82
317.836	92
318.065	100
318.295	94
318.524	94
318.753	94
318.983	95
319.212	91
319.441	81
319.67	91
319.9	82
320.129	85
320.358	83
320.587	93
320.816	78
321.046	74
321.275	83
321.504	83
321.733	91
321.962	70
322.191	82
322.42	87
322.649	74
322.878	72
323.108	101
323.337	89
323.566	77
323.795	78
324.024	67
324.253	81
324.482	76
324.71	87
324.939	87
325.168	79
325.397	87
325.626	79
325.855	87
326.084	71
326.313	85
326.542	85
326.77	78
326.999	79
327.228	84
327.457	91
327.686	91
327.914	92
328.143	68
328.372	80
328.6	84
328.829	84
329.058	89
329.287	76
329.515	73
329.744	87
329.972	84
330.201	91
330.43	105
330.658	88
330.887	86
331.115	89
331.344	89
331.572	84
331.801	85
332.03	82
332.258	87
332.486	88
332.715	88
332.943	89
333.172	79
333.4	92
333.629	88
333.857	97
334.085	86
334.314	78
334.542	77
334.771	74
334.999	71
335.227	91
335.455	80
335.684	80
335.912	86
336.14	81
336.369	88
336.597	92
336.825	86
337.053	78
337.281	91
337.51	87
337.738	83
337.966	102
338.194	92
338.422	92
338.65	68
338.878	86
339.106	86
339.334	92
339.562	92
339.79	80
340.018	79
340.246	85
340.474	91
340.702	99
340.93	91
341.158	87
341.386	89
341.614	74
341.842	82
342.07	89
342.298	91
342.526	87
342.754	90
342.981	85
343.209	83
343.437	100
343.665	94
343.893	67
344.12	87
344.348	93
344.576	96
344.804	99
345.031	89
345.259	84
345.487	59
345.714	93
345.942	92
346.17	99
346.397	94
346.625	90
346.853	92
347.08	86
347.308	83
347.535	60
347.763	64
347.99	86
348.218	88
348.445	80
348.673	92
348.9	87
349.128	83
349.355	72
349.583	86
349.81	78
350.037	80
350.265	85
350.492	83
350.72	89
350.947	93
351.174	84
351.402	66
351.629	89
351.856	92
352.083	69
352.311	108
352.538	100
352.765	86
352.992	85
353.22	92
353.447	76
353.674	78
353.901	89
354.128	78
354.355	95
354.583	92
354.81	85
355.037	108
355.264	88
355.491	76
355.718	79
355.945	79
356.172	78
356.399	72
356.626	92
356.853	80
357.08	80
357.307	91
357.534	80
357.761	93
357.988	93
358.215	87
358.441	81
358.668	76
358.895	90
359.122	78
359.349	77
359.576	81
359.802	86
360.029	89
360.256	86
360.483	96
360.709	83
360.936	93
361.163	89
361.39	72
361.616	99
361.843	95
362.07	94
362.296	68
362.523	94
362.749	62
362.976	70
363.203	98
363.429	82
363.656	77
363.882	89
364.109	102
364.335	86
364.562	85
364.788	88
365.015	102
365.241	85
365.468	84
365.694	82
365.92	87
366.147	101
366.373	78
366.599	90
366.826	85
367.052	92
367.278	86
367.505	95
367.731	89
367.957	87
368.184	84
368.41	80
368.636	79
368.862	70
369.089	82
369.315	84
369.541	90
369.767	71
369.993	97
370.219	77
370.445	91
370.672	90
370.898	85
371.124	85
371.35	91
371.576	90
371.802	78
372.028	78
372.254	74
372.48	88
372.706	91
372.932	88
373.158	78
373.384	91
373.61	86
373.835	85
374.061	85
374.287	82
374.513	70
374.739	65
374.965	84
375.191	79
375.416	90
375.642	92
375.868	79
376.094	90
376.319	104
376.545	84
376.771	86
376.997	88
377.222	76
377.448	91
377.674	67
377.899	85
378.125	85
378.35	80
378.576	91
378.802	93
379.027	90
379.253	91
379.478	85
379.704	87
379.929	82
380.155	90
380.38	77
380.606	94
380.831	89
381.057	76
381.282	88
381.507	89
381.733	78
381.958	72
382.184	91
382.409	73
382.634	85
382.86	98
383.085	89
383.31	82
383.535	79
383.761	75
383.986	79
384.211	79
384.436	82
384.662	89
384.887	72
385.112	81
385.337	90
385.562	78
385.787	91
386.013	90
386.238	80
386.463	72
386.688	86
386.913	83
387.138	83
387.363	68
387.588	102
387.813	88
388.038	92
388.263	86
388.488	93
388.713	101
388.938	60
389.163	80
389.387	77
389.612	95
389.837	95
390.062	81
390.287	98
390.512	74
390.736	84
390.961	64
391.186	91
391.411	82
391.636	87
391.86	80
392.085	76
392.31	87
392.534	78
392.759	76
392.984	92
393.208	92
393.433	124
393.658	86
393.882	95
394.107	84
394.331	83
394.556	70
394.78	89
395.005	77
395.229	89
395.454	93
395.678	89
395.903	98
396.127	106
396.352	92
396.576	103
396.801	100
397.025	102
397.249	89
397.474	87
397.698	99
397.922	82
398.147	84
398.371	82
398.595	76
398.82	83
399.044	72
399.268	77
399.492	76
399.717	93
399.941	76
400.165	78
400.389	77
400.613	82
400.837	79
401.062	91
401.286	72
401.51	85
401.734	89
401.958	78
402.182	79
402.406	90
402.63	75
402.854	92
403.078	86
403.302	82
403.526	95
403.75	78
403.974	83
404.198	82
404.422	108
404.645	110
404.869	87
405.093	91
405.317	91
405.541	90
405.765	92
405.988	73
406.212	79
406.436	72
406.66	79
406.883	76
407.107	91
407.331	97
407.555	87
407.778	93
408.002	92
408.226	87
408.449	86
408.673	66
408.896	92
409.12	87
409.344	83
409.567	81
409.791	80
410.014	88
410.238	90
410.461	85
410.685	95
410.908	84
411.132	87
411.355	90
411.578	94
411.802	91
412.025	86
412.249	79
412.472	76
412.695	81
412.919	75
413.142	80
413.365	67
413.589	85
413.812	77
414.035	87
414.258	95
414.482	74
414.705	84
414.928	86
415.151	89
415.374	87
415.597	83
415.821	89
416.044	76
416.267	94
416.49	85
416.713	82
416.936	92
417.159	78
417.382	80
417.605	87
417.828	91
418.051	93
418.274	77
418.497	86
418.72	83
418.943	69
419.166	91
419.389	82
419.611	101
419.834	72
420.057	83
420.28	85
420.503	83
420.726	76
420.948	88
421.171	90
421.394	85
421.617	83
421.839	93
422.062	80
422.285	86
422.507	124
422.73	137
422.953	137
423.175	103
423.398	80
423.621	85
423.843	85
424.066	90
424.288	87
424.511	89
424.733	81
424.956	64
425.178	91
425.401	98
425.623	90
425.846	100
426.068	72
426.291	82
426.513	74
426.735	78
426.958	82
427.18	87
427.402	80
427.625	70
427.847	76
428.069	86
428.292	95
428.514	90
428.736	86
428.958	99
429.181	94
429.403	83
429.625	76
429.847	89
430.069	95
430.292	119
430.514	113
430.736	94
430.958	103
431.18	78
431.402	77
431.624	88
431.846	89
432.068	92
432.29	80
432.512	79
432.734	93
432.956	75
433.178	84
433.4	75
433.622	80
433.844	79
434.066	82
434.287	74
434.509	67
434.731	82
434.953	78
435.175	76
435.397	87
435.618	91
435.84	91
436.062	93
436.284	86
436.505	79
436.727	81
436.949	86
437.17	68
437.392	85
437.614	96
437.835	65
438.057	88
438.278	80
438.5	89
438.721	79
438.943	76
439.165	87
439.386	93
439.608	80
439.829	70
440.05	77
440.272	85
440.493	76
440.715	80
440.936	77
441.158	73
441.379	83
441.6	82
441.822	75
442.043	74
442.264	93
442.486	77
442.707	89
442.928	100
443.149	86
443.371	110
443.592	100
443.813	95
444.034	81
444.255	82
444.476	95
444.698	76
444.919	78
445.14	148
445.361	137
445.582	117
445.803	111
446.024	91
446.245	90
446.466	89
446.687	76
446.908	76
447.129	87
447.35	94
447.571	71
447.792	74
448.013	78
448.234	80
448.455	89
448.675	81
448.896	69
449.117	89
449.338	87
449.559	79
449.779	75
450	77
450.221	77
450.442	83
450.662	75
450.883	77
451.104	80
451.324	84
451.545	91
451.766	78
451.986	88
452.207	92
452.428	85
452.648	73
452.869	77
453.089	93
453.31	84
453.53	83
453.751	72
453.971	83
454.192	91
454.412	78
454.633	87
454.853	95
455.073	76
455.294	86
455.514	82
455.734	88
455.955	84
456.175	90
456.395	82
456.616	88
456.836	86
457.056	103
457.276	80
457.497	80
457.717	80
457.937	76
458.157	77
458.377	71
458.598	70
458.818	79
459.038	69
459.258	76
459.478	78
459.698	74
459.918	72
460.138	100
460.358	72
460.578	80
460.798	99
461.018	88
461.238	78
461.458	76
461.678	64
461.898	79
462.118	86
462.338	88
462.558	88
462.777	88
462.997	76
463.217	91
463.437	86
463.657	93
463.876	87
464.096	83
464.316	88
464.536	84
464.755	83
464.975	77
465.195	86
465.414	72
465.634	86
465.854	75
466.073	94
466.293	77
466.512	82
466.732	77
466.951	89
467.171	84
467.391	78
467.61	70
467.829	77
468.049	84
468.268	72
468.488	75
468.707	91
468.927	88
469.146	75
469.365	62
469.585	79
469.804	84
470.023	100
470.243	74
470.462	76
470.681	71
470.901	82
471.12	80
471.339	66
471.558	80
471.777	84
471.997	80
472.216	75
472.435	95
472.654	82
472.873	84
473.092	89
473.311	88
473.53	84
473.749	86
473.968	90
474.187	83
474.406	92
474.625	90
474.844	77
475.063	73
475.282	85
475.501	85
475.72	93
475.939	88
476.158	77
476.377	79
476.596	78
476.814	93
477.033	86
477.252	102
477.471	90
477.69	92
477.908	78
478.127	85
478.346	90
478.564	94
478.783	82
479.002	78
479.22	76
479.439	81
479.658	84
479.876	70
480.095	70
480.313	78
480.532	108
480.751	76
480.969	84
481.188	89
481.406	93
481.624	85
481.843	102
482.061	71
482.28	73
482.498	77
482.717	79
482.935	74
483.153	83
483.372	83
483.59	84
483.808	87
484.027	82
484.245	92
484.463	90
484.681	98
484.9	87
485.118	104
485.336	82
485.554	76
485.772	76
485.99	77
486.209	86
486.427	64
486.645	84
486.863	87
487.081	84
487.299	86
487.517	84
487.735	94
487.953	104
488.171	80
488.389	90
488.607	78
488.825	92
489.043	84
489.261	83
489.479	93
489.696	86
489.914	92
490.132	84
490.35	96
490.568	98
490.786	79
491.003	98
491.221	88
491.439	87
491.657	83
491.874	87
492.092	93
492.31	76
492.527	72
492.745	101
492.963	82
493.18	84
493.398	84
493.615	74
493.833	83
494.05	81
494.268	91
494.485	87
494.703	78
494.92	89
495.138	74
495.355	83
495.573	85
495.79	100
496.008	88
496.225	79
496.442	86
496.66	87
496.877	84
497.094	81
497.312	82
497.529	104
497.746	93
497.963	90
498.181	91
498.398	81
498.615	78
498.832	78
499.049	82
499.267	91
499.484	100
499.701	95
499.918	90
500.135	77
500.352	87
500.569	99
500.786	95
501.003	92
501.22	84
501.437	79
501.654	93
501.871	86
502.088	87
502.305	78
502.522	72
502.739	80
502.956	89
503.172	92
503.389	83
503.606	77
503.823	87
504.04	99
504.256	99
504.473	90
504.69	78
504.907	77
505.123	82
505.34	66
505.557	71
505.773	92
505.99	94
506.207	75
506.423	83
506.64	87
506.856	96
507.073	85
507.289	84
507.506	81
507.722	84
507.939	93
508.155	108
508.372	90
508.588	86
508.805	88
509.021	74
509.238	88
509.454	79
509.67	82
509.887	92
510.103	89
510.319	74
510.536	78
510.752	80
510.968	83
511.184	82
511.401	72
511.617	95
511.833	94
512.049	83
512.265	89
512.481	70
512.698	82
512.914	94
513.13	84
513.346	90
513.562	91
513.778	84
513.994	90
514.21	87
514.426	87
514.642	102
514.858	82
515.074	58
515.29	92
515.506	93
515.721	86
515.937	86
516.153	78
516.369	83
516.585	91
516.801	73
517.016	95
517.232	94
517.448	93
517.664	86
517.879	77
518.095	79
518.311	85
518.527	92
518.742	93
518.958	85
519.173	80
519.389	84
519.605	86
519.82	70
520.036	80
520.251	82
520.467	74
520.682	108
520.898	89
521.113	92
521.329	75
521.544	87
521.76	73
521.975	91
522.19	87
522.406	95
522.621	88
522.836	90
523.052	94
523.267	81
523.482	89
523.698	92
523.913	65
524.128	90
524.343	100
524.559	95
524.774	86
524.989	78
525.204	95
525.419	89
525.634	83
525.849	81
526.064	102
526.28	109
526.495	103
526.71	117
526.925	123
527.14	120
527.355	120
527.57	78
527.785	82
527.999	88
528.214	92
528.429	85
528.644	93
528.859	85
529.074	94
529.289	74
529.503	85
529.718	87
529.933	90
530.148	96
530.363	94
530.577	98
530.792	100
531.007	86
531.221	74
531.436	61
531.651	79
531.865	88
532.08	91
532.295	90
532.509	82
532.724	103
532.938	92
533.153	90
533.367	84
533.582	99
533.796	79
534.011	94
534.225	78
534.44	88
534.654	84
534.868	89
535.083	110
535.297	103
535.511	85
535.726	88
535.94	98
536.154	88
536.369	93
536.583	83
536.797	85
537.011	94
537.225	88
537.44	85
537.654	74
537.868	78
538.082	101
538.296	87
538.51	96
538.724	74
538.938	79
539.153	95
539.367	99
539.581	91
539.795	98
540.009	86
540.222	82
540.436	80
540.65	76
540.864	78
541.078	83
541.292	87
541.506	71
541.72	78
541.934	88
542.147	96
542.361	88
542.575	87
542.789	91
543.002	88
543.216	102
543.43	82
543.644	97
543.857	84
544.071	102
544.285	84
544.498	88
544.712	87
544.925	93
545.139	83
545.352	84
545.566	83
545.779	89
545.993	84
546.206	93
546.42	95
546.633	102
546.847	95
547.06	97
547.274	100
547.487	105
547.7	100
547.914	90
548.127	91
548.34	91
548.554	105
548.767	92
548.98	82
549.193	96
549.407	101
549.62	104
549.833	95
550.046	106
550.259	98
550.473	105
550.686	110
550.899	119
551.112	115
551.325	120
551.538	117
551.751	110
551.964	111
552.177	110
552.39	123
552.603	120
552.816	110
553.029	120
553.242	126
553.455	116
553.667	111
553.88	119
554.093	124
554.306	118
554.519	120
554.732	120
554.944	118
555.157	106
555.37	119
555.583	112
555.795	123
556.008	110
556.221	112
556.433	109
556.646	122
556.859	106
557.071	90
557.284	95
557.496	96
557.709	100
557.921	82
558.134	97
558.346	114
558.559	95
558.771	105
558.984	136
559.196	144
559.409	107
559.621	127
559.833	113
560.046	107
560.258	95
560.47	98
560.683	95
560.895	95
561.107	104
561.32	87
561.532	101
561.744	90
561.956	88
562.168	94
562.381	99
562.593	100
562.805	85
563.017	90
563.229	87
563.441	77
563.653	86
563.865	87
564.077	82
564.289	99
564.501	80
564.713	101
564.925	94
565.137	84
565.349	100
565.561	94
565.773	102
565.985	85
566.197	79
566.408	101
566.62	98
566.832	98
567.044	95
567.255	91
567.467	91
567.679	78
567.891	89
568.102	93
568.314	89
568.526	99
568.737	93
568.949	102
569.161	84
569.372	96
569.584	101
569.795	85
570.007	68
570.218	77
570.43	87
570.641	81
570.853	81
571.064	88
571.276	87
571.487	89
571.698	82
571.91	103
572.121	92
572.333	88
572.544	90
572.755	84
572.966	86
573.178	84
573.389	80
573.6	77
573.811	82
574.023	98
574.234	91
574.445	99
574.656	94
574.867	87
575.078	93
575.289	95
575.501	90
575.712	93
575.923	83
576.134	92
576.345	83
576.556	94
576.767	84
576.978	84
577.188	78
577.399	77
577.61	82
577.821	84
578.032	77
578.243	74
578.454	92
578.665	93
578.875	78
579.086	82
579.297	94
579.508	83
579.718	84
579.929	92
580.14	105
580.35	76
580.561	88
580.772	94
580.982	80
581.193	83
581.403	94
581.614	91
581.825	94
582.035	81
582.246	79
582.456	91
582.667	81
582.877	75
583.087	87
583.298	86
583.508	102
583.719	87
583.929	76
584.139	88
584.35	99
584.56	88
584.77	84
584.981	90
585.191	90
585.401	93
585.611	83
585.821	92
586.032	102
586.242	91
586.452	98
586.662	94
586.872	78
587.082	100
587.292	82
587.502	92
587.713	85
587.923	86
588.133	93
588.343	80
588.553	90
588.762	96
