Data from Mixheat1_HRD10591_00011.txt Node
Date: Fri Dec 27 15:06:54 EST 2024
User: Yrep
Spectrometer: HR+D1059
Trigger mode: 1
Integration Time (sec): 1.000000E-1
Scans to average: 1
Electric dark correction enabled: true
Nonlinearity correction enabled: false
Boxcar width: 0
XAxis mode: Wavelengths
Number of Pixels in Spectrum: 2048
>>>>>Begin Spectral Data<<<<<
223.165	-18.94
223.4	-18.94
223.635	-18.94
223.869	-7.94
224.104	-19.94
224.338	-21.94
224.573	-10.94
224.808	-13.94
225.042	-16.94
225.277	7.06
225.511	-10.94
225.746	3.06
225.98	16.06
226.215	16.06
226.449	0.06
226.683	31.06
226.918	16.06
227.152	32.06
227.387	36.06
227.621	41.06
227.856	51.06
228.09	60.06
228.324	47.06
228.559	68.06
228.793	59.06
229.027	60.06
229.262	60.06
229.496	72.06
229.73	60.06
229.964	70.06
230.199	67.06
230.433	89.06
230.667	86.06
230.901	78.06
231.136	87.06
231.37	87.06
231.604	76.06
231.838	86.06
232.072	88.06
232.306	87.06
232.541	76.06
232.775	91.06
233.009	99.06
233.243	76.06
233.477	86.06
233.711	75.06
233.945	69.06
234.179	89.06
234.413	76.06
234.647	71.06
234.881	100.06
235.115	87.06
235.349	73.06
235.583	75.06
235.817	81.06
236.051	86.06
236.285	70.06
236.519	68.06
236.753	65.06
236.987	78.06
237.221	95.06
237.455	67.06
237.689	72.06
237.922	85.06
238.156	69.06
238.39	82.06
238.624	72.06
238.858	63.06
239.091	81.06
239.325	74.06
239.559	73.06
239.793	79.06
240.027	65.06
240.26	78.06
240.494	79.06
240.728	73.06
240.961	63.06
241.195	72.06
241.429	91.06
241.662	76.06
241.896	59.06
242.13	62.06
242.363	90.06
242.597	75.06
242.83	75.06
243.064	73.06
243.298	69.06
243.531	75.06
243.765	85.06
243.998	72.06
244.232	76.06
244.465	74.06
244.699	61.06
244.932	65.06
245.166	78.06
245.399	85.06
245.633	80.06
245.866	87.06
246.099	75.06
246.333	70.06
246.566	76.06
246.8	76.06
247.033	68.06
247.266	84.06
247.5	76.06
247.733	77.06
247.966	76.06
248.2	91.06
248.433	75.06
248.666	78.06
248.899	72.06
249.133	83.06
249.366	94.06
249.599	81.06
249.832	85.06
250.066	82.06
250.299	69.06
250.532	83.06
250.765	80.06
250.998	87.06
251.231	74.06
251.465	90.06
251.698	86.06
251.931	79.06
252.164	82.06
252.397	76.06
252.63	83.06
252.863	76.06
253.096	74.06
253.329	71.06
253.562	87.06
253.795	83.06
254.028	80.06
254.261	78.06
254.494	79.06
254.727	76.06
254.96	80.06
255.193	80.06
255.426	77.06
255.659	67.06
255.892	82.06
256.124	87.06
256.357	77.06
256.59	79.06
256.823	79.06
257.056	75.06
257.289	74.06
257.521	86.06
257.754	81.06
257.987	84.06
258.22	87.06
258.452	77.06
258.685	65.06
258.918	87.06
259.151	78.06
259.383	81.06
259.616	76.06
259.849	71.06
260.081	87.06
260.314	75.06
260.547	98.06
260.779	72.06
261.012	79.06
261.244	71.06
261.477	74.06
261.71	77.06
261.942	73.06
262.175	74.06
262.407	99.06
262.64	77.06
262.872	76.06
263.105	76.06
263.337	78.06
263.57	77.06
263.802	77.06
264.035	80.06
264.267	74.06
264.499	77.06
264.732	86.06
264.964	70.06
265.197	69.06
265.429	91.06
265.661	85.06
265.894	83.06
266.126	81.06
266.358	81.06
266.591	77.06
266.823	79.06
267.055	75.06
267.287	87.06
267.52	100.06
267.752	88.06
267.984	84.06
268.216	77.06
268.448	75.06
268.681	92.06
268.913	95.06
269.145	91.06
269.377	71.06
269.609	88.06
269.841	82.06
270.073	96.06
270.306	79.06
270.538	75.06
270.77	71.06
271.002	84.06
271.234	83.06
271.466	71.06
271.698	78.06
271.93	62.06
272.162	77.06
272.394	80.06
272.626	85.06
272.858	74.06
273.09	82.06
273.322	71.06
273.553	74.06
273.785	77.06
274.017	89.06
274.249	65.06
274.481	72.06
274.713	91.06
274.945	86.06
275.176	86.06
275.408	84.06
275.64	75.06
275.872	65.06
276.104	80.06
276.335	86.06
276.567	76.06
276.799	70.06
277.031	92.06
277.262	68.06
277.494	94.06
277.726	98.06
277.957	91.06
278.189	86.06
278.421	80.06
278.652	78.06
278.884	86.06
279.115	84.06
279.347	83.06
279.579	73.06
279.81	83.06
280.042	93.06
280.273	79.06
280.505	88.06
280.736	86.06
280.968	68.06
281.199	76.06
281.431	85.06
281.662	67.06
281.894	85.06
282.125	86.06
282.356	89.06
282.588	85.06
282.819	69.06
283.051	79.06
283.282	77.06
283.513	72.06
283.745	84.06
283.976	77.06
284.207	78.06
284.439	83.06
284.67	91.06
284.901	89.06
285.132	85.06
285.364	64.06
285.595	81.06
285.826	82.06
286.057	96.06
286.288	78.06
286.52	74.06
286.751	77.06
286.982	73.06
287.213	74.06
287.444	74.06
287.675	84.06
287.906	92.06
288.138	79.06
288.369	83.06
288.6	78.06
288.831	72.06
289.062	74.06
289.293	67.06
289.524	82.06
289.755	65.06
289.986	69.06
290.217	86.06
290.448	79.06
290.679	79.06
290.91	76.06
291.141	73.06
291.371	103.06
291.602	72.06
291.833	76.06
292.064	78.06
292.295	76.06
292.526	84.06
292.757	92.06
292.987	89.06
293.218	78.06
293.449	87.06
293.68	89.06
293.91	75.06
294.141	70.06
294.372	90.06
294.603	78.06
294.833	84.06
295.064	69.06
295.295	73.06
295.525	82.06
295.756	80.06
295.987	86.06
296.217	78.06
296.448	81.06
296.679	73.06
296.909	80.06
297.14	87.06
297.37	89.06
297.601	84.06
297.831	69.06
298.062	81.06
298.292	92.06
298.523	79.06
298.753	69.06
298.984	91.06
299.214	82.06
299.445	91.06
299.675	85.06
299.905	85.06
300.136	86.06
300.366	78.06
300.597	87.06
300.827	87.06
301.057	94.06
301.288	88.06
301.518	72.06
301.748	79.06
301.979	97.06
302.209	76.06
302.439	68.06
302.669	83.06
302.9	82.06
303.13	91.06
303.36	76.06
303.59	84.06
303.82	87.06
304.051	79.06
304.281	84.06
304.511	87.06
304.741	87.06
304.971	73.06
305.201	93.06
305.431	84.06
305.661	92.06
305.891	84.06
306.121	77.06
306.352	74.06
306.582	82.06
306.812	81.06
307.042	92.06
307.272	79.06
307.502	80.06
307.731	86.06
307.961	75.06
308.191	88.06
308.421	75.06
308.651	102.06
308.881	99.06
309.111	82.06
309.341	77.06
309.571	90.06
309.8	85.06
310.03	92.06
310.26	81.06
310.49	80.06
310.72	82.06
310.949	80.06
311.179	87.06
311.409	77.06
311.639	81.06
311.868	78.06
312.098	86.06
312.328	76.06
312.557	71.06
312.787	91.06
313.017	87.06
313.246	75.06
313.476	82.06
313.706	78.06
313.935	70.06
314.165	90.06
314.394	74.06
314.624	82.06
314.853	82.06
315.083	70.06
315.312	93.06
315.542	98.06
315.771	82.06
316.001	85.06
316.23	79.06
316.46	72.06
316.689	70.06
316.919	86.06
317.148	100.06
317.377	100.06
317.607	85.06
317.836	74.06
318.065	78.06
318.295	69.06
318.524	77.06
318.753	83.06
318.983	92.06
319.212	87.06
319.441	75.06
319.67	94.06
319.9	103.06
320.129	71.06
320.358	77.06
320.587	76.06
320.816	87.06
321.046	79.06
321.275	86.06
321.504	88.06
321.733	80.06
321.962	78.06
322.191	75.06
322.42	82.06
322.649	89.06
322.878	79.06
323.108	96.06
323.337	86.06
323.566	99.06
323.795	78.06
324.024	78.06
324.253	82.06
324.482	75.06
324.71	88.06
324.939	92.06
325.168	86.06
325.397	78.06
325.626	72.06
325.855	83.06
326.084	78.06
326.313	84.06
326.542	76.06
326.77	77.06
326.999	74.06
327.228	77.06
327.457	91.06
327.686	64.06
327.914	90.06
328.143	83.06
328.372	72.06
328.6	82.06
328.829	87.06
329.058	78.06
329.287	74.06
329.515	75.06
329.744	83.06
329.972	73.06
330.201	85.06
330.43	68.06
330.658	80.06
330.887	87.06
331.115	73.06
331.344	77.06
331.572	94.06
331.801	76.06
332.03	78.06
332.258	81.06
332.486	69.06
332.715	88.06
332.943	81.06
333.172	65.06
333.4	82.06
333.629	83.06
333.857	91.06
334.085	73.06
334.314	70.06
334.542	75.06
334.771	85.06
334.999	89.06
335.227	87.06
335.455	96.06
335.684	85.06
335.912	86.06
336.14	68.06
336.369	82.06
336.597	78.06
336.825	80.06
337.053	84.06
337.281	88.06
337.51	83.06
337.738	74.06
337.966	97.06
338.194	88.06
338.422	87.06
338.65	76.06
338.878	88.06
339.106	81.06
339.334	94.06
339.562	80.06
339.79	69.06
340.018	92.06
340.246	88.06
340.474	77.06
340.702	77.06
340.93	90.06
341.158	86.06
341.386	83.06
341.614	69.06
341.842	85.06
342.07	76.06
342.298	87.06
342.526	84.06
342.754	75.06
342.981	86.06
343.209	71.06
343.437	97.06
343.665	84.06
343.893	87.06
344.12	84.06
344.348	74.06
344.576	83.06
344.804	94.06
345.031	88.06
345.259	99.06
345.487	83.06
345.714	77.06
345.942	85.06
346.17	92.06
346.397	85.06
346.625	88.06
346.853	79.06
347.08	87.06
347.308	72.06
347.535	86.06
347.763	86.06
347.99	82.06
348.218	85.06
348.445	92.06
348.673	82.06
348.9	85.06
349.128	85.06
349.355	90.06
349.583	81.06
349.81	64.06
350.037	81.06
350.265	87.06
350.492	93.06
350.72	85.06
350.947	77.06
351.174	87.06
351.402	76.06
351.629	71.06
351.856	81.06
352.083	88.06
352.311	79.06
352.538	77.06
352.765	74.06
352.992	94.06
353.22	84.06
353.447	90.06
353.674	93.06
353.901	92.06
354.128	84.06
354.355	92.06
354.583	79.06
354.81	82.06
355.037	66.06
355.264	91.06
355.491	88.06
355.718	87.06
355.945	88.06
356.172	63.06
356.399	73.06
356.626	82.06
356.853	90.06
357.08	85.06
357.307	92.06
357.534	85.06
357.761	89.06
357.988	92.06
358.215	89.06
358.441	76.06
358.668	87.06
358.895	81.06
359.122	85.06
359.349	71.06
359.576	68.06
359.802	92.06
360.029	78.06
360.256	83.06
360.483	86.06
360.709	84.06
360.936	91.06
361.163	79.06
361.39	76.06
361.616	71.06
361.843	61.06
362.07	84.06
362.296	80.06
362.523	70.06
362.749	75.06
362.976	90.06
363.203	109.06
363.429	98.06
363.656	80.06
363.882	87.06
364.109	90.06
364.335	89.06
364.562	91.06
364.788	84.06
365.015	90.06
365.241	91.06
365.468	74.06
365.694	85.06
365.92	90.06
366.147	88.06
366.373	90.06
366.599	86.06
366.826	77.06
367.052	81.06
367.278	82.06
367.505	86.06
367.731	87.06
367.957	79.06
368.184	70.06
368.41	76.06
368.636	87.06
368.862	74.06
369.089	70.06
369.315	83.06
369.541	99.06
369.767	83.06
369.993	72.06
370.219	88.06
370.445	84.06
370.672	90.06
370.898	91.06
371.124	92.06
371.35	84.06
371.576	86.06
371.802	61.06
372.028	62.06
372.254	79.06
372.48	90.06
372.706	75.06
372.932	80.06
373.158	83.06
373.384	86.06
373.61	74.06
373.835	79.06
374.061	87.06
374.287	88.06
374.513	77.06
374.739	70.06
374.965	80.06
375.191	61.06
375.416	77.06
375.642	71.06
375.868	78.06
376.094	66.06
376.319	80.06
376.545	70.06
376.771	68.06
376.997	82.06
377.222	74.06
377.448	87.06
377.674	85.06
377.899	78.06
378.125	89.06
378.35	86.06
378.576	86.06
378.802	86.06
379.027	95.06
379.253	87.06
379.478	71.06
379.704	85.06
379.929	86.06
380.155	74.06
380.38	68.06
380.606	77.06
380.831	87.06
381.057	90.06
381.282	79.06
381.507	88.06
381.733	87.06
381.958	79.06
382.184	77.06
382.409	81.06
382.634	90.06
382.86	85.06
383.085	84.06
383.31	91.06
383.535	94.06
383.761	72.06
383.986	82.06
384.211	82.06
384.436	83.06
384.662	88.06
384.887	69.06
385.112	69.06
385.337	79.06
385.562	73.06
385.787	96.06
386.013	84.06
386.238	83.06
386.463	73.06
386.688	86.06
386.913	83.06
387.138	77.06
387.363	83.06
387.588	87.06
387.813	74.06
388.038	86.06
388.263	83.06
388.488	77.06
388.713	84.06
388.938	96.06
389.163	85.06
389.387	85.06
389.612	79.06
389.837	78.06
390.062	78.06
390.287	78.06
390.512	78.06
390.736	86.06
390.961	83.06
391.186	87.06
391.411	86.06
391.636	77.06
391.86	82.06
392.085	89.06
392.31	87.06
392.534	75.06
392.759	89.06
392.984	99.06
393.208	126.06
393.433	126.06
393.658	103.06
393.882	70.06
394.107	82.06
394.331	79.06
394.556	78.06
394.78	80.06
395.005	85.06
395.229	70.06
395.454	102.06
395.678	98.06
395.903	93.06
396.127	104.06
396.352	91.06
396.576	94.06
396.801	109.06
397.025	132.06
397.249	103.06
397.474	103.06
397.698	107.06
397.922	82.06
398.147	74.06
398.371	87.06
398.595	88.06
398.82	88.06
399.044	76.06
399.268	72.06
399.492	69.06
399.717	70.06
399.941	83.06
400.165	94.06
400.389	76.06
400.613	99.06
400.837	87.06
401.062	79.06
401.286	80.06
401.51	88.06
401.734	67.06
401.958	75.06
402.182	80.06
402.406	84.06
402.63	68.06
402.854	72.06
403.078	72.06
403.302	84.06
403.526	78.06
403.75	87.06
403.974	82.06
404.198	87.06
404.422	121.06
404.645	120.06
404.869	92.06
405.093	85.06
405.317	81.06
405.541	86.06
405.765	77.06
405.988	73.06
406.212	78.06
406.436	75.06
406.66	88.06
406.883	80.06
407.107	85.06
407.331	90.06
407.555	79.06
407.778	78.06
408.002	69.06
408.226	75.06
408.449	87.06
408.673	82.06
408.896	78.06
409.12	72.06
409.344	75.06
409.567	80.06
409.791	84.06
410.014	82.06
410.238	89.06
410.461	76.06
410.685	89.06
410.908	92.06
411.132	87.06
411.355	79.06
411.578	79.06
411.802	80.06
412.025	87.06
412.249	84.06
412.472	91.06
412.695	96.06
412.919	75.06
413.142	77.06
413.365	84.06
413.589	73.06
413.812	80.06
414.035	85.06
414.258	86.06
414.482	86.06
414.705	65.06
414.928	82.06
415.151	90.06
415.374	81.06
415.597	92.06
415.821	79.06
416.044	78.06
416.267	82.06
416.49	89.06
416.713	73.06
416.936	75.06
417.159	79.06
417.382	86.06
417.605	82.06
417.828	91.06
418.051	82.06
418.274	85.06
418.497	82.06
418.72	87.06
418.943	83.06
419.166	73.06
419.389	68.06
419.611	85.06
419.834	86.06
420.057	79.06
420.28	87.06
420.503	83.06
420.726	80.06
420.948	78.06
421.171	76.06
421.394	80.06
421.617	83.06
421.839	82.06
422.062	102.06
422.285	101.06
422.507	144.06
422.73	162.06
422.953	146.06
423.175	114.06
423.398	93.06
423.621	100.06
423.843	80.06
424.066	76.06
424.288	87.06
424.511	82.06
424.733	86.06
424.956	76.06
425.178	97.06
425.401	102.06
425.623	86.06
425.846	71.06
426.068	86.06
426.291	90.06
426.513	83.06
426.735	77.06
426.958	75.06
427.18	76.06
427.402	94.06
427.625	87.06
427.847	87.06
428.069	84.06
428.292	76.06
428.514	88.06
428.736	85.06
428.958	94.06
429.181	90.06
429.403	87.06
429.625	88.06
429.847	96.06
430.069	89.06
430.292	111.06
430.514	114.06
430.736	93.06
430.958	94.06
431.18	76.06
431.402	84.06
431.624	74.06
431.846	89.06
432.068	105.06
432.29	98.06
432.512	93.06
432.734	85.06
432.956	84.06
433.178	80.06
433.4	85.06
433.622	84.06
433.844	88.06
434.066	82.06
434.287	78.06
434.509	60.06
434.731	81.06
434.953	90.06
435.175	91.06
435.397	79.06
435.618	70.06
435.84	76.06
436.062	71.06
436.284	80.06
436.505	92.06
436.727	78.06
436.949	88.06
437.17	77.06
437.392	64.06
437.614	77.06
437.835	84.06
438.057	86.06
438.278	78.06
438.5	73.06
438.721	75.06
438.943	68.06
439.165	71.06
439.386	76.06
439.608	89.06
439.829	72.06
440.05	94.06
440.272	75.06
440.493	67.06
440.715	64.06
440.936	75.06
441.158	84.06
441.379	77.06
441.6	85.06
441.822	76.06
442.043	75.06
442.264	95.06
442.486	107.06
442.707	104.06
442.928	103.06
443.149	70.06
443.371	91.06
443.592	127.06
443.813	111.06
444.034	89.06
444.255	78.06
444.476	90.06
444.698	80.06
444.919	74.06
445.14	146.06
445.361	143.06
445.582	140.06
445.803	115.06
446.024	88.06
446.245	82.06
446.466	87.06
446.687	72.06
446.908	75.06
447.129	86.06
447.35	94.06
447.571	85.06
447.792	101.06
448.013	99.06
448.234	93.06
448.455	91.06
448.675	77.06
448.896	71.06
449.117	86.06
449.338	84.06
449.559	79.06
449.779	84.06
450	77.06
450.221	85.06
450.442	82.06
450.662	86.06
450.883	79.06
451.104	93.06
451.324	77.06
451.545	75.06
451.766	83.06
451.986	84.06
452.207	84.06
452.428	80.06
452.648	82.06
452.869	69.06
453.089	78.06
453.31	97.06
453.53	79.06
453.751	81.06
453.971	90.06
454.192	74.06
454.412	78.06
454.633	80.06
454.853	99.06
455.073	82.06
455.294	79.06
455.514	78.06
455.734	79.06
455.955	70.06
456.175	65.06
456.395	78.06
456.616	72.06
456.836	85.06
457.056	89.06
457.276	93.06
457.497	87.06
457.717	87.06
457.937	88.06
458.157	89.06
458.377	93.06
458.598	84.06
458.818	86.06
459.038	99.06
459.258	90.06
459.478	85.06
459.698	68.06
459.918	92.06
460.138	83.06
460.358	84.06
460.578	90.06
460.798	91.06
461.018	89.06
461.238	79.06
461.458	74.06
461.678	78.06
461.898	78.06
462.118	77.06
462.338	73.06
462.558	79.06
462.777	90.06
462.997	87.06
463.217	81.06
463.437	93.06
463.657	77.06
463.876	78.06
464.096	79.06
464.316	87.06
464.536	81.06
464.755	86.06
464.975	83.06
465.195	89.06
465.414	82.06
465.634	82.06
465.854	94.06
466.073	106.06
466.293	86.06
466.512	79.06
466.732	68.06
466.951	78.06
467.171	85.06
467.391	71.06
467.61	97.06
467.829	84.06
468.049	70.06
468.268	82.06
468.488	86.06
468.707	74.06
468.927	73.06
469.146	76.06
469.365	80.06
469.585	70.06
469.804	71.06
470.023	72.06
470.243	74.06
470.462	78.06
470.681	88.06
470.901	87.06
471.12	84.06
471.339	87.06
471.558	73.06
471.777	86.06
471.997	87.06
472.216	83.06
472.435	88.06
472.654	92.06
472.873	74.06
473.092	70.06
473.311	80.06
473.53	84.06
473.749	78.06
473.968	86.06
474.187	89.06
474.406	87.06
474.625	83.06
474.844	74.06
475.063	75.06
475.282	82.06
475.501	87.06
475.72	86.06
475.939	76.06
476.158	84.06
476.377	87.06
476.596	89.06
476.814	68.06
477.033	82.06
477.252	83.06
477.471	77.06
477.69	89.06
477.908	84.06
478.127	88.06
478.346	95.06
478.564	74.06
478.783	86.06
479.002	78.06
479.22	84.06
479.439	74.06
479.658	84.06
479.876	84.06
480.095	75.06
480.313	84.06
480.532	86.06
480.751	86.06
480.969	72.06
481.188	75.06
481.406	79.06
481.624	80.06
481.843	88.06
482.061	81.06
482.28	86.06
482.498	79.06
482.717	71.06
482.935	72.06
483.153	72.06
483.372	85.06
483.59	81.06
483.808	100.06
484.027	91.06
484.245	86.06
484.463	75.06
484.681	72.06
484.9	76.06
485.118	100.06
485.336	88.06
485.554	84.06
485.772	79.06
485.99	87.06
486.209	91.06
486.427	85.06
486.645	84.06
486.863	73.06
487.081	77.06
487.299	101.06
487.517	93.06
487.735	96.06
487.953	92.06
488.171	106.06
488.389	86.06
488.607	80.06
488.825	75.06
489.043	86.06
489.261	82.06
489.479	71.06
489.696	87.06
489.914	70.06
490.132	84.06
490.35	92.06
490.568	86.06
490.786	79.06
491.003	98.06
491.221	78.06
491.439	80.06
491.657	72.06
491.874	88.06
492.092	75.06
492.31	87.06
492.527	74.06
492.745	89.06
492.963	78.06
493.18	87.06
493.398	71.06
493.615	107.06
493.833	80.06
494.05	75.06
494.268	68.06
494.485	80.06
494.703	79.06
494.92	84.06
495.138	82.06
495.355	77.06
495.573	78.06
495.79	91.06
496.008	80.06
496.225	88.06
496.442	80.06
496.66	82.06
496.877	95.06
497.094	78.06
497.312	83.06
497.529	93.06
497.746	80.06
497.963	69.06
498.181	83.06
498.398	80.06
498.615	92.06
498.832	91.06
499.049	84.06
499.267	64.06
499.484	74.06
499.701	93.06
499.918	80.06
500.135	83.06
500.352	83.06
500.569	87.06
500.786	91.06
501.003	75.06
501.22	79.06
501.437	77.06
501.654	86.06
501.871	93.06
502.088	83.06
502.305	93.06
502.522	94.06
502.739	71.06
502.956	92.06
503.172	84.06
503.389	78.06
503.606	82.06
503.823	80.06
504.04	74.06
504.256	93.06
504.473	82.06
504.69	76.06
504.907	76.06
505.123	75.06
505.34	79.06
505.557	86.06
505.773	78.06
505.99	80.06
506.207	79.06
506.423	84.06
506.64	83.06
506.856	93.06
507.073	84.06
507.289	94.06
507.506	87.06
507.722	84.06
507.939	85.06
508.155	98.06
508.372	81.06
508.588	74.06
508.805	84.06
509.021	74.06
509.238	99.06
509.454	95.06
509.67	80.06
509.887	85.06
510.103	79.06
510.319	92.06
510.536	89.06
510.752	91.06
510.968	95.06
511.184	85.06
511.401	73.06
511.617	71.06
511.833	89.06
512.049	84.06
512.265	90.06
512.481	80.06
512.698	93.06
512.914	86.06
513.13	86.06
513.346	73.06
513.562	76.06
513.778	89.06
513.994	86.06
514.21	85.06
514.426	86.06
514.642	84.06
514.858	74.06
515.074	86.06
515.29	79.06
515.506	96.06
515.721	86.06
515.937	87.06
516.153	82.06
516.369	75.06
516.585	83.06
516.801	73.06
517.016	91.06
517.232	93.06
517.448	86.06
517.664	87.06
517.879	77.06
518.095	77.06
518.311	85.06
518.527	75.06
518.742	85.06
518.958	82.06
519.173	99.06
519.389	72.06
519.605	78.06
